Data from NiCl2@0.0625M.TitratingCurve.Agarose3%dH2O.NegLispCup.LampEnergy10.LIBS07252019_HRD10591_18-34-32-577.txt Node
Date: Thu Jul 25 18:34:32 EDT 2019
User: cochatt
Spectrometer: HR+D1059
Trigger mode: 1
Integration Time (sec): 1.000000E-1
Scans to average: 1
Electric dark correction enabled: true
Nonlinearity correction enabled: false
Boxcar width: 0
XAxis mode: Wavelengths
Number of Pixels in Spectrum: 2048
>>>>>Begin Spectral Data<<<<<
223.165	-13.06
223.4	-13.06
223.635	-13.06
223.869	-17.06
224.104	-14.06
224.338	-3.06
224.573	-14.06
224.808	-24.06
225.042	-15.06
225.277	-9.06
225.511	-9.06
225.746	1.94
225.98	14.94
226.215	0.94
226.449	26.94
226.683	18.94
226.918	22.94
227.152	31.94
227.387	24.94
227.621	40.94
227.856	32.94
228.09	50.94
228.324	52.94
228.559	55.94
228.793	76.94
229.027	133.94
229.262	135.94
229.496	160.94
229.73	174.94
229.964	172.94
230.199	169.94
230.433	173.94
230.667	182.94
230.901	185.94
231.136	183.94
231.37	195.94
231.604	178.94
231.838	185.94
232.072	198.94
232.306	203.94
232.541	212.94
232.775	210.94
233.009	210.94
233.243	188.94
233.477	201.94
233.711	206.94
233.945	203.94
234.179	210.94
234.413	211.94
234.647	214.94
234.881	206.94
235.115	215.94
235.349	218.94
235.583	223.94
235.817	215.94
236.051	219.94
236.285	218.94
236.519	233.94
236.753	230.94
236.987	229.94
237.221	233.94
237.455	238.94
237.689	227.94
237.922	237.94
238.156	263.94
238.39	240.94
238.624	261.94
238.858	257.94
239.091	274.94
239.325	259.94
239.559	267.94
239.793	257.94
240.027	281.94
240.26	267.94
240.494	269.94
240.728	283.94
240.961	290.94
241.195	268.94
241.429	292.94
241.662	312.94
241.896	285.94
242.13	322.94
242.363	307.94
242.597	292.94
242.83	287.94
243.064	317.94
243.298	312.94
243.531	323.94
243.765	345.94
243.998	325.94
244.232	357.94
244.465	322.94
244.699	318.94
244.932	340.94
245.166	338.94
245.399	331.94
245.633	356.94
245.866	351.94
246.099	340.94
246.333	365.94
246.566	361.94
246.8	356.94
247.033	356.94
247.266	357.94
247.5	347.94
247.733	352.94
247.966	373.94
248.2	384.94
248.433	393.94
248.666	390.94
248.899	397.94
249.133	379.94
249.366	381.94
249.599	407.94
249.832	394.94
250.066	402.94
250.299	414.94
250.532	401.94
250.765	405.94
250.998	428.94
251.231	428.94
251.465	407.94
251.698	415.94
251.931	433.94
252.164	437.94
252.397	441.94
252.63	421.94
252.863	433.94
253.096	448.94
253.329	448.94
253.562	446.94
253.795	454.94
254.028	451.94
254.261	468.94
254.494	454.94
254.727	440.94
254.96	461.94
255.193	456.94
255.426	470.94
255.659	484.94
255.892	478.94
256.124	459.94
256.357	464.94
256.59	480.94
256.823	482.94
257.056	488.94
257.289	509.94
257.521	485.94
257.754	485.94
257.987	484.94
258.22	477.94
258.452	522.94
258.685	494.94
258.918	517.94
259.151	524.94
259.383	524.94
259.616	515.94
259.849	507.94
260.081	525.94
260.314	514.94
260.547	540.94
260.779	551.94
261.012	544.94
261.244	517.94
261.477	536.94
261.71	532.94
261.942	552.94
262.175	560.94
262.407	567.94
262.64	562.94
262.872	581.94
263.105	559.94
263.337	544.94
263.57	550.94
263.802	579.94
264.035	574.94
264.267	569.94
264.499	584.94
264.732	563.94
264.964	584.94
265.197	587.94
265.429	581.94
265.661	594.94
265.894	593.94
266.126	603.94
266.358	610.94
266.591	606.94
266.823	601.94
267.055	614.94
267.287	622.94
267.52	612.94
267.752	615.94
267.984	622.94
268.216	630.94
268.448	613.94
268.681	617.94
268.913	619.94
269.145	619.94
269.377	646.94
269.609	625.94
269.841	644.94
270.073	638.94
270.306	661.94
270.538	638.94
270.77	637.94
271.002	638.94
271.234	666.94
271.466	666.94
271.698	643.94
271.93	652.94
272.162	670.94
272.394	671.94
272.626	685.94
272.858	673.94
273.09	659.94
273.322	682.94
273.553	683.94
273.785	675.94
274.017	705.94
274.249	688.94
274.481	696.94
274.713	669.94
274.945	684.94
275.176	705.94
275.408	726.94
275.64	703.94
275.872	702.94
276.104	724.94
276.335	741.94
276.567	727.94
276.799	728.94
277.031	708.94
277.262	740.94
277.494	736.94
277.726	738.94
277.957	739.94
278.189	744.94
278.421	763.94
278.652	758.94
278.884	789.94
279.115	794.94
279.347	801.94
279.579	742.94
279.81	797.94
280.042	768.94
280.273	776.94
280.505	809.94
280.736	798.94
280.968	772.94
281.199	791.94
281.431	810.94
281.662	830.94
281.894	819.94
282.125	836.94
282.356	835.94
282.588	819.94
282.819	810.94
283.051	822.94
283.282	808.94
283.513	809.94
283.745	818.94
283.976	822.94
284.207	819.94
284.439	832.94
284.67	856.94
284.901	853.94
285.132	852.94
285.364	843.94
285.595	850.94
285.826	839.94
286.057	866.94
286.288	872.94
286.52	860.94
286.751	876.94
286.982	862.94
287.213	847.94
287.444	854.94
287.675	882.94
287.906	902.94
288.138	886.94
288.369	896.94
288.6	911.94
288.831	922.94
289.062	884.94
289.293	886.94
289.524	911.94
289.755	902.94
289.986	881.94
290.217	892.94
290.448	917.94
290.679	896.94
290.91	905.94
291.141	922.94
291.371	894.94
291.602	895.94
291.833	902.94
292.064	874.94
292.295	916.94
292.526	904.94
292.757	929.94
292.987	900.94
293.218	901.94
293.449	925.94
293.68	931.94
293.91	902.94
294.141	918.94
294.372	904.94
294.603	923.94
294.833	939.94
295.064	918.94
295.295	922.94
295.525	918.94
295.756	922.94
295.987	935.94
296.217	952.94
296.448	949.94
296.679	943.94
296.909	955.94
297.14	954.94
297.37	961.94
297.601	966.94
297.831	967.94
298.062	967.94
298.292	974.94
298.523	988.94
298.753	1009.94
298.984	969.94
299.214	1008.94
299.445	1000.94
299.675	980.94
299.905	995.94
300.136	1012.94
300.366	1008.94
300.597	984.94
300.827	1038.94
301.057	1004.94
301.288	1038.94
301.518	1011.94
301.748	1051.94
301.979	1042.94
302.209	1043.94
302.439	1050.94
302.669	1044.94
302.9	1026.94
303.13	1046.94
303.36	1030.94
303.59	1037.94
303.82	1045.94
304.051	1042.94
304.281	1084.94
304.511	1047.94
304.741	1046.94
304.971	1004.94
305.201	1029.94
305.431	1032.94
305.661	1010.94
305.891	1029.94
306.121	1028.94
306.352	1036.94
306.582	1014.94
306.812	1029.94
307.042	1043.94
307.272	1029.94
307.502	993.94
307.731	1016.94
307.961	1034.94
308.191	1033.94
308.421	1045.94
308.651	1055.94
308.881	984.94
309.111	1048.94
309.341	1013.94
309.571	1025.94
309.8	1044.94
310.03	1016.94
310.26	1039.94
310.49	1034.94
310.72	1030.94
310.949	1050.94
311.179	1049.94
311.409	1050.94
311.639	1049.94
311.868	1056.94
312.098	1080.94
312.328	1081.94
312.557	1092.94
312.787	1072.94
313.017	1084.94
313.246	1108.94
313.476	1097.94
313.706	1084.94
313.935	1075.94
314.165	1094.94
314.394	1138.94
314.624	1125.94
314.853	1108.94
315.083	1124.94
315.312	1144.94
315.542	1128.94
315.771	1072.94
316.001	1127.94
316.23	1110.94
316.46	1092.94
316.689	1118.94
316.919	1128.94
317.148	1097.94
317.377	1119.94
317.607	1085.94
317.836	1086.94
318.065	1087.94
318.295	1114.94
318.524	1101.94
318.753	1114.94
318.983	1134.94
319.212	1100.94
319.441	1113.94
319.67	1117.94
319.9	1101.94
320.129	1119.94
320.358	1083.94
320.587	1089.94
320.816	1080.94
321.046	1103.94
321.275	1119.94
321.504	1073.94
321.733	1101.94
321.962	1118.94
322.191	1104.94
322.42	1088.94
322.649	1145.94
322.878	1125.94
323.108	1126.94
323.337	1141.94
323.566	1114.94
323.795	1148.94
324.024	1164.94
324.253	1126.94
324.482	1123.94
324.71	1162.94
324.939	1171.94
325.168	1162.94
325.397	1147.94
325.626	1178.94
325.855	1185.94
326.084	1219.94
326.313	1208.94
326.542	1193.94
326.77	1233.94
326.999	1188.94
327.228	1174.94
327.457	1183.94
327.686	1186.94
327.914	1164.94
328.143	1173.94
328.372	1204.94
328.6	1214.94
328.829	1197.94
329.058	1233.94
329.287	1217.94
329.515	1213.94
329.744	1234.94
329.972	1224.94
330.201	1227.94
330.43	1231.94
330.658	1241.94
330.887	1230.94
331.115	1227.94
331.344	1265.94
331.572	1269.94
331.801	1309.94
332.03	1310.94
332.258	1321.94
332.486	1358.94
332.715	1400.94
332.943	1415.94
333.172	1479.94
333.4	1473.94
333.629	1498.94
333.857	1522.94
334.085	1544.94
334.314	1522.94
334.542	1524.94
334.771	1521.94
334.999	1463.94
335.227	1489.94
335.455	1449.94
335.684	1437.94
335.912	1467.94
336.14	1449.94
336.369	1432.94
336.597	1457.94
336.825	1428.94
337.053	1449.94
337.281	1410.94
337.51	1357.94
337.738	1368.94
337.966	1363.94
338.194	1361.94
338.422	1334.94
338.65	1300.94
338.878	1336.94
339.106	1363.94
339.334	1300.94
339.562	1293.94
339.79	1286.94
340.018	1274.94
340.246	1261.94
340.474	1251.94
340.702	1257.94
340.93	1273.94
341.158	1253.94
341.386	1251.94
341.614	1289.94
341.842	1287.94
342.07	1242.94
342.298	1223.94
342.526	1256.94
342.754	1239.94
342.981	1271.94
343.209	1313.94
343.437	1343.94
343.665	1427.94
343.893	1456.94
344.12	1478.94
344.348	1445.94
344.576	1444.94
344.804	1367.94
345.031	1313.94
345.259	1294.94
345.487	1295.94
345.714	1228.94
345.942	1261.94
346.17	1298.94
346.397	1249.94
346.625	1222.94
346.853	1212.94
347.08	1201.94
347.308	1202.94
347.535	1229.94
347.763	1245.94
347.99	1193.94
348.218	1221.94
348.445	1211.94
348.673	1195.94
348.9	1222.94
349.128	1226.94
349.355	1189.94
349.583	1208.94
349.81	1192.94
350.037	1190.94
350.265	1180.94
350.492	1191.94
350.72	1167.94
350.947	1156.94
351.174	1184.94
351.402	1190.94
351.629	1165.94
351.856	1147.94
352.083	1178.94
352.311	1198.94
352.538	1156.94
352.765	1180.94
352.992	1129.94
353.22	1140.94
353.447	1145.94
353.674	1176.94
353.901	1160.94
354.128	1163.94
354.355	1181.94
354.583	1167.94
354.81	1160.94
355.037	1163.94
355.264	1170.94
355.491	1149.94
355.718	1183.94
355.945	1191.94
356.172	1162.94
356.399	1179.94
356.626	1183.94
356.853	1181.94
357.08	1156.94
357.307	1166.94
357.534	1180.94
357.761	1174.94
357.988	1197.94
358.215	1186.94
358.441	1156.94
358.668	1147.94
358.895	1176.94
359.122	1167.94
359.349	1161.94
359.576	1148.94
359.802	1178.94
360.029	1174.94
360.256	1160.94
360.483	1183.94
360.709	1187.94
360.936	1164.94
361.163	1155.94
361.39	1146.94
361.616	1181.94
361.843	1204.94
362.07	1186.94
362.296	1196.94
362.523	1139.94
362.749	1187.94
362.976	1169.94
363.203	1188.94
363.429	1152.94
363.656	1170.94
363.882	1191.94
364.109	1193.94
364.335	1168.94
364.562	1175.94
364.788	1173.94
365.015	1162.94
365.241	1201.94
365.468	1183.94
365.694	1165.94
365.92	1151.94
366.147	1173.94
366.373	1152.94
366.599	1181.94
366.826	1170.94
367.052	1160.94
367.278	1206.94
367.505	1178.94
367.731	1188.94
367.957	1173.94
368.184	1184.94
368.41	1206.94
368.636	1198.94
368.862	1221.94
369.089	1227.94
369.315	1207.94
369.541	1211.94
369.767	1226.94
369.993	1200.94
370.219	1241.94
370.445	1258.94
370.672	1231.94
370.898	1261.94
371.124	1246.94
371.35	1260.94
371.576	1240.94
371.802	1269.94
372.028	1290.94
372.254	1272.94
372.48	1305.94
372.706	1324.94
372.932	1316.94
373.158	1348.94
373.384	1273.94
373.61	1305.94
373.835	1276.94
374.061	1303.94
374.287	1299.94
374.513	1302.94
374.739	1357.94
374.965	1398.94
375.191	1372.94
375.416	1400.94
375.642	1347.94
375.868	1338.94
376.094	1301.94
376.319	1284.94
376.545	1316.94
376.771	1266.94
376.997	1278.94
377.222	1269.94
377.448	1280.94
377.674	1284.94
377.899	1236.94
378.125	1269.94
378.35	1252.94
378.576	1238.94
378.802	1262.94
379.027	1249.94
379.253	1269.94
379.478	1220.94
379.704	1250.94
379.929	1238.94
380.155	1245.94
380.38	1277.94
380.606	1260.94
380.831	1252.94
381.057	1261.94
381.282	1290.94
381.507	1284.94
381.733	1298.94
381.958	1243.94
382.184	1328.94
382.409	1331.94
382.634	1318.94
382.86	1311.94
383.085	1324.94
383.31	1361.94
383.535	1382.94
383.761	1371.94
383.986	1397.94
384.211	1406.94
384.436	1411.94
384.662	1418.94
384.887	1453.94
385.112	1467.94
385.337	1481.94
385.562	1507.94
385.787	1496.94
386.013	1521.94
386.238	1526.94
386.463	1492.94
386.688	1513.94
386.913	1493.94
387.138	1489.94
387.363	1502.94
387.588	1498.94
387.813	1459.94
388.038	1505.94
388.263	1481.94
388.488	1494.94
388.713	1525.94
388.938	1510.94
389.163	1473.94
389.387	1489.94
389.612	1444.94
389.837	1501.94
390.062	1441.94
390.287	1479.94
390.512	1473.94
390.736	1526.94
390.961	1503.94
391.186	1506.94
391.411	1573.94
391.636	1616.94
391.86	1634.94
392.085	1648.94
392.31	1668.94
392.534	1639.94
392.759	1622.94
392.984	1634.94
393.208	1561.94
393.433	1629.94
393.658	1576.94
393.882	1602.94
394.107	1558.94
394.331	1575.94
394.556	1612.94
394.78	1607.94
395.005	1661.94
395.229	1624.94
395.454	1621.94
395.678	1658.94
395.903	1672.94
396.127	1657.94
396.352	1616.94
396.576	1605.94
396.801	1636.94
397.025	1638.94
397.249	1659.94
397.474	1746.94
397.698	1700.94
397.922	1709.94
398.147	1720.94
398.371	1740.94
398.595	1809.94
398.82	1888.94
399.044	1984.94
399.268	2140.94
399.492	2363.94
399.717	2544.94
399.941	2580.94
400.165	2398.94
400.389	2215.94
400.613	2120.94
400.837	2000.94
401.062	1943.94
401.286	1867.94
401.51	1888.94
401.734	1881.94
401.958	1893.94
402.182	1866.94
402.406	1920.94
402.63	1930.94
402.854	1925.94
403.078	1889.94
403.302	2003.94
403.526	1976.94
403.75	2008.94
403.974	2038.94
404.198	2007.94
404.422	2034.94
404.645	2057.94
404.869	2007.94
405.093	2015.94
405.317	2016.94
405.541	2002.94
405.765	2005.94
405.988	1975.94
406.212	2026.94
406.436	2037.94
406.66	2097.94
406.883	2082.94
407.107	2197.94
407.331	2301.94
407.555	2365.94
407.778	2352.94
408.002	2284.94
408.226	2248.94
408.449	2229.94
408.673	2147.94
408.896	2088.94
409.12	2082.94
409.344	2133.94
409.567	2089.94
409.791	2083.94
410.014	2090.94
410.238	2028.94
410.461	2060.94
410.685	2043.94
410.908	1962.94
411.132	1987.94
411.355	1911.94
411.578	1956.94
411.802	1970.94
412.025	1931.94
412.249	1964.94
412.472	1987.94
412.695	1921.94
412.919	1914.94
413.142	1916.94
413.365	1864.94
413.589	1870.94
413.812	1905.94
414.035	1894.94
414.258	1868.94
414.482	1864.94
414.705	1860.94
414.928	1902.94
415.151	1869.94
415.374	1870.94
415.597	1842.94
415.821	1808.94
416.044	1844.94
416.267	1773.94
416.49	1771.94
416.713	1771.94
416.936	1782.94
417.159	1765.94
417.382	1796.94
417.605	1779.94
417.828	1793.94
418.051	1788.94
418.274	1784.94
418.497	1796.94
418.72	1836.94
418.943	1810.94
419.166	1966.94
419.389	2071.94
419.611	1995.94
419.834	1964.94
420.057	1909.94
420.28	1832.94
420.503	1815.94
420.726	1810.94
420.948	1744.94
421.171	1786.94
421.394	1783.94
421.617	1797.94
421.839	1813.94
422.062	1835.94
422.285	1772.94
422.507	1856.94
422.73	1826.94
422.953	1841.94
423.175	1815.94
423.398	1829.94
423.621	1787.94
423.843	1849.94
424.066	1859.94
424.288	1867.94
424.511	1809.94
424.733	1845.94
424.956	1796.94
425.178	1797.94
425.401	1801.94
425.623	1825.94
425.846	1747.94
426.068	1736.94
426.291	1716.94
426.513	1734.94
426.735	1733.94
426.958	1710.94
427.18	1698.94
427.402	1684.94
427.625	1696.94
427.847	1632.94
428.069	1650.94
428.292	1642.94
428.514	1646.94
428.736	1661.94
428.958	1658.94
429.181	1603.94
429.403	1590.94
429.625	1584.94
429.847	1589.94
430.069	1562.94
430.292	1625.94
430.514	1622.94
430.736	1582.94
430.958	1659.94
431.18	1620.94
431.402	1640.94
431.624	1620.94
431.846	1658.94
432.068	1653.94
432.29	1675.94
432.512	1672.94
432.734	1664.94
432.956	1666.94
433.178	1688.94
433.4	1672.94
433.622	1674.94
433.844	1693.94
434.066	1718.94
434.287	1722.94
434.509	1758.94
434.731	1780.94
434.953	1804.94
435.175	1880.94
435.397	1851.94
435.618	1758.94
435.84	1682.94
436.062	1661.94
436.284	1674.94
436.505	1652.94
436.727	1634.94
436.949	1696.94
437.17	1650.94
437.392	1589.94
437.614	1602.94
437.835	1575.94
438.057	1573.94
438.278	1578.94
438.5	1569.94
438.721	1545.94
438.943	1541.94
439.165	1571.94
439.386	1566.94
439.608	1600.94
439.829	1584.94
440.05	1565.94
440.272	1634.94
440.493	1645.94
440.715	1613.94
440.936	1661.94
441.158	1673.94
441.379	1701.94
441.6	1775.94
441.822	1804.94
442.043	1803.94
442.264	1793.94
442.486	1703.94
442.707	1747.94
442.928	1753.94
443.149	1725.94
443.371	1743.94
443.592	1739.94
443.813	1720.94
444.034	1772.94
444.255	1816.94
444.476	1883.94
444.698	1948.94
444.919	1974.94
445.14	2082.94
445.361	1907.94
445.582	1781.94
445.803	1746.94
446.024	1723.94
446.245	1696.94
446.466	1680.94
446.687	1613.94
446.908	1650.94
447.129	1578.94
447.35	1539.94
447.571	1551.94
447.792	1525.94
448.013	1510.94
448.234	1489.94
448.455	1504.94
448.675	1468.94
448.896	1463.94
449.117	1473.94
449.338	1451.94
449.559	1467.94
449.779	1428.94
450	1437.94
450.221	1442.94
450.442	1474.94
450.662	1470.94
450.883	1448.94
451.104	1481.94
451.324	1436.94
451.545	1430.94
451.766	1462.94
451.986	1460.94
452.207	1442.94
452.428	1426.94
452.648	1417.94
452.869	1426.94
453.089	1401.94
453.31	1408.94
453.53	1393.94
453.751	1419.94
453.971	1393.94
454.192	1408.94
454.412	1380.94
454.633	1366.94
454.853	1352.94
455.073	1369.94
455.294	1390.94
455.514	1364.94
455.734	1334.94
455.955	1374.94
456.175	1365.94
456.395	1338.94
456.616	1362.94
456.836	1363.94
457.056	1389.94
457.276	1350.94
457.497	1365.94
457.717	1376.94
457.937	1404.94
458.157	1404.94
458.377	1440.94
458.598	1472.94
458.818	1497.94
459.038	1514.94
459.258	1570.94
459.478	1587.94
459.698	1651.94
459.918	1688.94
460.138	1686.94
460.358	1791.94
460.578	1800.94
460.798	1840.94
461.018	1840.94
461.238	1825.94
461.458	1806.94
461.678	1790.94
461.898	1877.94
462.118	1902.94
462.338	1957.94
462.558	1978.94
462.777	2055.94
462.997	2162.94
463.217	2296.94
463.437	2326.94
463.657	2221.94
463.876	2166.94
464.096	2133.94
464.316	2066.94
464.536	2074.94
464.755	2045.94
464.975	1956.94
465.195	1900.94
465.414	1829.94
465.634	1724.94
465.854	1688.94
466.073	1644.94
466.293	1606.94
466.512	1579.94
466.732	1548.94
466.951	1550.94
467.171	1561.94
467.391	1529.94
467.61	1548.94
467.829	1492.94
468.049	1509.94
468.268	1453.94
468.488	1484.94
468.707	1456.94
468.927	1505.94
469.146	1472.94
469.365	1475.94
469.585	1510.94
469.804	1515.94
470.023	1565.94
470.243	1547.94
470.462	1586.94
470.681	1545.94
470.901	1574.94
471.12	1558.94
471.339	1523.94
471.558	1533.94
471.777	1517.94
471.997	1482.94
472.216	1496.94
472.435	1482.94
472.654	1447.94
472.873	1444.94
473.092	1467.94
473.311	1461.94
473.53	1464.94
473.749	1477.94
473.968	1466.94
474.187	1453.94
474.406	1451.94
474.625	1449.94
474.844	1452.94
475.063	1474.94
475.282	1466.94
475.501	1513.94
475.72	1478.94
475.939	1483.94
476.158	1521.94
476.377	1528.94
476.596	1538.94
476.814	1580.94
477.033	1578.94
477.252	1613.94
477.471	1652.94
477.69	1652.94
477.908	1681.94
478.127	1719.94
478.346	1718.94
478.564	1762.94
478.783	1787.94
479.002	1812.94
479.22	1842.94
479.439	1853.94
479.658	1848.94
479.876	1842.94
480.095	1891.94
480.313	1889.94
480.532	1974.94
480.751	1966.94
480.969	1902.94
481.188	1913.94
481.406	1805.94
481.624	1858.94
481.843	1812.94
482.061	1796.94
482.28	1771.94
482.498	1796.94
482.717	1758.94
482.935	1770.94
483.153	1823.94
483.372	1796.94
483.59	1832.94
483.808	1873.94
484.027	1817.94
484.245	1878.94
484.463	1900.94
484.681	1942.94
484.9	1926.94
485.118	1968.94
485.336	1962.94
485.554	1958.94
485.772	1992.94
485.99	2002.94
486.209	2005.94
486.427	1973.94
486.645	2015.94
486.863	1980.94
487.081	1965.94
487.299	1936.94
487.517	1923.94
487.735	1954.94
487.953	1912.94
488.171	1937.94
488.389	1855.94
488.607	1876.94
488.825	1907.94
489.043	1878.94
489.261	1860.94
489.479	1893.94
489.696	1861.94
489.914	1878.94
