Data from NiCl2@0.25M.TitratingCurve.Agarose3%dH2O.NegLispCup.LampEnergy10.LIBS07252019_HRD10591_18-24-45-573.txt Node
Date: Thu Jul 25 18:24:45 EDT 2019
User: cochatt
Spectrometer: HR+D1059
Trigger mode: 1
Integration Time (sec): 1.000000E-1
Scans to average: 1
Electric dark correction enabled: true
Nonlinearity correction enabled: false
Boxcar width: 0
XAxis mode: Wavelengths
Number of Pixels in Spectrum: 2048
>>>>>Begin Spectral Data<<<<<
223.165	-14.06
223.4	-14.06
223.635	-14.06
223.869	-21.06
224.104	-21.06
224.338	-15.06
224.573	-10.06
224.808	-13.06
225.042	-12.06
225.277	-0.06
225.511	0.94
225.746	16.94
225.98	9.94
226.215	14.94
226.449	13.94
226.683	20.94
226.918	15.94
227.152	12.94
227.387	32.94
227.621	38.94
227.856	32.94
228.09	40.94
228.324	54.94
228.559	54.94
228.793	65.94
229.027	113.94
229.262	120.94
229.496	111.94
229.73	124.94
229.964	147.94
230.199	143.94
230.433	150.94
230.667	150.94
230.901	150.94
231.136	138.94
231.37	153.94
231.604	149.94
231.838	156.94
232.072	154.94
232.306	167.94
232.541	147.94
232.775	170.94
233.009	166.94
233.243	167.94
233.477	169.94
233.711	171.94
233.945	159.94
234.179	168.94
234.413	171.94
234.647	178.94
234.881	155.94
235.115	168.94
235.349	166.94
235.583	175.94
235.817	161.94
236.051	157.94
236.285	172.94
236.519	174.94
236.753	185.94
236.987	197.94
237.221	170.94
237.455	193.94
237.689	178.94
237.922	190.94
238.156	207.94
238.39	177.94
238.624	197.94
238.858	186.94
239.091	181.94
239.325	189.94
239.559	202.94
239.793	192.94
240.027	180.94
240.26	200.94
240.494	209.94
240.728	199.94
240.961	206.94
241.195	213.94
241.429	205.94
241.662	211.94
241.896	196.94
242.13	207.94
242.363	232.94
242.597	228.94
242.83	251.94
243.064	205.94
243.298	223.94
243.531	249.94
243.765	241.94
243.998	243.94
244.232	234.94
244.465	232.94
244.699	232.94
244.932	237.94
245.166	240.94
245.399	265.94
245.633	241.94
245.866	260.94
246.099	245.94
246.333	250.94
246.566	244.94
246.8	255.94
247.033	248.94
247.266	268.94
247.5	273.94
247.733	254.94
247.966	289.94
248.2	262.94
248.433	273.94
248.666	263.94
248.899	265.94
249.133	268.94
249.366	279.94
249.599	292.94
249.832	311.94
250.066	291.94
250.299	272.94
250.532	305.94
250.765	293.94
250.998	308.94
251.231	303.94
251.465	295.94
251.698	317.94
251.931	302.94
252.164	310.94
252.397	291.94
252.63	297.94
252.863	308.94
253.096	303.94
253.329	330.94
253.562	303.94
253.795	319.94
254.028	327.94
254.261	323.94
254.494	333.94
254.727	320.94
254.96	337.94
255.193	323.94
255.426	336.94
255.659	319.94
255.892	315.94
256.124	324.94
256.357	343.94
256.59	331.94
256.823	335.94
257.056	345.94
257.289	342.94
257.521	348.94
257.754	354.94
257.987	346.94
258.22	363.94
258.452	332.94
258.685	354.94
258.918	367.94
259.151	349.94
259.383	369.94
259.616	362.94
259.849	371.94
260.081	362.94
260.314	351.94
260.547	379.94
260.779	389.94
261.012	397.94
261.244	377.94
261.477	377.94
261.71	369.94
261.942	372.94
262.175	377.94
262.407	379.94
262.64	401.94
262.872	377.94
263.105	411.94
263.337	387.94
263.57	390.94
263.802	384.94
264.035	379.94
264.267	400.94
264.499	413.94
264.732	423.94
264.964	417.94
265.197	410.94
265.429	399.94
265.661	392.94
265.894	421.94
266.126	418.94
266.358	431.94
266.591	431.94
266.823	416.94
267.055	422.94
267.287	436.94
267.52	418.94
267.752	447.94
267.984	427.94
268.216	448.94
268.448	429.94
268.681	441.94
268.913	455.94
269.145	437.94
269.377	430.94
269.609	446.94
269.841	433.94
270.073	434.94
270.306	424.94
270.538	437.94
270.77	415.94
271.002	453.94
271.234	459.94
271.466	442.94
271.698	457.94
271.93	478.94
272.162	453.94
272.394	469.94
272.626	459.94
272.858	447.94
273.09	458.94
273.322	480.94
273.553	470.94
273.785	481.94
274.017	469.94
274.249	483.94
274.481	483.94
274.713	489.94
274.945	497.94
275.176	484.94
275.408	481.94
275.64	483.94
275.872	494.94
276.104	511.94
276.335	483.94
276.567	499.94
276.799	483.94
277.031	507.94
277.262	505.94
277.494	522.94
277.726	500.94
277.957	519.94
278.189	526.94
278.421	505.94
278.652	516.94
278.884	533.94
279.115	512.94
279.347	503.94
279.579	547.94
279.81	534.94
280.042	513.94
280.273	528.94
280.505	528.94
280.736	530.94
280.968	531.94
281.199	549.94
281.431	536.94
281.662	550.94
281.894	541.94
282.125	561.94
282.356	565.94
282.588	587.94
282.819	574.94
283.051	584.94
283.282	545.94
283.513	577.94
283.745	581.94
283.976	567.94
284.207	576.94
284.439	585.94
284.67	567.94
284.901	586.94
285.132	594.94
285.364	593.94
285.595	557.94
285.826	594.94
286.057	605.94
286.288	571.94
286.52	628.94
286.751	595.94
286.982	593.94
287.213	596.94
287.444	596.94
287.675	607.94
287.906	578.94
288.138	593.94
288.369	614.94
288.6	611.94
288.831	615.94
289.062	599.94
289.293	623.94
289.524	629.94
289.755	642.94
289.986	631.94
290.217	628.94
290.448	616.94
290.679	648.94
290.91	626.94
291.141	640.94
291.371	637.94
291.602	632.94
291.833	632.94
292.064	633.94
292.295	656.94
292.526	630.94
292.757	611.94
292.987	627.94
293.218	628.94
293.449	628.94
293.68	642.94
293.91	631.94
294.141	652.94
294.372	631.94
294.603	630.94
294.833	631.94
295.064	637.94
295.295	659.94
295.525	642.94
295.756	657.94
295.987	625.94
296.217	659.94
296.448	653.94
296.679	656.94
296.909	654.94
297.14	675.94
297.37	679.94
297.601	685.94
297.831	658.94
298.062	680.94
298.292	663.94
298.523	695.94
298.753	705.94
298.984	712.94
299.214	681.94
299.445	686.94
299.675	666.94
299.905	699.94
300.136	690.94
300.366	715.94
300.597	707.94
300.827	690.94
301.057	714.94
301.288	733.94
301.518	710.94
301.748	709.94
301.979	731.94
302.209	754.94
302.439	737.94
302.669	721.94
302.9	736.94
303.13	736.94
303.36	704.94
303.59	693.94
303.82	706.94
304.051	727.94
304.281	718.94
304.511	722.94
304.741	741.94
304.971	727.94
305.201	709.94
305.431	701.94
305.661	714.94
305.891	695.94
306.121	717.94
306.352	710.94
306.582	695.94
306.812	710.94
307.042	710.94
307.272	710.94
307.502	709.94
307.731	714.94
307.961	710.94
308.191	702.94
308.421	697.94
308.651	690.94
308.881	692.94
309.111	705.94
309.341	687.94
309.571	708.94
309.8	702.94
310.03	702.94
310.26	726.94
310.49	715.94
310.72	711.94
310.949	729.94
311.179	703.94
311.409	722.94
311.639	726.94
311.868	712.94
312.098	730.94
312.328	728.94
312.557	746.94
312.787	722.94
313.017	713.94
313.246	748.94
313.476	707.94
313.706	761.94
313.935	754.94
314.165	750.94
314.394	765.94
314.624	745.94
314.853	752.94
315.083	771.94
315.312	758.94
315.542	736.94
315.771	731.94
316.001	750.94
316.23	731.94
316.46	755.94
316.689	753.94
316.919	740.94
317.148	768.94
317.377	759.94
317.607	743.94
317.836	743.94
318.065	738.94
318.295	758.94
318.524	754.94
318.753	739.94
318.983	742.94
319.212	727.94
319.441	740.94
319.67	738.94
319.9	750.94
320.129	734.94
320.358	717.94
320.587	758.94
320.816	715.94
321.046	747.94
321.275	754.94
321.504	764.94
321.733	743.94
321.962	739.94
322.191	774.94
322.42	738.94
322.649	751.94
322.878	751.94
323.108	751.94
323.337	777.94
323.566	781.94
323.795	788.94
324.024	778.94
324.253	788.94
324.482	756.94
324.71	766.94
324.939	765.94
325.168	773.94
325.397	784.94
325.626	816.94
325.855	816.94
326.084	822.94
326.313	835.94
326.542	810.94
326.77	843.94
326.999	817.94
327.228	788.94
327.457	817.94
327.686	827.94
327.914	858.94
328.143	826.94
328.372	805.94
328.6	807.94
328.829	826.94
329.058	804.94
329.287	827.94
329.515	816.94
329.744	850.94
329.972	835.94
330.201	847.94
330.43	846.94
330.658	816.94
330.887	838.94
331.115	832.94
331.344	881.94
331.572	866.94
331.801	888.94
332.03	893.94
332.258	934.94
332.486	941.94
332.715	971.94
332.943	1036.94
333.172	1053.94
333.4	1091.94
333.629	1136.94
333.857	1139.94
334.085	1127.94
334.314	1103.94
334.542	1066.94
334.771	1067.94
334.999	1074.94
335.227	1034.94
335.455	1040.94
335.684	1017.94
335.912	1036.94
336.14	989.94
336.369	980.94
336.597	1003.94
336.825	994.94
337.053	993.94
337.281	952.94
337.51	970.94
337.738	948.94
337.966	926.94
338.194	907.94
338.422	904.94
338.65	888.94
338.878	895.94
339.106	885.94
339.334	912.94
339.562	914.94
339.79	869.94
340.018	859.94
340.246	841.94
340.474	859.94
340.702	852.94
340.93	857.94
341.158	882.94
341.386	855.94
341.614	865.94
341.842	864.94
342.07	858.94
342.298	855.94
342.526	853.94
342.754	853.94
342.981	850.94
343.209	880.94
343.437	915.94
343.665	977.94
343.893	992.94
344.12	1077.94
344.348	1037.94
344.576	997.94
344.804	944.94
345.031	907.94
345.259	879.94
345.487	864.94
345.714	852.94
345.942	847.94
346.17	847.94
346.397	862.94
346.625	859.94
346.853	834.94
347.08	810.94
347.308	816.94
347.535	820.94
347.763	823.94
347.99	802.94
348.218	829.94
348.445	825.94
348.673	807.94
348.9	817.94
349.128	817.94
349.355	827.94
349.583	804.94
349.81	805.94
350.037	801.94
350.265	791.94
350.492	829.94
350.72	813.94
350.947	787.94
351.174	797.94
351.402	811.94
351.629	814.94
351.856	802.94
352.083	796.94
352.311	777.94
352.538	802.94
352.765	811.94
352.992	779.94
353.22	794.94
353.447	798.94
353.674	741.94
353.901	781.94
354.128	790.94
354.355	790.94
354.583	805.94
354.81	786.94
355.037	791.94
355.264	791.94
355.491	797.94
355.718	808.94
355.945	790.94
356.172	807.94
356.399	786.94
356.626	795.94
356.853	824.94
357.08	805.94
357.307	779.94
357.534	799.94
357.761	801.94
357.988	809.94
358.215	798.94
358.441	793.94
358.668	800.94
358.895	797.94
359.122	807.94
359.349	817.94
359.576	787.94
359.802	795.94
360.029	778.94
360.256	789.94
360.483	809.94
360.709	831.94
360.936	793.94
361.163	791.94
361.39	796.94
361.616	807.94
361.843	802.94
362.07	793.94
362.296	807.94
362.523	817.94
362.749	804.94
362.976	785.94
363.203	786.94
363.429	784.94
363.656	803.94
363.882	795.94
364.109	801.94
364.335	816.94
364.562	809.94
364.788	796.94
365.015	800.94
365.241	800.94
365.468	794.94
365.694	763.94
365.92	755.94
366.147	796.94
366.373	813.94
366.599	816.94
366.826	771.94
367.052	773.94
367.278	777.94
367.505	812.94
367.731	821.94
367.957	793.94
368.184	798.94
368.41	809.94
368.636	782.94
368.862	821.94
369.089	802.94
369.315	811.94
369.541	825.94
369.767	817.94
369.993	810.94
370.219	832.94
370.445	839.94
370.672	839.94
370.898	832.94
371.124	842.94
371.35	881.94
371.576	894.94
371.802	888.94
372.028	878.94
372.254	882.94
372.48	871.94
372.706	891.94
372.932	903.94
373.158	881.94
373.384	908.94
373.61	864.94
373.835	849.94
374.061	848.94
374.287	882.94
374.513	891.94
374.739	910.94
374.965	945.94
375.191	987.94
375.416	993.94
375.642	935.94
375.868	918.94
376.094	891.94
376.319	890.94
376.545	922.94
376.771	856.94
376.997	886.94
377.222	860.94
377.448	863.94
377.674	872.94
377.899	838.94
378.125	851.94
378.35	854.94
378.576	845.94
378.802	863.94
379.027	874.94
379.253	854.94
379.478	861.94
379.704	865.94
379.929	872.94
380.155	852.94
380.38	842.94
380.606	869.94
380.831	863.94
381.057	869.94
381.282	848.94
381.507	867.94
381.733	872.94
381.958	880.94
382.184	877.94
382.409	877.94
382.634	898.94
382.86	909.94
383.085	917.94
383.31	924.94
383.535	962.94
383.761	947.94
383.986	958.94
384.211	984.94
384.436	987.94
384.662	1024.94
384.887	1036.94
385.112	1069.94
385.337	1048.94
385.562	1051.94
385.787	1037.94
386.013	1069.94
386.238	1071.94
386.463	1064.94
386.688	1056.94
386.913	1043.94
387.138	1060.94
387.363	1044.94
387.588	1053.94
387.813	1020.94
388.038	1018.94
388.263	1028.94
388.488	1045.94
388.713	1067.94
388.938	1041.94
389.163	1042.94
389.387	1014.94
389.612	1017.94
389.837	1027.94
390.062	996.94
390.287	1029.94
390.512	1044.94
390.736	1046.94
390.961	1033.94
391.186	1058.94
391.411	1145.94
391.636	1127.94
391.86	1192.94
392.085	1207.94
392.31	1157.94
392.534	1151.94
392.759	1128.94
392.984	1118.94
393.208	1135.94
393.433	1135.94
393.658	1126.94
393.882	1091.94
394.107	1103.94
394.331	1097.94
394.556	1127.94
394.78	1146.94
395.005	1127.94
395.229	1115.94
395.454	1179.94
395.678	1187.94
395.903	1176.94
396.127	1183.94
396.352	1121.94
396.576	1130.94
396.801	1116.94
397.025	1141.94
397.249	1150.94
397.474	1205.94
397.698	1185.94
397.922	1197.94
398.147	1202.94
398.371	1238.94
398.595	1236.94
398.82	1302.94
399.044	1426.94
399.268	1568.94
399.492	1795.94
399.717	2022.94
399.941	2069.94
400.165	1832.94
400.389	1664.94
400.613	1568.94
400.837	1411.94
401.062	1369.94
401.286	1354.94
401.51	1377.94
401.734	1323.94
401.958	1380.94
402.182	1371.94
402.406	1376.94
402.63	1379.94
402.854	1439.94
403.078	1478.94
403.302	1439.94
403.526	1487.94
403.75	1550.94
403.974	1540.94
404.198	1538.94
404.422	1535.94
404.645	1538.94
404.869	1509.94
405.093	1545.94
405.317	1502.94
405.541	1477.94
405.765	1465.94
405.988	1460.94
406.212	1473.94
406.436	1474.94
406.66	1535.94
406.883	1538.94
407.107	1615.94
407.331	1685.94
407.555	1727.94
407.778	1735.94
408.002	1689.94
408.226	1629.94
408.449	1613.94
408.673	1547.94
408.896	1526.94
409.12	1506.94
409.344	1563.94
409.567	1504.94
409.791	1521.94
410.014	1485.94
410.238	1497.94
410.461	1439.94
410.685	1447.94
410.908	1427.94
411.132	1442.94
411.355	1373.94
411.578	1370.94
411.802	1344.94
412.025	1384.94
412.249	1411.94
412.472	1425.94
412.695	1367.94
412.919	1328.94
413.142	1320.94
413.365	1329.94
413.589	1371.94
413.812	1326.94
414.035	1317.94
414.258	1295.94
414.482	1343.94
414.705	1352.94
414.928	1349.94
415.151	1332.94
415.374	1321.94
415.597	1327.94
415.821	1284.94
416.044	1254.94
416.267	1307.94
416.49	1281.94
416.713	1278.94
416.936	1331.94
417.159	1312.94
417.382	1283.94
417.605	1282.94
417.828	1299.94
418.051	1312.94
418.274	1320.94
418.497	1305.94
418.72	1332.94
418.943	1338.94
419.166	1450.94
419.389	1547.94
419.611	1505.94
419.834	1415.94
420.057	1381.94
420.28	1335.94
420.503	1327.94
420.726	1302.94
420.948	1295.94
421.171	1320.94
421.394	1286.94
421.617	1322.94
421.839	1310.94
422.062	1294.94
422.285	1283.94
422.507	1330.94
422.73	1318.94
422.953	1276.94
423.175	1347.94
423.398	1391.94
423.621	1360.94
423.843	1408.94
424.066	1394.94
424.288	1366.94
424.511	1376.94
424.733	1359.94
424.956	1334.94
425.178	1337.94
425.401	1313.94
425.623	1335.94
425.846	1261.94
426.068	1271.94
426.291	1280.94
426.513	1236.94
426.735	1211.94
426.958	1214.94
427.18	1186.94
427.402	1199.94
427.625	1203.94
427.847	1145.94
428.069	1189.94
428.292	1189.94
428.514	1169.94
428.736	1171.94
428.958	1205.94
429.181	1111.94
429.403	1144.94
429.625	1134.94
429.847	1110.94
430.069	1122.94
430.292	1105.94
430.514	1126.94
430.736	1129.94
430.958	1135.94
431.18	1139.94
431.402	1175.94
431.624	1133.94
431.846	1146.94
432.068	1185.94
432.29	1206.94
432.512	1159.94
432.734	1160.94
432.956	1158.94
433.178	1152.94
433.4	1140.94
433.622	1144.94
433.844	1173.94
434.066	1189.94
434.287	1158.94
434.509	1210.94
434.731	1253.94
434.953	1289.94
435.175	1276.94
435.397	1307.94
435.618	1209.94
435.84	1197.94
436.062	1160.94
436.284	1172.94
436.505	1161.94
436.727	1177.94
436.949	1155.94
437.17	1140.94
437.392	1161.94
437.614	1131.94
437.835	1080.94
438.057	1081.94
438.278	1076.94
438.5	1078.94
438.721	1094.94
438.943	1091.94
439.165	1115.94
439.386	1101.94
439.608	1131.94
439.829	1154.94
440.05	1157.94
440.272	1166.94
440.493	1160.94
440.715	1169.94
440.936	1213.94
441.158	1239.94
441.379	1249.94
441.6	1303.94
441.822	1305.94
442.043	1336.94
442.264	1290.94
442.486	1239.94
442.707	1272.94
442.928	1250.94
443.149	1277.94
443.371	1258.94
443.592	1250.94
443.813	1297.94
444.034	1331.94
444.255	1355.94
444.476	1409.94
444.698	1494.94
444.919	1543.94
445.14	1640.94
445.361	1455.94
445.582	1320.94
445.803	1257.94
446.024	1222.94
446.245	1207.94
446.466	1203.94
446.687	1167.94
446.908	1168.94
447.129	1110.94
447.35	1126.94
447.571	1131.94
447.792	1088.94
448.013	1113.94
448.234	1106.94
448.455	1043.94
448.675	1094.94
448.896	1061.94
449.117	997.94
449.338	1061.94
449.559	1003.94
449.779	1022.94
450	1033.94
450.221	1053.94
450.442	1028.94
450.662	1054.94
450.883	1049.94
451.104	1080.94
451.324	1061.94
451.545	1073.94
451.766	1043.94
451.986	1061.94
452.207	1026.94
452.428	1068.94
452.648	1048.94
452.869	1003.94
453.089	1009.94
453.31	1045.94
453.53	1045.94
453.751	1010.94
453.971	1000.94
454.192	998.94
454.412	1005.94
454.633	1019.94
454.853	1017.94
455.073	988.94
455.294	966.94
455.514	1003.94
455.734	989.94
455.955	982.94
456.175	962.94
456.395	992.94
456.616	994.94
456.836	989.94
457.056	957.94
457.276	984.94
457.497	994.94
457.717	963.94
457.937	996.94
458.157	997.94
458.377	1044.94
458.598	1054.94
458.818	1078.94
459.038	1089.94
459.258	1138.94
459.478	1163.94
459.698	1215.94
459.918	1201.94
460.138	1281.94
460.358	1364.94
460.578	1355.94
460.798	1348.94
461.018	1399.94
461.238	1375.94
461.458	1350.94
461.678	1367.94
461.898	1371.94
462.118	1400.94
462.338	1475.94
462.558	1531.94
462.777	1595.94
462.997	1701.94
463.217	1871.94
463.437	1858.94
463.657	1707.94
463.876	1679.94
464.096	1611.94
464.316	1620.94
464.536	1621.94
464.755	1521.94
464.975	1516.94
465.195	1445.94
465.414	1346.94
465.634	1289.94
465.854	1194.94
466.073	1207.94
466.293	1179.94
466.512	1155.94
466.732	1113.94
466.951	1117.94
467.171	1065.94
467.391	1080.94
467.61	1110.94
467.829	1098.94
468.049	1099.94
468.268	1064.94
468.488	1033.94
468.707	1042.94
468.927	1035.94
469.146	1067.94
469.365	1091.94
469.585	1073.94
469.804	1114.94
470.023	1129.94
470.243	1134.94
470.462	1144.94
470.681	1158.94
470.901	1127.94
471.12	1135.94
471.339	1114.94
471.558	1071.94
471.777	1060.94
471.997	1055.94
472.216	1075.94
472.435	1066.94
472.654	1056.94
472.873	1023.94
473.092	1028.94
473.311	1016.94
473.53	1056.94
473.749	1036.94
473.968	1040.94
474.187	1032.94
474.406	1042.94
474.625	1053.94
474.844	1017.94
475.063	1030.94
475.282	1070.94
475.501	1008.94
475.72	1041.94
475.939	1085.94
476.158	1077.94
476.377	1078.94
476.596	1076.94
476.814	1089.94
477.033	1082.94
477.252	1094.94
477.471	1157.94
477.69	1166.94
477.908	1230.94
478.127	1241.94
478.346	1232.94
478.564	1245.94
478.783	1268.94
479.002	1322.94
479.22	1314.94
479.439	1302.94
479.658	1296.94
479.876	1320.94
480.095	1309.94
480.313	1382.94
480.532	1389.94
480.751	1405.94
480.969	1374.94
481.188	1281.94
481.406	1266.94
481.624	1240.94
481.843	1191.94
482.061	1199.94
482.28	1185.94
482.498	1165.94
482.717	1172.94
482.935	1182.94
483.153	1177.94
483.372	1188.94
483.59	1187.94
483.808	1161.94
484.027	1175.94
484.245	1215.94
484.463	1199.94
484.681	1244.94
484.9	1194.94
485.118	1222.94
485.336	1240.94
485.554	1248.94
485.772	1265.94
485.99	1219.94
486.209	1250.94
486.427	1240.94
486.645	1236.94
486.863	1226.94
487.081	1233.94
487.299	1221.94
487.517	1214.94
487.735	1238.94
487.953	1256.94
488.171	1232.94
488.389	1247.94
488.607	1214.94
488.825	1225.94
489.043	1234.94
489.261	1241.94
489.479	1233.94
489.696	1238.94
489.914	1249.94
490.132	1252.94
490.35	1246.94
490.568	1242.94
490.786	1232.94
491.003	1263.94
491.221	1235.94
491.439	1275.94
491.657	1229.94
491.874	1241.94
492.092	1245.94
492.31	1283.94
492.527	1286.94
492.745	1294.94
492.963	1287.94
493.18	1274.94
493.398	1292.94
493.615	1253.94
493.833	1269.94
494.05	1291.94
494.268	1320.94
494.485	1332.94
494.703	1333.94
