Data from NiCl2@0.25M.TitratingCurve.Agarose3%dH2O.NegLispCup.LampEnergy10.LIBS07252019_HRD10591_18-24-09-572.txt Node
Date: Thu Jul 25 18:24:09 EDT 2019
User: cochatt
Spectrometer: HR+D1059
Trigger mode: 1
Integration Time (sec): 1.000000E-1
Scans to average: 1
Electric dark correction enabled: true
Nonlinearity correction enabled: false
Boxcar width: 0
XAxis mode: Wavelengths
Number of Pixels in Spectrum: 2048
>>>>>Begin Spectral Data<<<<<
223.165	-13.75
223.4	-13.75
223.635	-13.75
223.869	-22.75
224.104	1.25
224.338	-2.75
224.573	-15.75
224.808	-6.75
225.042	-8.75
225.277	-5.75
225.511	6.25
225.746	2.25
225.98	-3.75
226.215	11.25
226.449	9.25
226.683	11.25
226.918	18.25
227.152	20.25
227.387	18.25
227.621	34.25
227.856	40.25
228.09	52.25
228.324	63.25
228.559	55.25
228.793	67.25
229.027	99.25
229.262	105.25
229.496	118.25
229.73	114.25
229.964	107.25
230.199	130.25
230.433	114.25
230.667	139.25
230.901	132.25
231.136	141.25
231.37	138.25
231.604	148.25
231.838	153.25
232.072	136.25
232.306	152.25
232.541	145.25
232.775	142.25
233.009	148.25
233.243	144.25
233.477	151.25
233.711	160.25
233.945	143.25
234.179	143.25
234.413	136.25
234.647	150.25
234.881	142.25
235.115	139.25
235.349	159.25
235.583	154.25
235.817	164.25
236.051	156.25
236.285	155.25
236.519	148.25
236.753	178.25
236.987	146.25
237.221	151.25
237.455	156.25
237.689	153.25
237.922	157.25
238.156	166.25
238.39	156.25
238.624	151.25
238.858	163.25
239.091	181.25
239.325	172.25
239.559	170.25
239.793	173.25
240.027	192.25
240.26	186.25
240.494	182.25
240.728	166.25
240.961	188.25
241.195	160.25
241.429	185.25
241.662	190.25
241.896	189.25
242.13	188.25
242.363	178.25
242.597	193.25
242.83	179.25
243.064	193.25
243.298	211.25
243.531	204.25
243.765	196.25
243.998	208.25
244.232	201.25
244.465	195.25
244.699	203.25
244.932	230.25
245.166	208.25
245.399	219.25
245.633	216.25
245.866	215.25
246.099	212.25
246.333	220.25
246.566	237.25
246.8	227.25
247.033	203.25
247.266	223.25
247.5	224.25
247.733	233.25
247.966	214.25
248.2	243.25
248.433	239.25
248.666	230.25
248.899	221.25
249.133	235.25
249.366	245.25
249.599	240.25
249.832	239.25
250.066	254.25
250.299	243.25
250.532	243.25
250.765	251.25
250.998	260.25
251.231	246.25
251.465	261.25
251.698	252.25
251.931	262.25
252.164	265.25
252.397	245.25
252.63	262.25
252.863	268.25
253.096	273.25
253.329	280.25
253.562	267.25
253.795	286.25
254.028	292.25
254.261	278.25
254.494	277.25
254.727	262.25
254.96	271.25
255.193	270.25
255.426	272.25
255.659	275.25
255.892	282.25
256.124	282.25
256.357	291.25
256.59	281.25
256.823	277.25
257.056	282.25
257.289	287.25
257.521	291.25
257.754	287.25
257.987	309.25
258.22	301.25
258.452	287.25
258.685	304.25
258.918	293.25
259.151	281.25
259.383	294.25
259.616	312.25
259.849	311.25
260.081	316.25
260.314	316.25
260.547	320.25
260.779	307.25
261.012	325.25
261.244	315.25
261.477	315.25
261.71	311.25
261.942	315.25
262.175	327.25
262.407	328.25
262.64	306.25
262.872	317.25
263.105	351.25
263.337	347.25
263.57	344.25
263.802	320.25
264.035	325.25
264.267	329.25
264.499	345.25
264.732	346.25
264.964	331.25
265.197	328.25
265.429	329.25
265.661	343.25
265.894	352.25
266.126	354.25
266.358	351.25
266.591	349.25
266.823	350.25
267.055	358.25
267.287	342.25
267.52	362.25
267.752	363.25
267.984	358.25
268.216	338.25
268.448	354.25
268.681	356.25
268.913	376.25
269.145	371.25
269.377	371.25
269.609	374.25
269.841	370.25
270.073	380.25
270.306	383.25
270.538	380.25
270.77	372.25
271.002	375.25
271.234	379.25
271.466	368.25
271.698	358.25
271.93	387.25
272.162	385.25
272.394	390.25
272.626	396.25
272.858	398.25
273.09	405.25
273.322	400.25
273.553	417.25
273.785	362.25
274.017	401.25
274.249	396.25
274.481	384.25
274.713	422.25
274.945	406.25
275.176	410.25
275.408	399.25
275.64	412.25
275.872	403.25
276.104	415.25
276.335	419.25
276.567	400.25
276.799	427.25
277.031	415.25
277.262	399.25
277.494	401.25
277.726	458.25
277.957	442.25
278.189	412.25
278.421	427.25
278.652	432.25
278.884	416.25
279.115	424.25
279.347	425.25
279.579	416.25
279.81	448.25
280.042	437.25
280.273	453.25
280.505	460.25
280.736	449.25
280.968	468.25
281.199	438.25
281.431	438.25
281.662	442.25
281.894	469.25
282.125	433.25
282.356	453.25
282.588	468.25
282.819	452.25
283.051	462.25
283.282	454.25
283.513	457.25
283.745	443.25
283.976	473.25
284.207	467.25
284.439	461.25
284.67	501.25
284.901	475.25
285.132	489.25
285.364	498.25
285.595	495.25
285.826	471.25
286.057	475.25
286.288	482.25
286.52	512.25
286.751	490.25
286.982	491.25
287.213	470.25
287.444	489.25
287.675	486.25
287.906	512.25
288.138	479.25
288.369	489.25
288.6	502.25
288.831	502.25
289.062	522.25
289.293	511.25
289.524	506.25
289.755	516.25
289.986	532.25
290.217	514.25
290.448	518.25
290.679	507.25
290.91	496.25
291.141	487.25
291.371	533.25
291.602	514.25
291.833	518.25
292.064	518.25
292.295	523.25
292.526	508.25
292.757	542.25
292.987	517.25
293.218	514.25
293.449	519.25
293.68	528.25
293.91	511.25
294.141	517.25
294.372	527.25
294.603	530.25
294.833	525.25
295.064	504.25
295.295	518.25
295.525	522.25
295.756	522.25
295.987	525.25
296.217	540.25
296.448	538.25
296.679	537.25
296.909	547.25
297.14	539.25
297.37	553.25
297.601	564.25
297.831	550.25
298.062	574.25
298.292	576.25
298.523	573.25
298.753	565.25
298.984	563.25
299.214	544.25
299.445	565.25
299.675	584.25
299.905	590.25
300.136	602.25
300.366	566.25
300.597	587.25
300.827	591.25
301.057	589.25
301.288	596.25
301.518	586.25
301.748	592.25
301.979	602.25
302.209	596.25
302.439	593.25
302.669	559.25
302.9	581.25
303.13	558.25
303.36	578.25
303.59	582.25
303.82	600.25
304.051	588.25
304.281	579.25
304.511	566.25
304.741	605.25
304.971	580.25
305.201	589.25
305.431	604.25
305.661	600.25
305.891	586.25
306.121	596.25
306.352	588.25
306.582	584.25
306.812	609.25
307.042	593.25
307.272	568.25
307.502	591.25
307.731	598.25
307.961	589.25
308.191	578.25
308.421	591.25
308.651	572.25
308.881	552.25
309.111	592.25
309.341	582.25
309.571	573.25
309.8	574.25
310.03	576.25
310.26	580.25
310.49	589.25
310.72	583.25
310.949	623.25
311.179	603.25
311.409	567.25
311.639	605.25
311.868	612.25
312.098	595.25
312.328	594.25
312.557	626.25
312.787	617.25
313.017	629.25
313.246	629.25
313.476	618.25
313.706	629.25
313.935	628.25
314.165	622.25
314.394	628.25
314.624	628.25
314.853	628.25
315.083	629.25
315.312	635.25
315.542	630.25
315.771	612.25
316.001	631.25
316.23	618.25
316.46	615.25
316.689	622.25
316.919	599.25
317.148	629.25
317.377	601.25
317.607	629.25
317.836	617.25
318.065	615.25
318.295	613.25
318.524	612.25
318.753	616.25
318.983	615.25
319.212	613.25
319.441	642.25
319.67	629.25
319.9	593.25
320.129	613.25
320.358	631.25
320.587	623.25
320.816	631.25
321.046	628.25
321.275	634.25
321.504	638.25
321.733	615.25
321.962	638.25
322.191	624.25
322.42	636.25
322.649	599.25
322.878	646.25
323.108	626.25
323.337	640.25
323.566	642.25
323.795	621.25
324.024	646.25
324.253	640.25
324.482	638.25
324.71	629.25
324.939	623.25
325.168	652.25
325.397	642.25
325.626	648.25
325.855	692.25
326.084	676.25
326.313	676.25
326.542	676.25
326.77	702.25
326.999	668.25
327.228	674.25
327.457	682.25
327.686	666.25
327.914	669.25
328.143	677.25
328.372	680.25
328.6	668.25
328.829	684.25
329.058	643.25
329.287	674.25
329.515	691.25
329.744	670.25
329.972	702.25
330.201	699.25
330.43	676.25
330.658	681.25
330.887	686.25
331.115	717.25
331.344	731.25
331.572	739.25
331.801	764.25
332.03	758.25
332.258	772.25
332.486	803.25
332.715	838.25
332.943	866.25
333.172	877.25
333.4	906.25
333.629	924.25
333.857	935.25
334.085	935.25
334.314	910.25
334.542	867.25
334.771	912.25
334.999	867.25
335.227	863.25
335.455	882.25
335.684	871.25
335.912	844.25
336.14	804.25
336.369	790.25
336.597	827.25
336.825	820.25
337.053	819.25
337.281	802.25
337.51	798.25
337.738	746.25
337.966	754.25
338.194	734.25
338.422	739.25
338.65	727.25
338.878	749.25
339.106	763.25
339.334	738.25
339.562	737.25
339.79	730.25
340.018	726.25
340.246	709.25
340.474	724.25
340.702	708.25
340.93	728.25
341.158	723.25
341.386	716.25
341.614	721.25
341.842	722.25
342.07	702.25
342.298	715.25
342.526	715.25
342.754	699.25
342.981	727.25
343.209	734.25
343.437	766.25
343.665	806.25
343.893	893.25
344.12	908.25
344.348	848.25
344.576	802.25
344.804	797.25
345.031	768.25
345.259	721.25
345.487	722.25
345.714	702.25
345.942	717.25
346.17	715.25
346.397	708.25
346.625	696.25
346.853	702.25
347.08	700.25
347.308	694.25
347.535	678.25
347.763	663.25
347.99	692.25
348.218	681.25
348.445	697.25
348.673	690.25
348.9	670.25
349.128	694.25
349.355	671.25
349.583	698.25
349.81	692.25
350.037	670.25
350.265	675.25
350.492	671.25
350.72	664.25
350.947	682.25
351.174	686.25
351.402	663.25
351.629	667.25
351.856	682.25
352.083	698.25
352.311	663.25
352.538	646.25
352.765	651.25
352.992	653.25
353.22	656.25
353.447	666.25
353.674	655.25
353.901	649.25
354.128	650.25
354.355	656.25
354.583	645.25
354.81	679.25
355.037	661.25
355.264	654.25
355.491	662.25
355.718	662.25
355.945	692.25
356.172	660.25
356.399	681.25
356.626	692.25
356.853	677.25
357.08	675.25
357.307	664.25
357.534	675.25
357.761	680.25
357.988	671.25
358.215	652.25
358.441	670.25
358.668	652.25
358.895	666.25
359.122	665.25
359.349	692.25
359.576	668.25
359.802	648.25
360.029	669.25
360.256	672.25
360.483	676.25
360.709	674.25
360.936	650.25
361.163	660.25
361.39	678.25
361.616	665.25
361.843	664.25
362.07	679.25
362.296	672.25
362.523	677.25
362.749	656.25
362.976	660.25
363.203	662.25
363.429	670.25
363.656	662.25
363.882	672.25
364.109	637.25
364.335	652.25
364.562	640.25
364.788	654.25
365.015	666.25
365.241	676.25
365.468	687.25
365.694	679.25
365.92	658.25
366.147	674.25
366.373	666.25
366.599	686.25
366.826	672.25
367.052	655.25
367.278	670.25
367.505	667.25
367.731	676.25
367.957	673.25
368.184	669.25
368.41	685.25
368.636	680.25
368.862	666.25
369.089	671.25
369.315	695.25
369.541	674.25
369.767	667.25
369.993	694.25
370.219	668.25
370.445	685.25
370.672	715.25
370.898	694.25
371.124	726.25
371.35	696.25
371.576	723.25
371.802	720.25
372.028	728.25
372.254	700.25
372.48	743.25
372.706	739.25
372.932	766.25
373.158	774.25
373.384	733.25
373.61	724.25
373.835	729.25
374.061	719.25
374.287	736.25
374.513	780.25
374.739	778.25
374.965	807.25
375.191	837.25
375.416	784.25
375.642	761.25
375.868	796.25
376.094	746.25
376.319	757.25
376.545	736.25
376.771	758.25
376.997	740.25
377.222	719.25
377.448	712.25
377.674	711.25
377.899	729.25
378.125	715.25
378.35	724.25
378.576	740.25
378.802	698.25
379.027	723.25
379.253	722.25
379.478	720.25
379.704	680.25
379.929	734.25
380.155	713.25
380.38	751.25
380.606	724.25
380.831	734.25
381.057	716.25
381.282	727.25
381.507	706.25
381.733	725.25
381.958	719.25
382.184	745.25
382.409	757.25
382.634	761.25
382.86	764.25
383.085	776.25
383.31	802.25
383.535	780.25
383.761	827.25
383.986	870.25
384.211	845.25
384.436	865.25
384.662	855.25
384.887	872.25
385.112	900.25
385.337	884.25
385.562	902.25
385.787	879.25
386.013	888.25
386.238	891.25
386.463	895.25
386.688	886.25
386.913	858.25
387.138	844.25
387.363	875.25
387.588	870.25
387.813	871.25
388.038	886.25
388.263	866.25
388.488	876.25
388.713	863.25
388.938	842.25
389.163	829.25
389.387	861.25
389.612	831.25
389.837	853.25
390.062	828.25
390.287	842.25
390.512	859.25
390.736	888.25
390.961	900.25
391.186	880.25
391.411	906.25
391.636	959.25
391.86	987.25
392.085	1043.25
392.31	982.25
392.534	955.25
392.759	931.25
392.984	934.25
393.208	924.25
393.433	925.25
393.658	933.25
393.882	909.25
394.107	941.25
394.331	929.25
394.556	956.25
394.78	926.25
395.005	980.25
395.229	946.25
395.454	980.25
395.678	998.25
395.903	985.25
396.127	1001.25
396.352	952.25
396.576	957.25
396.801	951.25
397.025	949.25
397.249	968.25
397.474	991.25
397.698	980.25
397.922	992.25
398.147	985.25
398.371	1028.25
398.595	1050.25
398.82	1113.25
399.044	1181.25
399.268	1319.25
399.492	1501.25
399.717	1734.25
399.941	1692.25
400.165	1528.25
400.389	1352.25
400.613	1216.25
400.837	1202.25
401.062	1148.25
401.286	1099.25
401.51	1110.25
401.734	1101.25
401.958	1130.25
402.182	1127.25
402.406	1138.25
402.63	1158.25
402.854	1205.25
403.078	1184.25
403.302	1211.25
403.526	1213.25
403.75	1268.25
403.974	1285.25
404.198	1296.25
404.422	1303.25
404.645	1295.25
404.869	1284.25
405.093	1247.25
405.317	1221.25
405.541	1236.25
405.765	1192.25
405.988	1211.25
406.212	1186.25
406.436	1214.25
406.66	1218.25
406.883	1224.25
407.107	1318.25
407.331	1407.25
407.555	1474.25
407.778	1413.25
408.002	1400.25
408.226	1341.25
408.449	1318.25
408.673	1278.25
408.896	1262.25
409.12	1268.25
409.344	1253.25
409.567	1243.25
409.791	1234.25
410.014	1236.25
410.238	1237.25
410.461	1221.25
410.685	1232.25
410.908	1179.25
411.132	1165.25
411.355	1119.25
411.578	1150.25
411.802	1149.25
412.025	1141.25
412.249	1168.25
412.472	1188.25
412.695	1148.25
412.919	1092.25
413.142	1095.25
413.365	1082.25
413.589	1096.25
413.812	1097.25
414.035	1093.25
414.258	1075.25
414.482	1092.25
414.705	1108.25
414.928	1126.25
415.151	1094.25
415.374	1101.25
415.597	1101.25
415.821	1070.25
416.044	1066.25
416.267	1080.25
416.49	1083.25
416.713	1048.25
416.936	1090.25
417.159	1091.25
417.382	1076.25
417.605	1070.25
417.828	1101.25
418.051	1094.25
418.274	1086.25
418.497	1118.25
418.72	1133.25
418.943	1128.25
419.166	1180.25
419.389	1232.25
419.611	1211.25
419.834	1158.25
420.057	1158.25
420.28	1141.25
420.503	1059.25
420.726	1066.25
420.948	1065.25
421.171	1072.25
421.394	1110.25
421.617	1051.25
421.839	1070.25
422.062	1081.25
422.285	1078.25
422.507	1110.25
422.73	1103.25
422.953	1132.25
423.175	1130.25
423.398	1160.25
423.621	1150.25
423.843	1186.25
424.066	1168.25
424.288	1143.25
424.511	1160.25
424.733	1163.25
424.956	1121.25
425.178	1098.25
425.401	1101.25
425.623	1069.25
425.846	1054.25
426.068	1044.25
426.291	1060.25
426.513	1049.25
426.735	997.25
426.958	1026.25
427.18	986.25
427.402	998.25
427.625	983.25
427.847	954.25
428.069	962.25
428.292	954.25
428.514	970.25
428.736	936.25
428.958	950.25
429.181	956.25
429.403	908.25
429.625	943.25
429.847	917.25
430.069	929.25
430.292	919.25
430.514	915.25
430.736	942.25
430.958	939.25
431.18	923.25
431.402	924.25
431.624	940.25
431.846	975.25
432.068	951.25
432.29	985.25
432.512	905.25
432.734	954.25
432.956	935.25
433.178	965.25
433.4	986.25
433.622	974.25
433.844	975.25
434.066	950.25
434.287	994.25
434.509	1018.25
434.731	1048.25
434.953	1081.25
435.175	1086.25
435.397	1077.25
435.618	1015.25
435.84	1019.25
436.062	969.25
436.284	954.25
436.505	951.25
436.727	936.25
436.949	933.25
437.17	925.25
437.392	934.25
437.614	918.25
437.835	879.25
438.057	920.25
438.278	908.25
438.5	918.25
438.721	908.25
438.943	937.25
439.165	931.25
439.386	921.25
439.608	960.25
439.829	941.25
440.05	934.25
440.272	974.25
440.493	955.25
440.715	1004.25
440.936	996.25
441.158	984.25
441.379	1011.25
441.6	1075.25
441.822	1063.25
442.043	1093.25
442.264	1035.25
442.486	1026.25
442.707	1063.25
442.928	1046.25
443.149	1047.25
443.371	1038.25
443.592	1072.25
443.813	1068.25
444.034	1070.25
444.255	1127.25
444.476	1175.25
444.698	1247.25
444.919	1274.25
445.14	1356.25
445.361	1208.25
445.582	1074.25
445.803	1048.25
446.024	1004.25
446.245	1002.25
446.466	971.25
446.687	953.25
446.908	940.25
447.129	950.25
447.35	936.25
447.571	928.25
447.792	909.25
448.013	910.25
448.234	876.25
448.455	896.25
448.675	894.25
448.896	861.25
449.117	873.25
449.338	851.25
449.559	876.25
449.779	894.25
450	854.25
450.221	848.25
450.442	872.25
450.662	894.25
450.883	877.25
451.104	868.25
451.324	880.25
451.545	875.25
451.766	882.25
451.986	868.25
452.207	858.25
452.428	868.25
452.648	872.25
452.869	845.25
453.089	819.25
453.31	847.25
453.53	846.25
453.751	828.25
453.971	862.25
454.192	864.25
454.412	845.25
454.633	811.25
454.853	831.25
455.073	813.25
455.294	818.25
455.514	822.25
455.734	799.25
455.955	814.25
456.175	803.25
456.395	814.25
456.616	818.25
456.836	838.25
457.056	784.25
457.276	781.25
457.497	816.25
457.717	778.25
457.937	804.25
458.157	819.25
458.377	847.25
458.598	870.25
458.818	887.25
459.038	895.25
459.258	922.25
459.478	965.25
459.698	970.25
459.918	1016.25
460.138	1068.25
460.358	1105.25
460.578	1126.25
460.798	1155.25
461.018	1134.25
461.238	1138.25
461.458	1160.25
461.678	1133.25
461.898	1154.25
462.118	1143.25
462.338	1211.25
462.558	1246.25
462.777	1286.25
462.997	1418.25
463.217	1547.25
463.437	1582.25
463.657	1402.25
463.876	1370.25
464.096	1343.25
464.316	1298.25
464.536	1322.25
464.755	1294.25
464.975	1215.25
465.195	1158.25
465.414	1132.25
465.634	1026.25
465.854	1010.25
466.073	982.25
466.293	955.25
466.512	923.25
466.732	948.25
466.951	939.25
467.171	902.25
467.391	934.25
467.61	899.25
467.829	891.25
468.049	917.25
468.268	871.25
468.488	904.25
468.707	870.25
468.927	877.25
469.146	873.25
469.365	907.25
469.585	886.25
469.804	899.25
470.023	924.25
470.243	926.25
470.462	957.25
470.681	955.25
470.901	944.25
471.12	939.25
471.339	930.25
471.558	910.25
471.777	906.25
471.997	905.25
472.216	897.25
472.435	881.25
472.654	854.25
472.873	838.25
473.092	862.25
473.311	863.25
473.53	834.25
473.749	866.25
473.968	849.25
474.187	831.25
474.406	821.25
474.625	882.25
474.844	877.25
475.063	834.25
475.282	879.25
475.501	872.25
475.72	867.25
475.939	885.25
476.158	894.25
476.377	879.25
476.596	885.25
476.814	874.25
477.033	918.25
477.252	910.25
477.471	928.25
477.69	971.25
477.908	962.25
478.127	970.25
478.346	1031.25
478.564	1017.25
478.783	1074.25
479.002	1045.25
479.22	1083.25
479.439	1082.25
479.658	1078.25
479.876	1067.25
480.095	1104.25
480.313	1161.25
480.532	1172.25
480.751	1152.25
480.969	1084.25
481.188	1069.25
481.406	1024.25
481.624	1016.25
481.843	947.25
482.061	994.25
482.28	960.25
482.498	981.25
482.717	960.25
482.935	985.25
483.153	954.25
483.372	962.25
483.59	955.25
483.808	997.25
484.027	973.25
484.245	973.25
484.463	974.25
484.681	1022.25
484.9	1016.25
485.118	1006.25
485.336	990.25
485.554	1003.25
485.772	998.25
485.99	1002.25
486.209	1016.25
486.427	1042.25
486.645	1015.25
486.863	1020.25
487.081	1027.25
487.299	1022.25
487.517	1006.25
487.735	1005.25
487.953	1030.25
488.171	1039.25
488.389	1028.25
488.607	989.25
488.825	962.25
489.043	997.25
489.261	1028.25
489.479	1021.25
489.696	1019.25
489.914	1040.25
490.132	1046.25
490.35	1055.25
490.568	1029.25
490.786	1012.25
491.003	1052.25
491.221	1034.25
491.439	1078.25
491.657	1020.25
491.874	1040.25
492.092	1040.25
492.31	1055.25
492.527	1050.25
492.745	1074.25
492.963	1048.25
493.18	1077.25
493.398	1082.25
493.615	1069.25
493.833	1098.25
494.05	1092.25
494.268	1117.25
494.485	1091.25
494.703	1109.25
494.92	1104.25
495.138	1092.25
495.355	1094.25
495.573	1102.25
495.79	1080.25
496.008	1104.25
496.225	1119.25
496.442	1129.25
496.66	1154.25
496.877	1162.25
497.094	1173.25
497.312	1205.25
497.529	1246.25
497.746	1227.25
497.963	1291.25
498.181	1373.25
