Data from NiCl2@0.0625M.TitratingCurve.Agarose3%dH2O.NegLispCup.LampEnergy10.LIBS07252019_HRD10591_18-35-31-577.txt Node
Date: Thu Jul 25 18:35:31 EDT 2019
User: cochatt
Spectrometer: HR+D1059
Trigger mode: 1
Integration Time (sec): 1.000000E-1
Scans to average: 1
Electric dark correction enabled: true
Nonlinearity correction enabled: false
Boxcar width: 0
XAxis mode: Wavelengths
Number of Pixels in Spectrum: 2048
>>>>>Begin Spectral Data<<<<<
223.165	-21.75
223.4	-21.75
223.635	-21.75
223.869	-4.75
224.104	-25.75
224.338	-19.75
224.573	-20.75
224.808	-15.75
225.042	2.25
225.277	-12.75
225.511	-0.75
225.746	0.25
225.98	3.25
226.215	13.25
226.449	15.25
226.683	30.25
226.918	25.25
227.152	32.25
227.387	19.25
227.621	28.25
227.856	30.25
228.09	45.25
228.324	35.25
228.559	67.25
228.793	76.25
229.027	131.25
229.262	144.25
229.496	145.25
229.73	165.25
229.964	185.25
230.199	175.25
230.433	176.25
230.667	186.25
230.901	171.25
231.136	155.25
231.37	192.25
231.604	182.25
231.838	181.25
232.072	197.25
232.306	197.25
232.541	198.25
232.775	202.25
233.009	209.25
233.243	198.25
233.477	197.25
233.711	204.25
233.945	201.25
234.179	216.25
234.413	206.25
234.647	222.25
234.881	226.25
235.115	200.25
235.349	204.25
235.583	223.25
235.817	205.25
236.051	205.25
236.285	231.25
236.519	231.25
236.753	206.25
236.987	223.25
237.221	240.25
237.455	225.25
237.689	237.25
237.922	227.25
238.156	237.25
238.39	248.25
238.624	237.25
238.858	229.25
239.091	230.25
239.325	254.25
239.559	240.25
239.793	255.25
240.027	267.25
240.26	261.25
240.494	288.25
240.728	286.25
240.961	268.25
241.195	280.25
241.429	277.25
241.662	282.25
241.896	285.25
242.13	301.25
242.363	299.25
242.597	285.25
242.83	289.25
243.064	300.25
243.298	318.25
243.531	323.25
243.765	307.25
243.998	321.25
244.232	334.25
244.465	318.25
244.699	316.25
244.932	322.25
245.166	329.25
245.399	337.25
245.633	340.25
245.866	347.25
246.099	344.25
246.333	331.25
246.566	345.25
246.8	349.25
247.033	353.25
247.266	340.25
247.5	342.25
247.733	368.25
247.966	349.25
248.2	366.25
248.433	369.25
248.666	363.25
248.899	366.25
249.133	391.25
249.366	387.25
249.599	377.25
249.832	375.25
250.066	384.25
250.299	385.25
250.532	379.25
250.765	403.25
250.998	388.25
251.231	417.25
251.465	410.25
251.698	415.25
251.931	416.25
252.164	425.25
252.397	422.25
252.63	398.25
252.863	422.25
253.096	431.25
253.329	418.25
253.562	395.25
253.795	448.25
254.028	451.25
254.261	447.25
254.494	444.25
254.727	437.25
254.96	444.25
255.193	486.25
255.426	449.25
255.659	467.25
255.892	475.25
256.124	475.25
256.357	474.25
256.59	466.25
256.823	474.25
257.056	471.25
257.289	471.25
257.521	484.25
257.754	500.25
257.987	489.25
258.22	500.25
258.452	469.25
258.685	498.25
258.918	482.25
259.151	475.25
259.383	511.25
259.616	499.25
259.849	497.25
260.081	512.25
260.314	498.25
260.547	520.25
260.779	522.25
261.012	537.25
261.244	537.25
261.477	520.25
261.71	498.25
261.942	537.25
262.175	533.25
262.407	535.25
262.64	518.25
262.872	557.25
263.105	549.25
263.337	551.25
263.57	534.25
263.802	556.25
264.035	580.25
264.267	560.25
264.499	548.25
264.732	564.25
264.964	588.25
265.197	562.25
265.429	579.25
265.661	569.25
265.894	576.25
266.126	595.25
266.358	592.25
266.591	598.25
266.823	580.25
267.055	593.25
267.287	601.25
267.52	597.25
267.752	610.25
267.984	592.25
268.216	597.25
268.448	626.25
268.681	599.25
268.913	631.25
269.145	613.25
269.377	621.25
269.609	634.25
269.841	612.25
270.073	620.25
270.306	642.25
270.538	618.25
270.77	632.25
271.002	637.25
271.234	630.25
271.466	656.25
271.698	651.25
271.93	641.25
272.162	650.25
272.394	639.25
272.626	654.25
272.858	637.25
273.09	673.25
273.322	673.25
273.553	665.25
273.785	681.25
274.017	670.25
274.249	655.25
274.481	677.25
274.713	673.25
274.945	684.25
275.176	710.25
275.408	698.25
275.64	695.25
275.872	711.25
276.104	716.25
276.335	709.25
276.567	715.25
276.799	708.25
277.031	742.25
277.262	727.25
277.494	704.25
277.726	728.25
277.957	716.25
278.189	739.25
278.421	725.25
278.652	722.25
278.884	758.25
279.115	718.25
279.347	727.25
279.579	757.25
279.81	756.25
280.042	741.25
280.273	760.25
280.505	743.25
280.736	741.25
280.968	779.25
281.199	753.25
281.431	784.25
281.662	807.25
281.894	789.25
282.125	812.25
282.356	787.25
282.588	801.25
282.819	791.25
283.051	829.25
283.282	820.25
283.513	819.25
283.745	812.25
283.976	780.25
284.207	803.25
284.439	812.25
284.67	818.25
284.901	845.25
285.132	827.25
285.364	827.25
285.595	819.25
285.826	819.25
286.057	803.25
286.288	839.25
286.52	874.25
286.751	821.25
286.982	868.25
287.213	833.25
287.444	855.25
287.675	842.25
287.906	858.25
288.138	881.25
288.369	849.25
288.6	864.25
288.831	858.25
289.062	867.25
289.293	853.25
289.524	850.25
289.755	887.25
289.986	873.25
290.217	867.25
290.448	865.25
290.679	904.25
290.91	894.25
291.141	894.25
291.371	883.25
291.602	881.25
291.833	891.25
292.064	904.25
292.295	895.25
292.526	887.25
292.757	876.25
292.987	869.25
293.218	853.25
293.449	873.25
293.68	906.25
293.91	890.25
294.141	872.25
294.372	881.25
294.603	904.25
294.833	908.25
295.064	895.25
295.295	900.25
295.525	926.25
295.756	916.25
295.987	886.25
296.217	904.25
296.448	940.25
296.679	914.25
296.909	946.25
297.14	924.25
297.37	941.25
297.601	963.25
297.831	949.25
298.062	953.25
298.292	975.25
298.523	979.25
298.753	992.25
298.984	948.25
299.214	966.25
299.445	956.25
299.675	945.25
299.905	972.25
300.136	969.25
300.366	961.25
300.597	962.25
300.827	1008.25
301.057	994.25
301.288	1039.25
301.518	1014.25
301.748	1051.25
301.979	1029.25
302.209	1038.25
302.439	1015.25
302.669	1017.25
302.9	1016.25
303.13	996.25
303.36	1010.25
303.59	1013.25
303.82	1034.25
304.051	1001.25
304.281	1003.25
304.511	980.25
304.741	994.25
304.971	1019.25
305.201	1011.25
305.431	1010.25
305.661	1025.25
305.891	1017.25
306.121	1016.25
306.352	1022.25
306.582	1017.25
306.812	986.25
307.042	1025.25
307.272	1013.25
307.502	987.25
307.731	1036.25
307.961	1018.25
308.191	999.25
308.421	982.25
308.651	981.25
308.881	979.25
309.111	990.25
309.341	995.25
309.571	1013.25
309.8	996.25
310.03	1012.25
310.26	1012.25
310.49	1051.25
310.72	1037.25
310.949	1026.25
311.179	1007.25
311.409	1040.25
311.639	1015.25
311.868	1023.25
312.098	1032.25
312.328	1042.25
312.557	1069.25
312.787	1056.25
313.017	1059.25
313.246	1065.25
313.476	1064.25
313.706	1084.25
313.935	1115.25
314.165	1107.25
314.394	1082.25
314.624	1097.25
314.853	1077.25
315.083	1091.25
315.312	1095.25
315.542	1084.25
315.771	1086.25
316.001	1065.25
316.23	1063.25
316.46	1092.25
316.689	1074.25
316.919	1072.25
317.148	1075.25
317.377	1067.25
317.607	1084.25
317.836	1061.25
318.065	1018.25
318.295	1086.25
318.524	1075.25
318.753	1049.25
318.983	1084.25
319.212	1059.25
319.441	1088.25
319.67	1073.25
319.9	1060.25
320.129	1077.25
320.358	1103.25
320.587	1095.25
320.816	1072.25
321.046	1079.25
321.275	1073.25
321.504	1086.25
321.733	1093.25
321.962	1099.25
322.191	1095.25
322.42	1068.25
322.649	1064.25
322.878	1067.25
323.108	1083.25
323.337	1095.25
323.566	1111.25
323.795	1121.25
324.024	1125.25
324.253	1106.25
324.482	1114.25
324.71	1107.25
324.939	1109.25
325.168	1109.25
325.397	1142.25
325.626	1138.25
325.855	1154.25
326.084	1179.25
326.313	1131.25
326.542	1182.25
326.77	1178.25
326.999	1138.25
327.228	1191.25
327.457	1150.25
327.686	1137.25
327.914	1195.25
328.143	1161.25
328.372	1170.25
328.6	1161.25
328.829	1135.25
329.058	1160.25
329.287	1185.25
329.515	1183.25
329.744	1164.25
329.972	1192.25
330.201	1188.25
330.43	1196.25
330.658	1166.25
330.887	1206.25
331.115	1220.25
331.344	1231.25
331.572	1237.25
331.801	1273.25
332.03	1272.25
332.258	1287.25
332.486	1309.25
332.715	1360.25
332.943	1386.25
333.172	1443.25
333.4	1455.25
333.629	1503.25
333.857	1533.25
334.085	1511.25
334.314	1527.25
334.542	1528.25
334.771	1482.25
334.999	1485.25
335.227	1472.25
335.455	1460.25
335.684	1446.25
335.912	1427.25
336.14	1406.25
336.369	1425.25
336.597	1418.25
336.825	1414.25
337.053	1414.25
337.281	1386.25
337.51	1355.25
337.738	1338.25
337.966	1315.25
338.194	1311.25
338.422	1266.25
338.65	1285.25
338.878	1285.25
339.106	1333.25
339.334	1297.25
339.562	1272.25
339.79	1241.25
340.018	1263.25
340.246	1221.25
340.474	1226.25
340.702	1252.25
340.93	1215.25
341.158	1258.25
341.386	1214.25
341.614	1243.25
341.842	1239.25
342.07	1229.25
342.298	1210.25
342.526	1236.25
342.754	1219.25
342.981	1232.25
343.209	1260.25
343.437	1301.25
343.665	1343.25
343.893	1447.25
344.12	1455.25
344.348	1421.25
344.576	1369.25
344.804	1344.25
345.031	1281.25
345.259	1299.25
345.487	1238.25
345.714	1258.25
345.942	1202.25
346.17	1218.25
346.397	1206.25
346.625	1220.25
346.853	1185.25
347.08	1182.25
347.308	1149.25
347.535	1182.25
347.763	1209.25
347.99	1166.25
348.218	1183.25
348.445	1154.25
348.673	1161.25
348.9	1164.25
349.128	1177.25
349.355	1182.25
349.583	1144.25
349.81	1147.25
350.037	1165.25
350.265	1123.25
350.492	1146.25
350.72	1167.25
350.947	1129.25
351.174	1135.25
351.402	1140.25
351.629	1126.25
351.856	1114.25
352.083	1135.25
352.311	1148.25
352.538	1127.25
352.765	1165.25
352.992	1101.25
353.22	1122.25
353.447	1089.25
353.674	1113.25
353.901	1139.25
354.128	1116.25
354.355	1135.25
354.583	1149.25
354.81	1132.25
355.037	1153.25
355.264	1146.25
355.491	1170.25
355.718	1141.25
355.945	1138.25
356.172	1144.25
356.399	1124.25
356.626	1160.25
356.853	1175.25
357.08	1137.25
357.307	1160.25
357.534	1138.25
357.761	1125.25
357.988	1157.25
358.215	1142.25
358.441	1127.25
358.668	1122.25
358.895	1128.25
359.122	1121.25
359.349	1137.25
359.576	1111.25
359.802	1142.25
360.029	1132.25
360.256	1145.25
360.483	1135.25
360.709	1164.25
360.936	1122.25
361.163	1108.25
361.39	1159.25
361.616	1135.25
361.843	1145.25
362.07	1156.25
362.296	1120.25
362.523	1128.25
362.749	1136.25
362.976	1137.25
363.203	1121.25
363.429	1129.25
363.656	1126.25
363.882	1122.25
364.109	1123.25
364.335	1148.25
364.562	1151.25
364.788	1125.25
365.015	1136.25
365.241	1169.25
365.468	1126.25
365.694	1148.25
365.92	1144.25
366.147	1142.25
366.373	1150.25
366.599	1161.25
366.826	1146.25
367.052	1117.25
367.278	1116.25
367.505	1155.25
367.731	1162.25
367.957	1147.25
368.184	1137.25
368.41	1133.25
368.636	1163.25
368.862	1171.25
369.089	1165.25
369.315	1139.25
369.541	1165.25
369.767	1172.25
369.993	1212.25
370.219	1216.25
370.445	1201.25
370.672	1186.25
370.898	1199.25
371.124	1225.25
371.35	1237.25
371.576	1245.25
371.802	1244.25
372.028	1227.25
372.254	1239.25
372.48	1244.25
372.706	1266.25
372.932	1291.25
373.158	1321.25
373.384	1277.25
373.61	1238.25
373.835	1228.25
374.061	1265.25
374.287	1291.25
374.513	1284.25
374.739	1291.25
374.965	1343.25
375.191	1355.25
375.416	1330.25
375.642	1334.25
375.868	1296.25
376.094	1282.25
376.319	1239.25
376.545	1255.25
376.771	1252.25
376.997	1229.25
377.222	1223.25
377.448	1212.25
377.674	1237.25
377.899	1201.25
378.125	1242.25
378.35	1225.25
378.576	1211.25
378.802	1212.25
379.027	1192.25
379.253	1240.25
379.478	1200.25
379.704	1216.25
379.929	1215.25
380.155	1210.25
380.38	1235.25
380.606	1238.25
380.831	1205.25
381.057	1240.25
381.282	1232.25
381.507	1241.25
381.733	1224.25
381.958	1241.25
382.184	1253.25
382.409	1270.25
382.634	1301.25
382.86	1297.25
383.085	1330.25
383.31	1334.25
383.535	1357.25
383.761	1350.25
383.986	1340.25
384.211	1401.25
384.436	1380.25
384.662	1410.25
384.887	1452.25
385.112	1445.25
385.337	1456.25
385.562	1489.25
385.787	1469.25
386.013	1504.25
386.238	1474.25
386.463	1484.25
386.688	1508.25
386.913	1482.25
387.138	1469.25
387.363	1482.25
387.588	1442.25
387.813	1460.25
388.038	1449.25
388.263	1485.25
388.488	1521.25
388.713	1463.25
388.938	1475.25
389.163	1443.25
389.387	1450.25
389.612	1450.25
389.837	1468.25
390.062	1451.25
390.287	1451.25
390.512	1493.25
390.736	1511.25
390.961	1485.25
391.186	1497.25
391.411	1547.25
391.636	1563.25
391.86	1655.25
392.085	1647.25
392.31	1688.25
392.534	1647.25
392.759	1581.25
392.984	1595.25
393.208	1558.25
393.433	1545.25
393.658	1549.25
393.882	1545.25
394.107	1560.25
394.331	1560.25
394.556	1604.25
394.78	1597.25
395.005	1613.25
395.229	1588.25
395.454	1645.25
395.678	1663.25
395.903	1695.25
396.127	1638.25
396.352	1600.25
396.576	1561.25
396.801	1579.25
397.025	1627.25
397.249	1642.25
397.474	1665.25
397.698	1656.25
397.922	1681.25
398.147	1672.25
398.371	1717.25
398.595	1743.25
398.82	1804.25
399.044	1953.25
399.268	2079.25
399.492	2364.25
399.717	2599.25
399.941	2619.25
400.165	2449.25
400.389	2231.25
400.613	2103.25
400.837	1966.25
401.062	1906.25
401.286	1898.25
401.51	1881.25
401.734	1836.25
401.958	1904.25
402.182	1859.25
402.406	1929.25
402.63	1894.25
402.854	1927.25
403.078	1917.25
403.302	1967.25
403.526	1935.25
403.75	2016.25
403.974	2041.25
404.198	2020.25
404.422	2037.25
404.645	2023.25
404.869	2022.25
405.093	2017.25
405.317	2015.25
405.541	2020.25
405.765	1991.25
405.988	2000.25
406.212	1991.25
406.436	2043.25
406.66	2065.25
406.883	2095.25
407.107	2199.25
407.331	2269.25
407.555	2357.25
407.778	2354.25
408.002	2307.25
408.226	2243.25
408.449	2204.25
408.673	2102.25
408.896	2098.25
409.12	2107.25
409.344	2082.25
409.567	2030.25
409.791	2061.25
410.014	2057.25
410.238	2063.25
410.461	2023.25
410.685	2032.25
410.908	1992.25
411.132	1979.25
411.355	1933.25
411.578	1947.25
411.802	1937.25
412.025	1941.25
412.249	1938.25
412.472	1921.25
412.695	1892.25
412.919	1831.25
413.142	1871.25
413.365	1862.25
413.589	1916.25
413.812	1832.25
414.035	1817.25
414.258	1814.25
414.482	1850.25
414.705	1857.25
414.928	1874.25
415.151	1894.25
415.374	1856.25
415.597	1831.25
415.821	1819.25
416.044	1791.25
416.267	1754.25
416.49	1778.25
416.713	1797.25
416.936	1789.25
417.159	1815.25
417.382	1749.25
417.605	1777.25
417.828	1811.25
418.051	1730.25
418.274	1775.25
418.497	1781.25
418.72	1815.25
418.943	1802.25
419.166	1927.25
419.389	2083.25
419.611	1988.25
419.834	1965.25
420.057	1867.25
420.28	1817.25
420.503	1764.25
420.726	1785.25
420.948	1757.25
421.171	1782.25
421.394	1792.25
421.617	1765.25
421.839	1752.25
422.062	1776.25
422.285	1768.25
422.507	1799.25
422.73	1820.25
422.953	1850.25
423.175	1822.25
423.398	1861.25
423.621	1831.25
423.843	1891.25
424.066	1876.25
424.288	1815.25
424.511	1843.25
424.733	1827.25
424.956	1836.25
425.178	1761.25
425.401	1793.25
425.623	1776.25
425.846	1741.25
426.068	1750.25
426.291	1700.25
426.513	1679.25
426.735	1708.25
426.958	1701.25
427.18	1645.25
427.402	1635.25
427.625	1665.25
427.847	1607.25
428.069	1616.25
428.292	1644.25
428.514	1595.25
428.736	1600.25
428.958	1613.25
429.181	1610.25
429.403	1587.25
429.625	1567.25
429.847	1588.25
430.069	1599.25
430.292	1590.25
430.514	1544.25
430.736	1576.25
430.958	1574.25
431.18	1584.25
431.402	1621.25
431.624	1624.25
431.846	1667.25
432.068	1651.25
432.29	1699.25
432.512	1624.25
432.734	1647.25
432.956	1623.25
433.178	1649.25
433.4	1651.25
433.622	1668.25
433.844	1676.25
434.066	1662.25
434.287	1686.25
434.509	1737.25
434.731	1819.25
434.953	1793.25
435.175	1846.25
435.397	1791.25
435.618	1722.25
435.84	1658.25
436.062	1665.25
436.284	1611.25
436.505	1612.25
436.727	1606.25
436.949	1611.25
437.17	1635.25
437.392	1597.25
437.614	1596.25
437.835	1577.25
438.057	1561.25
438.278	1526.25
438.5	1573.25
438.721	1555.25
438.943	1556.25
439.165	1561.25
439.386	1535.25
439.608	1575.25
439.829	1591.25
440.05	1560.25
440.272	1608.25
440.493	1594.25
440.715	1663.25
440.936	1668.25
441.158	1680.25
441.379	1718.25
441.6	1769.25
441.822	1777.25
442.043	1789.25
442.264	1744.25
442.486	1719.25
442.707	1729.25
442.928	1749.25
443.149	1721.25
443.371	1723.25
443.592	1746.25
443.813	1756.25
444.034	1784.25
444.255	1820.25
444.476	1866.25
444.698	1984.25
444.919	2045.25
445.14	2070.25
445.361	1988.25
445.582	1820.25
445.803	1741.25
446.024	1703.25
446.245	1712.25
446.466	1626.25
446.687	1597.25
446.908	1591.25
447.129	1543.25
447.35	1551.25
447.571	1538.25
447.792	1500.25
448.013	1492.25
448.234	1447.25
448.455	1456.25
448.675	1487.25
448.896	1434.25
449.117	1465.25
449.338	1456.25
449.559	1461.25
449.779	1441.25
450	1433.25
450.221	1456.25
450.442	1448.25
450.662	1421.25
450.883	1427.25
451.104	1444.25
451.324	1469.25
451.545	1464.25
451.766	1452.25
451.986	1437.25
452.207	1439.25
452.428	1435.25
452.648	1411.25
452.869	1417.25
453.089	1389.25
453.31	1411.25
453.53	1393.25
453.751	1360.25
453.971	1385.25
454.192	1407.25
454.412	1393.25
454.633	1368.25
454.853	1363.25
455.073	1365.25
455.294	1340.25
455.514	1340.25
455.734	1356.25
455.955	1333.25
456.175	1350.25
456.395	1337.25
456.616	1325.25
456.836	1359.25
457.056	1398.25
457.276	1348.25
457.497	1374.25
457.717	1356.25
457.937	1349.25
458.157	1401.25
458.377	1394.25
458.598	1446.25
458.818	1481.25
459.038	1500.25
459.258	1538.25
459.478	1593.25
459.698	1595.25
459.918	1615.25
460.138	1725.25
460.358	1813.25
460.578	1852.25
460.798	1793.25
461.018	1891.25
461.238	1773.25
461.458	1868.25
461.678	1847.25
461.898	1871.25
462.118	1858.25
462.338	1997.25
462.558	2004.25
462.777	2057.25
462.997	2180.25
463.217	2323.25
463.437	2359.25
463.657	2187.25
463.876	2157.25
464.096	2152.25
464.316	2165.25
464.536	2137.25
464.755	2007.25
464.975	1969.25
465.195	1915.25
465.414	1805.25
465.634	1691.25
465.854	1651.25
466.073	1622.25
466.293	1613.25
466.512	1578.25
466.732	1559.25
466.951	1523.25
467.171	1534.25
467.391	1525.25
467.61	1486.25
467.829	1491.25
468.049	1443.25
468.268	1451.25
468.488	1462.25
468.707	1473.25
468.927	1473.25
469.146	1460.25
469.365	1490.25
469.585	1483.25
469.804	1499.25
470.023	1510.25
470.243	1523.25
470.462	1574.25
470.681	1575.25
470.901	1531.25
471.12	1526.25
471.339	1539.25
471.558	1500.25
471.777	1494.25
471.997	1452.25
472.216	1482.25
472.435	1473.25
472.654	1444.25
472.873	1377.25
473.092	1461.25
473.311	1452.25
473.53	1450.25
473.749	1434.25
473.968	1480.25
474.187	1439.25
474.406	1456.25
474.625	1447.25
474.844	1428.25
475.063	1459.25
475.282	1489.25
475.501	1447.25
475.72	1474.25
475.939	1487.25
476.158	1461.25
476.377	1528.25
476.596	1521.25
476.814	1545.25
477.033	1568.25
477.252	1529.25
477.471	1605.25
477.69	1622.25
477.908	1687.25
478.127	1711.25
478.346	1720.25
478.564	1754.25
478.783	1743.25
479.002	1842.25
479.22	1849.25
479.439	1791.25
479.658	1841.25
479.876	1832.25
480.095	1787.25
480.313	1899.25
480.532	1942.25
480.751	1937.25
480.969	1899.25
481.188	1820.25
481.406	1813.25
481.624	1781.25
481.843	1748.25
482.061	1708.25
482.28	1759.25
482.498	1744.25
482.717	1719.25
482.935	1735.25
483.153	1748.25
483.372	1752.25
483.59	1762.25
483.808	1791.25
484.027	1762.25
484.245	1846.25
484.463	1808.25
484.681	1818.25
484.9	1867.25
485.118	1910.25
485.336	1885.25
485.554	1885.25
485.772	1929.25
485.99	1941.25
486.209	1935.25
486.427	1908.25
486.645	1907.25
486.863	1918.25
487.081	1912.25
487.299	1902.25
487.517	1863.25
487.735	1878.25
487.953	1895.25
488.171	1889.25
488.389	1818.25
488.607	1859.25
488.825	1808.25
489.043	1809.25
489.261	1824.25
489.479	1801.25
489.696	1804.25
489.914	1812.25
490.132	1863.25
