Data from NiCl2@0.125M.TitratingCurve.Agarose3%dH2O.NegLispCup.LampEnergy10.LIBS07252019_HRD10591_18-27-16-574.txt Node
Date: Thu Jul 25 18:27:16 EDT 2019
User: cochatt
Spectrometer: HR+D1059
Trigger mode: 1
Integration Time (sec): 1.000000E-1
Scans to average: 1
Electric dark correction enabled: true
Nonlinearity correction enabled: false
Boxcar width: 0
XAxis mode: Wavelengths
Number of Pixels in Spectrum: 2048
>>>>>Begin Spectral Data<<<<<
223.165	-18.56
223.4	-18.56
223.635	-18.56
223.869	-27.56
224.104	-14.56
224.338	-24.56
224.573	-3.56
224.808	1.44
225.042	-8.56
225.277	-12.56
225.511	-2.56
225.746	11.44
225.98	5.44
226.215	14.44
226.449	19.44
226.683	11.44
226.918	19.44
227.152	29.44
227.387	30.44
227.621	31.44
227.856	23.44
228.09	25.44
228.324	32.44
228.559	48.44
228.793	80.44
229.027	129.44
229.262	136.44
229.496	149.44
229.73	160.44
229.964	162.44
230.199	152.44
230.433	162.44
230.667	156.44
230.901	177.44
231.136	163.44
231.37	163.44
231.604	180.44
231.838	176.44
232.072	191.44
232.306	181.44
232.541	194.44
232.775	189.44
233.009	187.44
233.243	185.44
233.477	176.44
233.711	182.44
233.945	187.44
234.179	196.44
234.413	182.44
234.647	189.44
234.881	198.44
235.115	204.44
235.349	195.44
235.583	186.44
235.817	205.44
236.051	194.44
236.285	191.44
236.519	176.44
236.753	208.44
236.987	208.44
237.221	200.44
237.455	200.44
237.689	208.44
237.922	211.44
238.156	210.44
238.39	216.44
238.624	205.44
238.858	233.44
239.091	214.44
239.325	242.44
239.559	241.44
239.793	230.44
240.027	245.44
240.26	231.44
240.494	240.44
240.728	231.44
240.961	251.44
241.195	272.44
241.429	259.44
241.662	248.44
241.896	269.44
242.13	280.44
242.363	282.44
242.597	264.44
242.83	252.44
243.064	283.44
243.298	263.44
243.531	275.44
243.765	275.44
243.998	281.44
244.232	272.44
244.465	294.44
244.699	305.44
244.932	298.44
245.166	291.44
245.399	292.44
245.633	276.44
245.866	307.44
246.099	297.44
246.333	290.44
246.566	303.44
246.8	314.44
247.033	310.44
247.266	291.44
247.5	316.44
247.733	305.44
247.966	320.44
248.2	339.44
248.433	330.44
248.666	341.44
248.899	326.44
249.133	348.44
249.366	351.44
249.599	335.44
249.832	347.44
250.066	339.44
250.299	346.44
250.532	348.44
250.765	370.44
250.998	358.44
251.231	357.44
251.465	371.44
251.698	365.44
251.931	377.44
252.164	371.44
252.397	375.44
252.63	382.44
252.863	387.44
253.096	391.44
253.329	378.44
253.562	373.44
253.795	392.44
254.028	402.44
254.261	377.44
254.494	379.44
254.727	402.44
254.96	408.44
255.193	383.44
255.426	412.44
255.659	409.44
255.892	427.44
256.124	403.44
256.357	420.44
256.59	429.44
256.823	410.44
257.056	426.44
257.289	428.44
257.521	413.44
257.754	434.44
257.987	444.44
258.22	420.44
258.452	435.44
258.685	454.44
258.918	448.44
259.151	446.44
259.383	453.44
259.616	445.44
259.849	460.44
260.081	454.44
260.314	455.44
260.547	449.44
260.779	465.44
261.012	481.44
261.244	469.44
261.477	465.44
261.71	476.44
261.942	475.44
262.175	467.44
262.407	472.44
262.64	478.44
262.872	465.44
263.105	473.44
263.337	480.44
263.57	489.44
263.802	499.44
264.035	461.44
264.267	484.44
264.499	463.44
264.732	486.44
264.964	511.44
265.197	507.44
265.429	482.44
265.661	481.44
265.894	507.44
266.126	523.44
266.358	528.44
266.591	515.44
266.823	497.44
267.055	532.44
267.287	551.44
267.52	521.44
267.752	513.44
267.984	533.44
268.216	535.44
268.448	545.44
268.681	517.44
268.913	527.44
269.145	528.44
269.377	526.44
269.609	529.44
269.841	573.44
270.073	549.44
270.306	574.44
270.538	536.44
270.77	533.44
271.002	539.44
271.234	549.44
271.466	546.44
271.698	566.44
271.93	581.44
272.162	559.44
272.394	555.44
272.626	571.44
272.858	593.44
273.09	591.44
273.322	585.44
273.553	593.44
273.785	608.44
274.017	584.44
274.249	583.44
274.481	586.44
274.713	593.44
274.945	605.44
275.176	587.44
275.408	613.44
275.64	603.44
275.872	623.44
276.104	615.44
276.335	632.44
276.567	609.44
276.799	614.44
277.031	633.44
277.262	632.44
277.494	629.44
277.726	610.44
277.957	620.44
278.189	644.44
278.421	633.44
278.652	644.44
278.884	661.44
279.115	636.44
279.347	652.44
279.579	641.44
279.81	648.44
280.042	646.44
280.273	646.44
280.505	671.44
280.736	667.44
280.968	660.44
281.199	671.44
281.431	656.44
281.662	678.44
281.894	702.44
282.125	692.44
282.356	689.44
282.588	701.44
282.819	696.44
283.051	716.44
283.282	682.44
283.513	697.44
283.745	697.44
283.976	738.44
284.207	701.44
284.439	714.44
284.67	723.44
284.901	707.44
285.132	731.44
285.364	717.44
285.595	737.44
285.826	696.44
286.057	756.44
286.288	734.44
286.52	725.44
286.751	779.44
286.982	765.44
287.213	739.44
287.444	753.44
287.675	739.44
287.906	736.44
288.138	736.44
288.369	765.44
288.6	725.44
288.831	762.44
289.062	779.44
289.293	775.44
289.524	755.44
289.755	789.44
289.986	745.44
290.217	777.44
290.448	774.44
290.679	770.44
290.91	775.44
291.141	763.44
291.371	764.44
291.602	795.44
291.833	760.44
292.064	803.44
292.295	787.44
292.526	771.44
292.757	755.44
292.987	761.44
293.218	764.44
293.449	783.44
293.68	794.44
293.91	792.44
294.141	772.44
294.372	783.44
294.603	780.44
294.833	748.44
295.064	817.44
295.295	781.44
295.525	783.44
295.756	797.44
295.987	783.44
296.217	792.44
296.448	789.44
296.679	821.44
296.909	822.44
297.14	792.44
297.37	837.44
297.601	849.44
297.831	843.44
298.062	833.44
298.292	861.44
298.523	863.44
298.753	863.44
298.984	837.44
299.214	831.44
299.445	835.44
299.675	809.44
299.905	843.44
300.136	871.44
300.366	840.44
300.597	868.44
300.827	872.44
301.057	880.44
301.288	891.44
301.518	874.44
301.748	872.44
301.979	876.44
302.209	890.44
302.439	902.44
302.669	902.44
302.9	891.44
303.13	874.44
303.36	889.44
303.59	889.44
303.82	888.44
304.051	884.44
304.281	891.44
304.511	867.44
304.741	877.44
304.971	879.44
305.201	885.44
305.431	847.44
305.661	899.44
305.891	881.44
306.121	879.44
306.352	882.44
306.582	858.44
306.812	853.44
307.042	881.44
307.272	869.44
307.502	848.44
307.731	874.44
307.961	869.44
308.191	851.44
308.421	840.44
308.651	861.44
308.881	863.44
309.111	863.44
309.341	866.44
309.571	854.44
309.8	843.44
310.03	857.44
310.26	849.44
310.49	852.44
310.72	874.44
310.949	877.44
311.179	884.44
311.409	897.44
311.639	873.44
311.868	907.44
312.098	887.44
312.328	915.44
312.557	900.44
312.787	905.44
313.017	917.44
313.246	921.44
313.476	920.44
313.706	951.44
313.935	948.44
314.165	963.44
314.394	932.44
314.624	948.44
314.853	937.44
315.083	934.44
315.312	945.44
315.542	930.44
315.771	893.44
316.001	919.44
316.23	919.44
316.46	927.44
316.689	921.44
316.919	920.44
317.148	914.44
317.377	925.44
317.607	905.44
317.836	911.44
318.065	921.44
318.295	924.44
318.524	916.44
318.753	915.44
318.983	890.44
319.212	915.44
319.441	904.44
319.67	916.44
319.9	888.44
320.129	936.44
320.358	899.44
320.587	923.44
320.816	935.44
321.046	935.44
321.275	927.44
321.504	913.44
321.733	936.44
321.962	909.44
322.191	953.44
322.42	915.44
322.649	926.44
322.878	909.44
323.108	954.44
323.337	931.44
323.566	937.44
323.795	935.44
324.024	954.44
324.253	957.44
324.482	962.44
324.71	967.44
324.939	975.44
325.168	976.44
325.397	964.44
325.626	969.44
325.855	967.44
326.084	1015.44
326.313	1001.44
326.542	1003.44
326.77	1028.44
326.999	1002.44
327.228	999.44
327.457	988.44
327.686	1023.44
327.914	1017.44
328.143	1001.44
328.372	987.44
328.6	1011.44
328.829	1009.44
329.058	991.44
329.287	994.44
329.515	1026.44
329.744	1017.44
329.972	1038.44
330.201	1059.44
330.43	1049.44
330.658	1045.44
330.887	1056.44
331.115	1075.44
331.344	1043.44
331.572	1072.44
331.801	1077.44
332.03	1083.44
332.258	1155.44
332.486	1176.44
332.715	1199.44
332.943	1212.44
333.172	1301.44
333.4	1303.44
333.629	1361.44
333.857	1345.44
334.085	1327.44
334.314	1368.44
334.542	1313.44
334.771	1315.44
334.999	1314.44
335.227	1333.44
335.455	1293.44
335.684	1235.44
335.912	1261.44
336.14	1267.44
336.369	1207.44
336.597	1213.44
336.825	1229.44
337.053	1206.44
337.281	1204.44
337.51	1179.44
337.738	1165.44
337.966	1129.44
338.194	1135.44
338.422	1140.44
338.65	1097.44
338.878	1113.44
339.106	1085.44
339.334	1100.44
339.562	1098.44
339.79	1067.44
340.018	1081.44
340.246	1075.44
340.474	1057.44
340.702	1099.44
340.93	1068.44
341.158	1050.44
341.386	1073.44
341.614	1077.44
341.842	1075.44
342.07	1056.44
342.298	1060.44
342.526	1042.44
342.754	1055.44
342.981	1081.44
343.209	1101.44
343.437	1133.44
343.665	1189.44
343.893	1260.44
344.12	1291.44
344.348	1261.44
344.576	1233.44
344.804	1141.44
345.031	1093.44
345.259	1091.44
345.487	1072.44
345.714	1039.44
345.942	1043.44
346.17	1051.44
346.397	1048.44
346.625	1049.44
346.853	1030.44
347.08	1010.44
347.308	1002.44
347.535	1024.44
347.763	1052.44
347.99	999.44
348.218	1043.44
348.445	1032.44
348.673	995.44
348.9	1000.44
349.128	997.44
349.355	1028.44
349.583	1009.44
349.81	1015.44
350.037	1001.44
350.265	995.44
350.492	999.44
350.72	968.44
350.947	962.44
351.174	977.44
351.402	985.44
351.629	973.44
351.856	960.44
352.083	971.44
352.311	976.44
352.538	987.44
352.765	963.44
352.992	962.44
353.22	973.44
353.447	951.44
353.674	973.44
353.901	987.44
354.128	959.44
354.355	996.44
354.583	999.44
354.81	988.44
355.037	985.44
355.264	993.44
355.491	981.44
355.718	975.44
355.945	973.44
356.172	981.44
356.399	990.44
356.626	992.44
356.853	981.44
357.08	986.44
357.307	954.44
357.534	989.44
357.761	980.44
357.988	984.44
358.215	972.44
358.441	993.44
358.668	971.44
358.895	962.44
359.122	971.44
359.349	985.44
359.576	965.44
359.802	965.44
360.029	973.44
360.256	1021.44
360.483	999.44
360.709	967.44
360.936	989.44
361.163	977.44
361.39	979.44
361.616	970.44
361.843	981.44
362.07	989.44
362.296	977.44
362.523	954.44
362.749	959.44
362.976	960.44
363.203	981.44
363.429	951.44
363.656	970.44
363.882	957.44
364.109	969.44
364.335	969.44
364.562	995.44
364.788	968.44
365.015	971.44
365.241	983.44
365.468	990.44
365.694	949.44
365.92	963.44
366.147	993.44
366.373	1001.44
366.599	970.44
366.826	963.44
367.052	965.44
367.278	978.44
367.505	968.44
367.731	977.44
367.957	991.44
368.184	985.44
368.41	997.44
368.636	967.44
368.862	998.44
369.089	991.44
369.315	992.44
369.541	961.44
369.767	1022.44
369.993	1041.44
370.219	996.44
370.445	1005.44
370.672	1049.44
370.898	1027.44
371.124	1047.44
371.35	1065.44
371.576	1059.44
371.802	1082.44
372.028	1041.44
372.254	1066.44
372.48	1123.44
372.706	1097.44
372.932	1100.44
373.158	1101.44
373.384	1088.44
373.61	1080.44
373.835	1060.44
374.061	1050.44
374.287	1057.44
374.513	1109.44
374.739	1132.44
374.965	1156.44
375.191	1165.44
375.416	1201.44
375.642	1121.44
375.868	1155.44
376.094	1101.44
376.319	1093.44
376.545	1078.44
376.771	1082.44
376.997	1072.44
377.222	1084.44
377.448	1067.44
377.674	1051.44
377.899	1092.44
378.125	1047.44
378.35	1074.44
378.576	1073.44
378.802	1074.44
379.027	1033.44
379.253	1059.44
379.478	1067.44
379.704	1022.44
379.929	1031.44
380.155	1056.44
380.38	1066.44
380.606	1084.44
380.831	1067.44
381.057	1052.44
381.282	1023.44
381.507	1061.44
381.733	1071.44
381.958	1083.44
382.184	1072.44
382.409	1096.44
382.634	1163.44
382.86	1127.44
383.085	1107.44
383.31	1151.44
383.535	1130.44
383.761	1158.44
383.986	1176.44
384.211	1241.44
384.436	1230.44
384.662	1238.44
384.887	1292.44
385.112	1263.44
385.337	1259.44
385.562	1311.44
385.787	1308.44
386.013	1316.44
386.238	1325.44
386.463	1306.44
386.688	1285.44
386.913	1269.44
387.138	1292.44
387.363	1266.44
387.588	1262.44
387.813	1284.44
388.038	1264.44
388.263	1283.44
388.488	1292.44
388.713	1280.44
388.938	1297.44
389.163	1230.44
389.387	1251.44
389.612	1254.44
389.837	1277.44
390.062	1252.44
390.287	1277.44
390.512	1261.44
390.736	1316.44
390.961	1307.44
391.186	1325.44
391.411	1347.44
391.636	1404.44
391.86	1377.44
392.085	1443.44
392.31	1459.44
392.534	1407.44
392.759	1380.44
392.984	1347.44
393.208	1345.44
393.433	1376.44
393.658	1344.44
393.882	1360.44
394.107	1379.44
394.331	1387.44
394.556	1378.44
394.78	1409.44
395.005	1369.44
395.229	1373.44
395.454	1433.44
395.678	1465.44
395.903	1446.44
396.127	1421.44
396.352	1395.44
396.576	1365.44
396.801	1358.44
397.025	1420.44
397.249	1406.44
397.474	1438.44
397.698	1472.44
397.922	1463.44
398.147	1437.44
398.371	1478.44
398.595	1505.44
398.82	1585.44
399.044	1739.44
399.268	1931.44
399.492	2161.44
399.717	2359.44
399.941	2377.44
400.165	2179.44
400.389	1988.44
400.613	1809.44
400.837	1740.44
401.062	1686.44
401.286	1663.44
401.51	1624.44
401.734	1670.44
401.958	1658.44
402.182	1654.44
402.406	1683.44
402.63	1706.44
402.854	1694.44
403.078	1722.44
403.302	1749.44
403.526	1811.44
403.75	1788.44
403.974	1827.44
404.198	1823.44
404.422	1828.44
404.645	1818.44
404.869	1836.44
405.093	1864.44
405.317	1792.44
405.541	1747.44
405.765	1736.44
405.988	1735.44
406.212	1748.44
406.436	1763.44
406.66	1827.44
406.883	1841.44
407.107	1919.44
407.331	1986.44
407.555	2080.44
407.778	2033.44
408.002	1984.44
408.226	1987.44
408.449	1944.44
408.673	1858.44
408.896	1830.44
409.12	1808.44
409.344	1819.44
409.567	1796.44
409.791	1796.44
410.014	1788.44
410.238	1774.44
410.461	1778.44
410.685	1784.44
410.908	1684.44
411.132	1698.44
411.355	1675.44
411.578	1655.44
411.802	1658.44
412.025	1659.44
412.249	1700.44
412.472	1697.44
412.695	1630.44
412.919	1617.44
413.142	1618.44
413.365	1658.44
413.589	1641.44
413.812	1611.44
414.035	1640.44
414.258	1627.44
414.482	1628.44
414.705	1628.44
414.928	1615.44
415.151	1634.44
415.374	1625.44
415.597	1573.44
415.821	1560.44
416.044	1528.44
416.267	1547.44
416.49	1581.44
416.713	1551.44
416.936	1600.44
417.159	1577.44
417.382	1538.44
417.605	1560.44
417.828	1579.44
418.051	1596.44
418.274	1573.44
418.497	1578.44
418.72	1627.44
418.943	1617.44
419.166	1696.44
419.389	1877.44
419.611	1784.44
419.834	1739.44
420.057	1658.44
420.28	1616.44
420.503	1573.44
420.726	1559.44
420.948	1546.44
421.171	1537.44
421.394	1577.44
421.617	1552.44
421.839	1550.44
422.062	1571.44
422.285	1567.44
422.507	1623.44
422.73	1615.44
422.953	1634.44
423.175	1631.44
423.398	1649.44
423.621	1647.44
423.843	1661.44
424.066	1658.44
424.288	1688.44
424.511	1655.44
424.733	1620.44
424.956	1601.44
425.178	1580.44
425.401	1613.44
425.623	1599.44
425.846	1548.44
426.068	1528.44
426.291	1530.44
426.513	1504.44
426.735	1483.44
426.958	1519.44
427.18	1461.44
427.402	1443.44
427.625	1458.44
427.847	1442.44
428.069	1424.44
428.292	1434.44
428.514	1412.44
428.736	1423.44
428.958	1412.44
429.181	1352.44
429.403	1371.44
429.625	1378.44
429.847	1396.44
430.069	1411.44
430.292	1397.44
430.514	1397.44
430.736	1416.44
430.958	1375.44
431.18	1384.44
431.402	1414.44
431.624	1398.44
431.846	1394.44
432.068	1424.44
432.29	1456.44
432.512	1408.44
432.734	1418.44
432.956	1368.44
433.178	1421.44
433.4	1435.44
433.622	1401.44
433.844	1467.44
434.066	1425.44
434.287	1464.44
434.509	1493.44
434.731	1536.44
434.953	1549.44
435.175	1607.44
435.397	1564.44
435.618	1505.44
435.84	1443.44
436.062	1443.44
436.284	1425.44
436.505	1403.44
436.727	1431.44
436.949	1424.44
437.17	1400.44
437.392	1400.44
437.614	1389.44
437.835	1335.44
438.057	1341.44
438.278	1316.44
438.5	1346.44
438.721	1324.44
438.943	1357.44
439.165	1368.44
439.386	1374.44
439.608	1376.44
439.829	1399.44
440.05	1423.44
440.272	1414.44
440.493	1447.44
440.715	1446.44
440.936	1453.44
441.158	1502.44
441.379	1512.44
441.6	1547.44
441.822	1562.44
442.043	1575.44
442.264	1533.44
442.486	1483.44
442.707	1521.44
442.928	1499.44
443.149	1565.44
443.371	1513.44
443.592	1527.44
443.813	1565.44
444.034	1575.44
444.255	1660.44
444.476	1678.44
444.698	1801.44
444.919	1858.44
445.14	1924.44
445.361	1782.44
445.582	1629.44
445.803	1553.44
446.024	1494.44
446.245	1496.44
446.466	1479.44
446.687	1414.44
446.908	1436.44
447.129	1403.44
447.35	1365.44
447.571	1340.44
447.792	1357.44
448.013	1313.44
448.234	1315.44
448.455	1247.44
448.675	1282.44
448.896	1295.44
449.117	1273.44
449.338	1297.44
449.559	1257.44
449.779	1279.44
450	1251.44
450.221	1275.44
450.442	1274.44
450.662	1283.44
450.883	1303.44
451.104	1312.44
451.324	1303.44
451.545	1311.44
451.766	1309.44
451.986	1272.44
452.207	1281.44
452.428	1272.44
452.648	1255.44
452.869	1244.44
453.089	1239.44
453.31	1236.44
453.53	1234.44
453.751	1264.44
453.971	1235.44
454.192	1234.44
454.412	1223.44
454.633	1223.44
454.853	1223.44
455.073	1200.44
455.294	1205.44
455.514	1209.44
455.734	1209.44
455.955	1179.44
456.175	1181.44
456.395	1191.44
456.616	1196.44
456.836	1160.44
457.056	1222.44
457.276	1187.44
457.497	1202.44
457.717	1204.44
457.937	1200.44
458.157	1219.44
458.377	1238.44
458.598	1285.44
458.818	1286.44
459.038	1325.44
459.258	1412.44
459.478	1373.44
459.698	1463.44
459.918	1446.44
460.138	1550.44
460.358	1612.44
460.578	1624.44
460.798	1641.44
461.018	1670.44
461.238	1620.44
461.458	1651.44
461.678	1611.44
461.898	1681.44
462.118	1642.44
462.338	1745.44
462.558	1784.44
462.777	1863.44
462.997	2010.44
463.217	2125.44
463.437	2156.44
463.657	2058.44
463.876	1939.44
464.096	1919.44
464.316	1895.44
464.536	1881.44
464.755	1846.44
464.975	1744.44
465.195	1689.44
465.414	1617.44
465.634	1507.44
465.854	1437.44
466.073	1485.44
466.293	1413.44
466.512	1363.44
466.732	1347.44
466.951	1363.44
467.171	1340.44
467.391	1331.44
467.61	1302.44
467.829	1323.44
468.049	1292.44
468.268	1292.44
468.488	1298.44
468.707	1307.44
468.927	1278.44
469.146	1313.44
469.365	1313.44
469.585	1296.44
469.804	1372.44
470.023	1344.44
470.243	1381.44
470.462	1394.44
470.681	1411.44
470.901	1377.44
471.12	1342.44
471.339	1322.44
471.558	1318.44
471.777	1333.44
471.997	1300.44
472.216	1285.44
472.435	1265.44
472.654	1252.44
472.873	1275.44
473.092	1270.44
473.311	1242.44
473.53	1244.44
473.749	1223.44
473.968	1235.44
474.187	1231.44
474.406	1233.44
474.625	1285.44
474.844	1259.44
475.063	1265.44
475.282	1287.44
475.501	1273.44
475.72	1291.44
475.939	1301.44
476.158	1317.44
476.377	1320.44
476.596	1294.44
476.814	1330.44
477.033	1311.44
477.252	1361.44
477.471	1389.44
477.69	1423.44
477.908	1437.44
478.127	1491.44
478.346	1503.44
478.564	1542.44
478.783	1576.44
479.002	1596.44
479.22	1627.44
479.439	1588.44
479.658	1568.44
479.876	1576.44
480.095	1573.44
480.313	1659.44
480.532	1673.44
480.751	1699.44
480.969	1603.44
481.188	1558.44
481.406	1509.44
481.624	1501.44
481.843	1491.44
482.061	1435.44
482.28	1475.44
482.498	1440.44
482.717	1461.44
482.935	1471.44
483.153	1471.44
483.372	1433.44
483.59	1445.44
483.808	1457.44
484.027	1431.44
484.245	1469.44
484.463	1497.44
484.681	1495.44
484.9	1491.44
485.118	1504.44
485.336	1551.44
485.554	1497.44
485.772	1524.44
485.99	1515.44
486.209	1519.44
486.427	1525.44
486.645	1540.44
486.863	1525.44
487.081	1541.44
487.299	1530.44
487.517	1508.44
487.735	1507.44
487.953	1535.44
488.171	1511.44
488.389	1536.44
488.607	1491.44
488.825	1531.44
489.043	1470.44
489.261	1477.44
489.479	1523.44
489.696	1504.44
489.914	1505.44
490.132	1492.44
490.35	1532.44
490.568	1549.44
490.786	1564.44
491.003	1528.44
491.221	1505.44
491.439	1521.44
491.657	1532.44
491.874	1545.44
492.092	1548.44
492.31	1556.44
492.527	1545.44
492.745	1547.44
