Data from NiCl2@0.5M.TitratingCurve.Agarose3%dH2O.NegLispCup.LampEnergy10.LIBS07252019_HRD10591_18-19-51-571.txt Node
Date: Thu Jul 25 18:19:51 EDT 2019
User: cochatt
Spectrometer: HR+D1059
Trigger mode: 1
Integration Time (sec): 1.000000E-1
Scans to average: 1
Electric dark correction enabled: true
Nonlinearity correction enabled: false
Boxcar width: 0
XAxis mode: Wavelengths
Number of Pixels in Spectrum: 2048
>>>>>Begin Spectral Data<<<<<
223.165	-18.44
223.4	-18.44
223.635	-18.44
223.869	-17.44
224.104	-17.44
224.338	-21.44
224.573	-8.44
224.808	-7.44
225.042	-11.44
225.277	-12.44
225.511	-3.44
225.746	4.56
225.98	26.56
226.215	21.56
226.449	12.56
226.683	9.56
226.918	6.56
227.152	36.56
227.387	43.56
227.621	39.56
227.856	55.56
228.09	54.56
228.324	51.56
228.559	63.56
228.793	71.56
229.027	102.56
229.262	93.56
229.496	128.56
229.73	132.56
229.964	110.56
230.199	116.56
230.433	134.56
230.667	124.56
230.901	146.56
231.136	132.56
231.37	138.56
231.604	141.56
231.838	159.56
232.072	144.56
232.306	149.56
232.541	142.56
232.775	136.56
233.009	132.56
233.243	142.56
233.477	138.56
233.711	144.56
233.945	150.56
234.179	157.56
234.413	144.56
234.647	150.56
234.881	145.56
235.115	143.56
235.349	150.56
235.583	143.56
235.817	142.56
236.051	151.56
236.285	137.56
236.519	140.56
236.753	142.56
236.987	156.56
237.221	144.56
237.455	159.56
237.689	163.56
237.922	137.56
238.156	150.56
238.39	157.56
238.624	160.56
238.858	157.56
239.091	148.56
239.325	159.56
239.559	151.56
239.793	160.56
240.027	162.56
240.26	172.56
240.494	172.56
240.728	171.56
240.961	175.56
241.195	186.56
241.429	180.56
241.662	180.56
241.896	173.56
242.13	194.56
242.363	196.56
242.597	192.56
242.83	187.56
243.064	180.56
243.298	176.56
243.531	197.56
243.765	184.56
243.998	194.56
244.232	203.56
244.465	217.56
244.699	201.56
244.932	203.56
245.166	206.56
245.399	202.56
245.633	211.56
245.866	211.56
246.099	201.56
246.333	199.56
246.566	206.56
246.8	219.56
247.033	215.56
247.266	212.56
247.5	200.56
247.733	219.56
247.966	216.56
248.2	224.56
248.433	215.56
248.666	238.56
248.899	214.56
249.133	230.56
249.366	247.56
249.599	236.56
249.832	231.56
250.066	230.56
250.299	218.56
250.532	227.56
250.765	239.56
250.998	220.56
251.231	239.56
251.465	240.56
251.698	232.56
251.931	245.56
252.164	263.56
252.397	245.56
252.63	254.56
252.863	258.56
253.096	256.56
253.329	262.56
253.562	261.56
253.795	243.56
254.028	250.56
254.261	255.56
254.494	258.56
254.727	256.56
254.96	258.56
255.193	252.56
255.426	276.56
255.659	266.56
255.892	289.56
256.124	262.56
256.357	278.56
256.59	277.56
256.823	267.56
257.056	286.56
257.289	282.56
257.521	289.56
257.754	273.56
257.987	267.56
258.22	296.56
258.452	290.56
258.685	280.56
258.918	284.56
259.151	269.56
259.383	290.56
259.616	297.56
259.849	283.56
260.081	302.56
260.314	293.56
260.547	298.56
260.779	296.56
261.012	293.56
261.244	290.56
261.477	320.56
261.71	299.56
261.942	293.56
262.175	292.56
262.407	291.56
262.64	302.56
262.872	310.56
263.105	308.56
263.337	303.56
263.57	302.56
263.802	319.56
264.035	319.56
264.267	334.56
264.499	311.56
264.732	334.56
264.964	326.56
265.197	314.56
265.429	315.56
265.661	319.56
265.894	336.56
266.126	336.56
266.358	348.56
266.591	344.56
266.823	330.56
267.055	336.56
267.287	346.56
267.52	340.56
267.752	336.56
267.984	329.56
268.216	338.56
268.448	341.56
268.681	346.56
268.913	355.56
269.145	346.56
269.377	324.56
269.609	360.56
269.841	336.56
270.073	350.56
270.306	331.56
270.538	373.56
270.77	370.56
271.002	368.56
271.234	362.56
271.466	372.56
271.698	358.56
271.93	379.56
272.162	342.56
272.394	378.56
272.626	364.56
272.858	350.56
273.09	382.56
273.322	379.56
273.553	370.56
273.785	378.56
274.017	374.56
274.249	383.56
274.481	375.56
274.713	378.56
274.945	365.56
275.176	397.56
275.408	401.56
275.64	380.56
275.872	384.56
276.104	391.56
276.335	391.56
276.567	380.56
276.799	399.56
277.031	387.56
277.262	410.56
277.494	395.56
277.726	408.56
277.957	388.56
278.189	402.56
278.421	410.56
278.652	406.56
278.884	384.56
279.115	418.56
279.347	405.56
279.579	418.56
279.81	399.56
280.042	413.56
280.273	420.56
280.505	412.56
280.736	416.56
280.968	437.56
281.199	430.56
281.431	423.56
281.662	431.56
281.894	436.56
282.125	443.56
282.356	438.56
282.588	428.56
282.819	438.56
283.051	453.56
283.282	432.56
283.513	438.56
283.745	436.56
283.976	450.56
284.207	442.56
284.439	447.56
284.67	456.56
284.901	443.56
285.132	471.56
285.364	454.56
285.595	444.56
285.826	461.56
286.057	455.56
286.288	438.56
286.52	472.56
286.751	460.56
286.982	445.56
287.213	454.56
287.444	463.56
287.675	460.56
287.906	468.56
288.138	479.56
288.369	490.56
288.6	488.56
288.831	476.56
289.062	490.56
289.293	484.56
289.524	474.56
289.755	483.56
289.986	482.56
290.217	482.56
290.448	480.56
290.679	490.56
290.91	490.56
291.141	473.56
291.371	507.56
291.602	483.56
291.833	491.56
292.064	472.56
292.295	484.56
292.526	481.56
292.757	490.56
292.987	477.56
293.218	471.56
293.449	494.56
293.68	493.56
293.91	504.56
294.141	500.56
294.372	494.56
294.603	518.56
294.833	514.56
295.064	520.56
295.295	514.56
295.525	501.56
295.756	503.56
295.987	501.56
296.217	513.56
296.448	511.56
296.679	513.56
296.909	519.56
297.14	531.56
297.37	534.56
297.601	534.56
297.831	539.56
298.062	520.56
298.292	544.56
298.523	542.56
298.753	557.56
298.984	552.56
299.214	524.56
299.445	547.56
299.675	555.56
299.905	539.56
300.136	543.56
300.366	551.56
300.597	578.56
300.827	566.56
301.057	551.56
301.288	566.56
301.518	578.56
301.748	583.56
301.979	581.56
302.209	578.56
302.439	566.56
302.669	583.56
302.9	582.56
303.13	557.56
303.36	571.56
303.59	574.56
303.82	575.56
304.051	583.56
304.281	560.56
304.511	583.56
304.741	576.56
304.971	591.56
305.201	590.56
305.431	587.56
305.661	567.56
305.891	562.56
306.121	573.56
306.352	557.56
306.582	558.56
306.812	557.56
307.042	564.56
307.272	578.56
307.502	587.56
307.731	573.56
307.961	582.56
308.191	568.56
308.421	560.56
308.651	555.56
308.881	558.56
309.111	573.56
309.341	546.56
309.571	564.56
309.8	601.56
310.03	565.56
310.26	570.56
310.49	552.56
310.72	576.56
310.949	581.56
311.179	584.56
311.409	581.56
311.639	578.56
311.868	584.56
312.098	592.56
312.328	582.56
312.557	603.56
312.787	581.56
313.017	602.56
313.246	589.56
313.476	599.56
313.706	611.56
313.935	608.56
314.165	615.56
314.394	606.56
314.624	612.56
314.853	603.56
315.083	626.56
315.312	632.56
315.542	615.56
315.771	582.56
316.001	623.56
316.23	582.56
316.46	604.56
316.689	586.56
316.919	588.56
317.148	616.56
317.377	587.56
317.607	580.56
317.836	582.56
318.065	607.56
318.295	615.56
318.524	602.56
318.753	596.56
318.983	606.56
319.212	597.56
319.441	611.56
319.67	603.56
319.9	613.56
320.129	604.56
320.358	573.56
320.587	566.56
320.816	583.56
321.046	620.56
321.275	609.56
321.504	593.56
321.733	609.56
321.962	619.56
322.191	623.56
322.42	626.56
322.649	632.56
322.878	629.56
323.108	612.56
323.337	618.56
323.566	633.56
323.795	642.56
324.024	614.56
324.253	613.56
324.482	619.56
324.71	629.56
324.939	648.56
325.168	648.56
325.397	641.56
325.626	636.56
325.855	650.56
326.084	624.56
326.313	664.56
326.542	651.56
326.77	678.56
326.999	660.56
327.228	644.56
327.457	645.56
327.686	660.56
327.914	649.56
328.143	674.56
328.372	664.56
328.6	666.56
328.829	662.56
329.058	645.56
329.287	674.56
329.515	699.56
329.744	687.56
329.972	662.56
330.201	673.56
330.43	667.56
330.658	666.56
330.887	672.56
331.115	684.56
331.344	695.56
331.572	703.56
331.801	710.56
332.03	721.56
332.258	724.56
332.486	717.56
332.715	733.56
332.943	779.56
333.172	783.56
333.4	827.56
333.629	815.56
333.857	836.56
334.085	831.56
334.314	816.56
334.542	820.56
334.771	822.56
334.999	800.56
335.227	810.56
335.455	808.56
335.684	824.56
335.912	828.56
336.14	800.56
336.369	802.56
336.597	790.56
336.825	772.56
337.053	795.56
337.281	783.56
337.51	783.56
337.738	762.56
337.966	735.56
338.194	733.56
338.422	736.56
338.65	730.56
338.878	711.56
339.106	700.56
339.334	718.56
339.562	735.56
339.79	719.56
340.018	697.56
340.246	673.56
340.474	696.56
340.702	692.56
340.93	703.56
341.158	699.56
341.386	706.56
341.614	734.56
341.842	711.56
342.07	684.56
342.298	692.56
342.526	685.56
342.754	706.56
342.981	685.56
343.209	698.56
343.437	725.56
343.665	781.56
343.893	797.56
344.12	838.56
344.348	790.56
344.576	773.56
344.804	761.56
345.031	735.56
345.259	720.56
345.487	720.56
345.714	692.56
345.942	719.56
346.17	703.56
346.397	711.56
346.625	696.56
346.853	667.56
347.08	664.56
347.308	666.56
347.535	691.56
347.763	668.56
347.99	680.56
348.218	656.56
348.445	659.56
348.673	645.56
348.9	685.56
349.128	656.56
349.355	657.56
349.583	683.56
349.81	650.56
350.037	655.56
350.265	686.56
350.492	635.56
350.72	632.56
350.947	636.56
351.174	665.56
351.402	662.56
351.629	669.56
351.856	648.56
352.083	630.56
352.311	654.56
352.538	662.56
352.765	680.56
352.992	637.56
353.22	638.56
353.447	618.56
353.674	605.56
353.901	629.56
354.128	627.56
354.355	629.56
354.583	641.56
354.81	616.56
355.037	630.56
355.264	647.56
355.491	618.56
355.718	626.56
355.945	637.56
356.172	661.56
356.399	650.56
356.626	642.56
356.853	668.56
357.08	651.56
357.307	662.56
357.534	634.56
357.761	635.56
357.988	632.56
358.215	632.56
358.441	641.56
358.668	633.56
358.895	626.56
359.122	650.56
359.349	631.56
359.576	619.56
359.802	628.56
360.029	633.56
360.256	651.56
360.483	627.56
360.709	647.56
360.936	661.56
361.163	643.56
361.39	663.56
361.616	639.56
361.843	652.56
362.07	685.56
362.296	652.56
362.523	634.56
362.749	652.56
362.976	637.56
363.203	637.56
363.429	615.56
363.656	611.56
363.882	628.56
364.109	633.56
364.335	623.56
364.562	620.56
364.788	640.56
365.015	628.56
365.241	621.56
365.468	632.56
365.694	601.56
365.92	610.56
366.147	608.56
366.373	628.56
366.599	626.56
366.826	599.56
367.052	619.56
367.278	665.56
367.505	651.56
367.731	629.56
367.957	625.56
368.184	649.56
368.41	618.56
368.636	627.56
368.862	639.56
369.089	647.56
369.315	634.56
369.541	638.56
369.767	651.56
369.993	643.56
370.219	654.56
370.445	648.56
370.672	661.56
370.898	646.56
371.124	660.56
371.35	676.56
371.576	677.56
371.802	678.56
372.028	667.56
372.254	660.56
372.48	655.56
372.706	672.56
372.932	700.56
373.158	685.56
373.384	674.56
373.61	679.56
373.835	700.56
374.061	683.56
374.287	671.56
374.513	665.56
374.739	726.56
374.965	704.56
375.191	715.56
375.416	715.56
375.642	687.56
375.868	691.56
376.094	692.56
376.319	660.56
376.545	701.56
376.771	687.56
376.997	674.56
377.222	664.56
377.448	670.56
377.674	669.56
377.899	672.56
378.125	651.56
378.35	651.56
378.576	635.56
378.802	677.56
379.027	680.56
379.253	662.56
379.478	641.56
379.704	644.56
379.929	674.56
380.155	663.56
380.38	662.56
380.606	655.56
380.831	666.56
381.057	675.56
381.282	670.56
381.507	644.56
381.733	647.56
381.958	662.56
382.184	671.56
382.409	698.56
382.634	688.56
382.86	694.56
383.085	705.56
383.31	683.56
383.535	705.56
383.761	718.56
383.986	728.56
384.211	724.56
384.436	735.56
384.662	754.56
384.887	734.56
385.112	742.56
385.337	788.56
385.562	760.56
385.787	783.56
386.013	783.56
386.238	762.56
386.463	792.56
386.688	785.56
386.913	779.56
387.138	789.56
387.363	770.56
387.588	804.56
387.813	760.56
388.038	796.56
388.263	780.56
388.488	777.56
388.713	764.56
388.938	744.56
389.163	750.56
389.387	750.56
389.612	755.56
389.837	754.56
390.062	779.56
390.287	770.56
390.512	787.56
390.736	781.56
390.961	785.56
391.186	807.56
391.411	821.56
391.636	834.56
391.86	859.56
392.085	867.56
392.31	850.56
392.534	859.56
392.759	847.56
392.984	811.56
393.208	815.56
393.433	814.56
393.658	835.56
393.882	855.56
394.107	860.56
394.331	852.56
394.556	819.56
394.78	848.56
395.005	843.56
395.229	847.56
395.454	855.56
395.678	872.56
395.903	858.56
396.127	839.56
396.352	861.56
396.576	814.56
396.801	844.56
397.025	840.56
397.249	851.56
397.474	875.56
397.698	867.56
397.922	888.56
398.147	887.56
398.371	906.56
398.595	926.56
398.82	942.56
399.044	1002.56
399.268	1064.56
399.492	1208.56
399.717	1277.56
399.941	1302.56
400.165	1243.56
400.389	1147.56
400.613	1074.56
400.837	1062.56
401.062	1004.56
401.286	974.56
401.51	984.56
401.734	987.56
401.958	975.56
402.182	993.56
402.406	1014.56
402.63	960.56
402.854	1014.56
403.078	1007.56
403.302	1032.56
403.526	1063.56
403.75	1039.56
403.974	1072.56
404.198	1046.56
404.422	1063.56
404.645	1071.56
404.869	1058.56
405.093	1066.56
405.317	1055.56
405.541	1030.56
405.765	1062.56
405.988	1065.56
406.212	1072.56
406.436	1059.56
406.66	1076.56
406.883	1080.56
407.107	1166.56
407.331	1194.56
407.555	1209.56
407.778	1206.56
408.002	1203.56
408.226	1170.56
408.449	1160.56
408.673	1156.56
408.896	1125.56
409.12	1092.56
409.344	1091.56
409.567	1086.56
409.791	1109.56
410.014	1084.56
410.238	1068.56
410.461	1068.56
410.685	1067.56
410.908	1060.56
411.132	1040.56
411.355	1006.56
411.578	1026.56
411.802	1020.56
412.025	1035.56
412.249	1041.56
412.472	1034.56
412.695	1027.56
412.919	1025.56
413.142	999.56
413.365	1002.56
413.589	1014.56
413.812	998.56
414.035	1006.56
414.258	971.56
414.482	1009.56
414.705	1002.56
414.928	1006.56
415.151	989.56
415.374	983.56
415.597	997.56
415.821	962.56
416.044	988.56
416.267	966.56
416.49	961.56
416.713	931.56
416.936	983.56
417.159	965.56
417.382	966.56
417.605	961.56
417.828	998.56
418.051	954.56
418.274	997.56
418.497	970.56
418.72	984.56
418.943	1001.56
419.166	1037.56
419.389	1099.56
419.611	1076.56
419.834	1059.56
420.057	1015.56
420.28	982.56
420.503	994.56
420.726	979.56
420.948	988.56
421.171	960.56
421.394	977.56
421.617	987.56
421.839	985.56
422.062	1004.56
422.285	985.56
422.507	980.56
422.73	994.56
422.953	1016.56
423.175	980.56
423.398	968.56
423.621	987.56
423.843	1007.56
424.066	991.56
424.288	996.56
424.511	986.56
424.733	988.56
424.956	976.56
425.178	982.56
425.401	995.56
425.623	970.56
425.846	940.56
426.068	926.56
426.291	912.56
426.513	930.56
426.735	943.56
426.958	963.56
427.18	896.56
427.402	943.56
427.625	910.56
427.847	925.56
428.069	918.56
428.292	926.56
428.514	892.56
428.736	891.56
428.958	936.56
429.181	895.56
429.403	889.56
429.625	899.56
429.847	906.56
430.069	912.56
430.292	900.56
430.514	913.56
430.736	885.56
430.958	900.56
431.18	920.56
431.402	903.56
431.624	877.56
431.846	939.56
432.068	906.56
432.29	930.56
432.512	917.56
432.734	902.56
432.956	906.56
433.178	890.56
433.4	895.56
433.622	872.56
433.844	956.56
434.066	942.56
434.287	958.56
434.509	938.56
434.731	1021.56
434.953	1020.56
435.175	1015.56
435.397	984.56
435.618	963.56
435.84	942.56
436.062	922.56
436.284	927.56
436.505	932.56
436.727	911.56
436.949	918.56
437.17	908.56
437.392	908.56
437.614	891.56
437.835	885.56
438.057	863.56
438.278	873.56
438.5	899.56
438.721	868.56
438.943	888.56
439.165	877.56
439.386	895.56
439.608	931.56
439.829	900.56
440.05	930.56
440.272	902.56
440.493	926.56
440.715	947.56
440.936	948.56
441.158	951.56
441.379	970.56
441.6	998.56
441.822	1015.56
442.043	1022.56
442.264	994.56
442.486	988.56
442.707	997.56
442.928	986.56
443.149	989.56
443.371	971.56
443.592	1037.56
443.813	1036.56
444.034	1040.56
444.255	1029.56
444.476	1076.56
444.698	1101.56
444.919	1143.56
445.14	1238.56
445.361	1140.56
445.582	1055.56
445.803	1004.56
446.024	998.56
446.245	985.56
446.466	987.56
446.687	956.56
446.908	951.56
447.129	904.56
447.35	922.56
447.571	915.56
447.792	899.56
448.013	883.56
448.234	866.56
448.455	871.56
448.675	891.56
448.896	863.56
449.117	827.56
449.338	860.56
449.559	861.56
449.779	863.56
450	845.56
450.221	855.56
450.442	846.56
450.662	870.56
450.883	886.56
451.104	900.56
451.324	872.56
451.545	848.56
451.766	862.56
451.986	847.56
452.207	832.56
452.428	848.56
452.648	864.56
452.869	828.56
453.089	837.56
453.31	843.56
453.53	826.56
453.751	812.56
453.971	810.56
454.192	818.56
454.412	809.56
454.633	807.56
454.853	812.56
455.073	783.56
455.294	831.56
455.514	798.56
455.734	791.56
455.955	787.56
456.175	811.56
456.395	821.56
456.616	784.56
456.836	793.56
457.056	820.56
457.276	804.56
457.497	827.56
457.717	826.56
457.937	825.56
458.157	806.56
458.377	820.56
458.598	852.56
458.818	872.56
459.038	879.56
459.258	903.56
459.478	916.56
459.698	948.56
459.918	957.56
460.138	997.56
460.358	1035.56
460.578	1048.56
460.798	1052.56
461.018	1063.56
461.238	1080.56
461.458	1060.56
461.678	1060.56
461.898	1096.56
462.118	1115.56
462.338	1143.56
462.558	1170.56
462.777	1214.56
462.997	1267.56
463.217	1316.56
463.437	1334.56
463.657	1316.56
463.876	1263.56
464.096	1231.56
464.316	1245.56
464.536	1219.56
464.755	1197.56
464.975	1151.56
465.195	1097.56
465.414	1098.56
465.634	1037.56
465.854	980.56
466.073	977.56
466.293	939.56
466.512	949.56
466.732	925.56
466.951	893.56
467.171	929.56
467.391	906.56
467.61	930.56
467.829	895.56
468.049	892.56
468.268	905.56
468.488	895.56
468.707	863.56
468.927	887.56
469.146	874.56
469.365	895.56
469.585	898.56
469.804	902.56
470.023	891.56
470.243	902.56
470.462	920.56
470.681	931.56
470.901	925.56
471.12	890.56
471.339	887.56
471.558	905.56
471.777	891.56
471.997	893.56
472.216	877.56
472.435	873.56
472.654	874.56
472.873	838.56
473.092	856.56
473.311	870.56
473.53	897.56
473.749	856.56
473.968	860.56
474.187	853.56
474.406	854.56
474.625	859.56
474.844	858.56
475.063	873.56
475.282	883.56
475.501	887.56
475.72	875.56
475.939	889.56
476.158	896.56
476.377	917.56
476.596	914.56
476.814	903.56
477.033	922.56
477.252	924.56
477.471	907.56
477.69	961.56
477.908	1006.56
478.127	1003.56
478.346	1009.56
478.564	1024.56
478.783	1040.56
479.002	1048.56
479.22	1047.56
479.439	1051.56
479.658	1067.56
479.876	1063.56
480.095	1052.56
480.313	1083.56
480.532	1101.56
480.751	1098.56
480.969	1065.56
481.188	1013.56
481.406	1024.56
481.624	1022.56
481.843	971.56
482.061	988.56
482.28	997.56
482.498	989.56
482.717	994.56
482.935	993.56
483.153	994.56
483.372	987.56
483.59	1036.56
483.808	1024.56
484.027	1016.56
484.245	1037.56
484.463	1027.56
484.681	1064.56
484.9	1024.56
485.118	1043.56
485.336	1034.56
485.554	1013.56
485.772	1028.56
485.99	1004.56
486.209	1036.56
486.427	1069.56
486.645	1069.56
486.863	1069.56
487.081	1036.56
487.299	1039.56
487.517	1040.56
487.735	1038.56
487.953	1035.56
488.171	1043.56
488.389	1028.56
488.607	1036.56
488.825	1011.56
489.043	1022.56
489.261	1020.56
489.479	1046.56
489.696	1029.56
489.914	1028.56
490.132	1050.56
490.35	1054.56
490.568	1068.56
490.786	1084.56
491.003	1061.56
491.221	1065.56
491.439	1056.56
491.657	1070.56
491.874	1095.56
492.092	1086.56
492.31	1105.56
492.527	1100.56
492.745	1074.56
492.963	1080.56
493.18	1100.56
493.398	1090.56
493.615	1074.56
493.833	1071.56
494.05	1120.56
494.268	1136.56
494.485	1121.56
494.703	1128.56
494.92	1131.56
495.138	1124.56
495.355	1174.56
495.573	1145.56
495.79	1124.56
496.008	1154.56
496.225	1168.56
496.442	1144.56
496.66	1157.56
496.877	1207.56
497.094	1208.56
497.312	1206.56
497.529	1244.56
497.746	1293.56
497.963	1304.56
498.181	1364.56
498.398	1414.56
498.615	1517.56
498.832	1549.56
