Data from NiCl2@0.25M.TitratingCurve.Agarose3%dH2O.NegLispCup.LampEnergy10.LIBS07252019_HRD10591_18-25-12-573.txt Node
Date: Thu Jul 25 18:25:12 EDT 2019
User: cochatt
Spectrometer: HR+D1059
Trigger mode: 1
Integration Time (sec): 1.000000E-1
Scans to average: 1
Electric dark correction enabled: true
Nonlinearity correction enabled: false
Boxcar width: 0
XAxis mode: Wavelengths
Number of Pixels in Spectrum: 2048
>>>>>Begin Spectral Data<<<<<
223.165	-10.75
223.4	-10.75
223.635	-10.75
223.869	-15.75
224.104	-17.75
224.338	-13.75
224.573	-20.75
224.808	-11.75
225.042	-7.75
225.277	2.25
225.511	6.25
225.746	-5.75
225.98	6.25
226.215	8.25
226.449	15.25
226.683	10.25
226.918	20.25
227.152	35.25
227.387	32.25
227.621	33.25
227.856	41.25
228.09	54.25
228.324	52.25
228.559	64.25
228.793	75.25
229.027	100.25
229.262	102.25
229.496	102.25
229.73	119.25
229.964	110.25
230.199	117.25
230.433	124.25
230.667	125.25
230.901	122.25
231.136	140.25
231.37	130.25
231.604	133.25
231.838	126.25
232.072	140.25
232.306	135.25
232.541	134.25
232.775	140.25
233.009	127.25
233.243	136.25
233.477	147.25
233.711	129.25
233.945	135.25
234.179	157.25
234.413	144.25
234.647	166.25
234.881	152.25
235.115	153.25
235.349	146.25
235.583	143.25
235.817	145.25
236.051	160.25
236.285	129.25
236.519	149.25
236.753	149.25
236.987	144.25
237.221	158.25
237.455	168.25
237.689	171.25
237.922	155.25
238.156	168.25
238.39	163.25
238.624	165.25
238.858	172.25
239.091	159.25
239.325	158.25
239.559	169.25
239.793	170.25
240.027	167.25
240.26	157.25
240.494	168.25
240.728	169.25
240.961	171.25
241.195	183.25
241.429	166.25
241.662	197.25
241.896	187.25
242.13	188.25
242.363	177.25
242.597	184.25
242.83	179.25
243.064	184.25
243.298	217.25
243.531	190.25
243.765	168.25
243.998	199.25
244.232	178.25
244.465	192.25
244.699	208.25
244.932	211.25
245.166	200.25
245.399	212.25
245.633	211.25
245.866	204.25
246.099	205.25
246.333	220.25
246.566	207.25
246.8	216.25
247.033	211.25
247.266	219.25
247.5	215.25
247.733	207.25
247.966	216.25
248.2	226.25
248.433	224.25
248.666	231.25
248.899	217.25
249.133	229.25
249.366	238.25
249.599	225.25
249.832	222.25
250.066	241.25
250.299	234.25
250.532	233.25
250.765	241.25
250.998	254.25
251.231	232.25
251.465	244.25
251.698	264.25
251.931	253.25
252.164	260.25
252.397	272.25
252.63	254.25
252.863	268.25
253.096	261.25
253.329	255.25
253.562	260.25
253.795	238.25
254.028	272.25
254.261	264.25
254.494	260.25
254.727	287.25
254.96	246.25
255.193	270.25
255.426	263.25
255.659	258.25
255.892	283.25
256.124	263.25
256.357	264.25
256.59	282.25
256.823	260.25
257.056	281.25
257.289	282.25
257.521	283.25
257.754	262.25
257.987	276.25
258.22	274.25
258.452	284.25
258.685	296.25
258.918	295.25
259.151	281.25
259.383	288.25
259.616	293.25
259.849	282.25
260.081	297.25
260.314	300.25
260.547	302.25
260.779	308.25
261.012	307.25
261.244	295.25
261.477	306.25
261.71	317.25
261.942	322.25
262.175	307.25
262.407	311.25
262.64	287.25
262.872	304.25
263.105	307.25
263.337	311.25
263.57	324.25
263.802	304.25
264.035	316.25
264.267	330.25
264.499	310.25
264.732	319.25
264.964	326.25
265.197	312.25
265.429	326.25
265.661	325.25
265.894	322.25
266.126	342.25
266.358	339.25
266.591	313.25
266.823	331.25
267.055	333.25
267.287	343.25
267.52	342.25
267.752	353.25
267.984	337.25
268.216	331.25
268.448	354.25
268.681	333.25
268.913	353.25
269.145	345.25
269.377	353.25
269.609	349.25
269.841	361.25
270.073	350.25
270.306	342.25
270.538	364.25
270.77	351.25
271.002	339.25
271.234	347.25
271.466	367.25
271.698	356.25
271.93	359.25
272.162	359.25
272.394	366.25
272.626	366.25
272.858	364.25
273.09	380.25
273.322	373.25
273.553	362.25
273.785	380.25
274.017	370.25
274.249	370.25
274.481	386.25
274.713	380.25
274.945	380.25
275.176	388.25
275.408	385.25
275.64	377.25
275.872	392.25
276.104	391.25
276.335	397.25
276.567	379.25
276.799	390.25
277.031	400.25
277.262	380.25
277.494	408.25
277.726	410.25
277.957	398.25
278.189	395.25
278.421	394.25
278.652	415.25
278.884	412.25
279.115	407.25
279.347	402.25
279.579	398.25
279.81	417.25
280.042	433.25
280.273	419.25
280.505	420.25
280.736	421.25
280.968	408.25
281.199	436.25
281.431	425.25
281.662	408.25
281.894	426.25
282.125	440.25
282.356	447.25
282.588	436.25
282.819	411.25
283.051	441.25
283.282	423.25
283.513	455.25
283.745	450.25
283.976	453.25
284.207	424.25
284.439	442.25
284.67	448.25
284.901	453.25
285.132	442.25
285.364	459.25
285.595	443.25
285.826	465.25
286.057	466.25
286.288	455.25
286.52	458.25
286.751	455.25
286.982	469.25
287.213	460.25
287.444	482.25
287.675	459.25
287.906	473.25
288.138	467.25
288.369	465.25
288.6	476.25
288.831	475.25
289.062	464.25
289.293	455.25
289.524	507.25
289.755	495.25
289.986	471.25
290.217	494.25
290.448	495.25
290.679	519.25
290.91	508.25
291.141	491.25
291.371	486.25
291.602	496.25
291.833	505.25
292.064	502.25
292.295	501.25
292.526	481.25
292.757	498.25
292.987	487.25
293.218	477.25
293.449	510.25
293.68	512.25
293.91	491.25
294.141	508.25
294.372	482.25
294.603	497.25
294.833	478.25
295.064	472.25
295.295	502.25
295.525	498.25
295.756	513.25
295.987	506.25
296.217	499.25
296.448	492.25
296.679	525.25
296.909	519.25
297.14	530.25
297.37	530.25
297.601	510.25
297.831	519.25
298.062	537.25
298.292	535.25
298.523	546.25
298.753	560.25
298.984	535.25
299.214	537.25
299.445	537.25
299.675	527.25
299.905	553.25
300.136	537.25
300.366	547.25
300.597	537.25
300.827	539.25
301.057	553.25
301.288	567.25
301.518	558.25
301.748	566.25
301.979	580.25
302.209	555.25
302.439	576.25
302.669	561.25
302.9	546.25
303.13	552.25
303.36	565.25
303.59	574.25
303.82	571.25
304.051	547.25
304.281	538.25
304.511	572.25
304.741	559.25
304.971	547.25
305.201	563.25
305.431	554.25
305.661	558.25
305.891	558.25
306.121	562.25
306.352	562.25
306.582	563.25
306.812	536.25
307.042	522.25
307.272	546.25
307.502	547.25
307.731	565.25
307.961	549.25
308.191	570.25
308.421	559.25
308.651	560.25
308.881	558.25
309.111	569.25
309.341	540.25
309.571	543.25
309.8	550.25
310.03	550.25
310.26	550.25
310.49	558.25
310.72	548.25
310.949	566.25
311.179	546.25
311.409	558.25
311.639	566.25
311.868	555.25
312.098	566.25
312.328	577.25
312.557	574.25
312.787	552.25
313.017	568.25
313.246	588.25
313.476	570.25
313.706	600.25
313.935	582.25
314.165	591.25
314.394	598.25
314.624	579.25
314.853	595.25
315.083	606.25
315.312	594.25
315.542	609.25
315.771	578.25
316.001	606.25
316.23	592.25
316.46	588.25
316.689	579.25
316.919	598.25
317.148	588.25
317.377	595.25
317.607	584.25
317.836	597.25
318.065	575.25
318.295	605.25
318.524	582.25
318.753	566.25
318.983	585.25
319.212	566.25
319.441	562.25
319.67	566.25
319.9	573.25
320.129	578.25
320.358	576.25
320.587	592.25
320.816	602.25
321.046	572.25
321.275	586.25
321.504	589.25
321.733	610.25
321.962	594.25
322.191	600.25
322.42	565.25
322.649	587.25
322.878	579.25
323.108	582.25
323.337	608.25
323.566	605.25
323.795	597.25
324.024	611.25
324.253	608.25
324.482	587.25
324.71	592.25
324.939	630.25
325.168	610.25
325.397	610.25
325.626	624.25
325.855	638.25
326.084	628.25
326.313	638.25
326.542	642.25
326.77	633.25
326.999	636.25
327.228	633.25
327.457	615.25
327.686	640.25
327.914	642.25
328.143	651.25
328.372	649.25
328.6	612.25
328.829	639.25
329.058	648.25
329.287	636.25
329.515	650.25
329.744	640.25
329.972	635.25
330.201	650.25
330.43	651.25
330.658	674.25
330.887	665.25
331.115	672.25
331.344	702.25
331.572	680.25
331.801	680.25
332.03	708.25
332.258	729.25
332.486	731.25
332.715	765.25
332.943	762.25
333.172	824.25
333.4	821.25
333.629	855.25
333.857	886.25
334.085	847.25
334.314	850.25
334.542	816.25
334.771	836.25
334.999	820.25
335.227	818.25
335.455	825.25
335.684	784.25
335.912	779.25
336.14	784.25
336.369	784.25
336.597	759.25
336.825	763.25
337.053	759.25
337.281	747.25
337.51	739.25
337.738	726.25
337.966	723.25
338.194	713.25
338.422	705.25
338.65	700.25
338.878	715.25
339.106	708.25
339.334	703.25
339.562	696.25
339.79	671.25
340.018	691.25
340.246	688.25
340.474	679.25
340.702	676.25
340.93	674.25
341.158	694.25
341.386	666.25
341.614	664.25
341.842	690.25
342.07	658.25
342.298	652.25
342.526	644.25
342.754	667.25
342.981	703.25
343.209	688.25
343.437	729.25
343.665	766.25
343.893	820.25
344.12	832.25
344.348	816.25
344.576	759.25
344.804	740.25
345.031	717.25
345.259	721.25
345.487	664.25
345.714	662.25
345.942	673.25
346.17	660.25
346.397	666.25
346.625	664.25
346.853	653.25
347.08	650.25
347.308	667.25
347.535	659.25
347.763	643.25
347.99	658.25
348.218	665.25
348.445	674.25
348.673	621.25
348.9	634.25
349.128	650.25
349.355	637.25
349.583	659.25
349.81	633.25
350.037	621.25
350.265	622.25
350.492	607.25
350.72	613.25
350.947	626.25
351.174	614.25
351.402	630.25
351.629	626.25
351.856	638.25
352.083	627.25
352.311	636.25
352.538	626.25
352.765	610.25
352.992	625.25
353.22	612.25
353.447	619.25
353.674	614.25
353.901	623.25
354.128	624.25
354.355	616.25
354.583	614.25
354.81	640.25
355.037	645.25
355.264	643.25
355.491	638.25
355.718	615.25
355.945	647.25
356.172	643.25
356.399	646.25
356.626	628.25
356.853	640.25
357.08	614.25
357.307	628.25
357.534	624.25
357.761	634.25
357.988	624.25
358.215	627.25
358.441	624.25
358.668	601.25
358.895	604.25
359.122	624.25
359.349	616.25
359.576	619.25
359.802	627.25
360.029	630.25
360.256	606.25
360.483	614.25
360.709	635.25
360.936	642.25
361.163	619.25
361.39	641.25
361.616	596.25
361.843	619.25
362.07	630.25
362.296	614.25
362.523	626.25
362.749	636.25
362.976	609.25
363.203	623.25
363.429	634.25
363.656	622.25
363.882	611.25
364.109	636.25
364.335	624.25
364.562	613.25
364.788	620.25
365.015	617.25
365.241	624.25
365.468	617.25
365.694	611.25
365.92	631.25
366.147	626.25
366.373	639.25
366.599	631.25
366.826	632.25
367.052	599.25
367.278	627.25
367.505	616.25
367.731	627.25
367.957	634.25
368.184	642.25
368.41	624.25
368.636	631.25
368.862	662.25
369.089	642.25
369.315	670.25
369.541	669.25
369.767	655.25
369.993	659.25
370.219	659.25
370.445	627.25
370.672	671.25
370.898	683.25
371.124	697.25
371.35	687.25
371.576	680.25
371.802	681.25
372.028	677.25
372.254	700.25
372.48	712.25
372.706	680.25
372.932	705.25
373.158	670.25
373.384	688.25
373.61	694.25
373.835	686.25
374.061	688.25
374.287	703.25
374.513	697.25
374.739	726.25
374.965	755.25
375.191	758.25
375.416	756.25
375.642	741.25
375.868	718.25
376.094	694.25
376.319	710.25
376.545	709.25
376.771	681.25
376.997	711.25
377.222	704.25
377.448	674.25
377.674	707.25
377.899	687.25
378.125	686.25
378.35	696.25
378.576	684.25
378.802	664.25
379.027	670.25
379.253	702.25
379.478	670.25
379.704	665.25
379.929	664.25
380.155	682.25
380.38	681.25
380.606	691.25
380.831	684.25
381.057	692.25
381.282	699.25
381.507	701.25
381.733	713.25
381.958	676.25
382.184	691.25
382.409	704.25
382.634	719.25
382.86	704.25
383.085	734.25
383.31	736.25
383.535	751.25
383.761	758.25
383.986	790.25
384.211	785.25
384.436	796.25
384.662	791.25
384.887	806.25
385.112	809.25
385.337	819.25
385.562	812.25
385.787	807.25
386.013	839.25
386.238	838.25
386.463	808.25
386.688	850.25
386.913	783.25
387.138	817.25
387.363	814.25
387.588	839.25
387.813	821.25
388.038	810.25
388.263	799.25
388.488	822.25
388.713	823.25
388.938	797.25
389.163	793.25
389.387	801.25
389.612	792.25
389.837	799.25
390.062	795.25
390.287	824.25
390.512	802.25
390.736	798.25
390.961	814.25
391.186	842.25
391.411	858.25
391.636	878.25
391.86	942.25
392.085	935.25
392.31	923.25
392.534	897.25
392.759	875.25
392.984	866.25
393.208	856.25
393.433	845.25
393.658	893.25
393.882	850.25
394.107	882.25
394.331	884.25
394.556	853.25
394.78	882.25
395.005	908.25
395.229	908.25
395.454	893.25
395.678	904.25
395.903	937.25
396.127	940.25
396.352	889.25
396.576	869.25
396.801	894.25
397.025	857.25
397.249	888.25
397.474	916.25
397.698	921.25
397.922	930.25
398.147	930.25
398.371	975.25
398.595	996.25
398.82	1016.25
399.044	1085.25
399.268	1216.25
399.492	1435.25
399.717	1588.25
399.941	1609.25
400.165	1376.25
400.389	1232.25
400.613	1146.25
400.837	1102.25
401.062	1075.25
401.286	1058.25
401.51	1041.25
401.734	1059.25
401.958	1030.25
402.182	1047.25
402.406	1058.25
402.63	1048.25
402.854	1103.25
403.078	1114.25
403.302	1148.25
403.526	1144.25
403.75	1178.25
403.974	1195.25
404.198	1184.25
404.422	1199.25
404.645	1170.25
404.869	1188.25
405.093	1170.25
405.317	1144.25
405.541	1135.25
405.765	1120.25
405.988	1109.25
406.212	1109.25
406.436	1103.25
406.66	1160.25
406.883	1215.25
407.107	1236.25
407.331	1304.25
407.555	1350.25
407.778	1333.25
408.002	1291.25
408.226	1233.25
408.449	1254.25
408.673	1195.25
408.896	1169.25
409.12	1176.25
409.344	1192.25
409.567	1150.25
409.791	1164.25
410.014	1173.25
410.238	1160.25
410.461	1149.25
410.685	1128.25
410.908	1093.25
411.132	1092.25
411.355	1046.25
411.578	1060.25
411.802	1082.25
412.025	1109.25
412.249	1088.25
412.472	1090.25
412.695	1055.25
412.919	1012.25
413.142	1042.25
413.365	1022.25
413.589	1061.25
413.812	1000.25
414.035	1026.25
414.258	980.25
414.482	1017.25
414.705	1042.25
414.928	1027.25
415.151	1012.25
415.374	1022.25
415.597	1022.25
415.821	1033.25
416.044	1003.25
416.267	948.25
416.49	990.25
416.713	1005.25
416.936	1026.25
417.159	999.25
417.382	1000.25
417.605	1014.25
417.828	993.25
418.051	1016.25
418.274	994.25
418.497	995.25
418.72	1054.25
418.943	1044.25
419.166	1105.25
419.389	1200.25
419.611	1149.25
419.834	1101.25
420.057	1084.25
420.28	1046.25
420.503	1022.25
420.726	1020.25
420.948	1015.25
421.171	1000.25
421.394	1015.25
421.617	1014.25
421.839	1043.25
422.062	1020.25
422.285	982.25
422.507	1029.25
422.73	1007.25
422.953	1038.25
423.175	1030.25
423.398	1103.25
423.621	1046.25
423.843	1074.25
424.066	1067.25
424.288	1089.25
424.511	1053.25
424.733	1068.25
424.956	1037.25
425.178	1046.25
425.401	1014.25
425.623	984.25
425.846	983.25
426.068	991.25
426.291	968.25
426.513	962.25
426.735	935.25
426.958	936.25
427.18	913.25
427.402	901.25
427.625	909.25
427.847	902.25
428.069	922.25
428.292	914.25
428.514	873.25
428.736	893.25
428.958	894.25
429.181	867.25
429.403	888.25
429.625	892.25
429.847	867.25
430.069	900.25
430.292	860.25
430.514	859.25
430.736	883.25
430.958	863.25
431.18	886.25
431.402	889.25
431.624	901.25
431.846	871.25
432.068	914.25
432.29	932.25
432.512	894.25
432.734	887.25
432.956	887.25
433.178	901.25
433.4	902.25
433.622	896.25
433.844	909.25
434.066	911.25
434.287	926.25
434.509	949.25
434.731	1003.25
434.953	990.25
435.175	1020.25
435.397	986.25
435.618	955.25
435.84	932.25
436.062	894.25
436.284	885.25
436.505	873.25
436.727	898.25
436.949	908.25
437.17	885.25
437.392	878.25
437.614	886.25
437.835	849.25
438.057	881.25
438.278	866.25
438.5	816.25
438.721	841.25
438.943	850.25
439.165	872.25
439.386	841.25
439.608	889.25
439.829	873.25
440.05	881.25
440.272	903.25
440.493	896.25
440.715	902.25
440.936	916.25
441.158	913.25
441.379	957.25
441.6	1024.25
441.822	1031.25
442.043	985.25
442.264	990.25
442.486	962.25
442.707	979.25
442.928	969.25
443.149	1004.25
443.371	1002.25
443.592	996.25
443.813	982.25
444.034	1039.25
444.255	1041.25
444.476	1090.25
444.698	1188.25
444.919	1209.25
445.14	1253.25
445.361	1101.25
445.582	1046.25
445.803	986.25
446.024	975.25
446.245	937.25
446.466	904.25
446.687	895.25
446.908	914.25
447.129	907.25
447.35	844.25
447.571	870.25
447.792	842.25
448.013	845.25
448.234	850.25
448.455	808.25
448.675	813.25
448.896	820.25
449.117	800.25
449.338	788.25
449.559	810.25
449.779	817.25
450	801.25
450.221	809.25
450.442	819.25
450.662	816.25
450.883	839.25
451.104	846.25
451.324	860.25
451.545	839.25
451.766	841.25
451.986	823.25
452.207	825.25
452.428	830.25
452.648	811.25
452.869	811.25
453.089	778.25
453.31	807.25
453.53	792.25
453.751	797.25
453.971	801.25
454.192	798.25
454.412	771.25
454.633	784.25
454.853	799.25
455.073	766.25
455.294	768.25
455.514	781.25
455.734	780.25
455.955	721.25
456.175	773.25
456.395	764.25
456.616	772.25
456.836	809.25
457.056	758.25
457.276	761.25
457.497	782.25
457.717	748.25
457.937	757.25
458.157	778.25
458.377	784.25
458.598	800.25
458.818	786.25
459.038	852.25
459.258	878.25
459.478	886.25
459.698	927.25
459.918	962.25
460.138	993.25
460.358	1031.25
460.578	1042.25
460.798	1079.25
461.018	1067.25
461.238	1055.25
461.458	1067.25
461.678	1052.25
461.898	1080.25
462.118	1064.25
462.338	1110.25
462.558	1157.25
462.777	1194.25
462.997	1303.25
463.217	1438.25
463.437	1404.25
463.657	1276.25
463.876	1251.25
464.096	1215.25
464.316	1209.25
464.536	1249.25
464.755	1203.25
464.975	1132.25
465.195	1099.25
465.414	1027.25
465.634	939.25
465.854	918.25
466.073	898.25
466.293	914.25
466.512	868.25
466.732	870.25
466.951	881.25
467.171	837.25
467.391	870.25
467.61	843.25
467.829	843.25
468.049	831.25
468.268	811.25
468.488	796.25
468.707	805.25
468.927	815.25
469.146	802.25
469.365	827.25
469.585	835.25
469.804	819.25
470.023	871.25
470.243	853.25
470.462	889.25
470.681	870.25
470.901	882.25
471.12	865.25
471.339	861.25
471.558	840.25
471.777	834.25
471.997	822.25
472.216	824.25
472.435	790.25
472.654	827.25
472.873	808.25
473.092	810.25
473.311	784.25
473.53	822.25
473.749	776.25
473.968	807.25
474.187	798.25
474.406	786.25
474.625	822.25
474.844	772.25
475.063	808.25
475.282	784.25
475.501	798.25
475.72	809.25
475.939	842.25
476.158	842.25
476.377	841.25
476.596	816.25
476.814	842.25
477.033	858.25
477.252	849.25
477.471	864.25
477.69	894.25
477.908	914.25
478.127	948.25
478.346	954.25
478.564	962.25
478.783	986.25
479.002	1018.25
479.22	1026.25
479.439	998.25
479.658	989.25
479.876	1033.25
480.095	1004.25
480.313	1044.25
480.532	1112.25
480.751	1072.25
480.969	1028.25
481.188	1027.25
481.406	964.25
481.624	936.25
481.843	937.25
482.061	921.25
482.28	915.25
482.498	924.25
482.717	925.25
482.935	952.25
483.153	952.25
483.372	881.25
483.59	924.25
483.808	898.25
484.027	929.25
484.245	946.25
484.463	931.25
484.681	953.25
484.9	953.25
485.118	943.25
485.336	964.25
485.554	950.25
485.772	966.25
485.99	963.25
486.209	942.25
486.427	954.25
486.645	1022.25
486.863	954.25
487.081	934.25
487.299	945.25
487.517	952.25
487.735	960.25
487.953	940.25
488.171	975.25
488.389	963.25
488.607	955.25
488.825	970.25
489.043	934.25
489.261	921.25
489.479	956.25
489.696	940.25
489.914	966.25
490.132	978.25
490.35	984.25
490.568	987.25
490.786	1001.25
491.003	986.25
491.221	961.25
491.439	1003.25
491.657	959.25
491.874	977.25
492.092	1004.25
492.31	995.25
492.527	990.25
492.745	987.25
492.963	1004.25
493.18	1015.25
493.398	1008.25
493.615	986.25
493.833	1023.25
494.05	1033.25
494.268	1037.25
494.485	1043.25
494.703	1023.25
494.92	1008.25
495.138	1042.25
495.355	1044.25
495.573	1019.25
495.79	1029.25
496.008	1065.25
496.225	1057.25
496.442	1051.25
496.66	1060.25
496.877	1107.25
497.094	1123.25
497.312	1100.25
497.529	1145.25
497.746	1172.25
497.963	1218.25
498.181	1299.25
498.398	1305.25
498.615	1370.25
498.832	1504.25
499.049	1591.25
