Data from NiCl2@0.5M.TitratingCurve.Agarose3%dH2O.NegLispCup.LampEnergy10.LIBS07252019_HRD10591_18-20-50-572.txt Node
Date: Thu Jul 25 18:20:50 EDT 2019
User: cochatt
Spectrometer: HR+D1059
Trigger mode: 1
Integration Time (sec): 1.000000E-1
Scans to average: 1
Electric dark correction enabled: true
Nonlinearity correction enabled: false
Boxcar width: 0
XAxis mode: Wavelengths
Number of Pixels in Spectrum: 2048
>>>>>Begin Spectral Data<<<<<
223.165	-23.62
223.4	-23.62
223.635	-23.62
223.869	-10.62
224.104	-15.62
224.338	-7.62
224.573	-16.62
224.808	-25.62
225.042	-10.62
225.277	-6.62
225.511	3.38
225.746	8.38
225.98	11.38
226.215	8.38
226.449	26.38
226.683	18.38
226.918	18.38
227.152	22.38
227.387	19.38
227.621	33.38
227.856	55.38
228.09	48.38
228.324	53.38
228.559	42.38
228.793	69.38
229.027	107.38
229.262	119.38
229.496	109.38
229.73	115.38
229.964	124.38
230.199	152.38
230.433	172.38
230.667	170.38
230.901	152.38
231.136	130.38
231.37	143.38
231.604	149.38
231.838	168.38
232.072	176.38
232.306	164.38
232.541	161.38
232.775	161.38
233.009	156.38
233.243	155.38
233.477	137.38
233.711	151.38
233.945	163.38
234.179	159.38
234.413	168.38
234.647	152.38
234.881	165.38
235.115	166.38
235.349	159.38
235.583	170.38
235.817	165.38
236.051	160.38
236.285	168.38
236.519	174.38
236.753	184.38
236.987	194.38
237.221	153.38
237.455	175.38
237.689	177.38
237.922	176.38
238.156	170.38
238.39	180.38
238.624	168.38
238.858	188.38
239.091	176.38
239.325	190.38
239.559	199.38
239.793	186.38
240.027	196.38
240.26	199.38
240.494	200.38
240.728	184.38
240.961	192.38
241.195	193.38
241.429	190.38
241.662	201.38
241.896	215.38
242.13	223.38
242.363	197.38
242.597	213.38
242.83	213.38
243.064	209.38
243.298	214.38
243.531	222.38
243.765	231.38
243.998	226.38
244.232	231.38
244.465	222.38
244.699	214.38
244.932	232.38
245.166	217.38
245.399	222.38
245.633	226.38
245.866	225.38
246.099	236.38
246.333	226.38
246.566	231.38
246.8	227.38
247.033	235.38
247.266	226.38
247.5	232.38
247.733	230.38
247.966	258.38
248.2	267.38
248.433	244.38
248.666	259.38
248.899	268.38
249.133	272.38
249.366	250.38
249.599	250.38
249.832	225.38
250.066	269.38
250.299	265.38
250.532	277.38
250.765	267.38
250.998	273.38
251.231	286.38
251.465	287.38
251.698	291.38
251.931	278.38
252.164	282.38
252.397	285.38
252.63	281.38
252.863	300.38
253.096	294.38
253.329	308.38
253.562	282.38
253.795	310.38
254.028	298.38
254.261	293.38
254.494	289.38
254.727	298.38
254.96	291.38
255.193	306.38
255.426	304.38
255.659	302.38
255.892	307.38
256.124	291.38
256.357	297.38
256.59	308.38
256.823	313.38
257.056	303.38
257.289	315.38
257.521	305.38
257.754	347.38
257.987	316.38
258.22	331.38
258.452	327.38
258.685	319.38
258.918	335.38
259.151	331.38
259.383	328.38
259.616	325.38
259.849	338.38
260.081	351.38
260.314	331.38
260.547	329.38
260.779	341.38
261.012	344.38
261.244	354.38
261.477	337.38
261.71	360.38
261.942	338.38
262.175	362.38
262.407	374.38
262.64	338.38
262.872	362.38
263.105	359.38
263.337	365.38
263.57	359.38
263.802	382.38
264.035	366.38
264.267	375.38
264.499	362.38
264.732	344.38
264.964	374.38
265.197	382.38
265.429	377.38
265.661	397.38
265.894	392.38
266.126	388.38
266.358	394.38
266.591	401.38
266.823	392.38
267.055	395.38
267.287	376.38
267.52	389.38
267.752	382.38
267.984	396.38
268.216	400.38
268.448	392.38
268.681	416.38
268.913	414.38
269.145	392.38
269.377	412.38
269.609	398.38
269.841	407.38
270.073	419.38
270.306	418.38
270.538	392.38
270.77	418.38
271.002	436.38
271.234	423.38
271.466	427.38
271.698	415.38
271.93	419.38
272.162	434.38
272.394	446.38
272.626	442.38
272.858	438.38
273.09	399.38
273.322	448.38
273.553	429.38
273.785	434.38
274.017	426.38
274.249	445.38
274.481	446.38
274.713	460.38
274.945	457.38
275.176	450.38
275.408	455.38
275.64	478.38
275.872	425.38
276.104	458.38
276.335	470.38
276.567	461.38
276.799	454.38
277.031	466.38
277.262	467.38
277.494	454.38
277.726	482.38
277.957	490.38
278.189	495.38
278.421	473.38
278.652	475.38
278.884	504.38
279.115	505.38
279.347	482.38
279.579	480.38
279.81	499.38
280.042	503.38
280.273	481.38
280.505	497.38
280.736	518.38
280.968	504.38
281.199	497.38
281.431	497.38
281.662	524.38
281.894	518.38
282.125	517.38
282.356	534.38
282.588	516.38
282.819	517.38
283.051	523.38
283.282	536.38
283.513	511.38
283.745	542.38
283.976	530.38
284.207	518.38
284.439	528.38
284.67	530.38
284.901	527.38
285.132	507.38
285.364	550.38
285.595	566.38
285.826	536.38
286.057	554.38
286.288	551.38
286.52	543.38
286.751	568.38
286.982	548.38
287.213	571.38
287.444	580.38
287.675	542.38
287.906	559.38
288.138	534.38
288.369	575.38
288.6	575.38
288.831	546.38
289.062	562.38
289.293	577.38
289.524	567.38
289.755	546.38
289.986	582.38
290.217	592.38
290.448	598.38
290.679	583.38
290.91	554.38
291.141	562.38
291.371	592.38
291.602	606.38
291.833	558.38
292.064	586.38
292.295	578.38
292.526	593.38
292.757	578.38
292.987	559.38
293.218	581.38
293.449	584.38
293.68	588.38
293.91	577.38
294.141	586.38
294.372	590.38
294.603	595.38
294.833	602.38
295.064	582.38
295.295	594.38
295.525	590.38
295.756	590.38
295.987	583.38
296.217	620.38
296.448	585.38
296.679	617.38
296.909	632.38
297.14	609.38
297.37	634.38
297.601	628.38
297.831	631.38
298.062	632.38
298.292	633.38
298.523	662.38
298.753	664.38
298.984	618.38
299.214	660.38
299.445	648.38
299.675	638.38
299.905	664.38
300.136	658.38
300.366	674.38
300.597	690.38
300.827	672.38
301.057	684.38
301.288	657.38
301.518	674.38
301.748	686.38
301.979	686.38
302.209	680.38
302.439	683.38
302.669	685.38
302.9	675.38
303.13	652.38
303.36	681.38
303.59	675.38
303.82	674.38
304.051	669.38
304.281	698.38
304.511	666.38
304.741	691.38
304.971	691.38
305.201	711.38
305.431	699.38
305.661	739.38
305.891	689.38
306.121	700.38
306.352	696.38
306.582	659.38
306.812	686.38
307.042	687.38
307.272	651.38
307.502	638.38
307.731	678.38
307.961	666.38
308.191	681.38
308.421	687.38
308.651	672.38
308.881	675.38
309.111	671.38
309.341	698.38
309.571	688.38
309.8	670.38
310.03	695.38
310.26	715.38
310.49	709.38
310.72	722.38
310.949	672.38
311.179	659.38
311.409	699.38
311.639	689.38
311.868	699.38
312.098	688.38
312.328	697.38
312.557	719.38
312.787	717.38
313.017	671.38
313.246	718.38
313.476	758.38
313.706	737.38
313.935	715.38
314.165	730.38
314.394	725.38
314.624	721.38
314.853	735.38
315.083	738.38
315.312	705.38
315.542	742.38
315.771	717.38
316.001	711.38
316.23	733.38
316.46	722.38
316.689	722.38
316.919	756.38
317.148	724.38
317.377	730.38
317.607	744.38
317.836	706.38
318.065	740.38
318.295	721.38
318.524	719.38
318.753	717.38
318.983	724.38
319.212	715.38
319.441	753.38
319.67	695.38
319.9	764.38
320.129	735.38
320.358	748.38
320.587	752.38
320.816	731.38
321.046	734.38
321.275	745.38
321.504	737.38
321.733	780.38
321.962	752.38
322.191	758.38
322.42	741.38
322.649	733.38
322.878	727.38
323.108	754.38
323.337	755.38
323.566	756.38
323.795	744.38
324.024	738.38
324.253	759.38
324.482	780.38
324.71	758.38
324.939	762.38
325.168	772.38
325.397	747.38
325.626	763.38
325.855	779.38
326.084	785.38
326.313	798.38
326.542	783.38
326.77	793.38
326.999	790.38
327.228	791.38
327.457	785.38
327.686	774.38
327.914	789.38
328.143	812.38
328.372	779.38
328.6	822.38
328.829	801.38
329.058	790.38
329.287	791.38
329.515	802.38
329.744	797.38
329.972	796.38
330.201	790.38
330.43	813.38
330.658	831.38
330.887	814.38
331.115	826.38
331.344	836.38
331.572	809.38
331.801	855.38
332.03	888.38
332.258	866.38
332.486	870.38
332.715	862.38
332.943	858.38
333.172	892.38
333.4	908.38
333.629	939.38
333.857	931.38
334.085	944.38
334.314	937.38
334.542	944.38
334.771	940.38
334.999	915.38
335.227	927.38
335.455	964.38
335.684	974.38
335.912	946.38
336.14	935.38
336.369	927.38
336.597	978.38
336.825	970.38
337.053	969.38
337.281	959.38
337.51	942.38
337.738	915.38
337.966	919.38
338.194	915.38
338.422	892.38
338.65	912.38
338.878	863.38
339.106	895.38
339.334	882.38
339.562	894.38
339.79	865.38
340.018	873.38
340.246	855.38
340.474	844.38
340.702	860.38
340.93	847.38
341.158	871.38
341.386	858.38
341.614	939.38
341.842	896.38
342.07	846.38
342.298	824.38
342.526	864.38
342.754	858.38
342.981	841.38
343.209	854.38
343.437	874.38
343.665	925.38
343.893	899.38
344.12	936.38
344.348	917.38
344.576	943.38
344.804	949.38
345.031	910.38
345.259	873.38
345.487	870.38
345.714	847.38
345.942	887.38
346.17	898.38
346.397	867.38
346.625	857.38
346.853	834.38
347.08	812.38
347.308	841.38
347.535	808.38
347.763	811.38
347.99	782.38
348.218	796.38
348.445	822.38
348.673	780.38
348.9	823.38
349.128	792.38
349.355	827.38
349.583	843.38
349.81	795.38
350.037	753.38
350.265	789.38
350.492	787.38
350.72	779.38
350.947	780.38
351.174	812.38
351.402	849.38
351.629	831.38
351.856	832.38
352.083	760.38
352.311	789.38
352.538	848.38
352.765	878.38
352.992	816.38
353.22	744.38
353.447	776.38
353.674	780.38
353.901	756.38
354.128	774.38
354.355	743.38
354.583	747.38
354.81	772.38
355.037	770.38
355.264	762.38
355.491	783.38
355.718	766.38
355.945	781.38
356.172	768.38
356.399	775.38
356.626	775.38
356.853	840.38
357.08	777.38
357.307	762.38
357.534	760.38
357.761	763.38
357.988	745.38
358.215	770.38
358.441	777.38
358.668	761.38
358.895	736.38
359.122	757.38
359.349	753.38
359.576	725.38
359.802	770.38
360.029	766.38
360.256	766.38
360.483	752.38
360.709	748.38
360.936	771.38
361.163	767.38
361.39	788.38
361.616	774.38
361.843	798.38
362.07	838.38
362.296	814.38
362.523	788.38
362.749	764.38
362.976	741.38
363.203	740.38
363.429	732.38
363.656	770.38
363.882	741.38
364.109	737.38
364.335	734.38
364.562	745.38
364.788	736.38
365.015	723.38
365.241	740.38
365.468	747.38
365.694	735.38
365.92	736.38
366.147	727.38
366.373	730.38
366.599	739.38
366.826	729.38
367.052	721.38
367.278	734.38
367.505	723.38
367.731	759.38
367.957	724.38
368.184	730.38
368.41	750.38
368.636	761.38
368.862	742.38
369.089	734.38
369.315	757.38
369.541	760.38
369.767	756.38
369.993	760.38
370.219	747.38
370.445	794.38
370.672	784.38
370.898	749.38
371.124	771.38
371.35	795.38
371.576	796.38
371.802	798.38
372.028	779.38
372.254	796.38
372.48	812.38
372.706	830.38
372.932	796.38
373.158	801.38
373.384	806.38
373.61	783.38
373.835	798.38
374.061	790.38
374.287	805.38
374.513	817.38
374.739	825.38
374.965	842.38
375.191	824.38
375.416	819.38
375.642	799.38
375.868	784.38
376.094	803.38
376.319	787.38
376.545	791.38
376.771	770.38
376.997	784.38
377.222	774.38
377.448	764.38
377.674	794.38
377.899	788.38
378.125	763.38
378.35	783.38
378.576	747.38
378.802	746.38
379.027	788.38
379.253	742.38
379.478	763.38
379.704	739.38
379.929	750.38
380.155	762.38
380.38	748.38
380.606	755.38
380.831	759.38
381.057	757.38
381.282	770.38
381.507	759.38
381.733	766.38
381.958	771.38
382.184	739.38
382.409	774.38
382.634	780.38
382.86	775.38
383.085	796.38
383.31	817.38
383.535	807.38
383.761	807.38
383.986	822.38
384.211	814.38
384.436	829.38
384.662	830.38
384.887	836.38
385.112	850.38
385.337	866.38
385.562	850.38
385.787	864.38
386.013	886.38
386.238	870.38
386.463	864.38
386.688	896.38
386.913	851.38
387.138	875.38
387.363	865.38
387.588	874.38
387.813	881.38
388.038	842.38
388.263	846.38
388.488	898.38
388.713	896.38
388.938	880.38
389.163	863.38
389.387	888.38
389.612	859.38
389.837	873.38
390.062	865.38
390.287	865.38
390.512	863.38
390.736	893.38
390.961	906.38
391.186	914.38
391.411	919.38
391.636	921.38
391.86	953.38
392.085	934.38
392.31	932.38
392.534	974.38
392.759	932.38
392.984	959.38
393.208	917.38
393.433	915.38
393.658	912.38
393.882	919.38
394.107	929.38
394.331	948.38
394.556	946.38
394.78	945.38
395.005	932.38
395.229	948.38
395.454	961.38
395.678	948.38
395.903	952.38
396.127	973.38
396.352	963.38
396.576	942.38
396.801	965.38
397.025	972.38
397.249	976.38
397.474	1006.38
397.698	981.38
397.922	997.38
398.147	963.38
398.371	993.38
398.595	1001.38
398.82	1048.38
399.044	1082.38
399.268	1180.38
399.492	1262.38
399.717	1305.38
399.941	1327.38
400.165	1295.38
400.389	1234.38
400.613	1170.38
400.837	1165.38
401.062	1128.38
401.286	1103.38
401.51	1067.38
401.734	1090.38
401.958	1095.38
402.182	1094.38
402.406	1077.38
402.63	1062.38
402.854	1110.38
403.078	1080.38
403.302	1099.38
403.526	1101.38
403.75	1106.38
403.974	1123.38
404.198	1132.38
404.422	1147.38
404.645	1136.38
404.869	1132.38
405.093	1127.38
405.317	1112.38
405.541	1118.38
405.765	1147.38
405.988	1170.38
406.212	1172.38
406.436	1146.38
406.66	1186.38
406.883	1209.38
407.107	1241.38
407.331	1243.38
407.555	1312.38
407.778	1306.38
408.002	1300.38
408.226	1268.38
408.449	1291.38
408.673	1216.38
408.896	1221.38
409.12	1178.38
409.344	1232.38
409.567	1194.38
409.791	1204.38
410.014	1226.38
410.238	1195.38
410.461	1186.38
410.685	1172.38
410.908	1175.38
411.132	1130.38
411.355	1145.38
411.578	1170.38
411.802	1129.38
412.025	1152.38
412.249	1138.38
412.472	1163.38
412.695	1124.38
412.919	1134.38
413.142	1102.38
413.365	1094.38
413.589	1127.38
413.812	1128.38
414.035	1121.38
414.258	1096.38
414.482	1111.38
414.705	1122.38
414.928	1100.38
415.151	1109.38
415.374	1114.38
415.597	1110.38
415.821	1082.38
416.044	1089.38
416.267	1095.38
416.49	1094.38
416.713	1094.38
416.936	1080.38
417.159	1100.38
417.382	1078.38
417.605	1063.38
417.828	1067.38
418.051	1106.38
418.274	1096.38
418.497	1076.38
418.72	1111.38
418.943	1106.38
419.166	1170.38
419.389	1232.38
419.611	1210.38
419.834	1160.38
420.057	1110.38
420.28	1124.38
420.503	1094.38
420.726	1093.38
420.948	1080.38
421.171	1070.38
421.394	1098.38
421.617	1095.38
421.839	1077.38
422.062	1066.38
422.285	1086.38
422.507	1113.38
422.73	1073.38
422.953	1097.38
423.175	1086.38
423.398	1082.38
423.621	1089.38
423.843	1115.38
424.066	1102.38
424.288	1135.38
424.511	1108.38
424.733	1088.38
424.956	1097.38
425.178	1092.38
425.401	1108.38
425.623	1106.38
425.846	1072.38
426.068	1066.38
426.291	1062.38
426.513	1046.38
426.735	1066.38
426.958	1078.38
427.18	1046.38
427.402	1051.38
427.625	1048.38
427.847	1068.38
428.069	1056.38
428.292	1054.38
428.514	1070.38
428.736	1052.38
428.958	1055.38
429.181	1049.38
429.403	1032.38
429.625	1028.38
429.847	1007.38
430.069	1032.38
430.292	1041.38
430.514	1010.38
430.736	1061.38
430.958	1066.38
431.18	1046.38
431.402	998.38
431.624	1022.38
431.846	1035.38
432.068	1051.38
432.29	1078.38
432.512	1078.38
432.734	1051.38
432.956	1044.38
433.178	1042.38
433.4	1078.38
433.622	1055.38
433.844	1077.38
434.066	1080.38
434.287	1109.38
434.509	1094.38
434.731	1102.38
434.953	1088.38
435.175	1112.38
435.397	1142.38
435.618	1113.38
435.84	1084.38
436.062	1065.38
436.284	1057.38
436.505	1071.38
436.727	1055.38
436.949	1059.38
437.17	1066.38
437.392	1050.38
437.614	1057.38
437.835	1026.38
438.057	1041.38
438.278	1023.38
438.5	997.38
438.721	1033.38
438.943	1014.38
439.165	1014.38
439.386	1032.38
439.608	1053.38
439.829	1036.38
440.05	1056.38
440.272	1052.38
440.493	1087.38
440.715	1064.38
440.936	1064.38
441.158	1081.38
441.379	1104.38
441.6	1108.38
441.822	1120.38
442.043	1124.38
442.264	1128.38
442.486	1125.38
442.707	1129.38
442.928	1121.38
443.149	1154.38
443.371	1142.38
443.592	1162.38
443.813	1174.38
444.034	1158.38
444.255	1168.38
444.476	1205.38
444.698	1196.38
444.919	1252.38
445.14	1315.38
445.361	1268.38
445.582	1214.38
445.803	1149.38
446.024	1138.38
446.245	1138.38
446.466	1140.38
446.687	1074.38
446.908	1072.38
447.129	1098.38
447.35	1067.38
447.571	1079.38
447.792	1017.38
448.013	1007.38
448.234	1014.38
448.455	1020.38
448.675	999.38
448.896	1021.38
449.117	956.38
449.338	1001.38
449.559	1010.38
449.779	986.38
450	961.38
450.221	992.38
450.442	993.38
450.662	980.38
450.883	987.38
451.104	985.38
451.324	1010.38
451.545	1013.38
451.766	989.38
451.986	966.38
452.207	994.38
452.428	997.38
452.648	996.38
452.869	970.38
453.089	946.38
453.31	978.38
453.53	980.38
453.751	965.38
453.971	965.38
454.192	990.38
454.412	979.38
454.633	970.38
454.853	932.38
455.073	946.38
455.294	976.38
455.514	938.38
455.734	984.38
455.955	989.38
456.175	971.38
456.395	948.38
456.616	948.38
456.836	916.38
457.056	961.38
457.276	921.38
457.497	959.38
457.717	992.38
457.937	965.38
458.157	950.38
458.377	994.38
458.598	994.38
458.818	1011.38
459.038	1050.38
459.258	1065.38
459.478	1083.38
459.698	1144.38
459.918	1162.38
460.138	1181.38
460.358	1195.38
460.578	1184.38
460.798	1231.38
461.018	1238.38
461.238	1218.38
461.458	1234.38
461.678	1237.38
461.898	1262.38
462.118	1273.38
462.338	1337.38
462.558	1304.38
462.777	1367.38
462.997	1426.38
463.217	1446.38
463.437	1460.38
463.657	1444.38
463.876	1354.38
464.096	1398.38
464.316	1360.38
464.536	1345.38
464.755	1312.38
464.975	1310.38
465.195	1245.38
465.414	1235.38
465.634	1197.38
465.854	1170.38
466.073	1136.38
466.293	1100.38
466.512	1085.38
466.732	1046.38
466.951	1100.38
467.171	1063.38
467.391	1061.38
467.61	1041.38
467.829	1060.38
468.049	1063.38
468.268	1041.38
468.488	1012.38
468.707	1027.38
468.927	1022.38
469.146	1060.38
469.365	1072.38
469.585	1027.38
469.804	1058.38
470.023	1065.38
470.243	1049.38
470.462	1096.38
470.681	1097.38
470.901	1073.38
471.12	1066.38
471.339	1067.38
471.558	1065.38
471.777	1072.38
471.997	1035.38
472.216	1028.38
472.435	1030.38
472.654	1021.38
472.873	996.38
473.092	1049.38
473.311	1046.38
473.53	1035.38
473.749	1026.38
473.968	1006.38
474.187	1026.38
474.406	1028.38
474.625	1042.38
474.844	1044.38
475.063	1082.38
475.282	1053.38
475.501	1040.38
475.72	1050.38
475.939	1099.38
476.158	1081.38
476.377	1064.38
476.596	1089.38
476.814	1096.38
477.033	1091.38
477.252	1121.38
477.471	1121.38
477.69	1124.38
477.908	1150.38
478.127	1200.38
478.346	1186.38
478.564	1209.38
478.783	1225.38
479.002	1250.38
479.22	1259.38
479.439	1252.38
479.658	1223.38
479.876	1286.38
480.095	1226.38
480.313	1249.38
480.532	1287.38
480.751	1287.38
480.969	1223.38
481.188	1251.38
481.406	1198.38
481.624	1236.38
481.843	1187.38
482.061	1211.38
482.28	1154.38
482.498	1186.38
482.717	1194.38
482.935	1190.38
483.153	1194.38
483.372	1225.38
483.59	1264.38
483.808	1230.38
484.027	1224.38
484.245	1255.38
484.463	1209.38
484.681	1245.38
484.9	1227.38
485.118	1239.38
485.336	1216.38
485.554	1225.38
485.772	1240.38
485.99	1239.38
486.209	1268.38
486.427	1233.38
486.645	1224.38
486.863	1242.38
487.081	1251.38
487.299	1272.38
487.517	1234.38
487.735	1298.38
487.953	1257.38
488.171	1246.38
488.389	1282.38
488.607	1260.38
488.825	1214.38
489.043	1241.38
489.261	1234.38
489.479	1229.38
489.696	1236.38
489.914	1250.38
490.132	1279.38
490.35	1273.38
490.568	1265.38
490.786	1266.38
491.003	1266.38
491.221	1266.38
491.439	1262.38
491.657	1293.38
491.874	1318.38
492.092	1304.38
492.31	1314.38
492.527	1321.38
492.745	1310.38
492.963	1314.38
493.18	1312.38
493.398	1298.38
493.615	1264.38
493.833	1311.38
494.05	1306.38
494.268	1316.38
494.485	1338.38
494.703	1331.38
494.92	1344.38
495.138	1346.38
495.355	1373.38
495.573	1370.38
495.79	1369.38
496.008	1342.38
496.225	1367.38
