Data from NiCl2@0.125M.TitratingCurve.Agarose3%dH2O.NegLispCup.LampEnergy10.LIBS07252019_HRD10591_18-29-51-575.txt Node
Date: Thu Jul 25 18:29:51 EDT 2019
User: cochatt
Spectrometer: HR+D1059
Trigger mode: 1
Integration Time (sec): 1.000000E-1
Scans to average: 1
Electric dark correction enabled: true
Nonlinearity correction enabled: false
Boxcar width: 0
XAxis mode: Wavelengths
Number of Pixels in Spectrum: 2048
>>>>>Begin Spectral Data<<<<<
223.165	-7.19
223.4	-7.19
223.635	-7.19
223.869	-26.19
224.104	-27.19
224.338	-9.19
224.573	-16.19
224.808	-25.19
225.042	-12.19
225.277	0.81
225.511	-10.19
225.746	2.81
225.98	1.81
226.215	11.81
226.449	33.81
226.683	15.81
226.918	37.81
227.152	28.81
227.387	28.81
227.621	46.81
227.856	56.81
228.09	50.81
228.324	61.81
228.559	54.81
228.793	76.81
229.027	115.81
229.262	105.81
229.496	118.81
229.73	133.81
229.964	147.81
230.199	141.81
230.433	139.81
230.667	140.81
230.901	156.81
231.136	161.81
231.37	162.81
231.604	159.81
231.838	150.81
232.072	162.81
232.306	177.81
232.541	170.81
232.775	160.81
233.009	183.81
233.243	168.81
233.477	171.81
233.711	190.81
233.945	186.81
234.179	177.81
234.413	177.81
234.647	167.81
234.881	176.81
235.115	189.81
235.349	187.81
235.583	184.81
235.817	171.81
236.051	177.81
236.285	188.81
236.519	173.81
236.753	184.81
236.987	188.81
237.221	191.81
237.455	197.81
237.689	200.81
237.922	188.81
238.156	198.81
238.39	197.81
238.624	207.81
238.858	193.81
239.091	205.81
239.325	227.81
239.559	221.81
239.793	204.81
240.027	208.81
240.26	218.81
240.494	210.81
240.728	211.81
240.961	221.81
241.195	232.81
241.429	231.81
241.662	231.81
241.896	256.81
242.13	253.81
242.363	225.81
242.597	235.81
242.83	238.81
243.064	244.81
243.298	267.81
243.531	253.81
243.765	240.81
243.998	261.81
244.232	248.81
244.465	264.81
244.699	274.81
244.932	273.81
245.166	267.81
245.399	252.81
245.633	261.81
245.866	259.81
246.099	278.81
246.333	298.81
246.566	271.81
246.8	276.81
247.033	289.81
247.266	272.81
247.5	290.81
247.733	286.81
247.966	292.81
248.2	292.81
248.433	295.81
248.666	295.81
248.899	299.81
249.133	307.81
249.366	306.81
249.599	310.81
249.832	314.81
250.066	319.81
250.299	319.81
250.532	319.81
250.765	317.81
250.998	326.81
251.231	313.81
251.465	312.81
251.698	343.81
251.931	333.81
252.164	325.81
252.397	345.81
252.63	347.81
252.863	341.81
253.096	352.81
253.329	352.81
253.562	329.81
253.795	355.81
254.028	369.81
254.261	361.81
254.494	342.81
254.727	347.81
254.96	363.81
255.193	359.81
255.426	367.81
255.659	373.81
255.892	381.81
256.124	355.81
256.357	371.81
256.59	369.81
256.823	368.81
257.056	362.81
257.289	374.81
257.521	388.81
257.754	376.81
257.987	396.81
258.22	378.81
258.452	391.81
258.685	382.81
258.918	399.81
259.151	390.81
259.383	388.81
259.616	386.81
259.849	372.81
260.081	400.81
260.314	398.81
260.547	398.81
260.779	409.81
261.012	410.81
261.244	396.81
261.477	410.81
261.71	420.81
261.942	419.81
262.175	423.81
262.407	438.81
262.64	405.81
262.872	419.81
263.105	416.81
263.337	443.81
263.57	427.81
263.802	419.81
264.035	435.81
264.267	433.81
264.499	428.81
264.732	450.81
264.964	452.81
265.197	440.81
265.429	458.81
265.661	438.81
265.894	460.81
266.126	452.81
266.358	443.81
266.591	461.81
266.823	462.81
267.055	473.81
267.287	478.81
267.52	450.81
267.752	466.81
267.984	476.81
268.216	474.81
268.448	484.81
268.681	488.81
268.913	471.81
269.145	468.81
269.377	476.81
269.609	486.81
269.841	482.81
270.073	490.81
270.306	500.81
270.538	505.81
270.77	484.81
271.002	494.81
271.234	469.81
271.466	476.81
271.698	498.81
271.93	515.81
272.162	517.81
272.394	505.81
272.626	532.81
272.858	510.81
273.09	514.81
273.322	517.81
273.553	504.81
273.785	531.81
274.017	536.81
274.249	525.81
274.481	527.81
274.713	536.81
274.945	544.81
275.176	543.81
275.408	525.81
275.64	529.81
275.872	530.81
276.104	543.81
276.335	536.81
276.567	550.81
276.799	546.81
277.031	535.81
277.262	546.81
277.494	565.81
277.726	572.81
277.957	542.81
278.189	562.81
278.421	540.81
278.652	580.81
278.884	548.81
279.115	579.81
279.347	580.81
279.579	563.81
279.81	551.81
280.042	569.81
280.273	566.81
280.505	586.81
280.736	574.81
280.968	607.81
281.199	583.81
281.431	583.81
281.662	607.81
281.894	610.81
282.125	598.81
282.356	594.81
282.588	584.81
282.819	607.81
283.051	641.81
283.282	603.81
283.513	653.81
283.745	640.81
283.976	606.81
284.207	628.81
284.439	622.81
284.67	622.81
284.901	654.81
285.132	619.81
285.364	636.81
285.595	646.81
285.826	628.81
286.057	644.81
286.288	634.81
286.52	652.81
286.751	662.81
286.982	642.81
287.213	638.81
287.444	658.81
287.675	667.81
287.906	663.81
288.138	671.81
288.369	640.81
288.6	659.81
288.831	673.81
289.062	678.81
289.293	659.81
289.524	656.81
289.755	665.81
289.986	674.81
290.217	678.81
290.448	680.81
290.679	695.81
290.91	683.81
291.141	672.81
291.371	687.81
291.602	691.81
291.833	701.81
292.064	706.81
292.295	678.81
292.526	672.81
292.757	696.81
292.987	703.81
293.218	674.81
293.449	719.81
293.68	702.81
293.91	697.81
294.141	704.81
294.372	682.81
294.603	698.81
294.833	699.81
295.064	696.81
295.295	703.81
295.525	688.81
295.756	672.81
295.987	696.81
296.217	704.81
296.448	704.81
296.679	720.81
296.909	704.81
297.14	713.81
297.37	736.81
297.601	711.81
297.831	733.81
298.062	727.81
298.292	744.81
298.523	780.81
298.753	778.81
298.984	764.81
299.214	747.81
299.445	732.81
299.675	725.81
299.905	747.81
300.136	747.81
300.366	781.81
300.597	784.81
300.827	783.81
301.057	771.81
301.288	804.81
301.518	780.81
301.748	802.81
301.979	769.81
302.209	802.81
302.439	814.81
302.669	792.81
302.9	782.81
303.13	759.81
303.36	794.81
303.59	760.81
303.82	775.81
304.051	779.81
304.281	763.81
304.511	769.81
304.741	773.81
304.971	794.81
305.201	791.81
305.431	775.81
305.661	770.81
305.891	765.81
306.121	768.81
306.352	755.81
306.582	766.81
306.812	767.81
307.042	742.81
307.272	770.81
307.502	769.81
307.731	738.81
307.961	759.81
308.191	746.81
308.421	768.81
308.651	746.81
308.881	774.81
309.111	769.81
309.341	755.81
309.571	761.81
309.8	763.81
310.03	748.81
310.26	750.81
310.49	747.81
310.72	762.81
310.949	743.81
311.179	786.81
311.409	758.81
311.639	780.81
311.868	762.81
312.098	767.81
312.328	787.81
312.557	792.81
312.787	793.81
313.017	793.81
313.246	811.81
313.476	791.81
313.706	810.81
313.935	818.81
314.165	808.81
314.394	797.81
314.624	802.81
314.853	823.81
315.083	814.81
315.312	814.81
315.542	828.81
315.771	814.81
316.001	794.81
316.23	787.81
316.46	794.81
316.689	792.81
316.919	805.81
317.148	798.81
317.377	802.81
317.607	798.81
317.836	798.81
318.065	793.81
318.295	774.81
318.524	794.81
318.753	778.81
318.983	792.81
319.212	778.81
319.441	796.81
319.67	807.81
319.9	795.81
320.129	800.81
320.358	816.81
320.587	795.81
320.816	811.81
321.046	796.81
321.275	792.81
321.504	801.81
321.733	814.81
321.962	817.81
322.191	820.81
322.42	799.81
322.649	819.81
322.878	821.81
323.108	803.81
323.337	798.81
323.566	844.81
323.795	831.81
324.024	806.81
324.253	801.81
324.482	829.81
324.71	834.81
324.939	855.81
325.168	825.81
325.397	840.81
325.626	858.81
325.855	853.81
326.084	870.81
326.313	895.81
326.542	883.81
326.77	908.81
326.999	876.81
327.228	882.81
327.457	895.81
327.686	862.81
327.914	873.81
328.143	903.81
328.372	888.81
328.6	862.81
328.829	870.81
329.058	869.81
329.287	897.81
329.515	866.81
329.744	894.81
329.972	896.81
330.201	881.81
330.43	874.81
330.658	882.81
330.887	902.81
331.115	924.81
331.344	961.81
331.572	929.81
331.801	939.81
332.03	981.81
332.258	979.81
332.486	1026.81
332.715	1082.81
332.943	1097.81
333.172	1144.81
333.4	1188.81
333.629	1202.81
333.857	1219.81
334.085	1218.81
334.314	1190.81
334.542	1132.81
334.771	1146.81
334.999	1094.81
335.227	1097.81
335.455	1100.81
335.684	1086.81
335.912	1096.81
336.14	1050.81
336.369	1061.81
336.597	1082.81
336.825	1062.81
337.053	1030.81
337.281	1045.81
337.51	1040.81
337.738	1000.81
337.966	968.81
338.194	967.81
338.422	946.81
338.65	955.81
338.878	969.81
339.106	952.81
339.334	954.81
339.562	931.81
339.79	943.81
340.018	920.81
340.246	902.81
340.474	920.81
340.702	902.81
340.93	916.81
341.158	941.81
341.386	938.81
341.614	944.81
341.842	923.81
342.07	894.81
342.298	916.81
342.526	906.81
342.754	904.81
342.981	927.81
343.209	926.81
343.437	960.81
343.665	1042.81
343.893	1107.81
344.12	1176.81
344.348	1115.81
344.576	1029.81
344.804	1011.81
345.031	956.81
345.259	918.81
345.487	939.81
345.714	934.81
345.942	905.81
346.17	929.81
346.397	885.81
346.625	902.81
346.853	881.81
347.08	897.81
347.308	886.81
347.535	879.81
347.763	895.81
347.99	891.81
348.218	882.81
348.445	904.81
348.673	894.81
348.9	878.81
349.128	869.81
349.355	832.81
349.583	854.81
349.81	868.81
350.037	873.81
350.265	827.81
350.492	838.81
350.72	865.81
350.947	870.81
351.174	850.81
351.402	856.81
351.629	819.81
351.856	834.81
352.083	862.81
352.311	841.81
352.538	848.81
352.765	855.81
352.992	841.81
353.22	826.81
353.447	843.81
353.674	853.81
353.901	850.81
354.128	861.81
354.355	853.81
354.583	840.81
354.81	860.81
355.037	857.81
355.264	852.81
355.491	864.81
355.718	882.81
355.945	878.81
356.172	875.81
356.399	865.81
356.626	867.81
356.853	856.81
357.08	871.81
357.307	866.81
357.534	855.81
357.761	855.81
357.988	891.81
358.215	858.81
358.441	844.81
358.668	850.81
358.895	838.81
359.122	832.81
359.349	866.81
359.576	865.81
359.802	842.81
360.029	870.81
360.256	859.81
360.483	853.81
360.709	835.81
360.936	842.81
361.163	860.81
361.39	856.81
361.616	844.81
361.843	846.81
362.07	866.81
362.296	838.81
362.523	836.81
362.749	832.81
362.976	868.81
363.203	853.81
363.429	854.81
363.656	842.81
363.882	839.81
364.109	870.81
364.335	853.81
364.562	834.81
364.788	825.81
365.015	832.81
365.241	838.81
365.468	841.81
365.694	853.81
365.92	826.81
366.147	823.81
366.373	839.81
366.599	859.81
366.826	837.81
367.052	856.81
367.278	854.81
367.505	865.81
367.731	863.81
367.957	863.81
368.184	854.81
368.41	858.81
368.636	864.81
368.862	875.81
369.089	894.81
369.315	886.81
369.541	897.81
369.767	903.81
369.993	886.81
370.219	892.81
370.445	895.81
370.672	913.81
370.898	909.81
371.124	935.81
371.35	904.81
371.576	974.81
371.802	944.81
372.028	925.81
372.254	915.81
372.48	937.81
372.706	962.81
372.932	968.81
373.158	974.81
373.384	940.81
373.61	908.81
373.835	926.81
374.061	942.81
374.287	976.81
374.513	978.81
374.739	1009.81
374.965	1046.81
375.191	1058.81
375.416	1063.81
375.642	1010.81
375.868	1003.81
376.094	968.81
376.319	960.81
376.545	935.81
376.771	944.81
376.997	925.81
377.222	939.81
377.448	932.81
377.674	921.81
377.899	963.81
378.125	914.81
378.35	904.81
378.576	935.81
378.802	903.81
379.027	936.81
379.253	926.81
379.478	912.81
379.704	944.81
379.929	907.81
380.155	917.81
380.38	886.81
380.606	923.81
380.831	896.81
381.057	968.81
381.282	915.81
381.507	930.81
381.733	942.81
381.958	944.81
382.184	986.81
382.409	955.81
382.634	993.81
382.86	977.81
383.085	977.81
383.31	1011.81
383.535	1030.81
383.761	1040.81
383.986	1064.81
384.211	1072.81
384.436	1106.81
384.662	1159.81
384.887	1128.81
385.112	1144.81
385.337	1127.81
385.562	1143.81
385.787	1141.81
386.013	1146.81
386.238	1115.81
386.463	1123.81
386.688	1143.81
386.913	1119.81
387.138	1094.81
387.363	1091.81
387.588	1132.81
387.813	1109.81
388.038	1107.81
388.263	1130.81
388.488	1108.81
388.713	1088.81
388.938	1107.81
389.163	1103.81
389.387	1094.81
389.612	1091.81
389.837	1101.81
390.062	1110.81
390.287	1098.81
390.512	1119.81
390.736	1139.81
390.961	1146.81
391.186	1137.81
391.411	1189.81
391.636	1219.81
391.86	1257.81
392.085	1289.81
392.31	1264.81
392.534	1222.81
392.759	1204.81
392.984	1207.81
393.208	1187.81
393.433	1161.81
393.658	1180.81
393.882	1211.81
394.107	1217.81
394.331	1210.81
394.556	1194.81
394.78	1163.81
395.005	1205.81
395.229	1238.81
395.454	1202.81
395.678	1276.81
395.903	1263.81
396.127	1257.81
396.352	1194.81
396.576	1160.81
396.801	1185.81
397.025	1177.81
397.249	1186.81
397.474	1252.81
397.698	1267.81
397.922	1238.81
398.147	1211.81
398.371	1264.81
398.595	1331.81
398.82	1362.81
399.044	1491.81
399.268	1641.81
399.492	1922.81
399.717	2218.81
399.941	2192.81
400.165	1919.81
400.389	1710.81
400.613	1582.81
400.837	1473.81
401.062	1435.81
401.286	1443.81
401.51	1428.81
401.734	1411.81
401.958	1411.81
402.182	1427.81
402.406	1425.81
402.63	1507.81
402.854	1496.81
403.078	1541.81
403.302	1561.81
403.526	1607.81
403.75	1626.81
403.974	1667.81
404.198	1650.81
404.422	1672.81
404.645	1651.81
404.869	1632.81
405.093	1643.81
405.317	1571.81
405.541	1588.81
405.765	1538.81
405.988	1513.81
406.212	1523.81
406.436	1564.81
406.66	1599.81
406.883	1617.81
407.107	1754.81
407.331	1784.81
407.555	1844.81
407.778	1854.81
408.002	1808.81
408.226	1748.81
408.449	1685.81
408.673	1628.81
408.896	1576.81
409.12	1612.81
409.344	1607.81
409.567	1600.81
409.791	1682.81
410.014	1608.81
410.238	1618.81
410.461	1578.81
410.685	1590.81
410.908	1540.81
411.132	1536.81
411.355	1465.81
411.578	1463.81
411.802	1447.81
412.025	1474.81
412.249	1528.81
412.472	1509.81
412.695	1410.81
412.919	1420.81
413.142	1409.81
413.365	1413.81
413.589	1452.81
413.812	1390.81
414.035	1385.81
414.258	1383.81
414.482	1421.81
414.705	1471.81
414.928	1441.81
415.151	1422.81
415.374	1450.81
415.597	1434.81
415.821	1379.81
416.044	1378.81
416.267	1359.81
416.49	1370.81
416.713	1385.81
416.936	1374.81
417.159	1368.81
417.382	1374.81
417.605	1355.81
417.828	1392.81
418.051	1422.81
418.274	1402.81
418.497	1402.81
418.72	1459.81
418.943	1436.81
419.166	1490.81
419.389	1645.81
419.611	1584.81
419.834	1510.81
420.057	1457.81
420.28	1449.81
420.503	1414.81
420.726	1372.81
420.948	1356.81
421.171	1379.81
421.394	1379.81
421.617	1385.81
421.839	1411.81
422.062	1393.81
422.285	1356.81
422.507	1447.81
422.73	1438.81
422.953	1436.81
423.175	1469.81
423.398	1500.81
423.621	1473.81
423.843	1510.81
424.066	1491.81
424.288	1474.81
424.511	1516.81
424.733	1476.81
424.956	1444.81
425.178	1427.81
425.401	1408.81
425.623	1356.81
425.846	1323.81
426.068	1344.81
426.291	1316.81
426.513	1310.81
426.735	1313.81
426.958	1289.81
427.18	1298.81
427.402	1276.81
427.625	1282.81
427.847	1263.81
428.069	1240.81
428.292	1260.81
428.514	1219.81
428.736	1227.81
428.958	1236.81
429.181	1212.81
429.403	1214.81
429.625	1222.81
429.847	1202.81
430.069	1202.81
430.292	1219.81
430.514	1209.81
430.736	1201.81
430.958	1150.81
431.18	1184.81
431.402	1182.81
431.624	1214.81
431.846	1214.81
432.068	1226.81
432.29	1266.81
432.512	1236.81
432.734	1244.81
432.956	1238.81
433.178	1269.81
433.4	1234.81
433.622	1228.81
433.844	1272.81
434.066	1254.81
434.287	1301.81
434.509	1335.81
434.731	1395.81
434.953	1417.81
435.175	1435.81
435.397	1397.81
435.618	1344.81
435.84	1296.81
436.062	1272.81
436.284	1240.81
436.505	1254.81
436.727	1298.81
436.949	1256.81
437.17	1223.81
437.392	1205.81
437.614	1201.81
437.835	1186.81
438.057	1202.81
438.278	1199.81
438.5	1203.81
438.721	1163.81
438.943	1204.81
439.165	1146.81
439.386	1237.81
439.608	1254.81
439.829	1234.81
440.05	1219.81
440.272	1280.81
440.493	1263.81
440.715	1271.81
440.936	1244.81
441.158	1288.81
441.379	1355.81
441.6	1412.81
441.822	1424.81
442.043	1421.81
442.264	1399.81
442.486	1374.81
442.707	1382.81
442.928	1383.81
443.149	1394.81
443.371	1366.81
443.592	1400.81
443.813	1424.81
444.034	1431.81
444.255	1437.81
444.476	1529.81
444.698	1640.81
444.919	1688.81
445.14	1756.81
445.361	1579.81
445.582	1440.81
445.803	1351.81
446.024	1321.81
446.245	1302.81
446.466	1265.81
446.687	1249.81
446.908	1259.81
447.129	1199.81
447.35	1188.81
447.571	1189.81
447.792	1203.81
448.013	1202.81
448.234	1149.81
448.455	1152.81
448.675	1158.81
448.896	1120.81
449.117	1122.81
449.338	1124.81
449.559	1132.81
449.779	1147.81
450	1120.81
450.221	1152.81
450.442	1126.81
450.662	1122.81
450.883	1173.81
451.104	1164.81
451.324	1151.81
451.545	1157.81
451.766	1150.81
451.986	1158.81
452.207	1136.81
452.428	1128.81
452.648	1127.81
452.869	1104.81
453.089	1117.81
453.31	1142.81
453.53	1105.81
453.751	1098.81
453.971	1076.81
454.192	1115.81
454.412	1050.81
454.633	1060.81
454.853	1091.81
455.073	1051.81
455.294	1068.81
455.514	1062.81
455.734	1051.81
455.955	1039.81
456.175	1059.81
456.395	1025.81
456.616	1047.81
456.836	1071.81
457.056	1059.81
457.276	1008.81
457.497	1053.81
457.717	1047.81
457.937	1059.81
458.157	1092.81
458.377	1086.81
458.598	1134.81
458.818	1137.81
459.038	1174.81
459.258	1207.81
459.478	1227.81
459.698	1275.81
459.918	1293.81
460.138	1348.81
460.358	1479.81
460.578	1449.81
460.798	1485.81
461.018	1487.81
461.238	1463.81
461.458	1457.81
461.678	1479.81
461.898	1460.81
462.118	1462.81
462.338	1568.81
462.558	1585.81
462.777	1643.81
462.997	1804.81
463.217	2002.81
463.437	2019.81
463.657	1781.81
463.876	1714.81
464.096	1715.81
464.316	1729.81
464.536	1714.81
464.755	1666.81
464.975	1578.81
465.195	1480.81
465.414	1433.81
465.634	1330.81
465.854	1294.81
466.073	1281.81
466.293	1258.81
466.512	1222.81
466.732	1175.81
466.951	1213.81
467.171	1187.81
467.391	1184.81
467.61	1165.81
467.829	1154.81
468.049	1130.81
468.268	1153.81
468.488	1098.81
468.707	1132.81
468.927	1111.81
469.146	1146.81
469.365	1127.81
469.585	1174.81
469.804	1186.81
470.023	1237.81
470.243	1221.81
470.462	1187.81
470.681	1262.81
470.901	1220.81
471.12	1202.81
471.339	1167.81
471.558	1143.81
471.777	1131.81
471.997	1141.81
472.216	1144.81
472.435	1104.81
472.654	1106.81
472.873	1079.81
473.092	1073.81
473.311	1094.81
473.53	1133.81
473.749	1115.81
473.968	1122.81
474.187	1085.81
474.406	1068.81
474.625	1107.81
474.844	1110.81
475.063	1080.81
475.282	1100.81
475.501	1118.81
475.72	1120.81
475.939	1155.81
476.158	1145.81
476.377	1123.81
476.596	1113.81
476.814	1198.81
477.033	1190.81
477.252	1186.81
477.471	1192.81
477.69	1270.81
477.908	1241.81
478.127	1327.81
478.346	1328.81
478.564	1352.81
478.783	1366.81
479.002	1376.81
479.22	1406.81
479.439	1356.81
479.658	1380.81
479.876	1361.81
480.095	1405.81
480.313	1445.81
480.532	1484.81
480.751	1498.81
480.969	1440.81
481.188	1371.81
481.406	1334.81
481.624	1331.81
481.843	1264.81
482.061	1286.81
482.28	1285.81
482.498	1258.81
482.717	1282.81
482.935	1240.81
483.153	1249.81
483.372	1254.81
483.59	1281.81
483.808	1254.81
484.027	1218.81
484.245	1281.81
484.463	1304.81
484.681	1326.81
484.9	1339.81
485.118	1326.81
485.336	1305.81
485.554	1310.81
485.772	1315.81
485.99	1343.81
486.209	1346.81
486.427	1370.81
486.645	1400.81
486.863	1343.81
487.081	1330.81
487.299	1383.81
487.517	1340.81
487.735	1340.81
487.953	1323.81
488.171	1323.81
488.389	1335.81
488.607	1316.81
488.825	1290.81
489.043	1316.81
489.261	1299.81
489.479	1311.81
489.696	1315.81
489.914	1292.81
490.132	1304.81
490.35	1320.81
490.568	1335.81
490.786	1322.81
491.003	1352.81
491.221	1317.81
491.439	1335.81
491.657	1330.81
491.874	1362.81
492.092	1335.81
492.31	1324.81
492.527	1331.81
492.745	1363.81
492.963	1386.81
493.18	1366.81
493.398	1367.81
493.615	1345.81
493.833	1406.81
494.05	1345.81
494.268	1378.81
