Data from NiCl2@0.125M.TitratingCurve.Agarose3%dH2O.NegLispCup.LampEnergy10.LIBS07252019_HRD10591_18-28-31-580.txt Node
Date: Thu Jul 25 18:28:31 EDT 2019
User: cochatt
Spectrometer: HR+D1059
Trigger mode: 1
Integration Time (sec): 1.000000E-1
Scans to average: 1
Electric dark correction enabled: true
Nonlinearity correction enabled: false
Boxcar width: 0
XAxis mode: Wavelengths
Number of Pixels in Spectrum: 2048
>>>>>Begin Spectral Data<<<<<
223.165	-23.81
223.4	-23.81
223.635	-23.81
223.869	-22.81
224.104	-28.81
224.338	-13.81
224.573	-28.81
224.808	-6.81
225.042	-13.81
225.277	6.19
225.511	-5.81
225.746	13.19
225.98	12.19
226.215	11.19
226.449	19.19
226.683	33.19
226.918	24.19
227.152	25.19
227.387	30.19
227.621	37.19
227.856	32.19
228.09	35.19
228.324	55.19
228.559	44.19
228.793	66.19
229.027	107.19
229.262	112.19
229.496	139.19
229.73	134.19
229.964	124.19
230.199	129.19
230.433	124.19
230.667	151.19
230.901	152.19
231.136	131.19
231.37	155.19
231.604	155.19
231.838	153.19
232.072	150.19
232.306	146.19
232.541	154.19
232.775	152.19
233.009	160.19
233.243	160.19
233.477	148.19
233.711	160.19
233.945	166.19
234.179	162.19
234.413	155.19
234.647	160.19
234.881	170.19
235.115	188.19
235.349	162.19
235.583	164.19
235.817	169.19
236.051	164.19
236.285	158.19
236.519	168.19
236.753	187.19
236.987	167.19
237.221	156.19
237.455	179.19
237.689	177.19
237.922	186.19
238.156	183.19
238.39	181.19
238.624	188.19
238.858	188.19
239.091	194.19
239.325	187.19
239.559	186.19
239.793	203.19
240.027	192.19
240.26	194.19
240.494	190.19
240.728	202.19
240.961	213.19
241.195	206.19
241.429	218.19
241.662	217.19
241.896	198.19
242.13	202.19
242.363	203.19
242.597	206.19
242.83	212.19
243.064	232.19
243.298	225.19
243.531	224.19
243.765	232.19
243.998	230.19
244.232	224.19
244.465	234.19
244.699	233.19
244.932	243.19
245.166	238.19
245.399	237.19
245.633	245.19
245.866	258.19
246.099	238.19
246.333	255.19
246.566	247.19
246.8	236.19
247.033	258.19
247.266	260.19
247.5	249.19
247.733	268.19
247.966	267.19
248.2	281.19
248.433	274.19
248.666	264.19
248.899	271.19
249.133	282.19
249.366	279.19
249.599	276.19
249.832	274.19
250.066	294.19
250.299	286.19
250.532	287.19
250.765	296.19
250.998	284.19
251.231	294.19
251.465	311.19
251.698	296.19
251.931	296.19
252.164	309.19
252.397	298.19
252.63	299.19
252.863	303.19
253.096	316.19
253.329	327.19
253.562	319.19
253.795	316.19
254.028	302.19
254.261	337.19
254.494	302.19
254.727	307.19
254.96	326.19
255.193	318.19
255.426	328.19
255.659	334.19
255.892	344.19
256.124	320.19
256.357	335.19
256.59	346.19
256.823	342.19
257.056	337.19
257.289	326.19
257.521	345.19
257.754	346.19
257.987	322.19
258.22	343.19
258.452	343.19
258.685	342.19
258.918	356.19
259.151	342.19
259.383	362.19
259.616	346.19
259.849	352.19
260.081	349.19
260.314	355.19
260.547	341.19
260.779	373.19
261.012	354.19
261.244	389.19
261.477	384.19
261.71	358.19
261.942	369.19
262.175	368.19
262.407	357.19
262.64	371.19
262.872	366.19
263.105	381.19
263.337	376.19
263.57	394.19
263.802	386.19
264.035	389.19
264.267	396.19
264.499	379.19
264.732	394.19
264.964	403.19
265.197	374.19
265.429	414.19
265.661	406.19
265.894	404.19
266.126	395.19
266.358	416.19
266.591	407.19
266.823	393.19
267.055	399.19
267.287	398.19
267.52	402.19
267.752	415.19
267.984	425.19
268.216	437.19
268.448	435.19
268.681	422.19
268.913	418.19
269.145	450.19
269.377	436.19
269.609	440.19
269.841	435.19
270.073	426.19
270.306	423.19
270.538	433.19
270.77	409.19
271.002	438.19
271.234	443.19
271.466	447.19
271.698	407.19
271.93	412.19
272.162	432.19
272.394	447.19
272.626	439.19
272.858	451.19
273.09	450.19
273.322	484.19
273.553	457.19
273.785	444.19
274.017	459.19
274.249	474.19
274.481	458.19
274.713	455.19
274.945	474.19
275.176	480.19
275.408	478.19
275.64	499.19
275.872	477.19
276.104	483.19
276.335	468.19
276.567	478.19
276.799	494.19
277.031	498.19
277.262	484.19
277.494	491.19
277.726	495.19
277.957	495.19
278.189	514.19
278.421	488.19
278.652	491.19
278.884	488.19
279.115	497.19
279.347	482.19
279.579	491.19
279.81	522.19
280.042	520.19
280.273	528.19
280.505	512.19
280.736	517.19
280.968	538.19
281.199	518.19
281.431	520.19
281.662	549.19
281.894	542.19
282.125	538.19
282.356	571.19
282.588	553.19
282.819	554.19
283.051	552.19
283.282	536.19
283.513	560.19
283.745	540.19
283.976	541.19
284.207	548.19
284.439	561.19
284.67	548.19
284.901	559.19
285.132	562.19
285.364	561.19
285.595	590.19
285.826	566.19
286.057	598.19
286.288	578.19
286.52	580.19
286.751	576.19
286.982	582.19
287.213	600.19
287.444	586.19
287.675	609.19
287.906	624.19
288.138	574.19
288.369	589.19
288.6	591.19
288.831	604.19
289.062	623.19
289.293	615.19
289.524	607.19
289.755	581.19
289.986	588.19
290.217	610.19
290.448	619.19
290.679	604.19
290.91	619.19
291.141	644.19
291.371	629.19
291.602	605.19
291.833	630.19
292.064	610.19
292.295	622.19
292.526	634.19
292.757	615.19
292.987	608.19
293.218	618.19
293.449	602.19
293.68	615.19
293.91	607.19
294.141	622.19
294.372	596.19
294.603	608.19
294.833	646.19
295.064	631.19
295.295	634.19
295.525	633.19
295.756	647.19
295.987	638.19
296.217	617.19
296.448	636.19
296.679	629.19
296.909	626.19
297.14	629.19
297.37	654.19
297.601	657.19
297.831	652.19
298.062	686.19
298.292	681.19
298.523	664.19
298.753	682.19
298.984	658.19
299.214	659.19
299.445	644.19
299.675	667.19
299.905	660.19
300.136	650.19
300.366	658.19
300.597	669.19
300.827	668.19
301.057	707.19
301.288	712.19
301.518	696.19
301.748	694.19
301.979	714.19
302.209	713.19
302.439	716.19
302.669	696.19
302.9	677.19
303.13	676.19
303.36	691.19
303.59	688.19
303.82	679.19
304.051	702.19
304.281	702.19
304.511	680.19
304.741	682.19
304.971	695.19
305.201	674.19
305.431	683.19
305.661	687.19
305.891	695.19
306.121	699.19
306.352	674.19
306.582	676.19
306.812	678.19
307.042	699.19
307.272	666.19
307.502	698.19
307.731	682.19
307.961	679.19
308.191	674.19
308.421	656.19
308.651	667.19
308.881	647.19
309.111	679.19
309.341	650.19
309.571	662.19
309.8	663.19
310.03	666.19
310.26	682.19
310.49	671.19
310.72	683.19
310.949	706.19
311.179	703.19
311.409	679.19
311.639	661.19
311.868	685.19
312.098	702.19
312.328	688.19
312.557	706.19
312.787	684.19
313.017	707.19
313.246	720.19
313.476	706.19
313.706	714.19
313.935	703.19
314.165	710.19
314.394	716.19
314.624	716.19
314.853	730.19
315.083	738.19
315.312	718.19
315.542	709.19
315.771	719.19
316.001	732.19
316.23	716.19
316.46	707.19
316.689	703.19
316.919	718.19
317.148	692.19
317.377	706.19
317.607	700.19
317.836	694.19
318.065	700.19
318.295	718.19
318.524	693.19
318.753	703.19
318.983	687.19
319.212	697.19
319.441	707.19
319.67	719.19
319.9	682.19
320.129	723.19
320.358	704.19
320.587	712.19
320.816	710.19
321.046	711.19
321.275	707.19
321.504	706.19
321.733	729.19
321.962	715.19
322.191	703.19
322.42	721.19
322.649	702.19
322.878	731.19
323.108	744.19
323.337	733.19
323.566	721.19
323.795	738.19
324.024	737.19
324.253	730.19
324.482	723.19
324.71	716.19
324.939	724.19
325.168	729.19
325.397	739.19
325.626	754.19
325.855	756.19
326.084	771.19
326.313	771.19
326.542	772.19
326.77	792.19
326.999	777.19
327.228	783.19
327.457	789.19
327.686	782.19
327.914	760.19
328.143	771.19
328.372	772.19
328.6	774.19
328.829	791.19
329.058	776.19
329.287	774.19
329.515	776.19
329.744	773.19
329.972	798.19
330.201	789.19
330.43	791.19
330.658	780.19
330.887	809.19
331.115	818.19
331.344	808.19
331.572	806.19
331.801	830.19
332.03	847.19
332.258	892.19
332.486	894.19
332.715	974.19
332.943	979.19
333.172	1008.19
333.4	1026.19
333.629	1072.19
333.857	1051.19
334.085	1033.19
334.314	1031.19
334.542	1003.19
334.771	985.19
334.999	976.19
335.227	978.19
335.455	1003.19
335.684	963.19
335.912	944.19
336.14	945.19
336.369	926.19
336.597	918.19
336.825	937.19
337.053	931.19
337.281	924.19
337.51	898.19
337.738	905.19
337.966	859.19
338.194	865.19
338.422	863.19
338.65	807.19
338.878	842.19
339.106	850.19
339.334	858.19
339.562	859.19
339.79	814.19
340.018	834.19
340.246	786.19
340.474	821.19
340.702	807.19
340.93	843.19
341.158	814.19
341.386	794.19
341.614	787.19
341.842	809.19
342.07	813.19
342.298	806.19
342.526	802.19
342.754	806.19
342.981	823.19
343.209	848.19
343.437	851.19
343.665	920.19
343.893	1000.19
344.12	1030.19
344.348	971.19
344.576	913.19
344.804	870.19
345.031	850.19
345.259	819.19
345.487	805.19
345.714	809.19
345.942	811.19
346.17	806.19
346.397	820.19
346.625	784.19
346.853	792.19
347.08	779.19
347.308	817.19
347.535	826.19
347.763	811.19
347.99	802.19
348.218	799.19
348.445	803.19
348.673	779.19
348.9	791.19
349.128	772.19
349.355	771.19
349.583	790.19
349.81	770.19
350.037	778.19
350.265	734.19
350.492	750.19
350.72	744.19
350.947	751.19
351.174	763.19
351.402	791.19
351.629	757.19
351.856	747.19
352.083	770.19
352.311	743.19
352.538	730.19
352.765	764.19
352.992	742.19
353.22	767.19
353.447	724.19
353.674	739.19
353.901	771.19
354.128	713.19
354.355	724.19
354.583	768.19
354.81	768.19
355.037	769.19
355.264	774.19
355.491	759.19
355.718	782.19
355.945	747.19
356.172	762.19
356.399	768.19
356.626	763.19
356.853	782.19
357.08	739.19
357.307	751.19
357.534	770.19
357.761	767.19
357.988	751.19
358.215	764.19
358.441	754.19
358.668	764.19
358.895	748.19
359.122	762.19
359.349	730.19
359.576	750.19
359.802	764.19
360.029	747.19
360.256	754.19
360.483	745.19
360.709	742.19
360.936	768.19
361.163	762.19
361.39	768.19
361.616	762.19
361.843	764.19
362.07	763.19
362.296	775.19
362.523	731.19
362.749	765.19
362.976	754.19
363.203	759.19
363.429	774.19
363.656	738.19
363.882	730.19
364.109	768.19
364.335	737.19
364.562	734.19
364.788	756.19
365.015	768.19
365.241	759.19
365.468	732.19
365.694	737.19
365.92	755.19
366.147	767.19
366.373	739.19
366.599	756.19
366.826	738.19
367.052	752.19
367.278	779.19
367.505	731.19
367.731	750.19
367.957	755.19
368.184	763.19
368.41	756.19
368.636	783.19
368.862	756.19
369.089	779.19
369.315	763.19
369.541	778.19
369.767	814.19
369.993	779.19
370.219	786.19
370.445	772.19
370.672	805.19
370.898	798.19
371.124	809.19
371.35	830.19
371.576	835.19
371.802	822.19
372.028	836.19
372.254	811.19
372.48	830.19
372.706	854.19
372.932	878.19
373.158	850.19
373.384	844.19
373.61	831.19
373.835	829.19
374.061	807.19
374.287	836.19
374.513	848.19
374.739	889.19
374.965	910.19
375.191	905.19
375.416	926.19
375.642	902.19
375.868	883.19
376.094	856.19
376.319	860.19
376.545	850.19
376.771	793.19
376.997	834.19
377.222	817.19
377.448	817.19
377.674	839.19
377.899	824.19
378.125	801.19
378.35	816.19
378.576	823.19
378.802	814.19
379.027	809.19
379.253	818.19
379.478	793.19
379.704	832.19
379.929	793.19
380.155	806.19
380.38	827.19
380.606	811.19
380.831	817.19
381.057	851.19
381.282	806.19
381.507	814.19
381.733	838.19
381.958	839.19
382.184	853.19
382.409	882.19
382.634	848.19
382.86	900.19
383.085	892.19
383.31	891.19
383.535	905.19
383.761	918.19
383.986	914.19
384.211	959.19
384.436	957.19
384.662	971.19
384.887	1001.19
385.112	991.19
385.337	988.19
385.562	1013.19
385.787	1021.19
386.013	1042.19
386.238	1009.19
386.463	1022.19
386.688	1008.19
386.913	989.19
387.138	978.19
387.363	1000.19
387.588	984.19
387.813	961.19
388.038	988.19
388.263	977.19
388.488	972.19
388.713	974.19
388.938	992.19
389.163	969.19
389.387	970.19
389.612	935.19
389.837	941.19
390.062	954.19
390.287	982.19
390.512	978.19
390.736	1010.19
390.961	1006.19
391.186	998.19
391.411	1028.19
391.636	1098.19
391.86	1101.19
392.085	1145.19
392.31	1119.19
392.534	1080.19
392.759	1066.19
392.984	1070.19
393.208	1065.19
393.433	1070.19
393.658	1046.19
393.882	1041.19
394.107	1047.19
394.331	1064.19
394.556	1054.19
394.78	1098.19
395.005	1045.19
395.229	1088.19
395.454	1116.19
395.678	1140.19
395.903	1124.19
396.127	1103.19
396.352	1054.19
396.576	1063.19
396.801	1045.19
397.025	1052.19
397.249	1062.19
397.474	1109.19
397.698	1126.19
397.922	1100.19
398.147	1082.19
398.371	1126.19
398.595	1165.19
398.82	1254.19
399.044	1306.19
399.268	1454.19
399.492	1686.19
399.717	1944.19
399.941	1955.19
400.165	1714.19
400.389	1486.19
400.613	1364.19
400.837	1320.19
401.062	1281.19
401.286	1267.19
401.51	1241.19
401.734	1218.19
401.958	1262.19
402.182	1245.19
402.406	1282.19
402.63	1317.19
402.854	1340.19
403.078	1376.19
403.302	1391.19
403.526	1394.19
403.75	1441.19
403.974	1526.19
404.198	1466.19
404.422	1487.19
404.645	1444.19
404.869	1434.19
405.093	1411.19
405.317	1408.19
405.541	1369.19
405.765	1406.19
405.988	1340.19
406.212	1406.19
406.436	1368.19
406.66	1408.19
406.883	1418.19
407.107	1506.19
407.331	1556.19
407.555	1664.19
407.778	1661.19
408.002	1582.19
408.226	1570.19
408.449	1499.19
408.673	1449.19
408.896	1409.19
409.12	1414.19
409.344	1425.19
409.567	1391.19
409.791	1446.19
410.014	1417.19
410.238	1405.19
410.461	1448.19
410.685	1369.19
410.908	1351.19
411.132	1330.19
411.355	1295.19
411.578	1280.19
411.802	1286.19
412.025	1289.19
412.249	1315.19
412.472	1330.19
412.695	1281.19
412.919	1218.19
413.142	1256.19
413.365	1255.19
413.589	1288.19
413.812	1219.19
414.035	1234.19
414.258	1215.19
414.482	1254.19
414.705	1281.19
414.928	1258.19
415.151	1278.19
415.374	1268.19
415.597	1251.19
415.821	1202.19
416.044	1199.19
416.267	1265.19
416.49	1204.19
416.713	1211.19
416.936	1223.19
417.159	1233.19
417.382	1194.19
417.605	1232.19
417.828	1233.19
418.051	1196.19
418.274	1235.19
418.497	1238.19
418.72	1262.19
418.943	1268.19
419.166	1357.19
419.389	1438.19
419.611	1394.19
419.834	1374.19
420.057	1279.19
420.28	1243.19
420.503	1228.19
420.726	1208.19
420.948	1199.19
421.171	1246.19
421.394	1240.19
421.617	1243.19
421.839	1233.19
422.062	1244.19
422.285	1205.19
422.507	1282.19
422.73	1263.19
422.953	1280.19
423.175	1314.19
423.398	1322.19
423.621	1312.19
423.843	1320.19
424.066	1347.19
424.288	1324.19
424.511	1280.19
424.733	1273.19
424.956	1239.19
425.178	1256.19
425.401	1259.19
425.623	1253.19
425.846	1210.19
426.068	1205.19
426.291	1175.19
426.513	1190.19
426.735	1168.19
426.958	1134.19
427.18	1132.19
427.402	1138.19
427.625	1127.19
427.847	1110.19
428.069	1097.19
428.292	1102.19
428.514	1098.19
428.736	1113.19
428.958	1108.19
429.181	1082.19
429.403	1051.19
429.625	1103.19
429.847	1062.19
430.069	1036.19
430.292	1053.19
430.514	1044.19
430.736	1054.19
430.958	1082.19
431.18	1080.19
431.402	1086.19
431.624	1051.19
431.846	1062.19
432.068	1122.19
432.29	1111.19
432.512	1079.19
432.734	1108.19
432.956	1100.19
433.178	1155.19
433.4	1104.19
433.622	1092.19
433.844	1118.19
434.066	1098.19
434.287	1143.19
434.509	1150.19
434.731	1235.19
434.953	1240.19
435.175	1267.19
435.397	1251.19
435.618	1174.19
435.84	1122.19
436.062	1087.19
436.284	1104.19
436.505	1099.19
436.727	1076.19
436.949	1099.19
437.17	1091.19
437.392	1043.19
437.614	1082.19
437.835	1030.19
438.057	1033.19
438.278	1010.19
438.5	1042.19
438.721	1056.19
438.943	1072.19
439.165	1064.19
439.386	1056.19
439.608	1096.19
439.829	1075.19
440.05	1090.19
440.272	1116.19
440.493	1142.19
440.715	1133.19
440.936	1143.19
441.158	1159.19
441.379	1190.19
441.6	1270.19
441.822	1280.19
442.043	1279.19
442.264	1255.19
442.486	1218.19
442.707	1223.19
442.928	1210.19
443.149	1274.19
443.371	1218.19
443.592	1243.19
443.813	1234.19
444.034	1282.19
444.255	1288.19
444.476	1365.19
444.698	1479.19
444.919	1560.19
445.14	1603.19
445.361	1445.19
445.582	1287.19
445.803	1239.19
446.024	1178.19
446.245	1168.19
446.466	1144.19
446.687	1124.19
446.908	1118.19
447.129	1074.19
447.35	1084.19
447.571	1081.19
447.792	1049.19
448.013	1063.19
448.234	1015.19
448.455	1009.19
448.675	1036.19
448.896	1031.19
449.117	972.19
449.338	991.19
449.559	988.19
449.779	1008.19
450	1012.19
450.221	1003.19
450.442	1015.19
450.662	1030.19
450.883	1041.19
451.104	1061.19
451.324	1050.19
451.545	1049.19
451.766	1033.19
451.986	1025.19
452.207	1005.19
452.428	1027.19
452.648	1031.19
452.869	1031.19
453.089	961.19
453.31	1000.19
453.53	985.19
453.751	971.19
453.971	989.19
454.192	967.19
454.412	947.19
454.633	994.19
454.853	986.19
455.073	972.19
455.294	966.19
455.514	930.19
455.734	963.19
455.955	946.19
456.175	959.19
456.395	951.19
456.616	915.19
456.836	944.19
457.056	947.19
457.276	925.19
457.497	950.19
457.717	923.19
457.937	918.19
458.157	964.19
458.377	976.19
458.598	987.19
458.818	1022.19
459.038	1048.19
459.258	1118.19
459.478	1097.19
459.698	1155.19
459.918	1195.19
460.138	1218.19
460.358	1288.19
460.578	1323.19
460.798	1314.19
461.018	1345.19
461.238	1313.19
461.458	1337.19
461.678	1321.19
461.898	1311.19
462.118	1322.19
462.338	1408.19
462.558	1447.19
462.777	1438.19
462.997	1632.19
463.217	1785.19
463.437	1814.19
463.657	1657.19
463.876	1566.19
464.096	1513.19
464.316	1509.19
464.536	1560.19
464.755	1503.19
464.975	1440.19
465.195	1374.19
465.414	1287.19
465.634	1206.19
465.854	1156.19
466.073	1111.19
466.293	1115.19
466.512	1097.19
466.732	1075.19
466.951	1050.19
467.171	1076.19
467.391	1052.19
467.61	1057.19
467.829	1038.19
468.049	1036.19
468.268	1009.19
468.488	993.19
468.707	1023.19
468.927	1007.19
469.146	1021.19
469.365	1009.19
469.585	1022.19
469.804	1073.19
470.023	1074.19
470.243	1084.19
470.462	1110.19
470.681	1083.19
470.901	1094.19
471.12	1099.19
471.339	1074.19
471.558	1026.19
471.777	1037.19
471.997	1036.19
472.216	1011.19
472.435	1014.19
472.654	1012.19
472.873	987.19
473.092	964.19
473.311	991.19
473.53	997.19
473.749	987.19
473.968	964.19
474.187	963.19
474.406	968.19
474.625	976.19
474.844	965.19
475.063	991.19
475.282	1008.19
475.501	988.19
475.72	977.19
475.939	988.19
476.158	1016.19
476.377	1022.19
476.596	1028.19
476.814	1026.19
477.033	1056.19
477.252	1055.19
477.471	1075.19
477.69	1096.19
477.908	1100.19
478.127	1154.19
478.346	1167.19
478.564	1206.19
478.783	1181.19
479.002	1253.19
479.22	1260.19
479.439	1249.19
479.658	1222.19
479.876	1214.19
480.095	1242.19
480.313	1293.19
480.532	1322.19
480.751	1332.19
480.969	1284.19
481.188	1205.19
481.406	1183.19
481.624	1148.19
481.843	1150.19
482.061	1122.19
482.28	1129.19
482.498	1139.19
482.717	1118.19
482.935	1130.19
483.153	1110.19
483.372	1126.19
483.59	1121.19
483.808	1111.19
484.027	1146.19
484.245	1126.19
484.463	1115.19
484.681	1158.19
484.9	1169.19
485.118	1188.19
485.336	1164.19
485.554	1186.19
485.772	1184.19
485.99	1200.19
486.209	1209.19
486.427	1193.19
486.645	1182.19
486.863	1195.19
487.081	1178.19
487.299	1173.19
487.517	1179.19
487.735	1178.19
487.953	1192.19
488.171	1183.19
488.389	1178.19
488.607	1127.19
488.825	1148.19
489.043	1144.19
489.261	1159.19
489.479	1183.19
489.696	1175.19
489.914	1165.19
490.132	1180.19
490.35	1177.19
490.568	1170.19
490.786	1204.19
491.003	1199.19
491.221	1202.19
491.439	1180.19
491.657	1207.19
491.874	1206.19
492.092	1202.19
492.31	1190.19
492.527	1178.19
492.745	1220.19
492.963	1208.19
493.18	1217.19
493.398	1251.19
493.615	1216.19
493.833	1221.19
494.05	1247.19
494.268	1262.19
494.485	1247.19
494.703	1262.19
494.92	1254.19
495.138	1244.19
495.355	1256.19
