Data from NiCl2@0.0625M.TitratingCurve.Agarose3%dH2O.NegLispCup.LampEnergy10.LIBS07252019_HRD10591_18-35-39-577.txt Node
Date: Thu Jul 25 18:35:39 EDT 2019
User: cochatt
Spectrometer: HR+D1059
Trigger mode: 1
Integration Time (sec): 1.000000E-1
Scans to average: 1
Electric dark correction enabled: true
Nonlinearity correction enabled: false
Boxcar width: 0
XAxis mode: Wavelengths
Number of Pixels in Spectrum: 2048
>>>>>Begin Spectral Data<<<<<
223.165	-9.31
223.4	-9.31
223.635	-9.31
223.869	-24.31
224.104	-22.31
224.338	-3.31
224.573	-22.31
224.808	-3.31
225.042	-16.31
225.277	1.69
225.511	1.69
225.746	-0.31
225.98	5.69
226.215	17.69
226.449	24.69
226.683	6.69
226.918	15.69
227.152	27.69
227.387	21.69
227.621	42.69
227.856	33.69
228.09	54.69
228.324	47.69
228.559	59.69
228.793	73.69
229.027	117.69
229.262	117.69
229.496	130.69
229.73	122.69
229.964	124.69
230.199	139.69
230.433	138.69
230.667	148.69
230.901	140.69
231.136	149.69
231.37	137.69
231.604	147.69
231.838	148.69
232.072	168.69
232.306	154.69
232.541	145.69
232.775	155.69
233.009	162.69
233.243	151.69
233.477	162.69
233.711	152.69
233.945	166.69
234.179	169.69
234.413	176.69
234.647	194.69
234.881	163.69
235.115	178.69
235.349	157.69
235.583	180.69
235.817	179.69
236.051	164.69
236.285	179.69
236.519	178.69
236.753	187.69
236.987	191.69
237.221	199.69
237.455	179.69
237.689	179.69
237.922	176.69
238.156	193.69
238.39	175.69
238.624	181.69
238.858	182.69
239.091	171.69
239.325	212.69
239.559	192.69
239.793	211.69
240.027	200.69
240.26	204.69
240.494	217.69
240.728	217.69
240.961	191.69
241.195	224.69
241.429	215.69
241.662	217.69
241.896	224.69
242.13	222.69
242.363	208.69
242.597	222.69
242.83	218.69
243.064	225.69
243.298	256.69
243.531	233.69
243.765	226.69
243.998	236.69
244.232	234.69
244.465	231.69
244.699	251.69
244.932	258.69
245.166	267.69
245.399	261.69
245.633	284.69
245.866	258.69
246.099	242.69
246.333	252.69
246.566	256.69
246.8	256.69
247.033	263.69
247.266	263.69
247.5	268.69
247.733	275.69
247.966	269.69
248.2	288.69
248.433	280.69
248.666	270.69
248.899	296.69
249.133	297.69
249.366	293.69
249.599	306.69
249.832	321.69
250.066	299.69
250.299	303.69
250.532	280.69
250.765	296.69
250.998	294.69
251.231	305.69
251.465	297.69
251.698	311.69
251.931	323.69
252.164	310.69
252.397	326.69
252.63	321.69
252.863	307.69
253.096	321.69
253.329	324.69
253.562	335.69
253.795	331.69
254.028	331.69
254.261	319.69
254.494	320.69
254.727	343.69
254.96	325.69
255.193	331.69
255.426	350.69
255.659	345.69
255.892	337.69
256.124	351.69
256.357	336.69
256.59	355.69
256.823	367.69
257.056	351.69
257.289	352.69
257.521	375.69
257.754	356.69
257.987	355.69
258.22	353.69
258.452	373.69
258.685	367.69
258.918	375.69
259.151	381.69
259.383	378.69
259.616	386.69
259.849	358.69
260.081	389.69
260.314	384.69
260.547	390.69
260.779	380.69
261.012	375.69
261.244	385.69
261.477	402.69
261.71	399.69
261.942	384.69
262.175	388.69
262.407	416.69
262.64	415.69
262.872	413.69
263.105	409.69
263.337	408.69
263.57	402.69
263.802	405.69
264.035	428.69
264.267	419.69
264.499	408.69
264.732	410.69
264.964	437.69
265.197	422.69
265.429	431.69
265.661	440.69
265.894	421.69
266.126	446.69
266.358	417.69
266.591	450.69
266.823	435.69
267.055	441.69
267.287	432.69
267.52	450.69
267.752	423.69
267.984	449.69
268.216	467.69
268.448	458.69
268.681	454.69
268.913	449.69
269.145	453.69
269.377	475.69
269.609	475.69
269.841	454.69
270.073	448.69
270.306	467.69
270.538	467.69
270.77	476.69
271.002	481.69
271.234	466.69
271.466	466.69
271.698	474.69
271.93	470.69
272.162	483.69
272.394	479.69
272.626	482.69
272.858	477.69
273.09	476.69
273.322	488.69
273.553	489.69
273.785	498.69
274.017	507.69
274.249	510.69
274.481	496.69
274.713	482.69
274.945	539.69
275.176	499.69
275.408	489.69
275.64	520.69
275.872	531.69
276.104	508.69
276.335	503.69
276.567	507.69
276.799	510.69
277.031	528.69
277.262	520.69
277.494	535.69
277.726	535.69
277.957	534.69
278.189	542.69
278.421	548.69
278.652	548.69
278.884	542.69
279.115	540.69
279.347	562.69
279.579	540.69
279.81	546.69
280.042	542.69
280.273	548.69
280.505	539.69
280.736	547.69
280.968	546.69
281.199	566.69
281.431	556.69
281.662	554.69
281.894	563.69
282.125	574.69
282.356	575.69
282.588	611.69
282.819	571.69
283.051	598.69
283.282	594.69
283.513	582.69
283.745	576.69
283.976	594.69
284.207	587.69
284.439	578.69
284.67	583.69
284.901	588.69
285.132	608.69
285.364	559.69
285.595	587.69
285.826	590.69
286.057	594.69
286.288	591.69
286.52	612.69
286.751	611.69
286.982	630.69
287.213	585.69
287.444	613.69
287.675	642.69
287.906	628.69
288.138	615.69
288.369	608.69
288.6	594.69
288.831	631.69
289.062	638.69
289.293	603.69
289.524	615.69
289.755	672.69
289.986	619.69
290.217	601.69
290.448	624.69
290.679	622.69
290.91	617.69
291.141	622.69
291.371	662.69
291.602	647.69
291.833	630.69
292.064	640.69
292.295	634.69
292.526	633.69
292.757	633.69
292.987	639.69
293.218	608.69
293.449	653.69
293.68	634.69
293.91	665.69
294.141	647.69
294.372	625.69
294.603	649.69
294.833	635.69
295.064	623.69
295.295	660.69
295.525	649.69
295.756	651.69
295.987	635.69
296.217	666.69
296.448	649.69
296.679	675.69
296.909	650.69
297.14	670.69
297.37	672.69
297.601	673.69
297.831	690.69
298.062	702.69
298.292	679.69
298.523	659.69
298.753	675.69
298.984	707.69
299.214	706.69
299.445	690.69
299.675	676.69
299.905	680.69
300.136	668.69
300.366	712.69
300.597	714.69
300.827	706.69
301.057	697.69
301.288	710.69
301.518	701.69
301.748	721.69
301.979	744.69
302.209	716.69
302.439	712.69
302.669	714.69
302.9	710.69
303.13	699.69
303.36	712.69
303.59	719.69
303.82	724.69
304.051	739.69
304.281	724.69
304.511	715.69
304.741	731.69
304.971	740.69
305.201	730.69
305.431	714.69
305.661	701.69
305.891	732.69
306.121	736.69
306.352	750.69
306.582	693.69
306.812	716.69
307.042	727.69
307.272	734.69
307.502	713.69
307.731	724.69
307.961	714.69
308.191	721.69
308.421	714.69
308.651	718.69
308.881	686.69
309.111	704.69
309.341	724.69
309.571	730.69
309.8	723.69
310.03	713.69
310.26	715.69
310.49	729.69
310.72	724.69
310.949	749.69
311.179	734.69
311.409	739.69
311.639	734.69
311.868	721.69
312.098	744.69
312.328	776.69
312.557	743.69
312.787	727.69
313.017	747.69
313.246	739.69
313.476	730.69
313.706	772.69
313.935	764.69
314.165	780.69
314.394	768.69
314.624	780.69
314.853	764.69
315.083	780.69
315.312	783.69
315.542	783.69
315.771	752.69
316.001	772.69
316.23	787.69
316.46	746.69
316.689	772.69
316.919	744.69
317.148	776.69
317.377	798.69
317.607	761.69
317.836	762.69
318.065	754.69
318.295	791.69
318.524	777.69
318.753	777.69
318.983	783.69
319.212	766.69
319.441	753.69
319.67	768.69
319.9	780.69
320.129	772.69
320.358	750.69
320.587	763.69
320.816	773.69
321.046	751.69
321.275	814.69
321.504	796.69
321.733	777.69
321.962	779.69
322.191	801.69
322.42	763.69
322.649	790.69
322.878	793.69
323.108	780.69
323.337	784.69
323.566	809.69
323.795	804.69
324.024	812.69
324.253	826.69
324.482	789.69
324.71	786.69
324.939	793.69
325.168	802.69
325.397	811.69
325.626	810.69
325.855	817.69
326.084	842.69
326.313	818.69
326.542	826.69
326.77	856.69
326.999	820.69
327.228	841.69
327.457	826.69
327.686	847.69
327.914	839.69
328.143	824.69
328.372	842.69
328.6	831.69
328.829	820.69
329.058	818.69
329.287	827.69
329.515	813.69
329.744	839.69
329.972	836.69
330.201	849.69
330.43	848.69
330.658	868.69
330.887	871.69
331.115	861.69
331.344	873.69
331.572	883.69
331.801	887.69
332.03	912.69
332.258	911.69
332.486	899.69
332.715	932.69
332.943	938.69
333.172	968.69
333.4	1001.69
333.629	985.69
333.857	1030.69
334.085	1017.69
334.314	1009.69
334.542	1025.69
334.771	1048.69
334.999	977.69
335.227	983.69
335.455	1025.69
335.684	1010.69
335.912	1008.69
336.14	999.69
336.369	990.69
336.597	984.69
336.825	966.69
337.053	976.69
337.281	967.69
337.51	982.69
337.738	940.69
337.966	924.69
338.194	935.69
338.422	909.69
338.65	911.69
338.878	935.69
339.106	897.69
339.334	923.69
339.562	934.69
339.79	880.69
340.018	902.69
340.246	888.69
340.474	872.69
340.702	879.69
340.93	874.69
341.158	865.69
341.386	887.69
341.614	890.69
341.842	874.69
342.07	866.69
342.298	873.69
342.526	865.69
342.754	876.69
342.981	862.69
343.209	888.69
343.437	888.69
343.665	944.69
343.893	972.69
344.12	992.69
344.348	975.69
344.576	939.69
344.804	934.69
345.031	912.69
345.259	900.69
345.487	899.69
345.714	870.69
345.942	876.69
346.17	866.69
346.397	827.69
346.625	854.69
346.853	825.69
347.08	838.69
347.308	865.69
347.535	830.69
347.763	863.69
347.99	833.69
348.218	815.69
348.445	816.69
348.673	822.69
348.9	840.69
349.128	808.69
349.355	822.69
349.583	816.69
349.81	822.69
350.037	793.69
350.265	844.69
350.492	834.69
350.72	803.69
350.947	835.69
351.174	826.69
351.402	820.69
351.629	826.69
351.856	806.69
352.083	798.69
352.311	787.69
352.538	781.69
352.765	822.69
352.992	805.69
353.22	814.69
353.447	774.69
353.674	804.69
353.901	821.69
354.128	798.69
354.355	811.69
354.583	788.69
354.81	794.69
355.037	790.69
355.264	822.69
355.491	822.69
355.718	822.69
355.945	816.69
356.172	806.69
356.399	803.69
356.626	822.69
356.853	808.69
357.08	807.69
357.307	836.69
357.534	807.69
357.761	825.69
357.988	819.69
358.215	834.69
358.441	810.69
358.668	787.69
358.895	811.69
359.122	792.69
359.349	806.69
359.576	821.69
359.802	809.69
360.029	802.69
360.256	816.69
360.483	812.69
360.709	842.69
360.936	814.69
361.163	802.69
361.39	841.69
361.616	811.69
361.843	807.69
362.07	803.69
362.296	801.69
362.523	809.69
362.749	796.69
362.976	790.69
363.203	792.69
363.429	802.69
363.656	821.69
363.882	827.69
364.109	803.69
364.335	823.69
364.562	818.69
364.788	805.69
365.015	816.69
365.241	814.69
365.468	817.69
365.694	809.69
365.92	826.69
366.147	816.69
366.373	796.69
366.599	801.69
366.826	829.69
367.052	786.69
367.278	807.69
367.505	813.69
367.731	818.69
367.957	826.69
368.184	812.69
368.41	850.69
368.636	814.69
368.862	821.69
369.089	854.69
369.315	823.69
369.541	846.69
369.767	840.69
369.993	841.69
370.219	844.69
370.445	864.69
370.672	859.69
370.898	844.69
371.124	875.69
371.35	896.69
371.576	870.69
371.802	879.69
372.028	890.69
372.254	890.69
372.48	885.69
372.706	907.69
372.932	905.69
373.158	929.69
373.384	874.69
373.61	894.69
373.835	881.69
374.061	880.69
374.287	855.69
374.513	900.69
374.739	897.69
374.965	931.69
375.191	959.69
375.416	955.69
375.642	914.69
375.868	890.69
376.094	902.69
376.319	931.69
376.545	885.69
376.771	876.69
376.997	871.69
377.222	883.69
377.448	881.69
377.674	873.69
377.899	869.69
378.125	878.69
378.35	846.69
378.576	845.69
378.802	858.69
379.027	882.69
379.253	881.69
379.478	836.69
379.704	852.69
379.929	898.69
380.155	852.69
380.38	863.69
380.606	859.69
380.831	849.69
381.057	876.69
381.282	881.69
381.507	852.69
381.733	891.69
381.958	891.69
382.184	873.69
382.409	898.69
382.634	884.69
382.86	901.69
383.085	940.69
383.31	902.69
383.535	928.69
383.761	913.69
383.986	942.69
384.211	938.69
384.436	969.69
384.662	986.69
384.887	982.69
385.112	973.69
385.337	999.69
385.562	1009.69
385.787	1022.69
386.013	1025.69
386.238	1026.69
386.463	1040.69
386.688	1012.69
386.913	995.69
387.138	996.69
387.363	1041.69
387.588	995.69
387.813	1019.69
388.038	978.69
388.263	1018.69
388.488	1019.69
388.713	1050.69
388.938	1038.69
389.163	1010.69
389.387	1009.69
389.612	1017.69
389.837	1000.69
390.062	992.69
390.287	1020.69
390.512	1012.69
390.736	1000.69
390.961	994.69
391.186	1058.69
391.411	1064.69
391.636	1107.69
391.86	1137.69
392.085	1116.69
392.31	1116.69
392.534	1127.69
392.759	1110.69
392.984	1087.69
393.208	1072.69
393.433	1093.69
393.658	1103.69
393.882	1042.69
394.107	1086.69
394.331	1093.69
394.556	1086.69
394.78	1090.69
395.005	1084.69
395.229	1125.69
395.454	1116.69
395.678	1137.69
395.903	1118.69
396.127	1110.69
396.352	1133.69
396.576	1114.69
396.801	1115.69
397.025	1112.69
397.249	1150.69
397.474	1178.69
397.698	1125.69
397.922	1165.69
398.147	1128.69
398.371	1139.69
398.595	1237.69
398.82	1234.69
399.044	1318.69
399.268	1397.69
399.492	1485.69
399.717	1586.69
399.941	1642.69
400.165	1552.69
400.389	1432.69
400.613	1393.69
400.837	1345.69
401.062	1298.69
401.286	1257.69
401.51	1290.69
401.734	1259.69
401.958	1279.69
402.182	1252.69
402.406	1264.69
402.63	1274.69
402.854	1260.69
403.078	1278.69
403.302	1288.69
403.526	1314.69
403.75	1292.69
403.974	1344.69
404.198	1348.69
404.422	1347.69
404.645	1334.69
404.869	1333.69
405.093	1352.69
405.317	1319.69
405.541	1340.69
405.765	1341.69
405.988	1327.69
406.212	1343.69
406.436	1358.69
406.66	1404.69
406.883	1408.69
407.107	1457.69
407.331	1520.69
407.555	1558.69
407.778	1535.69
408.002	1512.69
408.226	1493.69
408.449	1459.69
408.673	1446.69
408.896	1444.69
409.12	1403.69
409.344	1437.69
409.567	1381.69
409.791	1357.69
410.014	1400.69
410.238	1344.69
410.461	1368.69
410.685	1344.69
410.908	1338.69
411.132	1318.69
411.355	1290.69
411.578	1313.69
411.802	1307.69
412.025	1310.69
412.249	1361.69
412.472	1326.69
412.695	1293.69
412.919	1259.69
413.142	1260.69
413.365	1291.69
413.589	1274.69
413.812	1281.69
414.035	1226.69
414.258	1264.69
414.482	1265.69
414.705	1258.69
414.928	1255.69
415.151	1266.69
415.374	1220.69
415.597	1223.69
415.821	1183.69
416.044	1232.69
416.267	1199.69
416.49	1201.69
416.713	1206.69
416.936	1215.69
417.159	1220.69
417.382	1216.69
417.605	1194.69
417.828	1204.69
418.051	1224.69
418.274	1187.69
418.497	1188.69
418.72	1211.69
418.943	1217.69
419.166	1300.69
419.389	1380.69
419.611	1372.69
419.834	1306.69
420.057	1263.69
420.28	1209.69
420.503	1186.69
420.726	1166.69
420.948	1187.69
421.171	1193.69
421.394	1186.69
421.617	1172.69
421.839	1181.69
422.062	1207.69
422.285	1183.69
422.507	1220.69
422.73	1210.69
422.953	1198.69
423.175	1198.69
423.398	1210.69
423.621	1216.69
423.843	1205.69
424.066	1239.69
424.288	1245.69
424.511	1234.69
424.733	1229.69
424.956	1202.69
425.178	1229.69
425.401	1185.69
425.623	1202.69
425.846	1179.69
426.068	1160.69
426.291	1184.69
426.513	1167.69
426.735	1149.69
426.958	1158.69
427.18	1124.69
427.402	1138.69
427.625	1119.69
427.847	1118.69
428.069	1114.69
428.292	1141.69
428.514	1144.69
428.736	1123.69
428.958	1148.69
429.181	1089.69
429.403	1094.69
429.625	1080.69
429.847	1099.69
430.069	1098.69
430.292	1112.69
430.514	1116.69
430.736	1099.69
430.958	1106.69
431.18	1115.69
431.402	1095.69
431.624	1114.69
431.846	1120.69
432.068	1116.69
432.29	1146.69
432.512	1105.69
432.734	1127.69
432.956	1128.69
433.178	1135.69
433.4	1129.69
433.622	1146.69
433.844	1151.69
434.066	1146.69
434.287	1160.69
434.509	1177.69
434.731	1200.69
434.953	1221.69
435.175	1203.69
435.397	1200.69
435.618	1154.69
435.84	1181.69
436.062	1114.69
436.284	1151.69
436.505	1098.69
436.727	1128.69
436.949	1136.69
437.17	1113.69
437.392	1075.69
437.614	1072.69
437.835	1063.69
438.057	1048.69
438.278	1080.69
438.5	1068.69
438.721	1062.69
438.943	1041.69
439.165	1078.69
439.386	1084.69
439.608	1135.69
439.829	1072.69
440.05	1088.69
440.272	1072.69
440.493	1089.69
440.715	1134.69
440.936	1124.69
441.158	1130.69
441.379	1155.69
441.6	1186.69
441.822	1156.69
442.043	1228.69
442.264	1175.69
442.486	1152.69
442.707	1163.69
442.928	1162.69
443.149	1196.69
443.371	1190.69
443.592	1206.69
443.813	1177.69
444.034	1232.69
444.255	1228.69
444.476	1237.69
444.698	1274.69
444.919	1316.69
445.14	1406.69
445.361	1327.69
445.582	1268.69
445.803	1200.69
446.024	1177.69
446.245	1115.69
446.466	1111.69
446.687	1090.69
446.908	1113.69
447.129	1078.69
447.35	1067.69
447.571	1044.69
447.792	1016.69
448.013	1013.69
448.234	1001.69
448.455	1020.69
448.675	1018.69
448.896	1005.69
449.117	995.69
449.338	1028.69
449.559	981.69
449.779	979.69
450	1008.69
450.221	1024.69
450.442	1012.69
450.662	967.69
450.883	987.69
451.104	981.69
451.324	1000.69
451.545	1008.69
451.766	982.69
451.986	955.69
452.207	991.69
452.428	1018.69
452.648	984.69
452.869	969.69
453.089	960.69
453.31	990.69
453.53	984.69
453.751	944.69
453.971	947.69
454.192	975.69
454.412	954.69
454.633	956.69
454.853	980.69
455.073	946.69
455.294	955.69
455.514	931.69
455.734	978.69
455.955	944.69
456.175	938.69
456.395	932.69
456.616	953.69
456.836	942.69
457.056	944.69
457.276	914.69
457.497	971.69
457.717	991.69
457.937	960.69
458.157	951.69
458.377	959.69
458.598	1018.69
458.818	1020.69
459.038	1058.69
459.258	1047.69
459.478	1099.69
459.698	1124.69
459.918	1161.69
460.138	1151.69
460.358	1200.69
460.578	1194.69
460.798	1228.69
461.018	1238.69
461.238	1205.69
461.458	1237.69
461.678	1217.69
461.898	1232.69
462.118	1259.69
462.338	1315.69
462.558	1327.69
462.777	1361.69
462.997	1471.69
463.217	1477.69
463.437	1511.69
463.657	1429.69
463.876	1430.69
464.096	1396.69
464.316	1371.69
464.536	1409.69
464.755	1360.69
464.975	1296.69
465.195	1245.69
465.414	1175.69
465.634	1149.69
465.854	1156.69
466.073	1098.69
466.293	1081.69
466.512	1117.69
466.732	1052.69
466.951	1065.69
467.171	1042.69
467.391	1047.69
467.61	1058.69
467.829	1033.69
468.049	1034.69
468.268	1037.69
468.488	996.69
468.707	1006.69
468.927	1028.69
469.146	1044.69
469.365	1033.69
469.585	1023.69
469.804	1042.69
470.023	1042.69
470.243	1072.69
470.462	1064.69
470.681	1093.69
470.901	1084.69
471.12	1073.69
471.339	1065.69
471.558	1073.69
471.777	1020.69
471.997	1043.69
472.216	1046.69
472.435	1010.69
472.654	1021.69
472.873	1027.69
473.092	1034.69
473.311	1018.69
473.53	1027.69
473.749	1015.69
473.968	1023.69
474.187	1008.69
474.406	987.69
474.625	1014.69
474.844	985.69
475.063	1026.69
475.282	1021.69
475.501	1014.69
475.72	1025.69
475.939	1000.69
476.158	1039.69
476.377	1077.69
476.596	1087.69
476.814	1092.69
477.033	1059.69
477.252	1086.69
477.471	1096.69
477.69	1123.69
477.908	1161.69
478.127	1183.69
478.346	1166.69
478.564	1216.69
478.783	1172.69
479.002	1235.69
479.22	1242.69
479.439	1279.69
479.658	1272.69
479.876	1245.69
480.095	1263.69
480.313	1266.69
480.532	1326.69
480.751	1317.69
480.969	1269.69
481.188	1266.69
481.406	1266.69
481.624	1223.69
481.843	1193.69
482.061	1211.69
482.28	1201.69
482.498	1180.69
482.717	1202.69
482.935	1211.69
483.153	1209.69
483.372	1198.69
483.59	1191.69
483.808	1239.69
484.027	1210.69
484.245	1238.69
484.463	1247.69
484.681	1258.69
484.9	1271.69
485.118	1262.69
485.336	1266.69
485.554	1266.69
485.772	1273.69
485.99	1279.69
486.209	1275.69
486.427	1269.69
486.645	1284.69
486.863	1265.69
487.081	1280.69
487.299	1263.69
487.517	1252.69
487.735	1253.69
487.953	1273.69
488.171	1286.69
488.389	1237.69
488.607	1224.69
488.825	1249.69
489.043	1249.69
489.261	1205.69
489.479	1237.69
489.696	1252.69
489.914	1231.69
490.132	1232.69
490.35	1211.69
490.568	1232.69
490.786	1266.69
491.003	1273.69
491.221	1216.69
491.439	1250.69
491.657	1242.69
491.874	1262.69
492.092	1250.69
492.31	1221.69
492.527	1236.69
492.745	1260.69
492.963	1223.69
493.18	1247.69
493.398	1258.69
493.615	1270.69
493.833	1260.69
494.05	1274.69
494.268	1304.69
494.485	1332.69
494.703	1312.69
494.92	1297.69
495.138	1285.69
495.355	1285.69
