Data from NiCl2@0.5M.TitratingCurve.Agarose3%dH2O.NegLispCup.LampEnergy10.LIBS07252019_HRD10591_18-18-59-571.txt Node
Date: Thu Jul 25 18:18:59 EDT 2019
User: cochatt
Spectrometer: HR+D1059
Trigger mode: 1
Integration Time (sec): 1.000000E-1
Scans to average: 1
Electric dark correction enabled: true
Nonlinearity correction enabled: false
Boxcar width: 0
XAxis mode: Wavelengths
Number of Pixels in Spectrum: 2048
>>>>>Begin Spectral Data<<<<<
223.165	-12.25
223.4	-12.25
223.635	-12.25
223.869	-14.25
224.104	-24.25
224.338	-17.25
224.573	0.75
224.808	-23.25
225.042	-9.25
225.277	-10.25
225.511	-10.25
225.746	-0.25
225.98	4.75
226.215	25.75
226.449	3.75
226.683	24.75
226.918	29.75
227.152	31.75
227.387	43.75
227.621	33.75
227.856	29.75
228.09	34.75
228.324	49.75
228.559	54.75
228.793	83.75
229.027	136.75
229.262	149.75
229.496	164.75
229.73	152.75
229.964	158.75
230.199	183.75
230.433	184.75
230.667	197.75
230.901	182.75
231.136	183.75
231.37	194.75
231.604	194.75
231.838	196.75
232.072	189.75
232.306	209.75
232.541	202.75
232.775	207.75
233.009	208.75
233.243	196.75
233.477	181.75
233.711	193.75
233.945	192.75
234.179	203.75
234.413	204.75
234.647	193.75
234.881	197.75
235.115	202.75
235.349	190.75
235.583	203.75
235.817	217.75
236.051	201.75
236.285	225.75
236.519	222.75
236.753	212.75
236.987	215.75
237.221	209.75
237.455	222.75
237.689	225.75
237.922	230.75
238.156	233.75
238.39	227.75
238.624	235.75
238.858	241.75
239.091	237.75
239.325	251.75
239.559	247.75
239.793	260.75
240.027	251.75
240.26	262.75
240.494	278.75
240.728	275.75
240.961	289.75
241.195	244.75
241.429	262.75
241.662	269.75
241.896	290.75
242.13	273.75
242.363	283.75
242.597	288.75
242.83	277.75
243.064	281.75
243.298	281.75
243.531	314.75
243.765	316.75
243.998	303.75
244.232	298.75
244.465	301.75
244.699	317.75
244.932	320.75
245.166	300.75
245.399	327.75
245.633	335.75
245.866	318.75
246.099	324.75
246.333	344.75
246.566	311.75
246.8	324.75
247.033	340.75
247.266	323.75
247.5	333.75
247.733	337.75
247.966	325.75
248.2	355.75
248.433	359.75
248.666	346.75
248.899	344.75
249.133	347.75
249.366	366.75
249.599	375.75
249.832	355.75
250.066	359.75
250.299	383.75
250.532	383.75
250.765	376.75
250.998	406.75
251.231	385.75
251.465	395.75
251.698	411.75
251.931	384.75
252.164	402.75
252.397	388.75
252.63	436.75
252.863	413.75
253.096	408.75
253.329	411.75
253.562	410.75
253.795	434.75
254.028	443.75
254.261	426.75
254.494	441.75
254.727	446.75
254.96	429.75
255.193	443.75
255.426	437.75
255.659	437.75
255.892	439.75
256.124	458.75
256.357	441.75
256.59	449.75
256.823	466.75
257.056	441.75
257.289	474.75
257.521	461.75
257.754	465.75
257.987	456.75
258.22	498.75
258.452	461.75
258.685	493.75
258.918	476.75
259.151	473.75
259.383	471.75
259.616	449.75
259.849	479.75
260.081	486.75
260.314	464.75
260.547	491.75
260.779	490.75
261.012	505.75
261.244	495.75
261.477	494.75
261.71	500.75
261.942	520.75
262.175	514.75
262.407	518.75
262.64	485.75
262.872	520.75
263.105	511.75
263.337	535.75
263.57	537.75
263.802	542.75
264.035	525.75
264.267	536.75
264.499	545.75
264.732	531.75
264.964	532.75
265.197	538.75
265.429	555.75
265.661	537.75
265.894	562.75
266.126	548.75
266.358	551.75
266.591	555.75
266.823	559.75
267.055	559.75
267.287	569.75
267.52	581.75
267.752	564.75
267.984	599.75
268.216	598.75
268.448	599.75
268.681	598.75
268.913	580.75
269.145	579.75
269.377	607.75
269.609	601.75
269.841	587.75
270.073	580.75
270.306	573.75
270.538	602.75
270.77	595.75
271.002	583.75
271.234	598.75
271.466	609.75
271.698	635.75
271.93	636.75
272.162	615.75
272.394	648.75
272.626	635.75
272.858	675.75
273.09	634.75
273.322	642.75
273.553	629.75
273.785	641.75
274.017	641.75
274.249	640.75
274.481	662.75
274.713	646.75
274.945	639.75
275.176	643.75
275.408	666.75
275.64	649.75
275.872	661.75
276.104	689.75
276.335	704.75
276.567	676.75
276.799	730.75
277.031	681.75
277.262	685.75
277.494	689.75
277.726	690.75
277.957	690.75
278.189	700.75
278.421	691.75
278.652	693.75
278.884	696.75
279.115	699.75
279.347	706.75
279.579	728.75
279.81	703.75
280.042	741.75
280.273	706.75
280.505	726.75
280.736	717.75
280.968	750.75
281.199	723.75
281.431	734.75
281.662	736.75
281.894	739.75
282.125	720.75
282.356	790.75
282.588	753.75
282.819	766.75
283.051	758.75
283.282	754.75
283.513	757.75
283.745	769.75
283.976	764.75
284.207	794.75
284.439	753.75
284.67	799.75
284.901	795.75
285.132	808.75
285.364	770.75
285.595	816.75
285.826	798.75
286.057	790.75
286.288	779.75
286.52	805.75
286.751	822.75
286.982	832.75
287.213	811.75
287.444	817.75
287.675	811.75
287.906	827.75
288.138	851.75
288.369	838.75
288.6	854.75
288.831	835.75
289.062	856.75
289.293	829.75
289.524	835.75
289.755	854.75
289.986	843.75
290.217	871.75
290.448	834.75
290.679	861.75
290.91	844.75
291.141	839.75
291.371	857.75
291.602	841.75
291.833	828.75
292.064	866.75
292.295	863.75
292.526	859.75
292.757	857.75
292.987	866.75
293.218	853.75
293.449	853.75
293.68	885.75
293.91	859.75
294.141	859.75
294.372	864.75
294.603	859.75
294.833	874.75
295.064	871.75
295.295	886.75
295.525	863.75
295.756	897.75
295.987	857.75
296.217	869.75
296.448	902.75
296.679	883.75
296.909	905.75
297.14	907.75
297.37	898.75
297.601	901.75
297.831	921.75
298.062	921.75
298.292	943.75
298.523	937.75
298.753	965.75
298.984	933.75
299.214	966.75
299.445	942.75
299.675	942.75
299.905	943.75
300.136	978.75
300.366	980.75
300.597	1026.75
300.827	986.75
301.057	968.75
301.288	1017.75
301.518	1012.75
301.748	977.75
301.979	1024.75
302.209	995.75
302.439	994.75
302.669	992.75
302.9	1009.75
303.13	951.75
303.36	987.75
303.59	997.75
303.82	980.75
304.051	997.75
304.281	989.75
304.511	995.75
304.741	1019.75
304.971	996.75
305.201	1017.75
305.431	1052.75
305.661	1019.75
305.891	1015.75
306.121	983.75
306.352	983.75
306.582	995.75
306.812	990.75
307.042	997.75
307.272	986.75
307.502	992.75
307.731	941.75
307.961	979.75
308.191	948.75
308.421	1000.75
308.651	970.75
308.881	977.75
309.111	957.75
309.341	962.75
309.571	964.75
309.8	1012.75
310.03	1010.75
310.26	1029.75
310.49	1054.75
310.72	1024.75
310.949	998.75
311.179	1008.75
311.409	1005.75
311.639	994.75
311.868	1001.75
312.098	1020.75
312.328	1048.75
312.557	1015.75
312.787	1015.75
313.017	1037.75
313.246	1044.75
313.476	1061.75
313.706	1062.75
313.935	1089.75
314.165	1044.75
314.394	1035.75
314.624	1079.75
314.853	1055.75
315.083	1042.75
315.312	1042.75
315.542	1065.75
315.771	1055.75
316.001	1065.75
316.23	1058.75
316.46	1027.75
316.689	1054.75
316.919	1045.75
317.148	1050.75
317.377	1081.75
317.607	1049.75
317.836	1003.75
318.065	1056.75
318.295	1045.75
318.524	1051.75
318.753	1053.75
318.983	1030.75
319.212	1042.75
319.441	1036.75
319.67	1048.75
319.9	1045.75
320.129	1037.75
320.358	1050.75
320.587	1075.75
320.816	1047.75
321.046	1049.75
321.275	1064.75
321.504	1038.75
321.733	1071.75
321.962	1063.75
322.191	1090.75
322.42	1071.75
322.649	1077.75
322.878	1102.75
323.108	1116.75
323.337	1119.75
323.566	1135.75
323.795	1074.75
324.024	1097.75
324.253	1094.75
324.482	1098.75
324.71	1067.75
324.939	1136.75
325.168	1110.75
325.397	1112.75
325.626	1090.75
325.855	1110.75
326.084	1143.75
326.313	1122.75
326.542	1157.75
326.77	1148.75
326.999	1135.75
327.228	1153.75
327.457	1161.75
327.686	1135.75
327.914	1150.75
328.143	1170.75
328.372	1155.75
328.6	1155.75
328.829	1178.75
329.058	1135.75
329.287	1140.75
329.515	1152.75
329.744	1181.75
329.972	1191.75
330.201	1191.75
330.43	1209.75
330.658	1173.75
330.887	1158.75
331.115	1198.75
331.344	1215.75
331.572	1234.75
331.801	1291.75
332.03	1285.75
332.258	1281.75
332.486	1290.75
332.715	1325.75
332.943	1371.75
333.172	1425.75
333.4	1465.75
333.629	1490.75
333.857	1473.75
334.085	1494.75
334.314	1477.75
334.542	1448.75
334.771	1454.75
334.999	1417.75
335.227	1409.75
335.455	1426.75
335.684	1411.75
335.912	1419.75
336.14	1385.75
336.369	1427.75
336.597	1413.75
336.825	1453.75
337.053	1432.75
337.281	1389.75
337.51	1397.75
337.738	1386.75
337.966	1345.75
338.194	1325.75
338.422	1337.75
338.65	1284.75
338.878	1251.75
339.106	1293.75
339.334	1328.75
339.562	1283.75
339.79	1250.75
340.018	1217.75
340.246	1209.75
340.474	1209.75
340.702	1225.75
340.93	1238.75
341.158	1259.75
341.386	1272.75
341.614	1347.75
341.842	1310.75
342.07	1224.75
342.298	1219.75
342.526	1218.75
342.754	1194.75
342.981	1171.75
343.209	1214.75
343.437	1325.75
343.665	1379.75
343.893	1453.75
344.12	1499.75
344.348	1418.75
344.576	1403.75
344.804	1365.75
345.031	1304.75
345.259	1278.75
345.487	1253.75
345.714	1222.75
345.942	1290.75
346.17	1303.75
346.397	1262.75
346.625	1199.75
346.853	1159.75
347.08	1174.75
347.308	1187.75
347.535	1209.75
347.763	1141.75
347.99	1126.75
348.218	1151.75
348.445	1143.75
348.673	1163.75
348.9	1148.75
349.128	1175.75
349.355	1193.75
349.583	1209.75
349.81	1157.75
350.037	1124.75
350.265	1145.75
350.492	1111.75
350.72	1125.75
350.947	1128.75
351.174	1173.75
351.402	1188.75
351.629	1205.75
351.856	1186.75
352.083	1135.75
352.311	1151.75
352.538	1154.75
352.765	1201.75
352.992	1117.75
353.22	1120.75
353.447	1080.75
353.674	1099.75
353.901	1094.75
354.128	1077.75
354.355	1078.75
354.583	1099.75
354.81	1102.75
355.037	1110.75
355.264	1100.75
355.491	1097.75
355.718	1066.75
355.945	1096.75
356.172	1097.75
356.399	1113.75
356.626	1142.75
356.853	1199.75
357.08	1145.75
357.307	1145.75
357.534	1120.75
357.761	1127.75
357.988	1106.75
358.215	1105.75
358.441	1080.75
358.668	1071.75
358.895	1083.75
359.122	1089.75
359.349	1092.75
359.576	1115.75
359.802	1105.75
360.029	1119.75
360.256	1091.75
360.483	1143.75
360.709	1088.75
360.936	1113.75
361.163	1133.75
361.39	1134.75
361.616	1133.75
361.843	1141.75
362.07	1189.75
362.296	1204.75
362.523	1115.75
362.749	1125.75
362.976	1126.75
363.203	1096.75
363.429	1061.75
363.656	1064.75
363.882	1091.75
364.109	1082.75
364.335	1043.75
364.562	1081.75
364.788	1099.75
365.015	1086.75
365.241	1080.75
365.468	1082.75
365.694	1089.75
365.92	1077.75
366.147	1063.75
366.373	1076.75
366.599	1103.75
366.826	1074.75
367.052	1100.75
367.278	1105.75
367.505	1089.75
367.731	1075.75
367.957	1109.75
368.184	1115.75
368.41	1099.75
368.636	1103.75
368.862	1093.75
369.089	1108.75
369.315	1098.75
369.541	1109.75
369.767	1084.75
369.993	1107.75
370.219	1113.75
370.445	1155.75
370.672	1135.75
370.898	1122.75
371.124	1155.75
371.35	1157.75
371.576	1160.75
371.802	1168.75
372.028	1166.75
372.254	1163.75
372.48	1185.75
372.706	1200.75
372.932	1162.75
373.158	1206.75
373.384	1171.75
373.61	1172.75
373.835	1170.75
374.061	1180.75
374.287	1213.75
374.513	1215.75
374.739	1236.75
374.965	1246.75
375.191	1278.75
375.416	1286.75
375.642	1231.75
375.868	1270.75
376.094	1199.75
376.319	1211.75
376.545	1182.75
376.771	1135.75
376.997	1141.75
377.222	1127.75
377.448	1132.75
377.674	1143.75
377.899	1149.75
378.125	1141.75
378.35	1154.75
378.576	1134.75
378.802	1156.75
379.027	1138.75
379.253	1137.75
379.478	1112.75
379.704	1113.75
379.929	1145.75
380.155	1119.75
380.38	1119.75
380.606	1132.75
380.831	1178.75
381.057	1167.75
381.282	1135.75
381.507	1163.75
381.733	1164.75
381.958	1151.75
382.184	1185.75
382.409	1183.75
382.634	1168.75
382.86	1210.75
383.085	1226.75
383.31	1216.75
383.535	1265.75
383.761	1223.75
383.986	1239.75
384.211	1294.75
384.436	1305.75
384.662	1345.75
384.887	1391.75
385.112	1322.75
385.337	1340.75
385.562	1374.75
385.787	1384.75
386.013	1427.75
386.238	1362.75
386.463	1384.75
386.688	1397.75
386.913	1379.75
387.138	1388.75
387.363	1365.75
387.588	1351.75
387.813	1362.75
388.038	1329.75
388.263	1338.75
388.488	1362.75
388.713	1350.75
388.938	1363.75
389.163	1343.75
389.387	1329.75
389.612	1350.75
389.837	1354.75
390.062	1329.75
390.287	1378.75
390.512	1345.75
390.736	1341.75
390.961	1387.75
391.186	1405.75
391.411	1423.75
391.636	1497.75
391.86	1505.75
392.085	1520.75
392.31	1553.75
392.534	1517.75
392.759	1462.75
392.984	1469.75
393.208	1429.75
393.433	1453.75
393.658	1485.75
393.882	1458.75
394.107	1491.75
394.331	1423.75
394.556	1459.75
394.78	1477.75
395.005	1487.75
395.229	1476.75
395.454	1474.75
395.678	1555.75
395.903	1520.75
396.127	1530.75
396.352	1496.75
396.576	1461.75
396.801	1473.75
397.025	1497.75
397.249	1499.75
397.474	1550.75
397.698	1577.75
397.922	1546.75
398.147	1538.75
398.371	1623.75
398.595	1653.75
398.82	1701.75
399.044	1858.75
399.268	1973.75
399.492	2217.75
399.717	2449.75
399.941	2474.75
400.165	2255.75
400.389	2101.75
400.613	1931.75
400.837	1849.75
401.062	1793.75
401.286	1749.75
401.51	1793.75
401.734	1701.75
401.958	1749.75
402.182	1749.75
402.406	1745.75
402.63	1722.75
402.854	1810.75
403.078	1823.75
403.302	1870.75
403.526	1867.75
403.75	1862.75
403.974	1928.75
404.198	1893.75
404.422	1896.75
404.645	1899.75
404.869	1870.75
405.093	1893.75
405.317	1870.75
405.541	1873.75
405.765	1839.75
405.988	1859.75
406.212	1875.75
406.436	1891.75
406.66	1939.75
406.883	1964.75
407.107	2069.75
407.331	2073.75
407.555	2140.75
407.778	2171.75
408.002	2131.75
408.226	2084.75
408.449	2055.75
408.673	2014.75
408.896	1930.75
409.12	1912.75
409.344	1955.75
409.567	1920.75
409.791	1948.75
410.014	1912.75
410.238	1863.75
410.461	1889.75
410.685	1867.75
410.908	1831.75
411.132	1784.75
411.355	1780.75
411.578	1833.75
411.802	1767.75
412.025	1785.75
412.249	1861.75
412.472	1806.75
412.695	1764.75
412.919	1739.75
413.142	1749.75
413.365	1727.75
413.589	1771.75
413.812	1737.75
414.035	1731.75
414.258	1722.75
414.482	1737.75
414.705	1754.75
414.928	1733.75
415.151	1726.75
415.374	1723.75
415.597	1717.75
415.821	1695.75
416.044	1647.75
416.267	1670.75
416.49	1684.75
416.713	1649.75
416.936	1709.75
417.159	1681.75
417.382	1657.75
417.605	1665.75
417.828	1691.75
418.051	1699.75
418.274	1658.75
418.497	1671.75
418.72	1729.75
418.943	1732.75
419.166	1847.75
419.389	1943.75
419.611	1908.75
419.834	1814.75
420.057	1769.75
420.28	1689.75
420.503	1663.75
420.726	1669.75
420.948	1675.75
421.171	1702.75
421.394	1671.75
421.617	1695.75
421.839	1708.75
422.062	1688.75
422.285	1703.75
422.507	1715.75
422.73	1743.75
422.953	1758.75
423.175	1755.75
423.398	1728.75
423.621	1715.75
423.843	1775.75
424.066	1764.75
424.288	1737.75
424.511	1756.75
424.733	1754.75
424.956	1722.75
425.178	1700.75
425.401	1733.75
425.623	1711.75
425.846	1641.75
426.068	1657.75
426.291	1646.75
426.513	1607.75
426.735	1599.75
426.958	1611.75
427.18	1567.75
427.402	1605.75
427.625	1595.75
427.847	1548.75
428.069	1573.75
428.292	1563.75
428.514	1522.75
428.736	1520.75
428.958	1562.75
429.181	1518.75
429.403	1483.75
429.625	1529.75
429.847	1507.75
430.069	1522.75
430.292	1509.75
430.514	1461.75
430.736	1517.75
430.958	1527.75
431.18	1533.75
431.402	1565.75
431.624	1586.75
431.846	1579.75
432.068	1563.75
432.29	1585.75
432.512	1550.75
432.734	1599.75
432.956	1537.75
433.178	1577.75
433.4	1563.75
433.622	1603.75
433.844	1593.75
434.066	1638.75
434.287	1591.75
434.509	1625.75
434.731	1679.75
434.953	1745.75
435.175	1733.75
435.397	1709.75
435.618	1635.75
435.84	1601.75
436.062	1556.75
436.284	1600.75
436.505	1526.75
436.727	1567.75
436.949	1543.75
437.17	1555.75
437.392	1561.75
437.614	1520.75
437.835	1467.75
438.057	1524.75
438.278	1489.75
438.5	1489.75
438.721	1506.75
438.943	1532.75
439.165	1469.75
439.386	1491.75
439.608	1578.75
439.829	1538.75
440.05	1570.75
440.272	1587.75
440.493	1571.75
440.715	1592.75
440.936	1609.75
441.158	1625.75
441.379	1648.75
441.6	1733.75
441.822	1712.75
442.043	1765.75
442.264	1720.75
442.486	1717.75
442.707	1695.75
442.928	1712.75
443.149	1671.75
443.371	1713.75
443.592	1746.75
443.813	1766.75
444.034	1766.75
444.255	1801.75
444.476	1872.75
444.698	1962.75
444.919	2014.75
445.14	2061.75
445.361	1881.75
445.582	1811.75
445.803	1724.75
446.024	1645.75
446.245	1654.75
446.466	1638.75
446.687	1583.75
446.908	1567.75
447.129	1544.75
447.35	1549.75
447.571	1516.75
447.792	1468.75
448.013	1487.75
448.234	1448.75
448.455	1425.75
448.675	1442.75
448.896	1413.75
449.117	1448.75
449.338	1423.75
449.559	1411.75
449.779	1374.75
450	1423.75
450.221	1413.75
450.442	1441.75
450.662	1441.75
450.883	1485.75
451.104	1471.75
451.324	1435.75
451.545	1448.75
451.766	1441.75
451.986	1433.75
452.207	1428.75
452.428	1419.75
452.648	1425.75
452.869	1392.75
453.089	1401.75
453.31	1405.75
453.53	1372.75
453.751	1402.75
453.971	1359.75
454.192	1396.75
454.412	1350.75
454.633	1373.75
454.853	1377.75
455.073	1345.75
455.294	1345.75
455.514	1365.75
455.734	1337.75
455.955	1321.75
456.175	1348.75
456.395	1329.75
456.616	1337.75
456.836	1341.75
457.056	1337.75
457.276	1326.75
457.497	1368.75
457.717	1352.75
457.937	1376.75
458.157	1397.75
458.377	1419.75
458.598	1445.75
458.818	1449.75
459.038	1503.75
459.258	1497.75
459.478	1583.75
459.698	1632.75
459.918	1661.75
460.138	1723.75
460.358	1794.75
460.578	1871.75
460.798	1880.75
461.018	1860.75
461.238	1843.75
461.458	1815.75
461.678	1797.75
461.898	1879.75
462.118	1865.75
462.338	1968.75
462.558	1995.75
462.777	2112.75
462.997	2247.75
463.217	2397.75
463.437	2387.75
463.657	2219.75
463.876	2133.75
464.096	2175.75
464.316	2117.75
464.536	2134.75
464.755	2063.75
464.975	2013.75
465.195	1885.75
465.414	1819.75
465.634	1711.75
465.854	1674.75
466.073	1632.75
466.293	1573.75
466.512	1569.75
466.732	1549.75
466.951	1547.75
467.171	1502.75
467.391	1540.75
467.61	1551.75
467.829	1495.75
468.049	1481.75
468.268	1503.75
468.488	1478.75
468.707	1486.75
468.927	1461.75
469.146	1471.75
469.365	1502.75
469.585	1517.75
469.804	1501.75
470.023	1551.75
470.243	1589.75
470.462	1554.75
470.681	1580.75
470.901	1598.75
471.12	1557.75
471.339	1566.75
471.558	1549.75
471.777	1561.75
471.997	1509.75
472.216	1482.75
472.435	1477.75
472.654	1491.75
472.873	1419.75
473.092	1455.75
473.311	1447.75
473.53	1471.75
473.749	1410.75
473.968	1414.75
474.187	1433.75
474.406	1441.75
474.625	1453.75
474.844	1427.75
475.063	1464.75
475.282	1459.75
475.501	1461.75
475.72	1487.75
475.939	1462.75
476.158	1482.75
476.377	1487.75
476.596	1499.75
476.814	1553.75
477.033	1557.75
477.252	1575.75
477.471	1609.75
477.69	1677.75
477.908	1688.75
478.127	1718.75
478.346	1727.75
478.564	1758.75
478.783	1799.75
479.002	1827.75
479.22	1807.75
479.439	1821.75
479.658	1784.75
479.876	1826.75
480.095	1830.75
480.313	1854.75
480.532	1931.75
480.751	1925.75
480.969	1874.75
481.188	1799.75
481.406	1748.75
481.624	1750.75
481.843	1728.75
482.061	1718.75
482.28	1684.75
482.498	1680.75
482.717	1688.75
482.935	1683.75
483.153	1678.75
483.372	1722.75
483.59	1744.75
483.808	1715.75
484.027	1693.75
484.245	1709.75
484.463	1725.75
484.681	1743.75
484.9	1723.75
485.118	1749.75
485.336	1743.75
485.554	1746.75
485.772	1800.75
485.99	1719.75
486.209	1799.75
486.427	1746.75
486.645	1819.75
486.863	1797.75
487.081	1758.75
487.299	1769.75
487.517	1808.75
487.735	1779.75
487.953	1807.75
488.171	1797.75
488.389	1715.75
488.607	1773.75
488.825	1748.75
489.043	1769.75
489.261	1729.75
489.479	1778.75
489.696	1765.75
489.914	1754.75
490.132	1770.75
490.35	1791.75
