Data from NiCl2@0.5M.TitratingCurve.Agarose3%dH2O.NegLispCup.LampEnergy10.LIBS07252019_HRD10591_18-20-07-573.txt Node
Date: Thu Jul 25 18:20:07 EDT 2019
User: cochatt
Spectrometer: HR+D1059
Trigger mode: 1
Integration Time (sec): 1.000000E-1
Scans to average: 1
Electric dark correction enabled: true
Nonlinearity correction enabled: false
Boxcar width: 0
XAxis mode: Wavelengths
Number of Pixels in Spectrum: 2048
>>>>>Begin Spectral Data<<<<<
223.165	-10.25
223.4	-10.25
223.635	-10.25
223.869	-6.25
224.104	-24.25
224.338	-21.25
224.573	-21.25
224.808	-4.25
225.042	-4.25
225.277	-10.25
225.511	-0.25
225.746	5.75
225.98	10.75
226.215	1.75
226.449	11.75
226.683	14.75
226.918	21.75
227.152	35.75
227.387	16.75
227.621	39.75
227.856	43.75
228.09	47.75
228.324	46.75
228.559	54.75
228.793	63.75
229.027	75.75
229.262	101.75
229.496	120.75
229.73	99.75
229.964	99.75
230.199	118.75
230.433	127.75
230.667	116.75
230.901	137.75
231.136	134.75
231.37	122.75
231.604	146.75
231.838	140.75
232.072	149.75
232.306	141.75
232.541	134.75
232.775	143.75
233.009	135.75
233.243	132.75
233.477	128.75
233.711	136.75
233.945	139.75
234.179	138.75
234.413	141.75
234.647	137.75
234.881	145.75
235.115	149.75
235.349	139.75
235.583	145.75
235.817	147.75
236.051	132.75
236.285	144.75
236.519	152.75
236.753	146.75
236.987	144.75
237.221	152.75
237.455	143.75
237.689	139.75
237.922	153.75
238.156	183.75
238.39	160.75
238.624	146.75
238.858	176.75
239.091	156.75
239.325	155.75
239.559	166.75
239.793	161.75
240.027	171.75
240.26	173.75
240.494	159.75
240.728	152.75
240.961	155.75
241.195	169.75
241.429	177.75
241.662	176.75
241.896	202.75
242.13	186.75
242.363	185.75
242.597	187.75
242.83	173.75
243.064	170.75
243.298	180.75
243.531	191.75
243.765	163.75
243.998	189.75
244.232	179.75
244.465	184.75
244.699	189.75
244.932	183.75
245.166	199.75
245.399	197.75
245.633	185.75
245.866	199.75
246.099	209.75
246.333	195.75
246.566	212.75
246.8	198.75
247.033	204.75
247.266	187.75
247.5	208.75
247.733	208.75
247.966	205.75
248.2	241.75
248.433	218.75
248.666	225.75
248.899	205.75
249.133	212.75
249.366	230.75
249.599	239.75
249.832	230.75
250.066	239.75
250.299	237.75
250.532	234.75
250.765	227.75
250.998	229.75
251.231	237.75
251.465	232.75
251.698	228.75
251.931	223.75
252.164	245.75
252.397	270.75
252.63	258.75
252.863	247.75
253.096	263.75
253.329	246.75
253.562	245.75
253.795	253.75
254.028	247.75
254.261	249.75
254.494	236.75
254.727	267.75
254.96	275.75
255.193	259.75
255.426	255.75
255.659	248.75
255.892	279.75
256.124	259.75
256.357	266.75
256.59	250.75
256.823	266.75
257.056	260.75
257.289	275.75
257.521	279.75
257.754	271.75
257.987	261.75
258.22	293.75
258.452	268.75
258.685	280.75
258.918	282.75
259.151	279.75
259.383	274.75
259.616	270.75
259.849	296.75
260.081	269.75
260.314	296.75
260.547	288.75
260.779	283.75
261.012	291.75
261.244	284.75
261.477	278.75
261.71	300.75
261.942	273.75
262.175	303.75
262.407	285.75
262.64	295.75
262.872	320.75
263.105	317.75
263.337	322.75
263.57	303.75
263.802	297.75
264.035	310.75
264.267	301.75
264.499	333.75
264.732	308.75
264.964	310.75
265.197	316.75
265.429	317.75
265.661	318.75
265.894	317.75
266.126	317.75
266.358	333.75
266.591	310.75
266.823	329.75
267.055	311.75
267.287	339.75
267.52	336.75
267.752	336.75
267.984	324.75
268.216	335.75
268.448	327.75
268.681	330.75
268.913	315.75
269.145	340.75
269.377	349.75
269.609	348.75
269.841	353.75
270.073	337.75
270.306	320.75
270.538	354.75
270.77	333.75
271.002	343.75
271.234	348.75
271.466	337.75
271.698	363.75
271.93	344.75
272.162	346.75
272.394	356.75
272.626	351.75
272.858	360.75
273.09	369.75
273.322	371.75
273.553	360.75
273.785	364.75
274.017	352.75
274.249	368.75
274.481	345.75
274.713	385.75
274.945	363.75
275.176	379.75
275.408	363.75
275.64	372.75
275.872	359.75
276.104	383.75
276.335	379.75
276.567	363.75
276.799	378.75
277.031	383.75
277.262	393.75
277.494	386.75
277.726	383.75
277.957	376.75
278.189	405.75
278.421	391.75
278.652	379.75
278.884	391.75
279.115	393.75
279.347	424.75
279.579	390.75
279.81	392.75
280.042	398.75
280.273	393.75
280.505	411.75
280.736	413.75
280.968	393.75
281.199	415.75
281.431	418.75
281.662	428.75
281.894	416.75
282.125	404.75
282.356	411.75
282.588	417.75
282.819	409.75
283.051	422.75
283.282	417.75
283.513	461.75
283.745	441.75
283.976	439.75
284.207	442.75
284.439	441.75
284.67	463.75
284.901	450.75
285.132	425.75
285.364	444.75
285.595	459.75
285.826	450.75
286.057	453.75
286.288	449.75
286.52	439.75
286.751	459.75
286.982	466.75
287.213	453.75
287.444	463.75
287.675	447.75
287.906	434.75
288.138	449.75
288.369	465.75
288.6	456.75
288.831	427.75
289.062	463.75
289.293	460.75
289.524	465.75
289.755	462.75
289.986	467.75
290.217	479.75
290.448	468.75
290.679	451.75
290.91	470.75
291.141	462.75
291.371	460.75
291.602	466.75
291.833	473.75
292.064	471.75
292.295	480.75
292.526	473.75
292.757	464.75
292.987	466.75
293.218	463.75
293.449	467.75
293.68	478.75
293.91	485.75
294.141	473.75
294.372	484.75
294.603	493.75
294.833	492.75
295.064	491.75
295.295	472.75
295.525	508.75
295.756	508.75
295.987	484.75
296.217	520.75
296.448	492.75
296.679	497.75
296.909	468.75
297.14	514.75
297.37	507.75
297.601	508.75
297.831	516.75
298.062	530.75
298.292	529.75
298.523	551.75
298.753	529.75
298.984	523.75
299.214	519.75
299.445	505.75
299.675	529.75
299.905	533.75
300.136	539.75
300.366	548.75
300.597	533.75
300.827	544.75
301.057	535.75
301.288	530.75
301.518	566.75
301.748	578.75
301.979	563.75
302.209	547.75
302.439	545.75
302.669	559.75
302.9	567.75
303.13	549.75
303.36	547.75
303.59	563.75
303.82	552.75
304.051	538.75
304.281	550.75
304.511	576.75
304.741	565.75
304.971	572.75
305.201	555.75
305.431	568.75
305.661	563.75
305.891	553.75
306.121	545.75
306.352	552.75
306.582	523.75
306.812	530.75
307.042	520.75
307.272	548.75
307.502	527.75
307.731	534.75
307.961	548.75
308.191	540.75
308.421	555.75
308.651	535.75
308.881	530.75
309.111	549.75
309.341	553.75
309.571	522.75
309.8	552.75
310.03	547.75
310.26	574.75
310.49	567.75
310.72	564.75
310.949	544.75
311.179	561.75
311.409	567.75
311.639	549.75
311.868	533.75
312.098	561.75
312.328	569.75
312.557	588.75
312.787	591.75
313.017	571.75
313.246	596.75
313.476	575.75
313.706	579.75
313.935	593.75
314.165	579.75
314.394	575.75
314.624	601.75
314.853	586.75
315.083	578.75
315.312	562.75
315.542	588.75
315.771	569.75
316.001	600.75
316.23	583.75
316.46	565.75
316.689	567.75
316.919	580.75
317.148	542.75
317.377	567.75
317.607	568.75
317.836	588.75
318.065	560.75
318.295	567.75
318.524	597.75
318.753	596.75
318.983	585.75
319.212	589.75
319.441	584.75
319.67	590.75
319.9	567.75
320.129	583.75
320.358	588.75
320.587	553.75
320.816	569.75
321.046	606.75
321.275	572.75
321.504	586.75
321.733	580.75
321.962	581.75
322.191	589.75
322.42	584.75
322.649	577.75
322.878	575.75
323.108	569.75
323.337	575.75
323.566	619.75
323.795	586.75
324.024	599.75
324.253	586.75
324.482	594.75
324.71	610.75
324.939	603.75
325.168	614.75
325.397	599.75
325.626	643.75
325.855	617.75
326.084	631.75
326.313	639.75
326.542	631.75
326.77	625.75
326.999	635.75
327.228	646.75
327.457	630.75
327.686	621.75
327.914	629.75
328.143	623.75
328.372	633.75
328.6	641.75
328.829	637.75
329.058	635.75
329.287	604.75
329.515	640.75
329.744	627.75
329.972	655.75
330.201	640.75
330.43	661.75
330.658	651.75
330.887	647.75
331.115	653.75
331.344	658.75
331.572	667.75
331.801	694.75
332.03	685.75
332.258	699.75
332.486	720.75
332.715	729.75
332.943	791.75
333.172	769.75
333.4	801.75
333.629	814.75
333.857	837.75
334.085	794.75
334.314	800.75
334.542	795.75
334.771	781.75
334.999	770.75
335.227	792.75
335.455	765.75
335.684	788.75
335.912	752.75
336.14	760.75
336.369	739.75
336.597	740.75
336.825	769.75
337.053	773.75
337.281	762.75
337.51	714.75
337.738	747.75
337.966	732.75
338.194	720.75
338.422	704.75
338.65	706.75
338.878	673.75
339.106	698.75
339.334	708.75
339.562	706.75
339.79	667.75
340.018	667.75
340.246	680.75
340.474	666.75
340.702	650.75
340.93	684.75
341.158	696.75
341.386	683.75
341.614	673.75
341.842	679.75
342.07	667.75
342.298	661.75
342.526	672.75
342.754	666.75
342.981	653.75
343.209	672.75
343.437	690.75
343.665	738.75
343.893	785.75
344.12	797.75
344.348	758.75
344.576	719.75
344.804	740.75
345.031	711.75
345.259	660.75
345.487	659.75
345.714	664.75
345.942	655.75
346.17	665.75
346.397	671.75
346.625	637.75
346.853	623.75
347.08	641.75
347.308	632.75
347.535	671.75
347.763	637.75
347.99	643.75
348.218	636.75
348.445	648.75
348.673	656.75
348.9	617.75
349.128	628.75
349.355	642.75
349.583	616.75
349.81	636.75
350.037	635.75
350.265	634.75
350.492	607.75
350.72	614.75
350.947	632.75
351.174	611.75
351.402	625.75
351.629	637.75
351.856	607.75
352.083	588.75
352.311	623.75
352.538	627.75
352.765	643.75
352.992	600.75
353.22	627.75
353.447	616.75
353.674	604.75
353.901	594.75
354.128	613.75
354.355	596.75
354.583	631.75
354.81	619.75
355.037	601.75
355.264	619.75
355.491	619.75
355.718	621.75
355.945	603.75
356.172	626.75
356.399	598.75
356.626	657.75
356.853	627.75
357.08	611.75
357.307	599.75
357.534	610.75
357.761	607.75
357.988	628.75
358.215	636.75
358.441	604.75
358.668	594.75
358.895	627.75
359.122	592.75
359.349	610.75
359.576	616.75
359.802	635.75
360.029	627.75
360.256	592.75
360.483	615.75
360.709	609.75
360.936	617.75
361.163	606.75
361.39	608.75
361.616	628.75
361.843	612.75
362.07	641.75
362.296	640.75
362.523	627.75
362.749	591.75
362.976	574.75
363.203	608.75
363.429	611.75
363.656	604.75
363.882	609.75
364.109	597.75
364.335	594.75
364.562	619.75
364.788	595.75
365.015	590.75
365.241	608.75
365.468	609.75
365.694	600.75
365.92	591.75
366.147	597.75
366.373	609.75
366.599	603.75
366.826	579.75
367.052	605.75
367.278	598.75
367.505	617.75
367.731	593.75
367.957	587.75
368.184	592.75
368.41	603.75
368.636	616.75
368.862	599.75
369.089	624.75
369.315	625.75
369.541	619.75
369.767	611.75
369.993	632.75
370.219	615.75
370.445	639.75
370.672	625.75
370.898	643.75
371.124	647.75
371.35	663.75
371.576	645.75
371.802	639.75
372.028	647.75
372.254	626.75
372.48	660.75
372.706	698.75
372.932	678.75
373.158	688.75
373.384	657.75
373.61	621.75
373.835	643.75
374.061	646.75
374.287	658.75
374.513	655.75
374.739	710.75
374.965	690.75
375.191	711.75
375.416	712.75
375.642	664.75
375.868	692.75
376.094	666.75
376.319	651.75
376.545	681.75
376.771	651.75
376.997	647.75
377.222	658.75
377.448	657.75
377.674	613.75
377.899	635.75
378.125	625.75
378.35	651.75
378.576	645.75
378.802	625.75
379.027	637.75
379.253	628.75
379.478	617.75
379.704	628.75
379.929	653.75
380.155	637.75
380.38	630.75
380.606	644.75
380.831	628.75
381.057	643.75
381.282	660.75
381.507	647.75
381.733	639.75
381.958	650.75
382.184	651.75
382.409	674.75
382.634	681.75
382.86	665.75
383.085	682.75
383.31	695.75
383.535	696.75
383.761	671.75
383.986	707.75
384.211	709.75
384.436	711.75
384.662	714.75
384.887	758.75
385.112	769.75
385.337	768.75
385.562	740.75
385.787	771.75
386.013	775.75
386.238	757.75
386.463	752.75
386.688	739.75
386.913	748.75
387.138	733.75
387.363	746.75
387.588	722.75
387.813	755.75
388.038	738.75
388.263	756.75
388.488	752.75
388.713	753.75
388.938	756.75
389.163	736.75
389.387	730.75
389.612	749.75
389.837	735.75
390.062	708.75
390.287	754.75
390.512	735.75
390.736	745.75
390.961	760.75
391.186	780.75
391.411	791.75
391.636	825.75
391.86	853.75
392.085	850.75
392.31	834.75
392.534	824.75
392.759	836.75
392.984	803.75
393.208	804.75
393.433	795.75
393.658	803.75
393.882	819.75
394.107	807.75
394.331	807.75
394.556	824.75
394.78	828.75
395.005	808.75
395.229	821.75
395.454	833.75
395.678	858.75
395.903	872.75
396.127	840.75
396.352	809.75
396.576	798.75
396.801	794.75
397.025	813.75
397.249	830.75
397.474	823.75
397.698	840.75
397.922	867.75
398.147	864.75
398.371	857.75
398.595	895.75
398.82	941.75
399.044	998.75
399.268	1075.75
399.492	1217.75
399.717	1329.75
399.941	1336.75
400.165	1197.75
400.389	1083.75
400.613	1045.75
400.837	979.75
401.062	984.75
401.286	934.75
401.51	934.75
401.734	936.75
401.958	967.75
402.182	946.75
402.406	949.75
402.63	965.75
402.854	993.75
403.078	990.75
403.302	1041.75
403.526	1058.75
403.75	1066.75
403.974	1071.75
404.198	1052.75
404.422	1047.75
404.645	1032.75
404.869	1036.75
405.093	1049.75
405.317	1039.75
405.541	1056.75
405.765	994.75
405.988	1022.75
406.212	1037.75
406.436	1010.75
406.66	1048.75
406.883	1079.75
407.107	1123.75
407.331	1163.75
407.555	1209.75
407.778	1180.75
408.002	1157.75
408.226	1163.75
408.449	1143.75
408.673	1076.75
408.896	1083.75
409.12	1082.75
409.344	1062.75
409.567	1035.75
409.791	1042.75
410.014	1067.75
410.238	1055.75
410.461	1039.75
410.685	1036.75
410.908	999.75
411.132	988.75
411.355	974.75
411.578	988.75
411.802	980.75
412.025	985.75
412.249	969.75
412.472	989.75
412.695	963.75
412.919	963.75
413.142	920.75
413.365	947.75
413.589	957.75
413.812	915.75
414.035	940.75
414.258	944.75
414.482	977.75
414.705	949.75
414.928	955.75
415.151	961.75
415.374	948.75
415.597	953.75
415.821	923.75
416.044	929.75
416.267	958.75
416.49	933.75
416.713	937.75
416.936	936.75
417.159	903.75
417.382	919.75
417.605	939.75
417.828	966.75
418.051	948.75
418.274	959.75
418.497	953.75
418.72	987.75
418.943	966.75
419.166	991.75
419.389	1047.75
419.611	1036.75
419.834	1037.75
420.057	992.75
420.28	976.75
420.503	939.75
420.726	960.75
420.948	922.75
421.171	938.75
421.394	941.75
421.617	937.75
421.839	936.75
422.062	951.75
422.285	933.75
422.507	959.75
422.73	947.75
422.953	955.75
423.175	979.75
423.398	979.75
423.621	992.75
423.843	1010.75
424.066	1027.75
424.288	980.75
424.511	989.75
424.733	969.75
424.956	936.75
425.178	939.75
425.401	936.75
425.623	947.75
425.846	910.75
426.068	921.75
426.291	906.75
426.513	876.75
426.735	918.75
426.958	915.75
427.18	858.75
427.402	875.75
427.625	864.75
427.847	859.75
428.069	889.75
428.292	901.75
428.514	889.75
428.736	846.75
428.958	847.75
429.181	836.75
429.403	848.75
429.625	833.75
429.847	812.75
430.069	846.75
430.292	851.75
430.514	823.75
430.736	855.75
430.958	845.75
431.18	844.75
431.402	881.75
431.624	837.75
431.846	884.75
432.068	867.75
432.29	892.75
432.512	895.75
432.734	886.75
432.956	873.75
433.178	850.75
433.4	891.75
433.622	848.75
433.844	883.75
434.066	865.75
434.287	897.75
434.509	931.75
434.731	942.75
434.953	957.75
435.175	962.75
435.397	973.75
435.618	910.75
435.84	897.75
436.062	871.75
436.284	892.75
436.505	887.75
436.727	877.75
436.949	844.75
437.17	842.75
437.392	858.75
437.614	858.75
437.835	826.75
438.057	830.75
438.278	827.75
438.5	855.75
438.721	842.75
438.943	830.75
439.165	860.75
439.386	856.75
439.608	889.75
439.829	881.75
440.05	866.75
440.272	910.75
440.493	895.75
440.715	905.75
440.936	896.75
441.158	926.75
441.379	921.75
441.6	973.75
441.822	979.75
442.043	959.75
442.264	968.75
442.486	928.75
442.707	958.75
442.928	939.75
443.149	961.75
443.371	950.75
443.592	960.75
443.813	960.75
444.034	987.75
444.255	1029.75
444.476	1064.75
444.698	1130.75
444.919	1153.75
445.14	1220.75
445.361	1092.75
445.582	1027.75
445.803	940.75
446.024	963.75
446.245	933.75
446.466	906.75
446.687	896.75
446.908	870.75
447.129	866.75
447.35	839.75
447.571	867.75
447.792	810.75
448.013	854.75
448.234	844.75
448.455	798.75
448.675	808.75
448.896	823.75
449.117	771.75
449.338	806.75
449.559	770.75
449.779	793.75
450	795.75
450.221	799.75
450.442	789.75
450.662	819.75
450.883	801.75
451.104	853.75
451.324	825.75
451.545	799.75
451.766	833.75
451.986	799.75
452.207	801.75
452.428	788.75
452.648	793.75
452.869	782.75
453.089	778.75
453.31	769.75
453.53	795.75
453.751	783.75
453.971	788.75
454.192	758.75
454.412	753.75
454.633	755.75
454.853	769.75
455.073	771.75
455.294	771.75
455.514	759.75
455.734	771.75
455.955	726.75
456.175	747.75
456.395	749.75
456.616	764.75
456.836	779.75
457.056	747.75
457.276	739.75
457.497	762.75
457.717	763.75
457.937	791.75
458.157	778.75
458.377	772.75
458.598	790.75
458.818	804.75
459.038	840.75
459.258	861.75
459.478	887.75
459.698	895.75
459.918	906.75
460.138	947.75
460.358	998.75
460.578	981.75
460.798	1021.75
461.018	994.75
461.238	1000.75
461.458	1005.75
461.678	1010.75
461.898	1049.75
462.118	1047.75
462.338	1103.75
462.558	1117.75
462.777	1176.75
462.997	1247.75
463.217	1340.75
463.437	1309.75
463.657	1209.75
463.876	1158.75
464.096	1177.75
464.316	1175.75
464.536	1185.75
464.755	1136.75
464.975	1093.75
465.195	1045.75
465.414	1000.75
465.634	926.75
465.854	925.75
466.073	900.75
466.293	897.75
466.512	860.75
466.732	853.75
466.951	858.75
467.171	816.75
467.391	858.75
467.61	850.75
467.829	821.75
468.049	831.75
468.268	819.75
468.488	831.75
468.707	782.75
468.927	817.75
469.146	818.75
469.365	853.75
469.585	832.75
469.804	834.75
470.023	868.75
470.243	871.75
470.462	912.75
470.681	867.75
470.901	890.75
471.12	865.75
471.339	861.75
471.558	847.75
471.777	839.75
471.997	848.75
472.216	811.75
472.435	811.75
472.654	808.75
472.873	804.75
473.092	809.75
473.311	799.75
473.53	821.75
473.749	823.75
473.968	788.75
474.187	791.75
474.406	801.75
474.625	812.75
474.844	847.75
475.063	819.75
475.282	824.75
475.501	806.75
475.72	820.75
475.939	828.75
476.158	828.75
476.377	820.75
476.596	841.75
476.814	837.75
477.033	852.75
477.252	889.75
477.471	903.75
477.69	903.75
477.908	936.75
478.127	980.75
478.346	941.75
478.564	982.75
478.783	967.75
479.002	1007.75
479.22	1001.75
479.439	1021.75
479.658	987.75
479.876	1001.75
480.095	1031.75
480.313	1028.75
480.532	1074.75
480.751	1076.75
480.969	1010.75
481.188	989.75
481.406	964.75
481.624	968.75
481.843	937.75
482.061	934.75
482.28	931.75
482.498	905.75
482.717	937.75
482.935	913.75
483.153	964.75
483.372	955.75
483.59	955.75
483.808	928.75
484.027	947.75
484.245	954.75
484.463	956.75
484.681	942.75
484.9	925.75
485.118	964.75
485.336	947.75
485.554	993.75
485.772	979.75
485.99	963.75
486.209	989.75
486.427	960.75
486.645	977.75
486.863	1004.75
487.081	983.75
487.299	986.75
487.517	993.75
487.735	971.75
487.953	995.75
488.171	985.75
488.389	983.75
488.607	949.75
488.825	930.75
489.043	963.75
489.261	963.75
489.479	950.75
489.696	977.75
489.914	954.75
490.132	961.75
490.35	995.75
490.568	965.75
490.786	985.75
491.003	1009.75
491.221	994.75
491.439	1012.75
491.657	971.75
491.874	993.75
492.092	1011.75
492.31	994.75
492.527	1024.75
492.745	1025.75
492.963	1007.75
493.18	1007.75
493.398	1028.75
493.615	1032.75
493.833	1008.75
494.05	1028.75
494.268	1031.75
494.485	1043.75
494.703	1041.75
494.92	1049.75
495.138	1044.75
495.355	1032.75
495.573	1020.75
495.79	1033.75
496.008	1068.75
496.225	1049.75
496.442	1073.75
496.66	1052.75
496.877	1108.75
497.094	1112.75
497.312	1125.75
497.529	1155.75
497.746	1169.75
497.963	1221.75
498.181	1253.75
498.398	1364.75
498.615	1384.75
498.832	1441.75
499.049	1551.75
499.267	1674.75
499.484	1798.75
499.701	1962.75
499.918	2138.75
