Data from NiCl2@0.0625M.TitratingCurve.Agarose3%dH2O.NegLispCup.LampEnergy10.LIBS07252019_HRD10591_18-34-43-576.txt Node
Date: Thu Jul 25 18:34:43 EDT 2019
User: cochatt
Spectrometer: HR+D1059
Trigger mode: 1
Integration Time (sec): 1.000000E-1
Scans to average: 1
Electric dark correction enabled: true
Nonlinearity correction enabled: false
Boxcar width: 0
XAxis mode: Wavelengths
Number of Pixels in Spectrum: 2048
>>>>>Begin Spectral Data<<<<<
223.165	-24.44
223.4	-24.44
223.635	-24.44
223.869	-1.44
224.104	-13.44
224.338	-13.44
224.573	-26.44
224.808	0.56
225.042	-13.44
225.277	-9.44
225.511	-1.44
225.746	-3.44
225.98	-1.44
226.215	10.56
226.449	21.56
226.683	12.56
226.918	30.56
227.152	32.56
227.387	42.56
227.621	40.56
227.856	34.56
228.09	49.56
228.324	43.56
228.559	52.56
228.793	76.56
229.027	124.56
229.262	145.56
229.496	155.56
229.73	152.56
229.964	148.56
230.199	159.56
230.433	156.56
230.667	171.56
230.901	171.56
231.136	164.56
231.37	187.56
231.604	191.56
231.838	194.56
232.072	197.56
232.306	192.56
232.541	196.56
232.775	186.56
233.009	192.56
233.243	187.56
233.477	201.56
233.711	203.56
233.945	191.56
234.179	192.56
234.413	216.56
234.647	206.56
234.881	196.56
235.115	202.56
235.349	204.56
235.583	211.56
235.817	190.56
236.051	216.56
236.285	222.56
236.519	224.56
236.753	199.56
236.987	211.56
237.221	224.56
237.455	224.56
237.689	215.56
237.922	237.56
238.156	224.56
238.39	226.56
238.624	215.56
238.858	223.56
239.091	242.56
239.325	251.56
239.559	236.56
239.793	253.56
240.027	255.56
240.26	260.56
240.494	251.56
240.728	243.56
240.961	242.56
241.195	272.56
241.429	263.56
241.662	279.56
241.896	280.56
242.13	286.56
242.363	282.56
242.597	287.56
242.83	280.56
243.064	285.56
243.298	313.56
243.531	310.56
243.765	289.56
243.998	305.56
244.232	283.56
244.465	312.56
244.699	288.56
244.932	316.56
245.166	306.56
245.399	325.56
245.633	302.56
245.866	332.56
246.099	323.56
246.333	329.56
246.566	312.56
246.8	343.56
247.033	344.56
247.266	360.56
247.5	346.56
247.733	347.56
247.966	346.56
248.2	348.56
248.433	354.56
248.666	349.56
248.899	354.56
249.133	365.56
249.366	369.56
249.599	385.56
249.832	367.56
250.066	370.56
250.299	382.56
250.532	366.56
250.765	369.56
250.998	385.56
251.231	402.56
251.465	373.56
251.698	397.56
251.931	378.56
252.164	378.56
252.397	391.56
252.63	406.56
252.863	423.56
253.096	399.56
253.329	418.56
253.562	437.56
253.795	416.56
254.028	420.56
254.261	411.56
254.494	423.56
254.727	414.56
254.96	428.56
255.193	431.56
255.426	454.56
255.659	441.56
255.892	434.56
256.124	427.56
256.357	432.56
256.59	457.56
256.823	460.56
257.056	475.56
257.289	451.56
257.521	452.56
257.754	468.56
257.987	453.56
258.22	458.56
258.452	473.56
258.685	480.56
258.918	478.56
259.151	465.56
259.383	481.56
259.616	473.56
259.849	463.56
260.081	488.56
260.314	487.56
260.547	488.56
260.779	493.56
261.012	496.56
261.244	471.56
261.477	491.56
261.71	497.56
261.942	514.56
262.175	534.56
262.407	511.56
262.64	501.56
262.872	538.56
263.105	488.56
263.337	497.56
263.57	522.56
263.802	535.56
264.035	530.56
264.267	524.56
264.499	536.56
264.732	550.56
264.964	539.56
265.197	548.56
265.429	564.56
265.661	552.56
265.894	530.56
266.126	554.56
266.358	554.56
266.591	580.56
266.823	561.56
267.055	558.56
267.287	579.56
267.52	569.56
267.752	553.56
267.984	582.56
268.216	566.56
268.448	595.56
268.681	571.56
268.913	585.56
269.145	560.56
269.377	587.56
269.609	596.56
269.841	594.56
270.073	583.56
270.306	598.56
270.538	607.56
270.77	577.56
271.002	612.56
271.234	608.56
271.466	626.56
271.698	604.56
271.93	624.56
272.162	624.56
272.394	613.56
272.626	632.56
272.858	619.56
273.09	644.56
273.322	636.56
273.553	630.56
273.785	648.56
274.017	641.56
274.249	634.56
274.481	627.56
274.713	656.56
274.945	658.56
275.176	679.56
275.408	663.56
275.64	656.56
275.872	663.56
276.104	666.56
276.335	662.56
276.567	662.56
276.799	659.56
277.031	699.56
277.262	706.56
277.494	680.56
277.726	680.56
277.957	684.56
278.189	698.56
278.421	690.56
278.652	720.56
278.884	707.56
279.115	707.56
279.347	709.56
279.579	711.56
279.81	698.56
280.042	702.56
280.273	728.56
280.505	718.56
280.736	758.56
280.968	717.56
281.199	726.56
281.431	702.56
281.662	750.56
281.894	739.56
282.125	750.56
282.356	766.56
282.588	769.56
282.819	766.56
283.051	762.56
283.282	771.56
283.513	759.56
283.745	748.56
283.976	764.56
284.207	768.56
284.439	761.56
284.67	752.56
284.901	796.56
285.132	793.56
285.364	799.56
285.595	766.56
285.826	767.56
286.057	778.56
286.288	776.56
286.52	794.56
286.751	795.56
286.982	796.56
287.213	807.56
287.444	814.56
287.675	824.56
287.906	803.56
288.138	844.56
288.369	807.56
288.6	833.56
288.831	837.56
289.062	817.56
289.293	810.56
289.524	809.56
289.755	825.56
289.986	835.56
290.217	828.56
290.448	822.56
290.679	851.56
290.91	817.56
291.141	820.56
291.371	836.56
291.602	823.56
291.833	844.56
292.064	854.56
292.295	840.56
292.526	856.56
292.757	836.56
292.987	852.56
293.218	843.56
293.449	856.56
293.68	838.56
293.91	846.56
294.141	844.56
294.372	828.56
294.603	851.56
294.833	838.56
295.064	848.56
295.295	866.56
295.525	827.56
295.756	881.56
295.987	852.56
296.217	859.56
296.448	867.56
296.679	884.56
296.909	876.56
297.14	869.56
297.37	905.56
297.601	882.56
297.831	889.56
298.062	909.56
298.292	890.56
298.523	911.56
298.753	924.56
298.984	896.56
299.214	928.56
299.445	913.56
299.675	919.56
299.905	902.56
300.136	899.56
300.366	908.56
300.597	909.56
300.827	912.56
301.057	947.56
301.288	990.56
301.518	967.56
301.748	945.56
301.979	1002.56
302.209	957.56
302.439	976.56
302.669	983.56
302.9	937.56
303.13	939.56
303.36	966.56
303.59	964.56
303.82	945.56
304.051	952.56
304.281	975.56
304.511	959.56
304.741	955.56
304.971	951.56
305.201	958.56
305.431	928.56
305.661	967.56
305.891	955.56
306.121	943.56
306.352	948.56
306.582	946.56
306.812	935.56
307.042	948.56
307.272	945.56
307.502	940.56
307.731	957.56
307.961	944.56
308.191	950.56
308.421	918.56
308.651	929.56
308.881	947.56
309.111	947.56
309.341	912.56
309.571	946.56
309.8	956.56
310.03	938.56
310.26	936.56
310.49	959.56
310.72	975.56
310.949	979.56
311.179	958.56
311.409	954.56
311.639	958.56
311.868	961.56
312.098	996.56
312.328	971.56
312.557	994.56
312.787	973.56
313.017	1010.56
313.246	1045.56
313.476	969.56
313.706	1027.56
313.935	1026.56
314.165	991.56
314.394	1033.56
314.624	1007.56
314.853	1012.56
315.083	1029.56
315.312	1018.56
315.542	1002.56
315.771	1003.56
316.001	1037.56
316.23	1042.56
316.46	997.56
316.689	995.56
316.919	987.56
317.148	1015.56
317.377	1008.56
317.607	1010.56
317.836	1024.56
318.065	1020.56
318.295	1026.56
318.524	1033.56
318.753	1010.56
318.983	993.56
319.212	999.56
319.441	1003.56
319.67	1009.56
319.9	1003.56
320.129	1040.56
320.358	1011.56
320.587	1017.56
320.816	1003.56
321.046	1027.56
321.275	1012.56
321.504	1045.56
321.733	1010.56
321.962	1040.56
322.191	1033.56
322.42	1022.56
322.649	1030.56
322.878	1025.56
323.108	1031.56
323.337	1034.56
323.566	1008.56
323.795	1064.56
324.024	1019.56
324.253	1089.56
324.482	1046.56
324.71	1075.56
324.939	1049.56
325.168	1084.56
325.397	1060.56
325.626	1085.56
325.855	1095.56
326.084	1136.56
326.313	1120.56
326.542	1088.56
326.77	1116.56
326.999	1117.56
327.228	1076.56
327.457	1108.56
327.686	1117.56
327.914	1129.56
328.143	1101.56
328.372	1126.56
328.6	1139.56
328.829	1108.56
329.058	1102.56
329.287	1092.56
329.515	1095.56
329.744	1138.56
329.972	1107.56
330.201	1113.56
330.43	1127.56
330.658	1140.56
330.887	1126.56
331.115	1150.56
331.344	1174.56
331.572	1178.56
331.801	1210.56
332.03	1161.56
332.258	1213.56
332.486	1243.56
332.715	1274.56
332.943	1284.56
333.172	1338.56
333.4	1364.56
333.629	1409.56
333.857	1441.56
334.085	1412.56
334.314	1407.56
334.542	1384.56
334.771	1406.56
334.999	1348.56
335.227	1402.56
335.455	1362.56
335.684	1351.56
335.912	1347.56
336.14	1331.56
336.369	1329.56
336.597	1339.56
336.825	1355.56
337.053	1319.56
337.281	1293.56
337.51	1285.56
337.738	1254.56
337.966	1242.56
338.194	1221.56
338.422	1221.56
338.65	1226.56
338.878	1199.56
339.106	1242.56
339.334	1204.56
339.562	1218.56
339.79	1204.56
340.018	1186.56
340.246	1180.56
340.474	1172.56
340.702	1153.56
340.93	1182.56
341.158	1174.56
341.386	1166.56
341.614	1180.56
341.842	1140.56
342.07	1162.56
342.298	1174.56
342.526	1168.56
342.754	1165.56
342.981	1179.56
343.209	1196.56
343.437	1267.56
343.665	1301.56
343.893	1364.56
344.12	1382.56
344.348	1351.56
344.576	1288.56
344.804	1258.56
345.031	1211.56
345.259	1218.56
345.487	1174.56
345.714	1147.56
345.942	1125.56
346.17	1162.56
346.397	1095.56
346.625	1118.56
346.853	1119.56
347.08	1122.56
347.308	1125.56
347.535	1147.56
347.763	1116.56
347.99	1123.56
348.218	1099.56
348.445	1103.56
348.673	1066.56
348.9	1111.56
349.128	1093.56
349.355	1087.56
349.583	1087.56
349.81	1099.56
350.037	1097.56
350.265	1073.56
350.492	1091.56
350.72	1068.56
350.947	1069.56
351.174	1107.56
351.402	1083.56
351.629	1084.56
351.856	1120.56
352.083	1070.56
352.311	1085.56
352.538	1075.56
352.765	1079.56
352.992	1044.56
353.22	1046.56
353.447	1086.56
353.674	1067.56
353.901	1069.56
354.128	1067.56
354.355	1074.56
354.583	1085.56
354.81	1068.56
355.037	1074.56
355.264	1057.56
355.491	1093.56
355.718	1054.56
355.945	1081.56
356.172	1078.56
356.399	1105.56
356.626	1084.56
356.853	1091.56
357.08	1084.56
357.307	1079.56
357.534	1110.56
357.761	1089.56
357.988	1084.56
358.215	1076.56
358.441	1086.56
358.668	1049.56
358.895	1074.56
359.122	1068.56
359.349	1086.56
359.576	1075.56
359.802	1085.56
360.029	1091.56
360.256	1090.56
360.483	1066.56
360.709	1076.56
360.936	1081.56
361.163	1068.56
361.39	1085.56
361.616	1100.56
361.843	1087.56
362.07	1052.56
362.296	1099.56
362.523	1086.56
362.749	1086.56
362.976	1081.56
363.203	1056.56
363.429	1075.56
363.656	1103.56
363.882	1074.56
364.109	1083.56
364.335	1075.56
364.562	1112.56
364.788	1074.56
365.015	1080.56
365.241	1090.56
365.468	1071.56
365.694	1106.56
365.92	1076.56
366.147	1055.56
366.373	1080.56
366.599	1105.56
366.826	1096.56
367.052	1087.56
367.278	1083.56
367.505	1087.56
367.731	1099.56
367.957	1097.56
368.184	1092.56
368.41	1117.56
368.636	1114.56
368.862	1112.56
369.089	1103.56
369.315	1144.56
369.541	1112.56
369.767	1140.56
369.993	1113.56
370.219	1115.56
370.445	1140.56
370.672	1128.56
370.898	1125.56
371.124	1161.56
371.35	1198.56
371.576	1173.56
371.802	1182.56
372.028	1163.56
372.254	1193.56
372.48	1177.56
372.706	1212.56
372.932	1198.56
373.158	1216.56
373.384	1230.56
373.61	1153.56
373.835	1169.56
374.061	1160.56
374.287	1208.56
374.513	1198.56
374.739	1263.56
374.965	1241.56
375.191	1311.56
375.416	1273.56
375.642	1251.56
375.868	1248.56
376.094	1232.56
376.319	1175.56
376.545	1202.56
376.771	1168.56
376.997	1180.56
377.222	1158.56
377.448	1170.56
377.674	1150.56
377.899	1174.56
378.125	1159.56
378.35	1192.56
378.576	1166.56
378.802	1146.56
379.027	1142.56
379.253	1177.56
379.478	1178.56
379.704	1158.56
379.929	1137.56
380.155	1111.56
380.38	1156.56
380.606	1152.56
380.831	1172.56
381.057	1156.56
381.282	1138.56
381.507	1133.56
381.733	1194.56
381.958	1176.56
382.184	1210.56
382.409	1200.56
382.634	1209.56
382.86	1200.56
383.085	1198.56
383.31	1210.56
383.535	1247.56
383.761	1269.56
383.986	1303.56
384.211	1304.56
384.436	1345.56
384.662	1351.56
384.887	1354.56
385.112	1340.56
385.337	1355.56
385.562	1360.56
385.787	1380.56
386.013	1382.56
386.238	1395.56
386.463	1416.56
386.688	1421.56
386.913	1402.56
387.138	1364.56
387.363	1364.56
387.588	1383.56
387.813	1404.56
388.038	1412.56
388.263	1407.56
388.488	1421.56
388.713	1352.56
388.938	1406.56
389.163	1356.56
389.387	1364.56
389.612	1366.56
389.837	1384.56
390.062	1356.56
390.287	1378.56
390.512	1386.56
390.736	1370.56
390.961	1415.56
391.186	1422.56
391.411	1478.56
391.636	1496.56
391.86	1514.56
392.085	1547.56
392.31	1528.56
392.534	1548.56
392.759	1491.56
392.984	1474.56
393.208	1478.56
393.433	1489.56
393.658	1457.56
393.882	1432.56
394.107	1437.56
394.331	1459.56
394.556	1463.56
394.78	1469.56
395.005	1553.56
395.229	1499.56
395.454	1514.56
395.678	1492.56
395.903	1544.56
396.127	1523.56
396.352	1472.56
396.576	1518.56
396.801	1476.56
397.025	1532.56
397.249	1541.56
397.474	1550.56
397.698	1559.56
397.922	1592.56
398.147	1567.56
398.371	1599.56
398.595	1631.56
398.82	1707.56
399.044	1779.56
399.268	1947.56
399.492	2162.56
399.717	2320.56
399.941	2376.56
400.165	2226.56
400.389	2122.56
400.613	1914.56
400.837	1826.56
401.062	1808.56
401.286	1744.56
401.51	1752.56
401.734	1762.56
401.958	1756.56
402.182	1733.56
402.406	1718.56
402.63	1764.56
402.854	1798.56
403.078	1821.56
403.302	1784.56
403.526	1836.56
403.75	1879.56
403.974	1859.56
404.198	1896.56
404.422	1863.56
404.645	1880.56
404.869	1871.56
405.093	1854.56
405.317	1884.56
405.541	1858.56
405.765	1880.56
405.988	1834.56
406.212	1866.56
406.436	1846.56
406.66	1941.56
406.883	1910.56
407.107	2016.56
407.331	2104.56
407.555	2193.56
407.778	2165.56
408.002	2158.56
408.226	2074.56
408.449	2061.56
408.673	2000.56
408.896	1925.56
409.12	1893.56
409.344	1936.56
409.567	1883.56
409.791	1902.56
410.014	1916.56
410.238	1910.56
410.461	1877.56
410.685	1914.56
410.908	1814.56
411.132	1830.56
411.355	1796.56
411.578	1787.56
411.802	1824.56
412.025	1815.56
412.249	1832.56
412.472	1792.56
412.695	1760.56
412.919	1747.56
413.142	1737.56
413.365	1720.56
413.589	1769.56
413.812	1707.56
414.035	1692.56
414.258	1745.56
414.482	1749.56
414.705	1744.56
414.928	1719.56
415.151	1720.56
415.374	1721.56
415.597	1686.56
415.821	1675.56
416.044	1619.56
416.267	1676.56
416.49	1646.56
416.713	1646.56
416.936	1664.56
417.159	1660.56
417.382	1627.56
417.605	1629.56
417.828	1664.56
418.051	1662.56
418.274	1699.56
418.497	1687.56
418.72	1697.56
418.943	1676.56
419.166	1805.56
419.389	1911.56
419.611	1902.56
419.834	1819.56
420.057	1723.56
420.28	1696.56
420.503	1622.56
420.726	1636.56
420.948	1662.56
421.171	1665.56
421.394	1675.56
421.617	1606.56
421.839	1644.56
422.062	1681.56
422.285	1648.56
422.507	1716.56
422.73	1660.56
422.953	1690.56
423.175	1700.56
423.398	1718.56
423.621	1686.56
423.843	1712.56
424.066	1683.56
424.288	1704.56
424.511	1690.56
424.733	1682.56
424.956	1660.56
425.178	1614.56
425.401	1657.56
425.623	1641.56
425.846	1638.56
426.068	1611.56
426.291	1595.56
426.513	1639.56
426.735	1596.56
426.958	1575.56
427.18	1569.56
427.402	1566.56
427.625	1590.56
427.847	1519.56
428.069	1542.56
428.292	1545.56
428.514	1509.56
428.736	1481.56
428.958	1532.56
429.181	1481.56
429.403	1498.56
429.625	1486.56
429.847	1491.56
430.069	1492.56
430.292	1500.56
430.514	1473.56
430.736	1519.56
430.958	1510.56
431.18	1498.56
431.402	1506.56
431.624	1507.56
431.846	1539.56
432.068	1564.56
432.29	1564.56
432.512	1498.56
432.734	1556.56
432.956	1547.56
433.178	1568.56
433.4	1525.56
433.622	1531.56
433.844	1592.56
434.066	1563.56
434.287	1566.56
434.509	1622.56
434.731	1654.56
434.953	1682.56
435.175	1707.56
435.397	1677.56
435.618	1572.56
435.84	1555.56
436.062	1556.56
436.284	1528.56
436.505	1550.56
436.727	1525.56
436.949	1539.56
437.17	1538.56
437.392	1512.56
437.614	1445.56
437.835	1425.56
438.057	1446.56
438.278	1411.56
438.5	1468.56
438.721	1455.56
438.943	1455.56
439.165	1456.56
439.386	1426.56
439.608	1503.56
439.829	1462.56
440.05	1492.56
440.272	1499.56
440.493	1518.56
440.715	1514.56
440.936	1522.56
441.158	1578.56
441.379	1559.56
441.6	1642.56
441.822	1654.56
442.043	1683.56
442.264	1608.56
442.486	1589.56
442.707	1600.56
442.928	1602.56
443.149	1609.56
443.371	1625.56
443.592	1646.56
443.813	1652.56
444.034	1656.56
444.255	1692.56
444.476	1747.56
444.698	1837.56
444.919	1866.56
445.14	1942.56
445.361	1794.56
445.582	1694.56
445.803	1651.56
446.024	1552.56
446.245	1564.56
446.466	1548.56
446.687	1474.56
446.908	1467.56
447.129	1450.56
447.35	1475.56
447.571	1440.56
447.792	1392.56
448.013	1419.56
448.234	1401.56
448.455	1381.56
448.675	1375.56
448.896	1375.56
449.117	1322.56
449.338	1352.56
449.559	1332.56
449.779	1323.56
450	1355.56
450.221	1347.56
450.442	1328.56
450.662	1373.56
450.883	1346.56
451.104	1338.56
451.324	1339.56
451.545	1341.56
451.766	1378.56
451.986	1336.56
452.207	1336.56
452.428	1339.56
452.648	1315.56
452.869	1311.56
453.089	1263.56
453.31	1354.56
453.53	1311.56
453.751	1260.56
453.971	1317.56
454.192	1296.56
454.412	1276.56
454.633	1294.56
454.853	1280.56
455.073	1259.56
455.294	1288.56
455.514	1263.56
455.734	1269.56
455.955	1266.56
456.175	1231.56
456.395	1248.56
456.616	1276.56
456.836	1266.56
457.056	1286.56
457.276	1262.56
457.497	1255.56
457.717	1243.56
457.937	1292.56
458.157	1300.56
458.377	1310.56
458.598	1346.56
458.818	1348.56
459.038	1418.56
459.258	1447.56
459.478	1481.56
459.698	1487.56
459.918	1517.56
460.138	1570.56
460.358	1666.56
460.578	1697.56
460.798	1743.56
461.018	1729.56
461.238	1699.56
461.458	1672.56
461.678	1666.56
461.898	1671.56
462.118	1738.56
462.338	1804.56
462.558	1841.56
462.777	1907.56
462.997	2060.56
463.217	2131.56
463.437	2145.56
463.657	1984.56
463.876	1952.56
464.096	1944.56
464.316	1924.56
464.536	1940.56
464.755	1916.56
464.975	1858.56
465.195	1765.56
465.414	1663.56
465.634	1607.56
465.854	1530.56
466.073	1530.56
466.293	1489.56
466.512	1484.56
466.732	1449.56
466.951	1417.56
467.171	1407.56
467.391	1446.56
467.61	1403.56
467.829	1378.56
468.049	1408.56
468.268	1378.56
468.488	1367.56
468.707	1342.56
468.927	1370.56
469.146	1372.56
469.365	1401.56
469.585	1402.56
469.804	1403.56
470.023	1467.56
470.243	1430.56
470.462	1468.56
470.681	1456.56
470.901	1455.56
471.12	1423.56
471.339	1410.56
471.558	1383.56
471.777	1426.56
471.997	1396.56
472.216	1385.56
472.435	1405.56
472.654	1371.56
472.873	1354.56
473.092	1384.56
473.311	1346.56
473.53	1378.56
473.749	1344.56
473.968	1348.56
474.187	1371.56
474.406	1349.56
474.625	1396.56
474.844	1345.56
475.063	1355.56
475.282	1368.56
475.501	1370.56
475.72	1420.56
475.939	1412.56
476.158	1417.56
476.377	1432.56
476.596	1440.56
476.814	1454.56
477.033	1473.56
477.252	1519.56
477.471	1504.56
477.69	1520.56
477.908	1563.56
478.127	1577.56
478.346	1607.56
478.564	1653.56
478.783	1625.56
479.002	1702.56
479.22	1684.56
479.439	1703.56
479.658	1696.56
479.876	1718.56
480.095	1751.56
480.313	1786.56
480.532	1803.56
480.751	1808.56
480.969	1738.56
481.188	1691.56
481.406	1720.56
481.624	1664.56
481.843	1655.56
482.061	1656.56
482.28	1669.56
482.498	1684.56
482.717	1656.56
482.935	1632.56
483.153	1644.56
483.372	1710.56
483.59	1674.56
483.808	1700.56
484.027	1690.56
484.245	1716.56
484.463	1732.56
484.681	1794.56
484.9	1766.56
485.118	1789.56
485.336	1779.56
485.554	1797.56
485.772	1850.56
485.99	1826.56
486.209	1808.56
486.427	1818.56
486.645	1824.56
486.863	1840.56
487.081	1801.56
487.299	1808.56
487.517	1790.56
487.735	1791.56
487.953	1807.56
488.171	1775.56
488.389	1774.56
488.607	1743.56
488.825	1714.56
489.043	1732.56
489.261	1684.56
489.479	1720.56
489.696	1728.56
489.914	1753.56
490.132	1712.56
490.35	1730.56
490.568	1730.56
490.786	1695.56
