Data from NiCl2@0.25M.TitratingCurve.Agarose3%dH2O.NegLispCup.LampEnergy10.LIBS07252019_HRD10591_18-24-13-573.txt Node
Date: Thu Jul 25 18:24:13 EDT 2019
User: cochatt
Spectrometer: HR+D1059
Trigger mode: 1
Integration Time (sec): 1.000000E-1
Scans to average: 1
Electric dark correction enabled: true
Nonlinearity correction enabled: false
Boxcar width: 0
XAxis mode: Wavelengths
Number of Pixels in Spectrum: 2048
>>>>>Begin Spectral Data<<<<<
223.165	-18.75
223.4	-18.75
223.635	-18.75
223.869	-5.75
224.104	-11.75
224.338	-18.75
224.573	-27.75
224.808	-11.75
225.042	-16.75
225.277	-7.75
225.511	-4.75
225.746	-0.75
225.98	10.25
226.215	10.25
226.449	24.25
226.683	14.25
226.918	26.25
227.152	39.25
227.387	37.25
227.621	39.25
227.856	32.25
228.09	48.25
228.324	40.25
228.559	62.25
228.793	70.25
229.027	120.25
229.262	122.25
229.496	144.25
229.73	131.25
229.964	148.25
230.199	152.25
230.433	148.25
230.667	172.25
230.901	167.25
231.136	161.25
231.37	156.25
231.604	163.25
231.838	156.25
232.072	167.25
232.306	180.25
232.541	179.25
232.775	172.25
233.009	162.25
233.243	183.25
233.477	188.25
233.711	184.25
233.945	179.25
234.179	184.25
234.413	168.25
234.647	191.25
234.881	168.25
235.115	182.25
235.349	188.25
235.583	179.25
235.817	173.25
236.051	178.25
236.285	195.25
236.519	189.25
236.753	184.25
236.987	187.25
237.221	214.25
237.455	201.25
237.689	202.25
237.922	207.25
238.156	192.25
238.39	219.25
238.624	218.25
238.858	194.25
239.091	210.25
239.325	210.25
239.559	217.25
239.793	204.25
240.027	233.25
240.26	210.25
240.494	203.25
240.728	219.25
240.961	243.25
241.195	239.25
241.429	248.25
241.662	245.25
241.896	257.25
242.13	238.25
242.363	224.25
242.597	235.25
242.83	258.25
243.064	246.25
243.298	259.25
243.531	275.25
243.765	268.25
243.998	264.25
244.232	274.25
244.465	261.25
244.699	259.25
244.932	270.25
245.166	267.25
245.399	280.25
245.633	278.25
245.866	292.25
246.099	260.25
246.333	285.25
246.566	285.25
246.8	280.25
247.033	302.25
247.266	299.25
247.5	298.25
247.733	306.25
247.966	293.25
248.2	283.25
248.433	306.25
248.666	300.25
248.899	324.25
249.133	308.25
249.366	325.25
249.599	332.25
249.832	304.25
250.066	318.25
250.299	327.25
250.532	328.25
250.765	331.25
250.998	334.25
251.231	344.25
251.465	344.25
251.698	336.25
251.931	327.25
252.164	353.25
252.397	343.25
252.63	343.25
252.863	379.25
253.096	358.25
253.329	369.25
253.562	349.25
253.795	356.25
254.028	371.25
254.261	382.25
254.494	361.25
254.727	352.25
254.96	354.25
255.193	369.25
255.426	376.25
255.659	381.25
255.892	382.25
256.124	388.25
256.357	376.25
256.59	363.25
256.823	372.25
257.056	384.25
257.289	392.25
257.521	392.25
257.754	375.25
257.987	391.25
258.22	396.25
258.452	387.25
258.685	394.25
258.918	421.25
259.151	397.25
259.383	405.25
259.616	417.25
259.849	418.25
260.081	423.25
260.314	418.25
260.547	422.25
260.779	418.25
261.012	423.25
261.244	399.25
261.477	432.25
261.71	417.25
261.942	416.25
262.175	427.25
262.407	435.25
262.64	444.25
262.872	451.25
263.105	434.25
263.337	445.25
263.57	426.25
263.802	458.25
264.035	462.25
264.267	438.25
264.499	458.25
264.732	457.25
264.964	461.25
265.197	487.25
265.429	453.25
265.661	469.25
265.894	453.25
266.126	464.25
266.358	463.25
266.591	470.25
266.823	475.25
267.055	460.25
267.287	487.25
267.52	462.25
267.752	482.25
267.984	474.25
268.216	488.25
268.448	487.25
268.681	486.25
268.913	475.25
269.145	485.25
269.377	501.25
269.609	514.25
269.841	498.25
270.073	529.25
270.306	502.25
270.538	499.25
270.77	516.25
271.002	510.25
271.234	489.25
271.466	519.25
271.698	522.25
271.93	525.25
272.162	517.25
272.394	536.25
272.626	522.25
272.858	512.25
273.09	525.25
273.322	546.25
273.553	518.25
273.785	525.25
274.017	556.25
274.249	540.25
274.481	548.25
274.713	535.25
274.945	554.25
275.176	554.25
275.408	562.25
275.64	568.25
275.872	578.25
276.104	561.25
276.335	571.25
276.567	572.25
276.799	569.25
277.031	555.25
277.262	584.25
277.494	574.25
277.726	564.25
277.957	577.25
278.189	607.25
278.421	578.25
278.652	598.25
278.884	599.25
279.115	569.25
279.347	573.25
279.579	598.25
279.81	613.25
280.042	584.25
280.273	598.25
280.505	617.25
280.736	619.25
280.968	598.25
281.199	621.25
281.431	610.25
281.662	602.25
281.894	627.25
282.125	633.25
282.356	626.25
282.588	640.25
282.819	633.25
283.051	634.25
283.282	650.25
283.513	654.25
283.745	648.25
283.976	622.25
284.207	636.25
284.439	645.25
284.67	647.25
284.901	673.25
285.132	665.25
285.364	638.25
285.595	670.25
285.826	682.25
286.057	666.25
286.288	662.25
286.52	679.25
286.751	668.25
286.982	662.25
287.213	660.25
287.444	668.25
287.675	690.25
287.906	660.25
288.138	673.25
288.369	692.25
288.6	688.25
288.831	675.25
289.062	680.25
289.293	674.25
289.524	691.25
289.755	685.25
289.986	679.25
290.217	672.25
290.448	685.25
290.679	702.25
290.91	720.25
291.141	675.25
291.371	704.25
291.602	723.25
291.833	678.25
292.064	709.25
292.295	690.25
292.526	717.25
292.757	692.25
292.987	692.25
293.218	712.25
293.449	698.25
293.68	729.25
293.91	739.25
294.141	736.25
294.372	714.25
294.603	718.25
294.833	726.25
295.064	734.25
295.295	714.25
295.525	716.25
295.756	728.25
295.987	730.25
296.217	738.25
296.448	754.25
296.679	752.25
296.909	713.25
297.14	723.25
297.37	765.25
297.601	784.25
297.831	769.25
298.062	741.25
298.292	755.25
298.523	788.25
298.753	781.25
298.984	776.25
299.214	792.25
299.445	802.25
299.675	779.25
299.905	773.25
300.136	759.25
300.366	779.25
300.597	780.25
300.827	781.25
301.057	798.25
301.288	817.25
301.518	825.25
301.748	822.25
301.979	803.25
302.209	832.25
302.439	829.25
302.669	817.25
302.9	812.25
303.13	778.25
303.36	819.25
303.59	821.25
303.82	840.25
304.051	812.25
304.281	815.25
304.511	796.25
304.741	819.25
304.971	826.25
305.201	801.25
305.431	820.25
305.661	800.25
305.891	790.25
306.121	796.25
306.352	781.25
306.582	797.25
306.812	809.25
307.042	775.25
307.272	795.25
307.502	789.25
307.731	774.25
307.961	801.25
308.191	806.25
308.421	802.25
308.651	786.25
308.881	773.25
309.111	773.25
309.341	781.25
309.571	789.25
309.8	780.25
310.03	780.25
310.26	779.25
310.49	794.25
310.72	795.25
310.949	795.25
311.179	790.25
311.409	788.25
311.639	806.25
311.868	802.25
312.098	838.25
312.328	832.25
312.557	816.25
312.787	827.25
313.017	826.25
313.246	831.25
313.476	840.25
313.706	846.25
313.935	843.25
314.165	834.25
314.394	835.25
314.624	844.25
314.853	867.25
315.083	832.25
315.312	871.25
315.542	861.25
315.771	842.25
316.001	826.25
316.23	813.25
316.46	830.25
316.689	854.25
316.919	849.25
317.148	837.25
317.377	835.25
317.607	818.25
317.836	829.25
318.065	828.25
318.295	832.25
318.524	858.25
318.753	844.25
318.983	842.25
319.212	812.25
319.441	828.25
319.67	836.25
319.9	811.25
320.129	810.25
320.358	838.25
320.587	827.25
320.816	831.25
321.046	846.25
321.275	836.25
321.504	834.25
321.733	806.25
321.962	851.25
322.191	846.25
322.42	865.25
322.649	846.25
322.878	850.25
323.108	858.25
323.337	853.25
323.566	874.25
323.795	874.25
324.024	868.25
324.253	844.25
324.482	865.25
324.71	891.25
324.939	872.25
325.168	863.25
325.397	898.25
325.626	875.25
325.855	907.25
326.084	922.25
326.313	938.25
326.542	896.25
326.77	934.25
326.999	918.25
327.228	902.25
327.457	924.25
327.686	865.25
327.914	888.25
328.143	914.25
328.372	907.25
328.6	908.25
328.829	924.25
329.058	904.25
329.287	922.25
329.515	914.25
329.744	924.25
329.972	921.25
330.201	953.25
330.43	944.25
330.658	941.25
330.887	929.25
331.115	941.25
331.344	955.25
331.572	980.25
331.801	986.25
332.03	978.25
332.258	996.25
332.486	1066.25
332.715	1058.25
332.943	1125.25
333.172	1156.25
333.4	1218.25
333.629	1224.25
333.857	1230.25
334.085	1260.25
334.314	1232.25
334.542	1224.25
334.771	1233.25
334.999	1164.25
335.227	1176.25
335.455	1189.25
335.684	1169.25
335.912	1169.25
336.14	1123.25
336.369	1126.25
336.597	1133.25
336.825	1093.25
337.053	1136.25
337.281	1130.25
337.51	1085.25
337.738	1064.25
337.966	1018.25
338.194	1026.25
338.422	1027.25
338.65	976.25
338.878	982.25
339.106	999.25
339.334	1017.25
339.562	999.25
339.79	962.25
340.018	983.25
340.246	939.25
340.474	938.25
340.702	946.25
340.93	957.25
341.158	972.25
341.386	964.25
341.614	988.25
341.842	971.25
342.07	940.25
342.298	980.25
342.526	936.25
342.754	960.25
342.981	957.25
343.209	1004.25
343.437	1062.25
343.665	1072.25
343.893	1113.25
344.12	1152.25
344.348	1138.25
344.576	1074.25
344.804	1053.25
345.031	1026.25
345.259	1000.25
345.487	1003.25
345.714	956.25
345.942	971.25
346.17	953.25
346.397	958.25
346.625	964.25
346.853	946.25
347.08	926.25
347.308	938.25
347.535	936.25
347.763	909.25
347.99	899.25
348.218	916.25
348.445	931.25
348.673	919.25
348.9	904.25
349.128	914.25
349.355	900.25
349.583	949.25
349.81	894.25
350.037	885.25
350.265	922.25
350.492	896.25
350.72	880.25
350.947	878.25
351.174	884.25
351.402	906.25
351.629	882.25
351.856	889.25
352.083	879.25
352.311	899.25
352.538	883.25
352.765	895.25
352.992	880.25
353.22	874.25
353.447	850.25
353.674	861.25
353.901	859.25
354.128	861.25
354.355	858.25
354.583	885.25
354.81	880.25
355.037	868.25
355.264	891.25
355.491	867.25
355.718	888.25
355.945	902.25
356.172	888.25
356.399	874.25
356.626	900.25
356.853	897.25
357.08	884.25
357.307	869.25
357.534	882.25
357.761	884.25
357.988	880.25
358.215	881.25
358.441	869.25
358.668	871.25
358.895	882.25
359.122	874.25
359.349	900.25
359.576	881.25
359.802	888.25
360.029	891.25
360.256	909.25
360.483	877.25
360.709	885.25
360.936	906.25
361.163	864.25
361.39	863.25
361.616	901.25
361.843	918.25
362.07	915.25
362.296	914.25
362.523	894.25
362.749	884.25
362.976	839.25
363.203	864.25
363.429	878.25
363.656	877.25
363.882	878.25
364.109	890.25
364.335	868.25
364.562	882.25
364.788	875.25
365.015	856.25
365.241	858.25
365.468	866.25
365.694	875.25
365.92	886.25
366.147	869.25
366.373	890.25
366.599	878.25
366.826	863.25
367.052	859.25
367.278	848.25
367.505	888.25
367.731	894.25
367.957	899.25
368.184	896.25
368.41	892.25
368.636	899.25
368.862	899.25
369.089	899.25
369.315	913.25
369.541	930.25
369.767	934.25
369.993	891.25
370.219	916.25
370.445	940.25
370.672	913.25
370.898	916.25
371.124	930.25
371.35	976.25
371.576	957.25
371.802	970.25
372.028	954.25
372.254	937.25
372.48	922.25
372.706	974.25
372.932	993.25
373.158	1000.25
373.384	989.25
373.61	930.25
373.835	957.25
374.061	955.25
374.287	942.25
374.513	975.25
374.739	1017.25
374.965	1034.25
375.191	1084.25
375.416	1040.25
375.642	1032.25
375.868	1017.25
376.094	992.25
376.319	965.25
376.545	987.25
376.771	1003.25
376.997	972.25
377.222	949.25
377.448	942.25
377.674	976.25
377.899	944.25
378.125	946.25
378.35	942.25
378.576	948.25
378.802	952.25
379.027	963.25
379.253	963.25
379.478	952.25
379.704	965.25
379.929	962.25
380.155	931.25
380.38	937.25
380.606	942.25
380.831	972.25
381.057	974.25
381.282	957.25
381.507	967.25
381.733	969.25
381.958	952.25
382.184	981.25
382.409	986.25
382.634	1001.25
382.86	980.25
383.085	1024.25
383.31	1036.25
383.535	1041.25
383.761	1044.25
383.986	1064.25
384.211	1077.25
384.436	1101.25
384.662	1142.25
384.887	1168.25
385.112	1148.25
385.337	1146.25
385.562	1135.25
385.787	1175.25
386.013	1202.25
386.238	1160.25
386.463	1190.25
386.688	1177.25
386.913	1145.25
387.138	1161.25
387.363	1166.25
387.588	1138.25
387.813	1152.25
388.038	1145.25
388.263	1164.25
388.488	1133.25
388.713	1158.25
388.938	1186.25
389.163	1129.25
389.387	1117.25
389.612	1112.25
389.837	1144.25
390.062	1141.25
390.287	1156.25
390.512	1130.25
390.736	1181.25
390.961	1149.25
391.186	1213.25
391.411	1237.25
391.636	1271.25
391.86	1335.25
392.085	1303.25
392.31	1308.25
392.534	1294.25
392.759	1276.25
392.984	1281.25
393.208	1228.25
393.433	1242.25
393.658	1265.25
393.882	1218.25
394.107	1264.25
394.331	1245.25
394.556	1232.25
394.78	1238.25
395.005	1271.25
395.229	1262.25
395.454	1274.25
395.678	1306.25
395.903	1289.25
396.127	1310.25
396.352	1287.25
396.576	1246.25
396.801	1233.25
397.025	1255.25
397.249	1287.25
397.474	1320.25
397.698	1334.25
397.922	1331.25
398.147	1355.25
398.371	1360.25
398.595	1393.25
398.82	1478.25
399.044	1584.25
399.268	1735.25
399.492	1914.25
399.717	2144.25
399.941	2182.25
400.165	2010.25
400.389	1834.25
400.613	1702.25
400.837	1591.25
401.062	1513.25
401.286	1521.25
401.51	1495.25
401.734	1492.25
401.958	1513.25
402.182	1537.25
402.406	1554.25
402.63	1556.25
402.854	1550.25
403.078	1568.25
403.302	1604.25
403.526	1580.25
403.75	1698.25
403.974	1662.25
404.198	1692.25
404.422	1687.25
404.645	1668.25
404.869	1664.25
405.093	1691.25
405.317	1637.25
405.541	1652.25
405.765	1609.25
405.988	1613.25
406.212	1617.25
406.436	1600.25
406.66	1658.25
406.883	1676.25
407.107	1793.25
407.331	1863.25
407.555	1928.25
407.778	1920.25
408.002	1878.25
408.226	1856.25
408.449	1792.25
408.673	1715.25
408.896	1667.25
409.12	1658.25
409.344	1702.25
409.567	1655.25
409.791	1712.25
410.014	1653.25
410.238	1638.25
410.461	1639.25
410.685	1598.25
410.908	1574.25
411.132	1529.25
411.355	1528.25
411.578	1531.25
411.802	1518.25
412.025	1533.25
412.249	1564.25
412.472	1561.25
412.695	1514.25
412.919	1518.25
413.142	1485.25
413.365	1464.25
413.589	1481.25
413.812	1460.25
414.035	1410.25
414.258	1464.25
414.482	1464.25
414.705	1481.25
414.928	1463.25
415.151	1489.25
415.374	1502.25
415.597	1477.25
415.821	1412.25
416.044	1468.25
416.267	1465.25
416.49	1420.25
416.713	1397.25
416.936	1419.25
417.159	1394.25
417.382	1394.25
417.605	1413.25
417.828	1449.25
418.051	1436.25
418.274	1460.25
418.497	1454.25
418.72	1451.25
418.943	1483.25
419.166	1603.25
419.389	1719.25
419.611	1672.25
419.834	1558.25
420.057	1533.25
420.28	1501.25
420.503	1462.25
420.726	1438.25
420.948	1445.25
421.171	1446.25
421.394	1491.25
421.617	1448.25
421.839	1419.25
422.062	1454.25
422.285	1434.25
422.507	1449.25
422.73	1449.25
422.953	1485.25
423.175	1472.25
423.398	1478.25
423.621	1513.25
423.843	1505.25
424.066	1532.25
424.288	1507.25
424.511	1468.25
424.733	1427.25
424.956	1486.25
425.178	1474.25
425.401	1466.25
425.623	1450.25
425.846	1373.25
426.068	1418.25
426.291	1379.25
426.513	1368.25
426.735	1347.25
426.958	1362.25
427.18	1349.25
427.402	1339.25
427.625	1314.25
427.847	1319.25
428.069	1286.25
428.292	1308.25
428.514	1283.25
428.736	1273.25
428.958	1315.25
429.181	1266.25
429.403	1248.25
429.625	1258.25
429.847	1237.25
430.069	1231.25
430.292	1239.25
430.514	1220.25
430.736	1300.25
430.958	1252.25
431.18	1274.25
431.402	1274.25
431.624	1249.25
431.846	1268.25
432.068	1314.25
432.29	1296.25
432.512	1289.25
432.734	1312.25
432.956	1299.25
433.178	1258.25
433.4	1295.25
433.622	1284.25
433.844	1301.25
434.066	1296.25
434.287	1354.25
434.509	1337.25
434.731	1407.25
434.953	1425.25
435.175	1431.25
435.397	1438.25
435.618	1351.25
435.84	1320.25
436.062	1292.25
436.284	1250.25
436.505	1291.25
436.727	1278.25
436.949	1238.25
437.17	1293.25
437.392	1242.25
437.614	1264.25
437.835	1210.25
438.057	1241.25
438.278	1222.25
438.5	1176.25
438.721	1205.25
438.943	1246.25
439.165	1244.25
439.386	1226.25
439.608	1252.25
439.829	1285.25
440.05	1234.25
440.272	1272.25
440.493	1292.25
440.715	1284.25
440.936	1324.25
441.158	1340.25
441.379	1374.25
441.6	1406.25
441.822	1426.25
442.043	1449.25
442.264	1404.25
442.486	1376.25
442.707	1384.25
442.928	1394.25
443.149	1402.25
443.371	1378.25
443.592	1421.25
443.813	1426.25
444.034	1414.25
444.255	1498.25
444.476	1583.25
444.698	1615.25
444.919	1672.25
445.14	1762.25
445.361	1619.25
445.582	1490.25
445.803	1423.25
446.024	1347.25
446.245	1355.25
446.466	1337.25
446.687	1292.25
446.908	1346.25
447.129	1305.25
447.35	1221.25
447.571	1219.25
447.792	1198.25
448.013	1195.25
448.234	1165.25
448.455	1160.25
448.675	1164.25
448.896	1186.25
449.117	1147.25
449.338	1148.25
449.559	1128.25
449.779	1131.25
450	1161.25
450.221	1156.25
450.442	1163.25
450.662	1165.25
450.883	1145.25
451.104	1197.25
451.324	1177.25
451.545	1199.25
451.766	1178.25
451.986	1158.25
452.207	1148.25
452.428	1130.25
452.648	1164.25
452.869	1111.25
453.089	1107.25
453.31	1136.25
453.53	1136.25
453.751	1127.25
453.971	1122.25
454.192	1139.25
454.412	1069.25
454.633	1094.25
454.853	1125.25
455.073	1093.25
455.294	1101.25
455.514	1073.25
455.734	1074.25
455.955	1075.25
456.175	1091.25
456.395	1069.25
456.616	1076.25
456.836	1092.25
457.056	1090.25
457.276	1059.25
457.497	1085.25
457.717	1067.25
457.937	1099.25
458.157	1096.25
458.377	1129.25
458.598	1150.25
458.818	1166.25
459.038	1216.25
459.258	1235.25
459.478	1295.25
459.698	1298.25
459.918	1340.25
460.138	1386.25
460.358	1477.25
460.578	1505.25
460.798	1484.25
461.018	1533.25
461.238	1522.25
461.458	1512.25
461.678	1489.25
461.898	1536.25
462.118	1568.25
462.338	1637.25
462.558	1670.25
462.777	1686.25
462.997	1853.25
463.217	1987.25
463.437	2001.25
463.657	1885.25
463.876	1789.25
464.096	1803.25
464.316	1793.25
464.536	1770.25
464.755	1750.25
464.975	1654.25
465.195	1560.25
465.414	1474.25
465.634	1357.25
465.854	1328.25
466.073	1318.25
466.293	1287.25
466.512	1228.25
466.732	1256.25
466.951	1224.25
467.171	1193.25
467.391	1208.25
467.61	1229.25
467.829	1171.25
468.049	1178.25
468.268	1181.25
468.488	1176.25
468.707	1188.25
468.927	1178.25
469.146	1166.25
469.365	1207.25
469.585	1185.25
469.804	1206.25
470.023	1242.25
470.243	1263.25
470.462	1253.25
470.681	1237.25
470.901	1273.25
471.12	1230.25
471.339	1242.25
471.558	1171.25
471.777	1212.25
471.997	1195.25
472.216	1190.25
472.435	1141.25
472.654	1152.25
472.873	1146.25
473.092	1130.25
473.311	1137.25
473.53	1184.25
473.749	1137.25
473.968	1152.25
474.187	1128.25
474.406	1106.25
474.625	1114.25
474.844	1141.25
475.063	1188.25
475.282	1149.25
475.501	1156.25
475.72	1195.25
475.939	1197.25
476.158	1155.25
476.377	1200.25
476.596	1184.25
476.814	1204.25
477.033	1193.25
477.252	1210.25
477.471	1258.25
477.69	1276.25
477.908	1312.25
478.127	1360.25
478.346	1388.25
478.564	1392.25
478.783	1402.25
479.002	1424.25
479.22	1399.25
479.439	1445.25
479.658	1435.25
479.876	1434.25
480.095	1450.25
480.313	1493.25
480.532	1549.25
480.751	1516.25
480.969	1470.25
481.188	1420.25
481.406	1370.25
481.624	1367.25
481.843	1317.25
482.061	1330.25
482.28	1296.25
482.498	1293.25
482.717	1297.25
482.935	1294.25
483.153	1298.25
483.372	1313.25
483.59	1306.25
483.808	1329.25
484.027	1308.25
484.245	1326.25
484.463	1313.25
484.681	1356.25
484.9	1324.25
485.118	1366.25
485.336	1311.25
485.554	1362.25
485.772	1388.25
485.99	1348.25
486.209	1377.25
486.427	1346.25
486.645	1386.25
486.863	1428.25
487.081	1373.25
487.299	1337.25
487.517	1357.25
487.735	1361.25
487.953	1351.25
488.171	1334.25
488.389	1326.25
488.607	1348.25
488.825	1345.25
489.043	1313.25
489.261	1329.25
489.479	1323.25
489.696	1357.25
489.914	1359.25
490.132	1362.25
490.35	1375.25
490.568	1379.25
490.786	1356.25
491.003	1393.25
491.221	1399.25
491.439	1413.25
491.657	1382.25
491.874	1398.25
492.092	1416.25
492.31	1414.25
492.527	1403.25
492.745	1405.25
492.963	1398.25
493.18	1417.25
493.398	1432.25
493.615	1450.25
493.833	1426.25
494.05	1445.25
