Data from NiCl2@0.5M.TitratingCurve.Agarose3%dH2O.NegLispCup.LampEnergy10.LIBS07252019_HRD10591_18-19-37-572.txt Node
Date: Thu Jul 25 18:19:37 EDT 2019
User: cochatt
Spectrometer: HR+D1059
Trigger mode: 1
Integration Time (sec): 1.000000E-1
Scans to average: 1
Electric dark correction enabled: true
Nonlinearity correction enabled: false
Boxcar width: 0
XAxis mode: Wavelengths
Number of Pixels in Spectrum: 2048
>>>>>Begin Spectral Data<<<<<
223.165	-17.69
223.4	-17.69
223.635	-17.69
223.869	-26.69
224.104	-24.69
224.338	-12.69
224.573	-16.69
224.808	-7.69
225.042	-18.69
225.277	3.31
225.511	-0.69
225.746	20.31
225.98	1.31
226.215	20.31
226.449	26.31
226.683	9.31
226.918	19.31
227.152	25.31
227.387	33.31
227.621	25.31
227.856	50.31
228.09	48.31
228.324	38.31
228.559	61.31
228.793	68.31
229.027	90.31
229.262	100.31
229.496	110.31
229.73	113.31
229.964	102.31
230.199	121.31
230.433	129.31
230.667	115.31
230.901	119.31
231.136	117.31
231.37	121.31
231.604	119.31
231.838	133.31
232.072	134.31
232.306	118.31
232.541	142.31
232.775	121.31
233.009	154.31
233.243	125.31
233.477	131.31
233.711	124.31
233.945	127.31
234.179	120.31
234.413	113.31
234.647	121.31
234.881	131.31
235.115	132.31
235.349	139.31
235.583	143.31
235.817	137.31
236.051	127.31
236.285	142.31
236.519	135.31
236.753	139.31
236.987	139.31
237.221	144.31
237.455	133.31
237.689	139.31
237.922	119.31
238.156	140.31
238.39	143.31
238.624	135.31
238.858	148.31
239.091	150.31
239.325	145.31
239.559	161.31
239.793	160.31
240.027	140.31
240.26	158.31
240.494	152.31
240.728	143.31
240.961	150.31
241.195	142.31
241.429	165.31
241.662	154.31
241.896	154.31
242.13	166.31
242.363	173.31
242.597	174.31
242.83	168.31
243.064	170.31
243.298	163.31
243.531	160.31
243.765	189.31
243.998	185.31
244.232	176.31
244.465	180.31
244.699	157.31
244.932	164.31
245.166	166.31
245.399	183.31
245.633	182.31
245.866	179.31
246.099	179.31
246.333	173.31
246.566	190.31
246.8	203.31
247.033	179.31
247.266	193.31
247.5	188.31
247.733	194.31
247.966	199.31
248.2	213.31
248.433	185.31
248.666	202.31
248.899	210.31
249.133	207.31
249.366	196.31
249.599	213.31
249.832	202.31
250.066	228.31
250.299	206.31
250.532	208.31
250.765	211.31
250.998	207.31
251.231	226.31
251.465	228.31
251.698	222.31
251.931	222.31
252.164	216.31
252.397	230.31
252.63	225.31
252.863	230.31
253.096	227.31
253.329	228.31
253.562	207.31
253.795	212.31
254.028	235.31
254.261	239.31
254.494	237.31
254.727	220.31
254.96	235.31
255.193	219.31
255.426	239.31
255.659	246.31
255.892	237.31
256.124	255.31
256.357	235.31
256.59	239.31
256.823	234.31
257.056	250.31
257.289	240.31
257.521	254.31
257.754	244.31
257.987	269.31
258.22	247.31
258.452	250.31
258.685	251.31
258.918	259.31
259.151	254.31
259.383	245.31
259.616	254.31
259.849	257.31
260.081	271.31
260.314	276.31
260.547	262.31
260.779	266.31
261.012	270.31
261.244	278.31
261.477	274.31
261.71	285.31
261.942	275.31
262.175	270.31
262.407	277.31
262.64	285.31
262.872	278.31
263.105	266.31
263.337	279.31
263.57	286.31
263.802	257.31
264.035	267.31
264.267	266.31
264.499	279.31
264.732	291.31
264.964	273.31
265.197	272.31
265.429	287.31
265.661	283.31
265.894	303.31
266.126	299.31
266.358	298.31
266.591	294.31
266.823	297.31
267.055	291.31
267.287	299.31
267.52	311.31
267.752	304.31
267.984	286.31
268.216	285.31
268.448	292.31
268.681	318.31
268.913	309.31
269.145	312.31
269.377	315.31
269.609	311.31
269.841	328.31
270.073	314.31
270.306	295.31
270.538	306.31
270.77	329.31
271.002	327.31
271.234	291.31
271.466	303.31
271.698	313.31
271.93	321.31
272.162	324.31
272.394	331.31
272.626	337.31
272.858	318.31
273.09	333.31
273.322	335.31
273.553	323.31
273.785	330.31
274.017	322.31
274.249	342.31
274.481	336.31
274.713	331.31
274.945	356.31
275.176	354.31
275.408	339.31
275.64	334.31
275.872	359.31
276.104	352.31
276.335	338.31
276.567	336.31
276.799	352.31
277.031	358.31
277.262	339.31
277.494	349.31
277.726	355.31
277.957	359.31
278.189	377.31
278.421	358.31
278.652	353.31
278.884	366.31
279.115	378.31
279.347	363.31
279.579	381.31
279.81	361.31
280.042	362.31
280.273	373.31
280.505	383.31
280.736	370.31
280.968	386.31
281.199	384.31
281.431	387.31
281.662	399.31
281.894	369.31
282.125	381.31
282.356	389.31
282.588	376.31
282.819	389.31
283.051	399.31
283.282	384.31
283.513	385.31
283.745	404.31
283.976	395.31
284.207	391.31
284.439	409.31
284.67	407.31
284.901	409.31
285.132	390.31
285.364	406.31
285.595	410.31
285.826	403.31
286.057	405.31
286.288	393.31
286.52	410.31
286.751	393.31
286.982	414.31
287.213	423.31
287.444	426.31
287.675	424.31
287.906	409.31
288.138	435.31
288.369	419.31
288.6	447.31
288.831	442.31
289.062	429.31
289.293	422.31
289.524	427.31
289.755	433.31
289.986	426.31
290.217	423.31
290.448	437.31
290.679	445.31
290.91	422.31
291.141	430.31
291.371	443.31
291.602	449.31
291.833	418.31
292.064	437.31
292.295	432.31
292.526	445.31
292.757	438.31
292.987	433.31
293.218	434.31
293.449	451.31
293.68	432.31
293.91	445.31
294.141	444.31
294.372	432.31
294.603	456.31
294.833	450.31
295.064	436.31
295.295	437.31
295.525	464.31
295.756	454.31
295.987	449.31
296.217	463.31
296.448	458.31
296.679	445.31
296.909	447.31
297.14	460.31
297.37	457.31
297.601	465.31
297.831	477.31
298.062	477.31
298.292	477.31
298.523	508.31
298.753	491.31
298.984	460.31
299.214	488.31
299.445	482.31
299.675	488.31
299.905	470.31
300.136	484.31
300.366	498.31
300.597	507.31
300.827	523.31
301.057	501.31
301.288	505.31
301.518	506.31
301.748	498.31
301.979	521.31
302.209	537.31
302.439	495.31
302.669	505.31
302.9	501.31
303.13	487.31
303.36	505.31
303.59	498.31
303.82	509.31
304.051	497.31
304.281	520.31
304.511	515.31
304.741	526.31
304.971	494.31
305.201	511.31
305.431	531.31
305.661	526.31
305.891	527.31
306.121	505.31
306.352	514.31
306.582	524.31
306.812	503.31
307.042	516.31
307.272	494.31
307.502	485.31
307.731	505.31
307.961	501.31
308.191	512.31
308.421	506.31
308.651	525.31
308.881	506.31
309.111	491.31
309.341	501.31
309.571	494.31
309.8	511.31
310.03	535.31
310.26	535.31
310.49	540.31
310.72	530.31
310.949	522.31
311.179	511.31
311.409	513.31
311.639	534.31
311.868	514.31
312.098	519.31
312.328	542.31
312.557	537.31
312.787	533.31
313.017	532.31
313.246	538.31
313.476	538.31
313.706	549.31
313.935	542.31
314.165	547.31
314.394	536.31
314.624	557.31
314.853	541.31
315.083	538.31
315.312	549.31
315.542	529.31
315.771	548.31
316.001	570.31
316.23	549.31
316.46	556.31
316.689	522.31
316.919	514.31
317.148	529.31
317.377	538.31
317.607	523.31
317.836	535.31
318.065	561.31
318.295	531.31
318.524	541.31
318.753	513.31
318.983	551.31
319.212	555.31
319.441	549.31
319.67	551.31
319.9	547.31
320.129	576.31
320.358	549.31
320.587	552.31
320.816	550.31
321.046	535.31
321.275	559.31
321.504	544.31
321.733	557.31
321.962	559.31
322.191	558.31
322.42	573.31
322.649	582.31
322.878	567.31
323.108	573.31
323.337	576.31
323.566	579.31
323.795	549.31
324.024	566.31
324.253	569.31
324.482	566.31
324.71	583.31
324.939	612.31
325.168	599.31
325.397	558.31
325.626	587.31
325.855	605.31
326.084	586.31
326.313	594.31
326.542	616.31
326.77	612.31
326.999	594.31
327.228	613.31
327.457	591.31
327.686	581.31
327.914	596.31
328.143	640.31
328.372	597.31
328.6	623.31
328.829	600.31
329.058	592.31
329.287	599.31
329.515	618.31
329.744	616.31
329.972	612.31
330.201	632.31
330.43	597.31
330.658	606.31
330.887	605.31
331.115	608.31
331.344	614.31
331.572	618.31
331.801	631.31
332.03	629.31
332.258	654.31
332.486	663.31
332.715	686.31
332.943	691.31
333.172	711.31
333.4	723.31
333.629	757.31
333.857	756.31
334.085	753.31
334.314	732.31
334.542	746.31
334.771	751.31
334.999	734.31
335.227	718.31
335.455	719.31
335.684	707.31
335.912	699.31
336.14	707.31
336.369	703.31
336.597	707.31
336.825	716.31
337.053	727.31
337.281	692.31
337.51	694.31
337.738	670.31
337.966	682.31
338.194	665.31
338.422	680.31
338.65	657.31
338.878	632.31
339.106	664.31
339.334	652.31
339.562	631.31
339.79	606.31
340.018	625.31
340.246	616.31
340.474	629.31
340.702	634.31
340.93	628.31
341.158	633.31
341.386	639.31
341.614	650.31
341.842	651.31
342.07	602.31
342.298	606.31
342.526	615.31
342.754	618.31
342.981	610.31
343.209	627.31
343.437	651.31
343.665	692.31
343.893	723.31
344.12	714.31
344.348	698.31
344.576	679.31
344.804	664.31
345.031	655.31
345.259	627.31
345.487	617.31
345.714	617.31
345.942	614.31
346.17	653.31
346.397	651.31
346.625	606.31
346.853	607.31
347.08	618.31
347.308	602.31
347.535	601.31
347.763	630.31
347.99	593.31
348.218	612.31
348.445	610.31
348.673	615.31
348.9	598.31
349.128	575.31
349.355	582.31
349.583	597.31
349.81	603.31
350.037	601.31
350.265	593.31
350.492	591.31
350.72	551.31
350.947	587.31
351.174	618.31
351.402	593.31
351.629	618.31
351.856	611.31
352.083	583.31
352.311	571.31
352.538	578.31
352.765	583.31
352.992	584.31
353.22	569.31
353.447	565.31
353.674	543.31
353.901	551.31
354.128	553.31
354.355	534.31
354.583	557.31
354.81	585.31
355.037	569.31
355.264	580.31
355.491	568.31
355.718	570.31
355.945	585.31
356.172	586.31
356.399	580.31
356.626	597.31
356.853	588.31
357.08	583.31
357.307	578.31
357.534	569.31
357.761	586.31
357.988	570.31
358.215	571.31
358.441	544.31
358.668	564.31
358.895	591.31
359.122	567.31
359.349	583.31
359.576	566.31
359.802	577.31
360.029	578.31
360.256	577.31
360.483	585.31
360.709	565.31
360.936	564.31
361.163	585.31
361.39	585.31
361.616	583.31
361.843	575.31
362.07	587.31
362.296	577.31
362.523	573.31
362.749	558.31
362.976	573.31
363.203	561.31
363.429	566.31
363.656	585.31
363.882	540.31
364.109	562.31
364.335	557.31
364.562	545.31
364.788	560.31
365.015	546.31
365.241	541.31
365.468	528.31
365.694	565.31
365.92	549.31
366.147	548.31
366.373	585.31
366.599	542.31
366.826	546.31
367.052	559.31
367.278	573.31
367.505	567.31
367.731	548.31
367.957	553.31
368.184	551.31
368.41	567.31
368.636	554.31
368.862	564.31
369.089	561.31
369.315	582.31
369.541	559.31
369.767	575.31
369.993	564.31
370.219	552.31
370.445	590.31
370.672	587.31
370.898	568.31
371.124	583.31
371.35	602.31
371.576	593.31
371.802	597.31
372.028	574.31
372.254	586.31
372.48	601.31
372.706	585.31
372.932	604.31
373.158	591.31
373.384	614.31
373.61	612.31
373.835	582.31
374.061	607.31
374.287	594.31
374.513	594.31
374.739	613.31
374.965	635.31
375.191	627.31
375.416	628.31
375.642	609.31
375.868	603.31
376.094	618.31
376.319	599.31
376.545	598.31
376.771	589.31
376.997	584.31
377.222	571.31
377.448	580.31
377.674	601.31
377.899	561.31
378.125	577.31
378.35	579.31
378.576	568.31
378.802	579.31
379.027	588.31
379.253	545.31
379.478	544.31
379.704	566.31
379.929	575.31
380.155	565.31
380.38	553.31
380.606	579.31
380.831	575.31
381.057	590.31
381.282	564.31
381.507	569.31
381.733	570.31
381.958	565.31
382.184	574.31
382.409	585.31
382.634	597.31
382.86	582.31
383.085	597.31
383.31	590.31
383.535	607.31
383.761	607.31
383.986	614.31
384.211	624.31
384.436	617.31
384.662	642.31
384.887	664.31
385.112	643.31
385.337	647.31
385.562	661.31
385.787	656.31
386.013	692.31
386.238	664.31
386.463	641.31
386.688	648.31
386.913	671.31
387.138	648.31
387.363	657.31
387.588	649.31
387.813	662.31
388.038	637.31
388.263	640.31
388.488	654.31
388.713	665.31
388.938	642.31
389.163	653.31
389.387	649.31
389.612	621.31
389.837	630.31
390.062	629.31
390.287	645.31
390.512	658.31
390.736	652.31
390.961	674.31
391.186	679.31
391.411	705.31
391.636	689.31
391.86	715.31
392.085	750.31
392.31	733.31
392.534	712.31
392.759	691.31
392.984	700.31
393.208	687.31
393.433	685.31
393.658	674.31
393.882	697.31
394.107	685.31
394.331	692.31
394.556	707.31
394.78	697.31
395.005	712.31
395.229	734.31
395.454	707.31
395.678	741.31
395.903	740.31
396.127	709.31
396.352	714.31
396.576	700.31
396.801	675.31
397.025	722.31
397.249	712.31
397.474	714.31
397.698	721.31
397.922	729.31
398.147	722.31
398.371	763.31
398.595	783.31
398.82	791.31
399.044	859.31
399.268	909.31
399.492	1006.31
399.717	1124.31
399.941	1137.31
400.165	1019.31
400.389	935.31
400.613	855.31
400.837	874.31
401.062	825.31
401.286	809.31
401.51	804.31
401.734	801.31
401.958	830.31
402.182	804.31
402.406	797.31
402.63	823.31
402.854	890.31
403.078	879.31
403.302	884.31
403.526	902.31
403.75	925.31
403.974	926.31
404.198	896.31
404.422	924.31
404.645	930.31
404.869	895.31
405.093	906.31
405.317	907.31
405.541	882.31
405.765	856.31
405.988	853.31
406.212	881.31
406.436	885.31
406.66	919.31
406.883	904.31
407.107	960.31
407.331	1007.31
407.555	1022.31
407.778	1031.31
408.002	981.31
408.226	961.31
408.449	958.31
408.673	947.31
408.896	931.31
409.12	911.31
409.344	934.31
409.567	932.31
409.791	911.31
410.014	920.31
410.238	901.31
410.461	911.31
410.685	877.31
410.908	873.31
411.132	879.31
411.355	858.31
411.578	853.31
411.802	898.31
412.025	842.31
412.249	877.31
412.472	881.31
412.695	837.31
412.919	811.31
413.142	858.31
413.365	854.31
413.589	850.31
413.812	834.31
414.035	819.31
414.258	829.31
414.482	848.31
414.705	862.31
414.928	836.31
415.151	820.31
415.374	827.31
415.597	813.31
415.821	827.31
416.044	819.31
416.267	814.31
416.49	804.31
416.713	829.31
416.936	829.31
417.159	802.31
417.382	837.31
417.605	817.31
417.828	810.31
418.051	856.31
418.274	838.31
418.497	795.31
418.72	853.31
418.943	834.31
419.166	892.31
419.389	938.31
419.611	927.31
419.834	886.31
420.057	861.31
420.28	871.31
420.503	841.31
420.726	830.31
420.948	817.31
421.171	849.31
421.394	854.31
421.617	842.31
421.839	856.31
422.062	857.31
422.285	822.31
422.507	864.31
422.73	836.31
422.953	862.31
423.175	874.31
423.398	880.31
423.621	855.31
423.843	894.31
424.066	882.31
424.288	871.31
424.511	879.31
424.733	865.31
424.956	859.31
425.178	852.31
425.401	847.31
425.623	853.31
425.846	807.31
426.068	803.31
426.291	833.31
426.513	796.31
426.735	791.31
426.958	806.31
427.18	775.31
427.402	798.31
427.625	790.31
427.847	785.31
428.069	783.31
428.292	801.31
428.514	782.31
428.736	777.31
428.958	763.31
429.181	755.31
429.403	778.31
429.625	780.31
429.847	756.31
430.069	761.31
430.292	782.31
430.514	751.31
430.736	790.31
430.958	756.31
431.18	771.31
431.402	775.31
431.624	793.31
431.846	783.31
432.068	786.31
432.29	775.31
432.512	797.31
432.734	796.31
432.956	785.31
433.178	815.31
433.4	812.31
433.622	776.31
433.844	825.31
434.066	792.31
434.287	797.31
434.509	839.31
434.731	837.31
434.953	865.31
435.175	867.31
435.397	868.31
435.618	838.31
435.84	800.31
436.062	806.31
436.284	798.31
436.505	795.31
436.727	814.31
436.949	805.31
437.17	801.31
437.392	767.31
437.614	802.31
437.835	739.31
438.057	731.31
438.278	767.31
438.5	785.31
438.721	776.31
438.943	802.31
439.165	765.31
439.386	760.31
439.608	779.31
439.829	776.31
440.05	801.31
440.272	836.31
440.493	817.31
440.715	813.31
440.936	806.31
441.158	824.31
441.379	839.31
441.6	894.31
441.822	897.31
442.043	864.31
442.264	864.31
442.486	845.31
442.707	855.31
442.928	870.31
443.149	855.31
443.371	847.31
443.592	891.31
443.813	903.31
444.034	901.31
444.255	936.31
444.476	947.31
444.698	992.31
444.919	1033.31
445.14	1104.31
445.361	1000.31
445.582	923.31
445.803	896.31
446.024	848.31
446.245	853.31
446.466	843.31
446.687	817.31
446.908	827.31
447.129	814.31
447.35	793.31
447.571	783.31
447.792	766.31
448.013	782.31
448.234	744.31
448.455	741.31
448.675	747.31
448.896	758.31
449.117	757.31
449.338	765.31
449.559	762.31
449.779	746.31
450	738.31
450.221	786.31
450.442	751.31
450.662	743.31
450.883	761.31
451.104	768.31
451.324	765.31
451.545	747.31
451.766	765.31
451.986	743.31
452.207	765.31
452.428	739.31
452.648	760.31
452.869	715.31
453.089	758.31
453.31	741.31
453.53	745.31
453.751	730.31
453.971	740.31
454.192	717.31
454.412	721.31
454.633	737.31
454.853	737.31
455.073	730.31
455.294	723.31
455.514	723.31
455.734	709.31
455.955	706.31
456.175	711.31
456.395	713.31
456.616	714.31
456.836	716.31
457.056	692.31
457.276	696.31
457.497	729.31
457.717	712.31
457.937	705.31
458.157	759.31
458.377	730.31
458.598	750.31
458.818	777.31
459.038	773.31
459.258	777.31
459.478	798.31
459.698	819.31
459.918	864.31
460.138	855.31
460.358	928.31
460.578	924.31
460.798	932.31
461.018	914.31
461.238	904.31
461.458	933.31
461.678	888.31
461.898	915.31
462.118	910.31
462.338	957.31
462.558	1039.31
462.777	1019.31
462.997	1066.31
463.217	1166.31
463.437	1173.31
463.657	1115.31
463.876	1069.31
464.096	1059.31
464.316	1069.31
464.536	1060.31
464.755	1021.31
464.975	984.31
465.195	955.31
465.414	904.31
465.634	882.31
465.854	858.31
466.073	847.31
466.293	819.31
466.512	810.31
466.732	795.31
466.951	786.31
467.171	772.31
467.391	787.31
467.61	790.31
467.829	773.31
468.049	747.31
468.268	761.31
468.488	750.31
468.707	777.31
468.927	783.31
469.146	770.31
469.365	798.31
469.585	795.31
469.804	776.31
470.023	827.31
470.243	836.31
470.462	804.31
470.681	831.31
470.901	826.31
471.12	814.31
471.339	807.31
471.558	794.31
471.777	801.31
471.997	807.31
472.216	785.31
472.435	794.31
472.654	742.31
472.873	752.31
473.092	767.31
473.311	781.31
473.53	740.31
473.749	786.31
473.968	766.31
474.187	786.31
474.406	776.31
474.625	763.31
474.844	773.31
475.063	776.31
475.282	806.31
475.501	775.31
475.72	793.31
475.939	792.31
476.158	786.31
476.377	823.31
476.596	792.31
476.814	799.31
477.033	796.31
477.252	825.31
477.471	843.31
477.69	863.31
477.908	889.31
478.127	921.31
478.346	896.31
478.564	921.31
478.783	900.31
479.002	934.31
479.22	917.31
479.439	943.31
479.658	935.31
479.876	921.31
480.095	923.31
480.313	978.31
480.532	983.31
480.751	951.31
480.969	934.31
481.188	935.31
481.406	920.31
481.624	903.31
481.843	891.31
482.061	922.31
482.28	899.31
482.498	915.31
482.717	905.31
482.935	890.31
483.153	897.31
483.372	904.31
483.59	913.31
483.808	907.31
484.027	907.31
484.245	898.31
484.463	889.31
484.681	912.31
484.9	915.31
485.118	927.31
485.336	954.31
485.554	930.31
485.772	909.31
485.99	905.31
486.209	933.31
486.427	939.31
486.645	927.31
486.863	945.31
487.081	956.31
487.299	926.31
487.517	904.31
487.735	953.31
487.953	953.31
488.171	963.31
488.389	969.31
488.607	937.31
488.825	921.31
489.043	896.31
489.261	915.31
489.479	938.31
489.696	947.31
489.914	933.31
490.132	953.31
490.35	973.31
490.568	970.31
490.786	974.31
491.003	941.31
491.221	952.31
491.439	990.31
491.657	963.31
491.874	961.31
492.092	981.31
492.31	993.31
492.527	1004.31
492.745	1017.31
492.963	1005.31
493.18	1009.31
493.398	1014.31
493.615	994.31
493.833	978.31
494.05	994.31
494.268	1001.31
494.485	1005.31
494.703	1000.31
494.92	997.31
495.138	1009.31
495.355	1016.31
495.573	978.31
495.79	994.31
496.008	1030.31
496.225	1006.31
496.442	1005.31
496.66	1031.31
496.877	1043.31
497.094	1042.31
497.312	1072.31
497.529	1104.31
497.746	1082.31
497.963	1115.31
498.181	1158.31
498.398	1190.31
498.615	1263.31
498.832	1315.31
499.049	1393.31
499.267	1465.31
499.484	1576.31
499.701	1721.31
499.918	1867.31
500.135	2084.31
500.352	2283.31
500.569	2406.31
500.786	2351.31
