Data from NiCl2@0.125M.TitratingCurve.Agarose3%dH2O.NegLispCup.LampEnergy10.LIBS07252019_HRD10591_18-29-34-574.txt Node
Date: Thu Jul 25 18:29:34 EDT 2019
User: cochatt
Spectrometer: HR+D1059
Trigger mode: 1
Integration Time (sec): 1.000000E-1
Scans to average: 1
Electric dark correction enabled: true
Nonlinearity correction enabled: false
Boxcar width: 0
XAxis mode: Wavelengths
Number of Pixels in Spectrum: 2048
>>>>>Begin Spectral Data<<<<<
223.165	-28.81
223.4	-28.81
223.635	-28.81
223.869	-22.81
224.104	-21.81
224.338	-1.81
224.573	-15.81
224.808	-15.81
225.042	-14.81
225.277	-4.81
225.511	13.19
225.746	6.19
225.98	9.19
226.215	20.19
226.449	5.19
226.683	13.19
226.918	27.19
227.152	32.19
227.387	43.19
227.621	35.19
227.856	22.19
228.09	39.19
228.324	36.19
228.559	46.19
228.793	68.19
229.027	102.19
229.262	110.19
229.496	108.19
229.73	118.19
229.964	128.19
230.199	120.19
230.433	129.19
230.667	130.19
230.901	125.19
231.136	132.19
231.37	149.19
231.604	142.19
231.838	135.19
232.072	152.19
232.306	161.19
232.541	149.19
232.775	144.19
233.009	152.19
233.243	157.19
233.477	148.19
233.711	145.19
233.945	152.19
234.179	155.19
234.413	145.19
234.647	147.19
234.881	156.19
235.115	146.19
235.349	152.19
235.583	158.19
235.817	149.19
236.051	144.19
236.285	157.19
236.519	144.19
236.753	140.19
236.987	164.19
237.221	166.19
237.455	161.19
237.689	165.19
237.922	166.19
238.156	173.19
238.39	199.19
238.624	170.19
238.858	185.19
239.091	181.19
239.325	186.19
239.559	200.19
239.793	178.19
240.027	190.19
240.26	189.19
240.494	176.19
240.728	189.19
240.961	209.19
241.195	200.19
241.429	214.19
241.662	189.19
241.896	180.19
242.13	197.19
242.363	190.19
242.597	208.19
242.83	188.19
243.064	204.19
243.298	211.19
243.531	202.19
243.765	213.19
243.998	198.19
244.232	227.19
244.465	205.19
244.699	225.19
244.932	235.19
245.166	211.19
245.399	221.19
245.633	229.19
245.866	223.19
246.099	227.19
246.333	230.19
246.566	235.19
246.8	232.19
247.033	227.19
247.266	230.19
247.5	222.19
247.733	248.19
247.966	258.19
248.2	241.19
248.433	242.19
248.666	252.19
248.899	255.19
249.133	254.19
249.366	256.19
249.599	261.19
249.832	245.19
250.066	277.19
250.299	261.19
250.532	253.19
250.765	273.19
250.998	265.19
251.231	284.19
251.465	272.19
251.698	282.19
251.931	284.19
252.164	285.19
252.397	289.19
252.63	283.19
252.863	293.19
253.096	298.19
253.329	282.19
253.562	288.19
253.795	291.19
254.028	301.19
254.261	305.19
254.494	283.19
254.727	291.19
254.96	296.19
255.193	292.19
255.426	291.19
255.659	307.19
255.892	298.19
256.124	304.19
256.357	294.19
256.59	306.19
256.823	304.19
257.056	301.19
257.289	284.19
257.521	294.19
257.754	318.19
257.987	323.19
258.22	316.19
258.452	299.19
258.685	309.19
258.918	299.19
259.151	304.19
259.383	336.19
259.616	341.19
259.849	329.19
260.081	334.19
260.314	332.19
260.547	328.19
260.779	343.19
261.012	324.19
261.244	330.19
261.477	323.19
261.71	333.19
261.942	335.19
262.175	348.19
262.407	358.19
262.64	333.19
262.872	362.19
263.105	361.19
263.337	349.19
263.57	347.19
263.802	374.19
264.035	339.19
264.267	357.19
264.499	372.19
264.732	350.19
264.964	349.19
265.197	371.19
265.429	360.19
265.661	369.19
265.894	359.19
266.126	382.19
266.358	364.19
266.591	388.19
266.823	376.19
267.055	367.19
267.287	381.19
267.52	384.19
267.752	392.19
267.984	394.19
268.216	389.19
268.448	377.19
268.681	390.19
268.913	391.19
269.145	388.19
269.377	394.19
269.609	402.19
269.841	376.19
270.073	393.19
270.306	379.19
270.538	393.19
270.77	385.19
271.002	399.19
271.234	376.19
271.466	421.19
271.698	404.19
271.93	382.19
272.162	402.19
272.394	397.19
272.626	402.19
272.858	393.19
273.09	403.19
273.322	413.19
273.553	428.19
273.785	421.19
274.017	423.19
274.249	420.19
274.481	401.19
274.713	410.19
274.945	417.19
275.176	425.19
275.408	429.19
275.64	422.19
275.872	438.19
276.104	437.19
276.335	442.19
276.567	454.19
276.799	442.19
277.031	441.19
277.262	427.19
277.494	427.19
277.726	428.19
277.957	451.19
278.189	448.19
278.421	444.19
278.652	421.19
278.884	446.19
279.115	456.19
279.347	447.19
279.579	434.19
279.81	442.19
280.042	446.19
280.273	472.19
280.505	472.19
280.736	473.19
280.968	483.19
281.199	472.19
281.431	456.19
281.662	468.19
281.894	463.19
282.125	465.19
282.356	481.19
282.588	488.19
282.819	487.19
283.051	479.19
283.282	470.19
283.513	478.19
283.745	488.19
283.976	464.19
284.207	483.19
284.439	517.19
284.67	502.19
284.901	505.19
285.132	488.19
285.364	491.19
285.595	510.19
285.826	514.19
286.057	503.19
286.288	510.19
286.52	513.19
286.751	500.19
286.982	494.19
287.213	519.19
287.444	510.19
287.675	542.19
287.906	543.19
288.138	536.19
288.369	533.19
288.6	530.19
288.831	537.19
289.062	517.19
289.293	537.19
289.524	542.19
289.755	530.19
289.986	532.19
290.217	531.19
290.448	531.19
290.679	545.19
290.91	548.19
291.141	560.19
291.371	525.19
291.602	558.19
291.833	526.19
292.064	529.19
292.295	546.19
292.526	550.19
292.757	566.19
292.987	538.19
293.218	545.19
293.449	545.19
293.68	536.19
293.91	528.19
294.141	563.19
294.372	533.19
294.603	557.19
294.833	553.19
295.064	541.19
295.295	546.19
295.525	572.19
295.756	553.19
295.987	570.19
296.217	574.19
296.448	580.19
296.679	578.19
296.909	541.19
297.14	585.19
297.37	607.19
297.601	586.19
297.831	599.19
298.062	578.19
298.292	594.19
298.523	633.19
298.753	613.19
298.984	588.19
299.214	601.19
299.445	592.19
299.675	593.19
299.905	602.19
300.136	572.19
300.366	605.19
300.597	575.19
300.827	596.19
301.057	632.19
301.288	644.19
301.518	610.19
301.748	634.19
301.979	630.19
302.209	611.19
302.439	621.19
302.669	619.19
302.9	624.19
303.13	596.19
303.36	614.19
303.59	607.19
303.82	597.19
304.051	603.19
304.281	609.19
304.511	606.19
304.741	628.19
304.971	611.19
305.201	614.19
305.431	598.19
305.661	612.19
305.891	608.19
306.121	617.19
306.352	602.19
306.582	583.19
306.812	592.19
307.042	607.19
307.272	594.19
307.502	573.19
307.731	595.19
307.961	580.19
308.191	602.19
308.421	570.19
308.651	593.19
308.881	596.19
309.111	594.19
309.341	570.19
309.571	603.19
309.8	594.19
310.03	594.19
310.26	579.19
310.49	609.19
310.72	602.19
310.949	589.19
311.179	605.19
311.409	600.19
311.639	601.19
311.868	596.19
312.098	605.19
312.328	619.19
312.557	626.19
312.787	619.19
313.017	617.19
313.246	614.19
313.476	613.19
313.706	644.19
313.935	618.19
314.165	630.19
314.394	664.19
314.624	641.19
314.853	632.19
315.083	614.19
315.312	632.19
315.542	630.19
315.771	637.19
316.001	619.19
316.23	617.19
316.46	625.19
316.689	636.19
316.919	628.19
317.148	619.19
317.377	619.19
317.607	628.19
317.836	627.19
318.065	602.19
318.295	594.19
318.524	608.19
318.753	602.19
318.983	621.19
319.212	612.19
319.441	621.19
319.67	609.19
319.9	619.19
320.129	626.19
320.358	613.19
320.587	612.19
320.816	614.19
321.046	633.19
321.275	621.19
321.504	636.19
321.733	632.19
321.962	607.19
322.191	626.19
322.42	630.19
322.649	644.19
322.878	644.19
323.108	620.19
323.337	640.19
323.566	630.19
323.795	646.19
324.024	634.19
324.253	637.19
324.482	627.19
324.71	661.19
324.939	639.19
325.168	666.19
325.397	633.19
325.626	628.19
325.855	660.19
326.084	681.19
326.313	693.19
326.542	663.19
326.77	692.19
326.999	685.19
327.228	650.19
327.457	665.19
327.686	652.19
327.914	670.19
328.143	669.19
328.372	663.19
328.6	667.19
328.829	689.19
329.058	669.19
329.287	692.19
329.515	664.19
329.744	684.19
329.972	683.19
330.201	693.19
330.43	719.19
330.658	681.19
330.887	700.19
331.115	717.19
331.344	728.19
331.572	719.19
331.801	749.19
332.03	748.19
332.258	768.19
332.486	768.19
332.715	857.19
332.943	842.19
333.172	880.19
333.4	932.19
333.629	948.19
333.857	920.19
334.085	933.19
334.314	935.19
334.542	880.19
334.771	856.19
334.999	858.19
335.227	857.19
335.455	873.19
335.684	833.19
335.912	843.19
336.14	822.19
336.369	806.19
336.597	826.19
336.825	810.19
337.053	826.19
337.281	811.19
337.51	784.19
337.738	771.19
337.966	769.19
338.194	751.19
338.422	721.19
338.65	720.19
338.878	768.19
339.106	706.19
339.334	730.19
339.562	712.19
339.79	709.19
340.018	710.19
340.246	709.19
340.474	695.19
340.702	713.19
340.93	725.19
341.158	711.19
341.386	718.19
341.614	699.19
341.842	713.19
342.07	703.19
342.298	700.19
342.526	693.19
342.754	707.19
342.981	712.19
343.209	718.19
343.437	768.19
343.665	793.19
343.893	875.19
344.12	923.19
344.348	837.19
344.576	790.19
344.804	772.19
345.031	757.19
345.259	733.19
345.487	715.19
345.714	725.19
345.942	700.19
346.17	673.19
346.397	699.19
346.625	701.19
346.853	692.19
347.08	684.19
347.308	675.19
347.535	675.19
347.763	701.19
347.99	698.19
348.218	716.19
348.445	688.19
348.673	695.19
348.9	696.19
349.128	668.19
349.355	672.19
349.583	697.19
349.81	660.19
350.037	667.19
350.265	649.19
350.492	664.19
350.72	652.19
350.947	670.19
351.174	654.19
351.402	634.19
351.629	658.19
351.856	643.19
352.083	633.19
352.311	658.19
352.538	664.19
352.765	644.19
352.992	638.19
353.22	672.19
353.447	638.19
353.674	634.19
353.901	653.19
354.128	662.19
354.355	638.19
354.583	638.19
354.81	648.19
355.037	670.19
355.264	688.19
355.491	648.19
355.718	637.19
355.945	664.19
356.172	653.19
356.399	656.19
356.626	654.19
356.853	654.19
357.08	659.19
357.307	647.19
357.534	643.19
357.761	666.19
357.988	663.19
358.215	668.19
358.441	680.19
358.668	664.19
358.895	673.19
359.122	672.19
359.349	641.19
359.576	664.19
359.802	673.19
360.029	642.19
360.256	665.19
360.483	658.19
360.709	642.19
360.936	672.19
361.163	663.19
361.39	666.19
361.616	655.19
361.843	654.19
362.07	676.19
362.296	660.19
362.523	644.19
362.749	650.19
362.976	644.19
363.203	644.19
363.429	641.19
363.656	655.19
363.882	632.19
364.109	652.19
364.335	645.19
364.562	650.19
364.788	660.19
365.015	644.19
365.241	648.19
365.468	658.19
365.694	635.19
365.92	661.19
366.147	640.19
366.373	674.19
366.599	652.19
366.826	658.19
367.052	635.19
367.278	668.19
367.505	626.19
367.731	651.19
367.957	665.19
368.184	662.19
368.41	663.19
368.636	634.19
368.862	665.19
369.089	678.19
369.315	678.19
369.541	687.19
369.767	664.19
369.993	676.19
370.219	678.19
370.445	693.19
370.672	696.19
370.898	701.19
371.124	701.19
371.35	709.19
371.576	697.19
371.802	716.19
372.028	721.19
372.254	725.19
372.48	731.19
372.706	746.19
372.932	780.19
373.158	728.19
373.384	746.19
373.61	730.19
373.835	722.19
374.061	706.19
374.287	712.19
374.513	728.19
374.739	751.19
374.965	787.19
375.191	798.19
375.416	803.19
375.642	752.19
375.868	755.19
376.094	766.19
376.319	728.19
376.545	733.19
376.771	736.19
376.997	718.19
377.222	702.19
377.448	723.19
377.674	727.19
377.899	704.19
378.125	718.19
378.35	730.19
378.576	736.19
378.802	717.19
379.027	707.19
379.253	696.19
379.478	714.19
379.704	706.19
379.929	744.19
380.155	723.19
380.38	688.19
380.606	689.19
380.831	700.19
381.057	725.19
381.282	693.19
381.507	717.19
381.733	733.19
381.958	719.19
382.184	716.19
382.409	726.19
382.634	735.19
382.86	731.19
383.085	776.19
383.31	781.19
383.535	792.19
383.761	804.19
383.986	822.19
384.211	822.19
384.436	860.19
384.662	853.19
384.887	856.19
385.112	881.19
385.337	869.19
385.562	873.19
385.787	859.19
386.013	877.19
386.238	885.19
386.463	875.19
386.688	887.19
386.913	875.19
387.138	861.19
387.363	870.19
387.588	856.19
387.813	883.19
388.038	863.19
388.263	846.19
388.488	847.19
388.713	844.19
388.938	841.19
389.163	837.19
389.387	844.19
389.612	826.19
389.837	829.19
390.062	840.19
390.287	850.19
390.512	835.19
390.736	841.19
390.961	862.19
391.186	854.19
391.411	907.19
391.636	924.19
391.86	952.19
392.085	1006.19
392.31	973.19
392.534	963.19
392.759	948.19
392.984	921.19
393.208	906.19
393.433	924.19
393.658	939.19
393.882	929.19
394.107	976.19
394.331	966.19
394.556	918.19
394.78	911.19
395.005	963.19
395.229	938.19
395.454	947.19
395.678	979.19
395.903	999.19
396.127	942.19
396.352	944.19
396.576	914.19
396.801	888.19
397.025	879.19
397.249	945.19
397.474	954.19
397.698	955.19
397.922	959.19
398.147	962.19
398.371	972.19
398.595	987.19
398.82	1074.19
399.044	1146.19
399.268	1247.19
399.492	1462.19
399.717	1761.19
399.941	1737.19
400.165	1507.19
400.389	1329.19
400.613	1206.19
400.837	1154.19
401.062	1106.19
401.286	1073.19
401.51	1076.19
401.734	1106.19
401.958	1122.19
402.182	1094.19
402.406	1125.19
402.63	1153.19
402.854	1197.19
403.078	1161.19
403.302	1212.19
403.526	1265.19
403.75	1262.19
403.974	1316.19
404.198	1297.19
404.422	1288.19
404.645	1294.19
404.869	1296.19
405.093	1245.19
405.317	1248.19
405.541	1253.19
405.765	1209.19
405.988	1187.19
406.212	1196.19
406.436	1219.19
406.66	1206.19
406.883	1222.19
407.107	1326.19
407.331	1397.19
407.555	1482.19
407.778	1438.19
408.002	1388.19
408.226	1371.19
408.449	1317.19
408.673	1265.19
408.896	1234.19
409.12	1246.19
409.344	1255.19
409.567	1247.19
409.791	1265.19
410.014	1254.19
410.238	1266.19
410.461	1245.19
410.685	1240.19
410.908	1195.19
411.132	1186.19
411.355	1148.19
411.578	1115.19
411.802	1119.19
412.025	1130.19
412.249	1141.19
412.472	1186.19
412.695	1126.19
412.919	1101.19
413.142	1092.19
413.365	1083.19
413.589	1096.19
413.812	1079.19
414.035	1035.19
414.258	1092.19
414.482	1109.19
414.705	1106.19
414.928	1129.19
415.151	1092.19
415.374	1112.19
415.597	1120.19
415.821	1048.19
416.044	1069.19
416.267	1054.19
416.49	1045.19
416.713	1054.19
416.936	1082.19
417.159	1065.19
417.382	1072.19
417.605	1078.19
417.828	1087.19
418.051	1118.19
418.274	1113.19
418.497	1080.19
418.72	1113.19
418.943	1140.19
419.166	1175.19
419.389	1249.19
419.611	1273.19
419.834	1200.19
420.057	1148.19
420.28	1123.19
420.503	1078.19
420.726	1062.19
420.948	1059.19
421.171	1069.19
421.394	1081.19
421.617	1071.19
421.839	1091.19
422.062	1077.19
422.285	1077.19
422.507	1089.19
422.73	1123.19
422.953	1144.19
423.175	1134.19
423.398	1192.19
423.621	1140.19
423.843	1191.19
424.066	1185.19
424.288	1168.19
424.511	1172.19
424.733	1138.19
424.956	1133.19
425.178	1093.19
425.401	1116.19
425.623	1105.19
425.846	1064.19
426.068	1071.19
426.291	1042.19
426.513	1025.19
426.735	1000.19
426.958	1020.19
427.18	977.19
427.402	1020.19
427.625	978.19
427.847	992.19
428.069	973.19
428.292	982.19
428.514	992.19
428.736	953.19
428.958	991.19
429.181	964.19
429.403	973.19
429.625	950.19
429.847	937.19
430.069	934.19
430.292	973.19
430.514	929.19
430.736	936.19
430.958	950.19
431.18	935.19
431.402	949.19
431.624	972.19
431.846	980.19
432.068	989.19
432.29	1019.19
432.512	984.19
432.734	982.19
432.956	956.19
433.178	983.19
433.4	951.19
433.622	985.19
433.844	969.19
434.066	985.19
434.287	993.19
434.509	1008.19
434.731	1066.19
434.953	1115.19
435.175	1120.19
435.397	1098.19
435.618	1030.19
435.84	1041.19
436.062	997.19
436.284	958.19
436.505	971.19
436.727	988.19
436.949	986.19
437.17	969.19
437.392	970.19
437.614	972.19
437.835	926.19
438.057	934.19
438.278	917.19
438.5	919.19
438.721	913.19
438.943	964.19
439.165	920.19
439.386	953.19
439.608	949.19
439.829	984.19
440.05	964.19
440.272	966.19
440.493	994.19
440.715	997.19
440.936	1032.19
441.158	1038.19
441.379	1048.19
441.6	1129.19
441.822	1146.19
442.043	1131.19
442.264	1080.19
442.486	1101.19
442.707	1080.19
442.928	1064.19
443.149	1090.19
443.371	1087.19
443.592	1099.19
443.813	1095.19
444.034	1120.19
444.255	1156.19
444.476	1196.19
444.698	1284.19
444.919	1372.19
445.14	1404.19
445.361	1244.19
445.582	1146.19
445.803	1093.19
446.024	1036.19
446.245	1038.19
446.466	992.19
446.687	988.19
446.908	985.19
447.129	974.19
447.35	941.19
447.571	939.19
447.792	912.19
448.013	936.19
448.234	919.19
448.455	922.19
448.675	917.19
448.896	908.19
449.117	870.19
449.338	867.19
449.559	896.19
449.779	891.19
450	893.19
450.221	904.19
450.442	877.19
450.662	921.19
450.883	906.19
451.104	956.19
451.324	918.19
451.545	917.19
451.766	937.19
451.986	937.19
452.207	921.19
452.428	918.19
452.648	914.19
452.869	914.19
453.089	878.19
453.31	893.19
453.53	884.19
453.751	875.19
453.971	868.19
454.192	846.19
454.412	841.19
454.633	860.19
454.853	880.19
455.073	860.19
455.294	862.19
455.514	852.19
455.734	838.19
455.955	844.19
456.175	830.19
456.395	842.19
456.616	817.19
456.836	850.19
457.056	855.19
457.276	811.19
457.497	867.19
457.717	812.19
457.937	841.19
458.157	854.19
458.377	859.19
458.598	860.19
458.818	901.19
459.038	931.19
459.258	957.19
459.478	960.19
459.698	997.19
459.918	1031.19
460.138	1083.19
460.358	1152.19
460.578	1178.19
460.798	1207.19
461.018	1184.19
461.238	1171.19
461.458	1178.19
461.678	1158.19
461.898	1174.19
462.118	1165.19
462.338	1220.19
462.558	1255.19
462.777	1300.19
462.997	1437.19
463.217	1610.19
463.437	1619.19
463.657	1495.19
463.876	1405.19
464.096	1370.19
464.316	1384.19
464.536	1409.19
464.755	1319.19
464.975	1269.19
465.195	1217.19
465.414	1133.19
465.634	1056.19
465.854	1014.19
466.073	999.19
466.293	971.19
466.512	979.19
466.732	962.19
466.951	946.19
467.171	962.19
467.391	944.19
467.61	929.19
467.829	932.19
468.049	952.19
468.268	918.19
468.488	916.19
468.707	871.19
468.927	878.19
469.146	877.19
469.365	883.19
469.585	940.19
469.804	966.19
470.023	940.19
470.243	997.19
470.462	1017.19
470.681	973.19
470.901	1005.19
471.12	970.19
471.339	945.19
471.558	939.19
471.777	930.19
471.997	935.19
472.216	925.19
472.435	889.19
472.654	877.19
472.873	882.19
473.092	852.19
473.311	860.19
473.53	877.19
473.749	850.19
473.968	861.19
474.187	858.19
474.406	856.19
474.625	853.19
474.844	886.19
475.063	869.19
475.282	886.19
475.501	884.19
475.72	893.19
475.939	910.19
476.158	901.19
476.377	898.19
476.596	909.19
476.814	920.19
477.033	911.19
477.252	929.19
477.471	960.19
477.69	983.19
477.908	969.19
478.127	1012.19
478.346	1038.19
478.564	1063.19
478.783	1088.19
479.002	1124.19
479.22	1102.19
479.439	1086.19
479.658	1080.19
479.876	1098.19
480.095	1096.19
480.313	1143.19
480.532	1176.19
480.751	1197.19
480.969	1149.19
481.188	1070.19
481.406	1061.19
481.624	1005.19
481.843	1012.19
482.061	1017.19
482.28	1001.19
482.498	962.19
482.717	962.19
482.935	977.19
483.153	966.19
483.372	1004.19
483.59	1009.19
483.808	984.19
484.027	969.19
484.245	989.19
484.463	983.19
484.681	988.19
484.9	1038.19
485.118	1010.19
485.336	1037.19
485.554	1040.19
485.772	1040.19
485.99	1048.19
486.209	1054.19
486.427	1062.19
486.645	1080.19
486.863	1092.19
487.081	1042.19
487.299	1047.19
487.517	1021.19
487.735	1027.19
487.953	1016.19
488.171	1037.19
488.389	1044.19
488.607	1029.19
488.825	1005.19
489.043	1016.19
489.261	1009.19
489.479	992.19
489.696	1032.19
489.914	1032.19
490.132	1017.19
490.35	1033.19
490.568	1050.19
490.786	1044.19
491.003	1044.19
491.221	1040.19
491.439	1029.19
491.657	1041.19
491.874	1050.19
492.092	1037.19
492.31	1065.19
492.527	1048.19
492.745	1076.19
492.963	1032.19
493.18	1056.19
493.398	1060.19
493.615	1081.19
493.833	1067.19
494.05	1094.19
494.268	1102.19
494.485	1106.19
494.703	1099.19
494.92	1102.19
495.138	1081.19
495.355	1089.19
495.573	1080.19
495.79	1092.19
496.008	1122.19
496.225	1093.19
496.442	1110.19
496.66	1149.19
496.877	1139.19
497.094	1182.19
497.312	1178.19
497.529	1178.19
497.746	1219.19
497.963	1268.19
