Data from NiCl2@0.125M.TitratingCurve.Agarose3%dH2O.NegLispCup.LampEnergy10.LIBS07252019_HRD10591_18-30-27-575.txt Node
Date: Thu Jul 25 18:30:27 EDT 2019
User: cochatt
Spectrometer: HR+D1059
Trigger mode: 1
Integration Time (sec): 1.000000E-1
Scans to average: 1
Electric dark correction enabled: true
Nonlinearity correction enabled: false
Boxcar width: 0
XAxis mode: Wavelengths
Number of Pixels in Spectrum: 2048
>>>>>Begin Spectral Data<<<<<
223.165	-17.25
223.4	-17.25
223.635	-17.25
223.869	-15.25
224.104	-17.25
224.338	-13.25
224.573	-0.25
224.808	-17.25
225.042	-4.25
225.277	-9.25
225.511	-0.25
225.746	-0.25
225.98	12.75
226.215	10.75
226.449	20.75
226.683	8.75
226.918	18.75
227.152	22.75
227.387	32.75
227.621	44.75
227.856	32.75
228.09	47.75
228.324	48.75
228.559	56.75
228.793	69.75
229.027	110.75
229.262	101.75
229.496	117.75
229.73	112.75
229.964	133.75
230.199	124.75
230.433	132.75
230.667	125.75
230.901	131.75
231.136	120.75
231.37	144.75
231.604	140.75
231.838	130.75
232.072	138.75
232.306	132.75
232.541	140.75
232.775	140.75
233.009	135.75
233.243	144.75
233.477	130.75
233.711	142.75
233.945	135.75
234.179	148.75
234.413	126.75
234.647	148.75
234.881	146.75
235.115	131.75
235.349	161.75
235.583	138.75
235.817	142.75
236.051	156.75
236.285	145.75
236.519	148.75
236.753	143.75
236.987	154.75
237.221	161.75
237.455	159.75
237.689	156.75
237.922	133.75
238.156	152.75
238.39	148.75
238.624	146.75
238.858	146.75
239.091	159.75
239.325	159.75
239.559	165.75
239.793	184.75
240.027	160.75
240.26	158.75
240.494	169.75
240.728	162.75
240.961	178.75
241.195	167.75
241.429	172.75
241.662	171.75
241.896	169.75
242.13	196.75
242.363	171.75
242.597	195.75
242.83	195.75
243.064	185.75
243.298	183.75
243.531	207.75
243.765	200.75
243.998	193.75
244.232	205.75
244.465	177.75
244.699	183.75
244.932	205.75
245.166	224.75
245.399	208.75
245.633	201.75
245.866	209.75
246.099	208.75
246.333	224.75
246.566	203.75
246.8	215.75
247.033	212.75
247.266	218.75
247.5	205.75
247.733	222.75
247.966	201.75
248.2	214.75
248.433	230.75
248.666	219.75
248.899	230.75
249.133	222.75
249.366	231.75
249.599	236.75
249.832	224.75
250.066	223.75
250.299	235.75
250.532	229.75
250.765	224.75
250.998	228.75
251.231	245.75
251.465	254.75
251.698	262.75
251.931	245.75
252.164	244.75
252.397	238.75
252.63	247.75
252.863	248.75
253.096	239.75
253.329	244.75
253.562	255.75
253.795	279.75
254.028	252.75
254.261	265.75
254.494	279.75
254.727	268.75
254.96	267.75
255.193	263.75
255.426	269.75
255.659	284.75
255.892	271.75
256.124	258.75
256.357	283.75
256.59	280.75
256.823	280.75
257.056	268.75
257.289	287.75
257.521	284.75
257.754	279.75
257.987	280.75
258.22	298.75
258.452	279.75
258.685	288.75
258.918	285.75
259.151	275.75
259.383	274.75
259.616	284.75
259.849	298.75
260.081	286.75
260.314	302.75
260.547	297.75
260.779	294.75
261.012	303.75
261.244	312.75
261.477	308.75
261.71	315.75
261.942	309.75
262.175	316.75
262.407	323.75
262.64	328.75
262.872	299.75
263.105	303.75
263.337	322.75
263.57	298.75
263.802	316.75
264.035	329.75
264.267	321.75
264.499	335.75
264.732	341.75
264.964	356.75
265.197	319.75
265.429	336.75
265.661	329.75
265.894	340.75
266.126	343.75
266.358	332.75
266.591	342.75
266.823	336.75
267.055	335.75
267.287	344.75
267.52	356.75
267.752	348.75
267.984	345.75
268.216	355.75
268.448	338.75
268.681	346.75
268.913	361.75
269.145	353.75
269.377	349.75
269.609	346.75
269.841	341.75
270.073	350.75
270.306	341.75
270.538	344.75
270.77	346.75
271.002	363.75
271.234	356.75
271.466	348.75
271.698	362.75
271.93	366.75
272.162	361.75
272.394	370.75
272.626	380.75
272.858	369.75
273.09	380.75
273.322	391.75
273.553	349.75
273.785	360.75
274.017	369.75
274.249	370.75
274.481	385.75
274.713	370.75
274.945	391.75
275.176	372.75
275.408	409.75
275.64	383.75
275.872	390.75
276.104	394.75
276.335	380.75
276.567	394.75
276.799	397.75
277.031	386.75
277.262	390.75
277.494	400.75
277.726	391.75
277.957	420.75
278.189	405.75
278.421	400.75
278.652	388.75
278.884	399.75
279.115	412.75
279.347	421.75
279.579	404.75
279.81	410.75
280.042	415.75
280.273	420.75
280.505	411.75
280.736	417.75
280.968	433.75
281.199	427.75
281.431	430.75
281.662	438.75
281.894	428.75
282.125	430.75
282.356	440.75
282.588	409.75
282.819	432.75
283.051	444.75
283.282	426.75
283.513	457.75
283.745	423.75
283.976	443.75
284.207	444.75
284.439	438.75
284.67	435.75
284.901	443.75
285.132	455.75
285.364	454.75
285.595	463.75
285.826	439.75
286.057	452.75
286.288	459.75
286.52	470.75
286.751	466.75
286.982	466.75
287.213	459.75
287.444	458.75
287.675	478.75
287.906	472.75
288.138	474.75
288.369	479.75
288.6	482.75
288.831	477.75
289.062	475.75
289.293	463.75
289.524	488.75
289.755	481.75
289.986	486.75
290.217	475.75
290.448	488.75
290.679	472.75
290.91	484.75
291.141	489.75
291.371	484.75
291.602	497.75
291.833	471.75
292.064	495.75
292.295	506.75
292.526	497.75
292.757	497.75
292.987	494.75
293.218	484.75
293.449	478.75
293.68	504.75
293.91	509.75
294.141	467.75
294.372	488.75
294.603	512.75
294.833	478.75
295.064	505.75
295.295	500.75
295.525	507.75
295.756	508.75
295.987	501.75
296.217	540.75
296.448	535.75
296.679	505.75
296.909	511.75
297.14	533.75
297.37	515.75
297.601	526.75
297.831	518.75
298.062	549.75
298.292	533.75
298.523	565.75
298.753	562.75
298.984	577.75
299.214	559.75
299.445	532.75
299.675	520.75
299.905	556.75
300.136	545.75
300.366	552.75
300.597	558.75
300.827	577.75
301.057	571.75
301.288	581.75
301.518	574.75
301.748	568.75
301.979	564.75
302.209	561.75
302.439	566.75
302.669	548.75
302.9	562.75
303.13	545.75
303.36	550.75
303.59	534.75
303.82	550.75
304.051	561.75
304.281	554.75
304.511	561.75
304.741	556.75
304.971	544.75
305.201	567.75
305.431	558.75
305.661	550.75
305.891	559.75
306.121	571.75
306.352	551.75
306.582	539.75
306.812	547.75
307.042	515.75
307.272	525.75
307.502	550.75
307.731	550.75
307.961	539.75
308.191	530.75
308.421	543.75
308.651	545.75
308.881	530.75
309.111	541.75
309.341	540.75
309.571	539.75
309.8	573.75
310.03	547.75
310.26	541.75
310.49	556.75
310.72	536.75
310.949	566.75
311.179	574.75
311.409	547.75
311.639	564.75
311.868	540.75
312.098	563.75
312.328	551.75
312.557	586.75
312.787	574.75
313.017	577.75
313.246	582.75
313.476	565.75
313.706	582.75
313.935	596.75
314.165	584.75
314.394	557.75
314.624	578.75
314.853	563.75
315.083	569.75
315.312	619.75
315.542	584.75
315.771	572.75
316.001	562.75
316.23	550.75
316.46	574.75
316.689	555.75
316.919	570.75
317.148	568.75
317.377	565.75
317.607	572.75
317.836	555.75
318.065	568.75
318.295	554.75
318.524	549.75
318.753	556.75
318.983	583.75
319.212	545.75
319.441	568.75
319.67	574.75
319.9	546.75
320.129	553.75
320.358	590.75
320.587	564.75
320.816	565.75
321.046	587.75
321.275	583.75
321.504	578.75
321.733	561.75
321.962	586.75
322.191	586.75
322.42	576.75
322.649	555.75
322.878	596.75
323.108	600.75
323.337	580.75
323.566	571.75
323.795	583.75
324.024	590.75
324.253	579.75
324.482	596.75
324.71	587.75
324.939	598.75
325.168	600.75
325.397	595.75
325.626	605.75
325.855	605.75
326.084	633.75
326.313	617.75
326.542	640.75
326.77	655.75
326.999	657.75
327.228	626.75
327.457	607.75
327.686	614.75
327.914	623.75
328.143	652.75
328.372	607.75
328.6	634.75
328.829	602.75
329.058	608.75
329.287	639.75
329.515	640.75
329.744	626.75
329.972	634.75
330.201	640.75
330.43	636.75
330.658	611.75
330.887	629.75
331.115	652.75
331.344	660.75
331.572	632.75
331.801	667.75
332.03	680.75
332.258	674.75
332.486	720.75
332.715	738.75
332.943	781.75
333.172	805.75
333.4	822.75
333.629	850.75
333.857	874.75
334.085	852.75
334.314	838.75
334.542	818.75
334.771	807.75
334.999	780.75
335.227	806.75
335.455	778.75
335.684	756.75
335.912	757.75
336.14	769.75
336.369	751.75
336.597	743.75
336.825	720.75
337.053	734.75
337.281	727.75
337.51	740.75
337.738	723.75
337.966	697.75
338.194	706.75
338.422	682.75
338.65	677.75
338.878	674.75
339.106	653.75
339.334	662.75
339.562	652.75
339.79	649.75
340.018	640.75
340.246	631.75
340.474	644.75
340.702	651.75
340.93	639.75
341.158	646.75
341.386	655.75
341.614	665.75
341.842	642.75
342.07	650.75
342.298	658.75
342.526	614.75
342.754	635.75
342.981	620.75
343.209	665.75
343.437	702.75
343.665	727.75
343.893	798.75
344.12	803.75
344.348	788.75
344.576	737.75
344.804	718.75
345.031	696.75
345.259	643.75
345.487	670.75
345.714	660.75
345.942	662.75
346.17	664.75
346.397	656.75
346.625	632.75
346.853	627.75
347.08	635.75
347.308	641.75
347.535	640.75
347.763	657.75
347.99	650.75
348.218	649.75
348.445	648.75
348.673	640.75
348.9	642.75
349.128	624.75
349.355	631.75
349.583	618.75
349.81	634.75
350.037	609.75
350.265	612.75
350.492	615.75
350.72	620.75
350.947	609.75
351.174	612.75
351.402	611.75
351.629	628.75
351.856	619.75
352.083	604.75
352.311	624.75
352.538	615.75
352.765	617.75
352.992	582.75
353.22	592.75
353.447	569.75
353.674	589.75
353.901	596.75
354.128	622.75
354.355	587.75
354.583	604.75
354.81	608.75
355.037	614.75
355.264	586.75
355.491	610.75
355.718	613.75
355.945	626.75
356.172	595.75
356.399	629.75
356.626	631.75
356.853	635.75
357.08	597.75
357.307	604.75
357.534	607.75
357.761	581.75
357.988	607.75
358.215	596.75
358.441	615.75
358.668	625.75
358.895	600.75
359.122	586.75
359.349	618.75
359.576	609.75
359.802	618.75
360.029	614.75
360.256	620.75
360.483	612.75
360.709	602.75
360.936	622.75
361.163	618.75
361.39	619.75
361.616	606.75
361.843	610.75
362.07	618.75
362.296	617.75
362.523	622.75
362.749	617.75
362.976	606.75
363.203	603.75
363.429	596.75
363.656	602.75
363.882	592.75
364.109	605.75
364.335	607.75
364.562	601.75
364.788	611.75
365.015	593.75
365.241	586.75
365.468	593.75
365.694	591.75
365.92	595.75
366.147	598.75
366.373	605.75
366.599	606.75
366.826	590.75
367.052	591.75
367.278	619.75
367.505	595.75
367.731	597.75
367.957	610.75
368.184	624.75
368.41	625.75
368.636	605.75
368.862	632.75
369.089	607.75
369.315	640.75
369.541	612.75
369.767	636.75
369.993	638.75
370.219	635.75
370.445	650.75
370.672	651.75
370.898	634.75
371.124	655.75
371.35	664.75
371.576	690.75
371.802	685.75
372.028	695.75
372.254	642.75
372.48	653.75
372.706	647.75
372.932	687.75
373.158	709.75
373.384	672.75
373.61	663.75
373.835	676.75
374.061	650.75
374.287	683.75
374.513	687.75
374.739	686.75
374.965	720.75
375.191	725.75
375.416	720.75
375.642	715.75
375.868	731.75
376.094	692.75
376.319	678.75
376.545	662.75
376.771	691.75
376.997	676.75
377.222	671.75
377.448	643.75
377.674	652.75
377.899	664.75
378.125	659.75
378.35	642.75
378.576	664.75
378.802	666.75
379.027	677.75
379.253	658.75
379.478	683.75
379.704	653.75
379.929	647.75
380.155	659.75
380.38	685.75
380.606	658.75
380.831	672.75
381.057	671.75
381.282	671.75
381.507	661.75
381.733	667.75
381.958	666.75
382.184	675.75
382.409	681.75
382.634	699.75
382.86	709.75
383.085	707.75
383.31	742.75
383.535	739.75
383.761	708.75
383.986	735.75
384.211	746.75
384.436	774.75
384.662	794.75
384.887	783.75
385.112	790.75
385.337	818.75
385.562	812.75
385.787	804.75
386.013	809.75
386.238	805.75
386.463	809.75
386.688	822.75
386.913	814.75
387.138	810.75
387.363	798.75
387.588	786.75
387.813	794.75
388.038	802.75
388.263	775.75
388.488	779.75
388.713	753.75
388.938	787.75
389.163	771.75
389.387	766.75
389.612	754.75
389.837	787.75
390.062	769.75
390.287	784.75
390.512	770.75
390.736	780.75
390.961	791.75
391.186	825.75
391.411	825.75
391.636	851.75
391.86	903.75
392.085	888.75
392.31	907.75
392.534	884.75
392.759	890.75
392.984	855.75
393.208	862.75
393.433	844.75
393.658	836.75
393.882	862.75
394.107	865.75
394.331	879.75
394.556	856.75
394.78	866.75
395.005	853.75
395.229	857.75
395.454	854.75
395.678	895.75
395.903	913.75
396.127	890.75
396.352	863.75
396.576	852.75
396.801	833.75
397.025	855.75
397.249	857.75
397.474	888.75
397.698	881.75
397.922	888.75
398.147	896.75
398.371	908.75
398.595	931.75
398.82	976.75
399.044	1038.75
399.268	1154.75
399.492	1366.75
399.717	1557.75
399.941	1574.75
400.165	1388.75
400.389	1222.75
400.613	1117.75
400.837	1060.75
401.062	1007.75
401.286	984.75
401.51	974.75
401.734	1000.75
401.958	1018.75
402.182	1029.75
402.406	1014.75
402.63	1064.75
402.854	1055.75
403.078	1086.75
403.302	1103.75
403.526	1135.75
403.75	1172.75
403.974	1198.75
404.198	1184.75
404.422	1187.75
404.645	1162.75
404.869	1150.75
405.093	1167.75
405.317	1124.75
405.541	1109.75
405.765	1132.75
405.988	1100.75
406.212	1081.75
406.436	1097.75
406.66	1095.75
406.883	1147.75
407.107	1208.75
407.331	1231.75
407.555	1307.75
407.778	1304.75
408.002	1287.75
408.226	1250.75
408.449	1219.75
408.673	1171.75
408.896	1163.75
409.12	1130.75
409.344	1142.75
409.567	1127.75
409.791	1182.75
410.014	1161.75
410.238	1141.75
410.461	1143.75
410.685	1109.75
410.908	1078.75
411.132	1079.75
411.355	1056.75
411.578	1050.75
411.802	1029.75
412.025	1042.75
412.249	1065.75
412.472	1050.75
412.695	1044.75
412.919	1028.75
413.142	970.75
413.365	986.75
413.589	988.75
413.812	995.75
414.035	1001.75
414.258	998.75
414.482	1007.75
414.705	1022.75
414.928	1020.75
415.151	1000.75
415.374	989.75
415.597	1007.75
415.821	995.75
416.044	976.75
416.267	968.75
416.49	962.75
416.713	1007.75
416.936	1006.75
417.159	973.75
417.382	970.75
417.605	992.75
417.828	999.75
418.051	1001.75
418.274	988.75
418.497	1002.75
418.72	1032.75
418.943	1032.75
419.166	1116.75
419.389	1182.75
419.611	1134.75
419.834	1081.75
420.057	1052.75
420.28	1029.75
420.503	968.75
420.726	982.75
420.948	1003.75
421.171	994.75
421.394	988.75
421.617	983.75
421.839	1003.75
422.062	1007.75
422.285	1006.75
422.507	1060.75
422.73	1007.75
422.953	981.75
423.175	1072.75
423.398	1087.75
423.621	1064.75
423.843	1072.75
424.066	1091.75
424.288	1082.75
424.511	1091.75
424.733	1037.75
424.956	1037.75
425.178	1007.75
425.401	1007.75
425.623	1002.75
425.846	949.75
426.068	971.75
426.291	972.75
426.513	937.75
426.735	932.75
426.958	952.75
427.18	914.75
427.402	911.75
427.625	928.75
427.847	880.75
428.069	870.75
428.292	890.75
428.514	867.75
428.736	898.75
428.958	890.75
429.181	850.75
429.403	890.75
429.625	867.75
429.847	866.75
430.069	841.75
430.292	863.75
430.514	835.75
430.736	888.75
430.958	867.75
431.18	874.75
431.402	901.75
431.624	878.75
431.846	885.75
432.068	898.75
432.29	912.75
432.512	881.75
432.734	914.75
432.956	899.75
433.178	920.75
433.4	909.75
433.622	955.75
433.844	911.75
434.066	908.75
434.287	909.75
434.509	931.75
434.731	982.75
434.953	1007.75
435.175	1034.75
435.397	1043.75
435.618	963.75
435.84	935.75
436.062	892.75
436.284	887.75
436.505	857.75
436.727	906.75
436.949	910.75
437.17	914.75
437.392	885.75
437.614	881.75
437.835	856.75
438.057	863.75
438.278	866.75
438.5	853.75
438.721	862.75
438.943	866.75
439.165	884.75
439.386	886.75
439.608	888.75
439.829	891.75
440.05	875.75
440.272	902.75
440.493	894.75
440.715	908.75
440.936	930.75
441.158	930.75
441.379	972.75
441.6	1028.75
441.822	1051.75
442.043	1017.75
442.264	985.75
442.486	991.75
442.707	983.75
442.928	977.75
443.149	996.75
443.371	1019.75
443.592	1028.75
443.813	1022.75
444.034	1025.75
444.255	1099.75
444.476	1093.75
444.698	1165.75
444.919	1225.75
445.14	1321.75
445.361	1210.75
445.582	1064.75
445.803	989.75
446.024	976.75
446.245	957.75
446.466	939.75
446.687	921.75
446.908	920.75
447.129	905.75
447.35	887.75
447.571	883.75
447.792	841.75
448.013	857.75
448.234	832.75
448.455	836.75
448.675	855.75
448.896	842.75
449.117	807.75
449.338	838.75
449.559	835.75
449.779	835.75
450	808.75
450.221	826.75
450.442	831.75
450.662	834.75
450.883	856.75
451.104	866.75
451.324	857.75
451.545	863.75
451.766	857.75
451.986	870.75
452.207	855.75
452.428	848.75
452.648	851.75
452.869	842.75
453.089	824.75
453.31	843.75
453.53	834.75
453.751	815.75
453.971	818.75
454.192	822.75
454.412	795.75
454.633	801.75
454.853	783.75
455.073	783.75
455.294	808.75
455.514	787.75
455.734	763.75
455.955	757.75
456.175	790.75
456.395	762.75
456.616	764.75
456.836	766.75
457.056	788.75
457.276	743.75
457.497	784.75
457.717	776.75
457.937	794.75
458.157	795.75
458.377	804.75
458.598	779.75
458.818	823.75
459.038	860.75
459.258	901.75
459.478	923.75
459.698	950.75
459.918	981.75
460.138	1014.75
460.358	1039.75
460.578	1097.75
460.798	1095.75
461.018	1084.75
461.238	1074.75
461.458	1084.75
461.678	1051.75
461.898	1102.75
462.118	1072.75
462.338	1150.75
462.558	1171.75
462.777	1214.75
462.997	1338.75
463.217	1466.75
463.437	1452.75
463.657	1365.75
463.876	1278.75
464.096	1259.75
464.316	1259.75
464.536	1270.75
464.755	1224.75
464.975	1195.75
465.195	1120.75
465.414	1047.75
465.634	976.75
465.854	951.75
466.073	945.75
466.293	903.75
466.512	884.75
466.732	890.75
466.951	882.75
467.171	836.75
467.391	894.75
467.61	885.75
467.829	888.75
468.049	872.75
468.268	822.75
468.488	841.75
468.707	828.75
468.927	847.75
469.146	850.75
469.365	843.75
469.585	846.75
469.804	857.75
470.023	905.75
470.243	900.75
470.462	905.75
470.681	904.75
470.901	890.75
471.12	907.75
471.339	898.75
471.558	882.75
471.777	850.75
471.997	834.75
472.216	845.75
472.435	819.75
472.654	801.75
472.873	801.75
473.092	804.75
473.311	798.75
473.53	838.75
473.749	830.75
473.968	823.75
474.187	795.75
474.406	808.75
474.625	815.75
474.844	808.75
475.063	799.75
475.282	816.75
475.501	840.75
475.72	816.75
475.939	809.75
476.158	826.75
476.377	831.75
476.596	853.75
476.814	860.75
477.033	885.75
477.252	871.75
477.471	867.75
477.69	920.75
477.908	958.75
478.127	940.75
478.346	984.75
478.564	982.75
478.783	994.75
479.002	1029.75
479.22	1033.75
479.439	1000.75
479.658	1033.75
479.876	1032.75
480.095	1019.75
480.313	1042.75
480.532	1102.75
480.751	1149.75
480.969	1068.75
481.188	1008.75
481.406	979.75
481.624	958.75
481.843	938.75
482.061	936.75
482.28	928.75
482.498	935.75
482.717	947.75
482.935	938.75
483.153	948.75
483.372	959.75
483.59	945.75
483.808	930.75
484.027	931.75
484.245	941.75
484.463	968.75
484.681	961.75
484.9	948.75
485.118	974.75
485.336	975.75
485.554	969.75
485.772	979.75
485.99	990.75
486.209	994.75
486.427	1000.75
486.645	1060.75
486.863	1028.75
487.081	969.75
487.299	995.75
487.517	1006.75
487.735	978.75
487.953	1009.75
488.171	978.75
488.389	984.75
488.607	966.75
488.825	985.75
489.043	960.75
489.261	974.75
489.479	959.75
489.696	979.75
489.914	968.75
490.132	992.75
490.35	963.75
490.568	994.75
490.786	981.75
491.003	990.75
491.221	970.75
491.439	1008.75
491.657	984.75
491.874	978.75
492.092	989.75
492.31	990.75
492.527	1025.75
492.745	996.75
492.963	987.75
493.18	1013.75
493.398	1001.75
493.615	1007.75
493.833	1034.75
494.05	1017.75
494.268	1012.75
494.485	1059.75
494.703	1063.75
494.92	1049.75
495.138	1044.75
495.355	1043.75
495.573	1007.75
495.79	1036.75
496.008	1065.75
496.225	1046.75
496.442	1060.75
496.66	1051.75
496.877	1079.75
497.094	1077.75
497.312	1106.75
497.529	1106.75
497.746	1138.75
497.963	1182.75
498.181	1214.75
498.398	1283.75
498.615	1371.75
498.832	1466.75
499.049	1571.75
