Data from NiCl2@0.0625M.TitratingCurve.Agarose3%dH2O.NegLispCup.LampEnergy10.LIBS07252019_HRD10591_18-35-28-577.txt Node
Date: Thu Jul 25 18:35:28 EDT 2019
User: cochatt
Spectrometer: HR+D1059
Trigger mode: 1
Integration Time (sec): 1.000000E-1
Scans to average: 1
Electric dark correction enabled: true
Nonlinearity correction enabled: false
Boxcar width: 0
XAxis mode: Wavelengths
Number of Pixels in Spectrum: 2048
>>>>>Begin Spectral Data<<<<<
223.165	-32.69
223.4	-32.69
223.635	-32.69
223.869	2.31
224.104	-7.69
224.338	-0.69
224.573	-20.69
224.808	-8.69
225.042	-4.69
225.277	-7.69
225.511	4.31
225.746	11.31
225.98	4.31
226.215	2.31
226.449	8.31
226.683	9.31
226.918	19.31
227.152	21.31
227.387	34.31
227.621	38.31
227.856	48.31
228.09	53.31
228.324	52.31
228.559	69.31
228.793	85.31
229.027	135.31
229.262	149.31
229.496	162.31
229.73	162.31
229.964	179.31
230.199	179.31
230.433	168.31
230.667	178.31
230.901	175.31
231.136	177.31
231.37	180.31
231.604	172.31
231.838	188.31
232.072	202.31
232.306	211.31
232.541	193.31
232.775	199.31
233.009	195.31
233.243	189.31
233.477	205.31
233.711	207.31
233.945	203.31
234.179	200.31
234.413	210.31
234.647	227.31
234.881	202.31
235.115	232.31
235.349	227.31
235.583	215.31
235.817	224.31
236.051	193.31
236.285	233.31
236.519	228.31
236.753	214.31
236.987	245.31
237.221	230.31
237.455	231.31
237.689	217.31
237.922	230.31
238.156	239.31
238.39	221.31
238.624	232.31
238.858	236.31
239.091	244.31
239.325	256.31
239.559	256.31
239.793	281.31
240.027	262.31
240.26	267.31
240.494	254.31
240.728	289.31
240.961	273.31
241.195	269.31
241.429	278.31
241.662	273.31
241.896	297.31
242.13	285.31
242.363	292.31
242.597	298.31
242.83	297.31
243.064	298.31
243.298	301.31
243.531	303.31
243.765	299.31
243.998	337.31
244.232	321.31
244.465	333.31
244.699	322.31
244.932	335.31
245.166	340.31
245.399	326.31
245.633	335.31
245.866	342.31
246.099	335.31
246.333	355.31
246.566	330.31
246.8	331.31
247.033	330.31
247.266	337.31
247.5	356.31
247.733	377.31
247.966	359.31
248.2	357.31
248.433	359.31
248.666	363.31
248.899	355.31
249.133	373.31
249.366	369.31
249.599	380.31
249.832	384.31
250.066	408.31
250.299	382.31
250.532	383.31
250.765	387.31
250.998	411.31
251.231	402.31
251.465	404.31
251.698	417.31
251.931	422.31
252.164	408.31
252.397	429.31
252.63	433.31
252.863	413.31
253.096	417.31
253.329	440.31
253.562	409.31
253.795	436.31
254.028	445.31
254.261	442.31
254.494	440.31
254.727	445.31
254.96	449.31
255.193	441.31
255.426	446.31
255.659	460.31
255.892	440.31
256.124	465.31
256.357	460.31
256.59	470.31
256.823	491.31
257.056	467.31
257.289	477.31
257.521	483.31
257.754	483.31
257.987	480.31
258.22	487.31
258.452	469.31
258.685	487.31
258.918	487.31
259.151	515.31
259.383	502.31
259.616	483.31
259.849	531.31
260.081	530.31
260.314	503.31
260.547	516.31
260.779	516.31
261.012	530.31
261.244	529.31
261.477	530.31
261.71	530.31
261.942	527.31
262.175	532.31
262.407	537.31
262.64	538.31
262.872	554.31
263.105	537.31
263.337	569.31
263.57	542.31
263.802	547.31
264.035	559.31
264.267	564.31
264.499	550.31
264.732	525.31
264.964	569.31
265.197	536.31
265.429	576.31
265.661	552.31
265.894	584.31
266.126	584.31
266.358	591.31
266.591	584.31
266.823	575.31
267.055	598.31
267.287	611.31
267.52	589.31
267.752	584.31
267.984	596.31
268.216	596.31
268.448	592.31
268.681	588.31
268.913	598.31
269.145	603.31
269.377	619.31
269.609	602.31
269.841	621.31
270.073	629.31
270.306	607.31
270.538	611.31
270.77	612.31
271.002	606.31
271.234	633.31
271.466	639.31
271.698	625.31
271.93	633.31
272.162	646.31
272.394	634.31
272.626	648.31
272.858	643.31
273.09	650.31
273.322	652.31
273.553	660.31
273.785	692.31
274.017	681.31
274.249	659.31
274.481	675.31
274.713	681.31
274.945	697.31
275.176	656.31
275.408	697.31
275.64	679.31
275.872	699.31
276.104	684.31
276.335	691.31
276.567	690.31
276.799	702.31
277.031	717.31
277.262	716.31
277.494	695.31
277.726	712.31
277.957	696.31
278.189	703.31
278.421	723.31
278.652	721.31
278.884	724.31
279.115	722.31
279.347	745.31
279.579	731.31
279.81	739.31
280.042	723.31
280.273	736.31
280.505	752.31
280.736	771.31
280.968	755.31
281.199	751.31
281.431	781.31
281.662	771.31
281.894	768.31
282.125	770.31
282.356	780.31
282.588	777.31
282.819	761.31
283.051	755.31
283.282	787.31
283.513	787.31
283.745	773.31
283.976	783.31
284.207	809.31
284.439	800.31
284.67	794.31
284.901	801.31
285.132	793.31
285.364	809.31
285.595	802.31
285.826	802.31
286.057	833.31
286.288	813.31
286.52	845.31
286.751	844.31
286.982	842.31
287.213	797.31
287.444	829.31
287.675	849.31
287.906	853.31
288.138	848.31
288.369	851.31
288.6	855.31
288.831	863.31
289.062	866.31
289.293	887.31
289.524	859.31
289.755	851.31
289.986	864.31
290.217	864.31
290.448	866.31
290.679	875.31
290.91	861.31
291.141	875.31
291.371	885.31
291.602	895.31
291.833	879.31
292.064	881.31
292.295	876.31
292.526	871.31
292.757	860.31
292.987	871.31
293.218	895.31
293.449	869.31
293.68	861.31
293.91	887.31
294.141	887.31
294.372	865.31
294.603	875.31
294.833	887.31
295.064	885.31
295.295	902.31
295.525	883.31
295.756	888.31
295.987	877.31
296.217	901.31
296.448	923.31
296.679	899.31
296.909	907.31
297.14	924.31
297.37	949.31
297.601	928.31
297.831	935.31
298.062	919.31
298.292	970.31
298.523	965.31
298.753	968.31
298.984	941.31
299.214	947.31
299.445	942.31
299.675	943.31
299.905	947.31
300.136	956.31
300.366	973.31
300.597	970.31
300.827	968.31
301.057	988.31
301.288	965.31
301.518	985.31
301.748	1002.31
301.979	1023.31
302.209	991.31
302.439	976.31
302.669	1001.31
302.9	1009.31
303.13	989.31
303.36	1021.31
303.59	1010.31
303.82	993.31
304.051	974.31
304.281	983.31
304.511	1001.31
304.741	1023.31
304.971	983.31
305.201	996.31
305.431	1000.31
305.661	988.31
305.891	996.31
306.121	978.31
306.352	999.31
306.582	991.31
306.812	975.31
307.042	1002.31
307.272	988.31
307.502	992.31
307.731	989.31
307.961	996.31
308.191	1002.31
308.421	984.31
308.651	980.31
308.881	984.31
309.111	960.31
309.341	1003.31
309.571	953.31
309.8	1012.31
310.03	980.31
310.26	1005.31
310.49	1013.31
310.72	992.31
310.949	1042.31
311.179	1041.31
311.409	1054.31
311.639	1015.31
311.868	1031.31
312.098	1058.31
312.328	1042.31
312.557	1068.31
312.787	1031.31
313.017	1043.31
313.246	1064.31
313.476	1060.31
313.706	1066.31
313.935	1069.31
314.165	1094.31
314.394	1068.31
314.624	1061.31
314.853	1058.31
315.083	1077.31
315.312	1063.31
315.542	1089.31
315.771	1032.31
316.001	1055.31
316.23	1093.31
316.46	1077.31
316.689	1062.31
316.919	1039.31
317.148	1046.31
317.377	1073.31
317.607	1072.31
317.836	1026.31
318.065	1051.31
318.295	1036.31
318.524	1081.31
318.753	1050.31
318.983	1066.31
319.212	1037.31
319.441	1044.31
319.67	1063.31
319.9	1041.31
320.129	1056.31
320.358	1085.31
320.587	1064.31
320.816	1063.31
321.046	1095.31
321.275	1057.31
321.504	1059.31
321.733	1065.31
321.962	1053.31
322.191	1067.31
322.42	1067.31
322.649	1049.31
322.878	1073.31
323.108	1090.31
323.337	1100.31
323.566	1111.31
323.795	1125.31
324.024	1111.31
324.253	1089.31
324.482	1114.31
324.71	1095.31
324.939	1117.31
325.168	1126.31
325.397	1122.31
325.626	1148.31
325.855	1156.31
326.084	1173.31
326.313	1194.31
326.542	1139.31
326.77	1188.31
326.999	1167.31
327.228	1135.31
327.457	1162.31
327.686	1162.31
327.914	1156.31
328.143	1159.31
328.372	1168.31
328.6	1132.31
328.829	1141.31
329.058	1159.31
329.287	1152.31
329.515	1156.31
329.744	1171.31
329.972	1191.31
330.201	1178.31
330.43	1187.31
330.658	1194.31
330.887	1227.31
331.115	1195.31
331.344	1221.31
331.572	1257.31
331.801	1284.31
332.03	1282.31
332.258	1255.31
332.486	1308.31
332.715	1359.31
332.943	1349.31
333.172	1394.31
333.4	1421.31
333.629	1472.31
333.857	1490.31
334.085	1491.31
334.314	1461.31
334.542	1453.31
334.771	1446.31
334.999	1428.31
335.227	1439.31
335.455	1455.31
335.684	1451.31
335.912	1407.31
336.14	1410.31
336.369	1369.31
336.597	1382.31
336.825	1399.31
337.053	1361.31
337.281	1382.31
337.51	1323.31
337.738	1305.31
337.966	1317.31
338.194	1292.31
338.422	1302.31
338.65	1249.31
338.878	1261.31
339.106	1279.31
339.334	1339.31
339.562	1278.31
339.79	1237.31
340.018	1250.31
340.246	1207.31
340.474	1235.31
340.702	1205.31
340.93	1209.31
341.158	1216.31
341.386	1213.31
341.614	1219.31
341.842	1211.31
342.07	1194.31
342.298	1213.31
342.526	1197.31
342.754	1203.31
342.981	1211.31
343.209	1233.31
343.437	1291.31
343.665	1367.31
343.893	1370.31
344.12	1369.31
344.348	1420.31
344.576	1335.31
344.804	1301.31
345.031	1279.31
345.259	1269.31
345.487	1258.31
345.714	1215.31
345.942	1228.31
346.17	1224.31
346.397	1197.31
346.625	1170.31
346.853	1183.31
347.08	1155.31
347.308	1169.31
347.535	1174.31
347.763	1155.31
347.99	1166.31
348.218	1168.31
348.445	1128.31
348.673	1157.31
348.9	1169.31
349.128	1169.31
349.355	1149.31
349.583	1160.31
349.81	1153.31
350.037	1133.31
350.265	1155.31
350.492	1117.31
350.72	1135.31
350.947	1119.31
351.174	1133.31
351.402	1138.31
351.629	1138.31
351.856	1122.31
352.083	1148.31
352.311	1098.31
352.538	1128.31
352.765	1162.31
352.992	1124.31
353.22	1113.31
353.447	1127.31
353.674	1098.31
353.901	1119.31
354.128	1092.31
354.355	1132.31
354.583	1115.31
354.81	1119.31
355.037	1136.31
355.264	1124.31
355.491	1133.31
355.718	1119.31
355.945	1116.31
356.172	1137.31
356.399	1173.31
356.626	1137.31
356.853	1146.31
357.08	1152.31
357.307	1143.31
357.534	1169.31
357.761	1117.31
357.988	1164.31
358.215	1109.31
358.441	1100.31
358.668	1124.31
358.895	1101.31
359.122	1121.31
359.349	1102.31
359.576	1129.31
359.802	1127.31
360.029	1113.31
360.256	1129.31
360.483	1142.31
360.709	1127.31
360.936	1127.31
361.163	1120.31
361.39	1119.31
361.616	1155.31
361.843	1132.31
362.07	1159.31
362.296	1151.31
362.523	1117.31
362.749	1149.31
362.976	1153.31
363.203	1115.31
363.429	1137.31
363.656	1128.31
363.882	1128.31
364.109	1133.31
364.335	1130.31
364.562	1134.31
364.788	1080.31
365.015	1111.31
365.241	1107.31
365.468	1154.31
365.694	1124.31
365.92	1126.31
366.147	1145.31
366.373	1122.31
366.599	1125.31
366.826	1136.31
367.052	1120.31
367.278	1124.31
367.505	1128.31
367.731	1147.31
367.957	1119.31
368.184	1115.31
368.41	1150.31
368.636	1164.31
368.862	1167.31
369.089	1161.31
369.315	1157.31
369.541	1169.31
369.767	1210.31
369.993	1159.31
370.219	1144.31
370.445	1212.31
370.672	1193.31
370.898	1216.31
371.124	1214.31
371.35	1241.31
371.576	1197.31
371.802	1180.31
372.028	1236.31
372.254	1209.31
372.48	1245.31
372.706	1297.31
372.932	1291.31
373.158	1276.31
373.384	1281.31
373.61	1242.31
373.835	1252.31
374.061	1223.31
374.287	1266.31
374.513	1244.31
374.739	1312.31
374.965	1332.31
375.191	1305.31
375.416	1367.31
375.642	1296.31
375.868	1275.31
376.094	1273.31
376.319	1246.31
376.545	1263.31
376.771	1232.31
376.997	1244.31
377.222	1224.31
377.448	1225.31
377.674	1236.31
377.899	1222.31
378.125	1253.31
378.35	1191.31
378.576	1183.31
378.802	1212.31
379.027	1234.31
379.253	1194.31
379.478	1184.31
379.704	1220.31
379.929	1195.31
380.155	1219.31
380.38	1251.31
380.606	1210.31
380.831	1231.31
381.057	1225.31
381.282	1199.31
381.507	1194.31
381.733	1251.31
381.958	1223.31
382.184	1242.31
382.409	1266.31
382.634	1272.31
382.86	1247.31
383.085	1292.31
383.31	1305.31
383.535	1327.31
383.761	1316.31
383.986	1339.31
384.211	1389.31
384.436	1386.31
384.662	1363.31
384.887	1391.31
385.112	1391.31
385.337	1429.31
385.562	1424.31
385.787	1434.31
386.013	1457.31
386.238	1453.31
386.463	1429.31
386.688	1422.31
386.913	1448.31
387.138	1449.31
387.363	1467.31
387.588	1430.31
387.813	1437.31
388.038	1429.31
388.263	1469.31
388.488	1514.31
388.713	1441.31
388.938	1430.31
389.163	1438.31
389.387	1435.31
389.612	1439.31
389.837	1425.31
390.062	1416.31
390.287	1425.31
390.512	1420.31
390.736	1462.31
390.961	1447.31
391.186	1497.31
391.411	1545.31
391.636	1544.31
391.86	1583.31
392.085	1621.31
392.31	1610.31
392.534	1527.31
392.759	1506.31
392.984	1533.31
393.208	1516.31
393.433	1536.31
393.658	1527.31
393.882	1509.31
394.107	1521.31
394.331	1518.31
394.556	1539.31
394.78	1559.31
395.005	1589.31
395.229	1532.31
395.454	1613.31
395.678	1625.31
395.903	1544.31
396.127	1552.31
396.352	1572.31
396.576	1545.31
396.801	1572.31
397.025	1556.31
397.249	1573.31
397.474	1608.31
397.698	1645.31
397.922	1644.31
398.147	1623.31
398.371	1668.31
398.595	1727.31
398.82	1794.31
399.044	1895.31
399.268	1976.31
399.492	2257.31
399.717	2419.31
399.941	2469.31
400.165	2271.31
400.389	2172.31
400.613	1985.31
400.837	1943.31
401.062	1898.31
401.286	1824.31
401.51	1836.31
401.734	1835.31
401.958	1824.31
402.182	1839.31
402.406	1824.31
402.63	1826.31
402.854	1863.31
403.078	1864.31
403.302	1887.31
403.526	1920.31
403.75	1969.31
403.974	1939.31
404.198	1935.31
404.422	1962.31
404.645	1890.31
404.869	1927.31
405.093	1971.31
405.317	1948.31
405.541	1925.31
405.765	1929.31
405.988	1903.31
406.212	1951.31
406.436	1955.31
406.66	2012.31
406.883	2059.31
407.107	2136.31
407.331	2184.31
407.555	2284.31
407.778	2242.31
408.002	2171.31
408.226	2179.31
408.449	2150.31
408.673	2058.31
408.896	2067.31
409.12	2004.31
409.344	2007.31
409.567	1977.31
409.791	1983.31
410.014	1959.31
410.238	1986.31
410.461	2011.31
410.685	1939.31
410.908	1924.31
411.132	1916.31
411.355	1889.31
411.578	1872.31
411.802	1880.31
412.025	1877.31
412.249	1920.31
412.472	1878.31
412.695	1869.31
412.919	1843.31
413.142	1801.31
413.365	1791.31
413.589	1815.31
413.812	1783.31
414.035	1795.31
414.258	1799.31
414.482	1825.31
414.705	1829.31
414.928	1812.31
415.151	1828.31
415.374	1814.31
415.597	1775.31
415.821	1778.31
416.044	1725.31
416.267	1718.31
416.49	1706.31
416.713	1697.31
416.936	1730.31
417.159	1721.31
417.382	1705.31
417.605	1715.31
417.828	1721.31
418.051	1731.31
418.274	1772.31
418.497	1743.31
418.72	1769.31
418.943	1755.31
419.166	1895.31
419.389	1995.31
419.611	1955.31
419.834	1881.31
420.057	1793.31
420.28	1761.31
420.503	1760.31
420.726	1735.31
420.948	1671.31
421.171	1717.31
421.394	1739.31
421.617	1719.31
421.839	1718.31
422.062	1719.31
422.285	1696.31
422.507	1769.31
422.73	1741.31
422.953	1771.31
423.175	1719.31
423.398	1779.31
423.621	1731.31
423.843	1781.31
424.066	1761.31
424.288	1743.31
424.511	1760.31
424.733	1733.31
424.956	1756.31
425.178	1705.31
425.401	1740.31
425.623	1746.31
425.846	1722.31
426.068	1692.31
426.291	1681.31
426.513	1673.31
426.735	1609.31
426.958	1691.31
427.18	1649.31
427.402	1575.31
427.625	1615.31
427.847	1613.31
428.069	1617.31
428.292	1605.31
428.514	1594.31
428.736	1597.31
428.958	1606.31
429.181	1565.31
429.403	1553.31
429.625	1561.31
429.847	1555.31
430.069	1518.31
430.292	1567.31
430.514	1541.31
430.736	1572.31
430.958	1574.31
431.18	1525.31
431.402	1550.31
431.624	1604.31
431.846	1624.31
432.068	1598.31
432.29	1639.31
432.512	1542.31
432.734	1595.31
432.956	1559.31
433.178	1635.31
433.4	1584.31
433.622	1637.31
433.844	1641.31
434.066	1655.31
434.287	1659.31
434.509	1712.31
434.731	1739.31
434.953	1711.31
435.175	1732.31
435.397	1751.31
435.618	1661.31
435.84	1668.31
436.062	1598.31
436.284	1592.31
436.505	1623.31
436.727	1614.31
436.949	1627.31
437.17	1590.31
437.392	1573.31
437.614	1591.31
437.835	1500.31
438.057	1537.31
438.278	1527.31
438.5	1504.31
438.721	1488.31
438.943	1523.31
439.165	1535.31
439.386	1534.31
439.608	1560.31
439.829	1549.31
440.05	1551.31
440.272	1533.31
440.493	1551.31
440.715	1553.31
440.936	1604.31
441.158	1597.31
441.379	1664.31
441.6	1717.31
441.822	1681.31
442.043	1727.31
442.264	1722.31
442.486	1685.31
442.707	1666.31
442.928	1642.31
443.149	1685.31
443.371	1642.31
443.592	1721.31
443.813	1686.31
444.034	1721.31
444.255	1795.31
444.476	1835.31
444.698	1876.31
444.919	1947.31
445.14	2019.31
445.361	1856.31
445.582	1786.31
445.803	1679.31
446.024	1665.31
446.245	1629.31
446.466	1596.31
446.687	1573.31
446.908	1561.31
447.129	1537.31
447.35	1539.31
447.571	1481.31
447.792	1474.31
448.013	1444.31
448.234	1442.31
448.455	1408.31
448.675	1410.31
448.896	1402.31
449.117	1380.31
449.338	1398.31
449.559	1415.31
449.779	1378.31
450	1367.31
450.221	1396.31
450.442	1380.31
450.662	1423.31
450.883	1413.31
451.104	1418.31
451.324	1404.31
451.545	1385.31
451.766	1388.31
451.986	1381.31
452.207	1407.31
452.428	1404.31
452.648	1384.31
452.869	1392.31
453.089	1323.31
453.31	1373.31
453.53	1376.31
453.751	1363.31
453.971	1357.31
454.192	1360.31
454.412	1309.31
454.633	1333.31
454.853	1318.31
455.073	1310.31
455.294	1308.31
455.514	1354.31
455.734	1324.31
455.955	1311.31
456.175	1317.31
456.395	1313.31
456.616	1317.31
456.836	1324.31
457.056	1337.31
457.276	1303.31
457.497	1362.31
457.717	1353.31
457.937	1333.31
458.157	1414.31
458.377	1369.31
458.598	1405.31
458.818	1444.31
459.038	1457.31
459.258	1501.31
459.478	1601.31
459.698	1580.31
459.918	1608.31
460.138	1621.31
460.358	1728.31
460.578	1762.31
460.798	1773.31
461.018	1786.31
461.238	1734.31
461.458	1769.31
461.678	1762.31
461.898	1812.31
462.118	1830.31
462.338	1905.31
462.558	1884.31
462.777	1987.31
462.997	2148.31
463.217	2200.31
463.437	2225.31
463.657	2129.31
463.876	2069.31
464.096	2025.31
464.316	2037.31
464.536	1995.31
464.755	1939.31
464.975	1895.31
465.195	1819.31
465.414	1744.31
465.634	1683.31
465.854	1583.31
466.073	1587.31
466.293	1554.31
466.512	1549.31
466.732	1548.31
466.951	1535.31
467.171	1508.31
467.391	1508.31
467.61	1519.31
467.829	1475.31
468.049	1443.31
468.268	1431.31
468.488	1443.31
468.707	1413.31
468.927	1438.31
469.146	1437.31
469.365	1478.31
469.585	1431.31
469.804	1515.31
470.023	1496.31
470.243	1505.31
470.462	1516.31
470.681	1507.31
470.901	1523.31
471.12	1548.31
471.339	1533.31
471.558	1471.31
471.777	1465.31
471.997	1438.31
472.216	1459.31
472.435	1455.31
472.654	1389.31
472.873	1430.31
473.092	1419.31
473.311	1440.31
473.53	1421.31
473.749	1429.31
473.968	1420.31
474.187	1421.31
474.406	1400.31
474.625	1386.31
474.844	1425.31
475.063	1403.31
475.282	1469.31
475.501	1395.31
475.72	1461.31
475.939	1465.31
476.158	1516.31
476.377	1476.31
476.596	1487.31
476.814	1507.31
477.033	1537.31
477.252	1523.31
477.471	1575.31
477.69	1599.31
477.908	1610.31
478.127	1674.31
478.346	1655.31
478.564	1708.31
478.783	1738.31
479.002	1768.31
479.22	1747.31
479.439	1772.31
479.658	1781.31
479.876	1818.31
480.095	1823.31
480.313	1893.31
480.532	1885.31
480.751	1867.31
480.969	1818.31
481.188	1816.31
481.406	1824.31
481.624	1757.31
481.843	1733.31
482.061	1713.31
482.28	1716.31
482.498	1724.31
482.717	1749.31
482.935	1729.31
483.153	1743.31
483.372	1770.31
483.59	1739.31
483.808	1771.31
484.027	1803.31
484.245	1829.31
484.463	1821.31
484.681	1854.31
484.9	1875.31
485.118	1884.31
485.336	1869.31
485.554	1903.31
485.772	1906.31
485.99	1903.31
486.209	1956.31
486.427	1856.31
486.645	1877.31
486.863	1922.31
487.081	1887.31
487.299	1914.31
487.517	1887.31
487.735	1901.31
487.953	1883.31
488.171	1863.31
488.389	1853.31
488.607	1836.31
488.825	1827.31
489.043	1810.31
489.261	1830.31
489.479	1775.31
489.696	1817.31
489.914	1808.31
490.132	1764.31
490.35	1757.31
490.568	1780.31
