Data from NiCl2@0.0625M.TitratingCurve.Agarose3%dH2O.NegLispCup.LampEnergy10.LIBS07252019_HRD10591_18-33-14-575.txt Node
Date: Thu Jul 25 18:33:14 EDT 2019
User: cochatt
Spectrometer: HR+D1059
Trigger mode: 1
Integration Time (sec): 1.000000E-1
Scans to average: 1
Electric dark correction enabled: true
Nonlinearity correction enabled: false
Boxcar width: 0
XAxis mode: Wavelengths
Number of Pixels in Spectrum: 2048
>>>>>Begin Spectral Data<<<<<
223.165	-17.62
223.4	-17.62
223.635	-17.62
223.869	-19.62
224.104	-0.62
224.338	-3.62
224.573	-7.62
224.808	-10.62
225.042	7.38
225.277	-3.62
225.511	-13.62
225.746	-0.62
225.98	8.38
226.215	8.38
226.449	9.38
226.683	6.38
226.918	7.38
227.152	30.38
227.387	38.38
227.621	40.38
227.856	33.38
228.09	38.38
228.324	22.38
228.559	54.38
228.793	84.38
229.027	148.38
229.262	163.38
229.496	162.38
229.73	186.38
229.964	165.38
230.199	180.38
230.433	189.38
230.667	181.38
230.901	188.38
231.136	190.38
231.37	189.38
231.604	170.38
231.838	209.38
232.072	200.38
232.306	214.38
232.541	207.38
232.775	197.38
233.009	200.38
233.243	208.38
233.477	218.38
233.711	207.38
233.945	220.38
234.179	225.38
234.413	214.38
234.647	224.38
234.881	221.38
235.115	227.38
235.349	222.38
235.583	210.38
235.817	218.38
236.051	222.38
236.285	224.38
236.519	227.38
236.753	234.38
236.987	228.38
237.221	234.38
237.455	238.38
237.689	227.38
237.922	239.38
238.156	246.38
238.39	253.38
238.624	252.38
238.858	247.38
239.091	247.38
239.325	256.38
239.559	256.38
239.793	270.38
240.027	277.38
240.26	274.38
240.494	264.38
240.728	287.38
240.961	289.38
241.195	281.38
241.429	300.38
241.662	290.38
241.896	292.38
242.13	323.38
242.363	296.38
242.597	293.38
242.83	316.38
243.064	318.38
243.298	334.38
243.531	309.38
243.765	334.38
243.998	337.38
244.232	335.38
244.465	332.38
244.699	343.38
244.932	344.38
245.166	353.38
245.399	350.38
245.633	351.38
245.866	368.38
246.099	353.38
246.333	342.38
246.566	366.38
246.8	349.38
247.033	357.38
247.266	372.38
247.5	371.38
247.733	372.38
247.966	381.38
248.2	402.38
248.433	392.38
248.666	386.38
248.899	385.38
249.133	399.38
249.366	402.38
249.599	407.38
249.832	402.38
250.066	409.38
250.299	408.38
250.532	432.38
250.765	402.38
250.998	411.38
251.231	428.38
251.465	428.38
251.698	451.38
251.931	427.38
252.164	438.38
252.397	436.38
252.63	436.38
252.863	430.38
253.096	468.38
253.329	456.38
253.562	460.38
253.795	436.38
254.028	449.38
254.261	459.38
254.494	468.38
254.727	439.38
254.96	460.38
255.193	465.38
255.426	461.38
255.659	450.38
255.892	478.38
256.124	478.38
256.357	506.38
256.59	492.38
256.823	466.38
257.056	485.38
257.289	504.38
257.521	478.38
257.754	505.38
257.987	489.38
258.22	510.38
258.452	520.38
258.685	522.38
258.918	521.38
259.151	516.38
259.383	554.38
259.616	532.38
259.849	525.38
260.081	535.38
260.314	539.38
260.547	544.38
260.779	545.38
261.012	565.38
261.244	546.38
261.477	530.38
261.71	541.38
261.942	546.38
262.175	577.38
262.407	573.38
262.64	561.38
262.872	568.38
263.105	564.38
263.337	581.38
263.57	556.38
263.802	557.38
264.035	585.38
264.267	581.38
264.499	584.38
264.732	572.38
264.964	577.38
265.197	589.38
265.429	597.38
265.661	602.38
265.894	601.38
266.126	602.38
266.358	611.38
266.591	604.38
266.823	612.38
267.055	616.38
267.287	612.38
267.52	604.38
267.752	624.38
267.984	630.38
268.216	623.38
268.448	628.38
268.681	625.38
268.913	634.38
269.145	658.38
269.377	655.38
269.609	651.38
269.841	657.38
270.073	668.38
270.306	641.38
270.538	647.38
270.77	641.38
271.002	657.38
271.234	662.38
271.466	686.38
271.698	672.38
271.93	689.38
272.162	644.38
272.394	662.38
272.626	703.38
272.858	696.38
273.09	705.38
273.322	682.38
273.553	682.38
273.785	691.38
274.017	699.38
274.249	711.38
274.481	713.38
274.713	712.38
274.945	720.38
275.176	731.38
275.408	733.38
275.64	748.38
275.872	733.38
276.104	719.38
276.335	737.38
276.567	732.38
276.799	705.38
277.031	727.38
277.262	724.38
277.494	745.38
277.726	757.38
277.957	751.38
278.189	746.38
278.421	740.38
278.652	768.38
278.884	778.38
279.115	795.38
279.347	807.38
279.579	797.38
279.81	792.38
280.042	793.38
280.273	819.38
280.505	793.38
280.736	799.38
280.968	829.38
281.199	807.38
281.431	807.38
281.662	805.38
281.894	813.38
282.125	831.38
282.356	834.38
282.588	806.38
282.819	807.38
283.051	806.38
283.282	846.38
283.513	841.38
283.745	822.38
283.976	854.38
284.207	845.38
284.439	845.38
284.67	855.38
284.901	878.38
285.132	852.38
285.364	864.38
285.595	872.38
285.826	867.38
286.057	865.38
286.288	849.38
286.52	893.38
286.751	848.38
286.982	912.38
287.213	857.38
287.444	885.38
287.675	878.38
287.906	891.38
288.138	898.38
288.369	863.38
288.6	913.38
288.831	889.38
289.062	929.38
289.293	914.38
289.524	905.38
289.755	877.38
289.986	910.38
290.217	922.38
290.448	913.38
290.679	902.38
290.91	894.38
291.141	912.38
291.371	891.38
291.602	907.38
291.833	929.38
292.064	918.38
292.295	912.38
292.526	911.38
292.757	917.38
292.987	928.38
293.218	912.38
293.449	901.38
293.68	919.38
293.91	934.38
294.141	937.38
294.372	918.38
294.603	939.38
294.833	942.38
295.064	945.38
295.295	925.38
295.525	955.38
295.756	921.38
295.987	950.38
296.217	974.38
296.448	966.38
296.679	962.38
296.909	958.38
297.14	968.38
297.37	993.38
297.601	998.38
297.831	1005.38
298.062	989.38
298.292	999.38
298.523	1014.38
298.753	1019.38
298.984	1020.38
299.214	1001.38
299.445	981.38
299.675	1003.38
299.905	1014.38
300.136	1020.38
300.366	1012.38
300.597	1040.38
300.827	1020.38
301.057	1062.38
301.288	1049.38
301.518	1035.38
301.748	1039.38
301.979	1077.38
302.209	1061.38
302.439	1062.38
302.669	1068.38
302.9	1060.38
303.13	1026.38
303.36	1076.38
303.59	1066.38
303.82	1066.38
304.051	1051.38
304.281	1076.38
304.511	1069.38
304.741	1048.38
304.971	1030.38
305.201	1048.38
305.431	1066.38
305.661	1076.38
305.891	1070.38
306.121	1038.38
306.352	1043.38
306.582	1035.38
306.812	1010.38
307.042	1053.38
307.272	1021.38
307.502	1032.38
307.731	1054.38
307.961	1045.38
308.191	1048.38
308.421	1071.38
308.651	1031.38
308.881	1023.38
309.111	1044.38
309.341	1048.38
309.571	1064.38
309.8	1069.38
310.03	1032.38
310.26	1058.38
310.49	1070.38
310.72	1058.38
310.949	1060.38
311.179	1064.38
311.409	1088.38
311.639	1056.38
311.868	1053.38
312.098	1089.38
312.328	1092.38
312.557	1103.38
312.787	1097.38
313.017	1088.38
313.246	1103.38
313.476	1096.38
313.706	1102.38
313.935	1143.38
314.165	1138.38
314.394	1126.38
314.624	1134.38
314.853	1130.38
315.083	1120.38
315.312	1145.38
315.542	1142.38
315.771	1128.38
316.001	1133.38
316.23	1119.38
316.46	1129.38
316.689	1119.38
316.919	1113.38
317.148	1121.38
317.377	1136.38
317.607	1112.38
317.836	1100.38
318.065	1110.38
318.295	1126.38
318.524	1118.38
318.753	1127.38
318.983	1102.38
319.212	1099.38
319.441	1081.38
319.67	1098.38
319.9	1117.38
320.129	1108.38
320.358	1088.38
320.587	1132.38
320.816	1117.38
321.046	1102.38
321.275	1097.38
321.504	1104.38
321.733	1158.38
321.962	1131.38
322.191	1140.38
322.42	1143.38
322.649	1125.38
322.878	1142.38
323.108	1144.38
323.337	1137.38
323.566	1139.38
323.795	1176.38
324.024	1120.38
324.253	1178.38
324.482	1132.38
324.71	1144.38
324.939	1178.38
325.168	1172.38
325.397	1174.38
325.626	1192.38
325.855	1214.38
326.084	1213.38
326.313	1258.38
326.542	1221.38
326.77	1245.38
326.999	1229.38
327.228	1231.38
327.457	1208.38
327.686	1226.38
327.914	1198.38
328.143	1204.38
328.372	1246.38
328.6	1180.38
328.829	1250.38
329.058	1220.38
329.287	1274.38
329.515	1235.38
329.744	1236.38
329.972	1266.38
330.201	1225.38
330.43	1235.38
330.658	1268.38
330.887	1239.38
331.115	1246.38
331.344	1278.38
331.572	1253.38
331.801	1313.38
332.03	1341.38
332.258	1332.38
332.486	1389.38
332.715	1400.38
332.943	1457.38
333.172	1460.38
333.4	1538.38
333.629	1584.38
333.857	1571.38
334.085	1557.38
334.314	1569.38
334.542	1586.38
334.771	1580.38
334.999	1528.38
335.227	1524.38
335.455	1513.38
335.684	1497.38
335.912	1480.38
336.14	1487.38
336.369	1475.38
336.597	1517.38
336.825	1478.38
337.053	1473.38
337.281	1462.38
337.51	1404.38
337.738	1385.38
337.966	1388.38
338.194	1390.38
338.422	1398.38
338.65	1332.38
338.878	1346.38
339.106	1327.38
339.334	1315.38
339.562	1337.38
339.79	1303.38
340.018	1318.38
340.246	1274.38
340.474	1289.38
340.702	1285.38
340.93	1298.38
341.158	1299.38
341.386	1290.38
341.614	1280.38
341.842	1267.38
342.07	1280.38
342.298	1289.38
342.526	1288.38
342.754	1265.38
342.981	1288.38
343.209	1306.38
343.437	1358.38
343.665	1364.38
343.893	1493.38
344.12	1535.38
344.348	1493.38
344.576	1449.38
344.804	1394.38
345.031	1334.38
345.259	1340.38
345.487	1269.38
345.714	1281.38
345.942	1252.38
346.17	1264.38
346.397	1254.38
346.625	1222.38
346.853	1249.38
347.08	1228.38
347.308	1217.38
347.535	1267.38
347.763	1217.38
347.99	1208.38
348.218	1249.38
348.445	1228.38
348.673	1224.38
348.9	1243.38
349.128	1206.38
349.355	1227.38
349.583	1227.38
349.81	1212.38
350.037	1190.38
350.265	1192.38
350.492	1190.38
350.72	1180.38
350.947	1172.38
351.174	1186.38
351.402	1224.38
351.629	1206.38
351.856	1152.38
352.083	1217.38
352.311	1165.38
352.538	1156.38
352.765	1167.38
352.992	1206.38
353.22	1165.38
353.447	1156.38
353.674	1169.38
353.901	1190.38
354.128	1179.38
354.355	1163.38
354.583	1191.38
354.81	1190.38
355.037	1173.38
355.264	1203.38
355.491	1201.38
355.718	1183.38
355.945	1188.38
356.172	1200.38
356.399	1183.38
356.626	1216.38
356.853	1206.38
357.08	1188.38
357.307	1204.38
357.534	1197.38
357.761	1187.38
357.988	1206.38
358.215	1225.38
358.441	1208.38
358.668	1157.38
358.895	1225.38
359.122	1173.38
359.349	1185.38
359.576	1195.38
359.802	1178.38
360.029	1154.38
360.256	1186.38
360.483	1175.38
360.709	1186.38
360.936	1205.38
361.163	1202.38
361.39	1165.38
361.616	1231.38
361.843	1196.38
362.07	1202.38
362.296	1186.38
362.523	1199.38
362.749	1200.38
362.976	1210.38
363.203	1206.38
363.429	1208.38
363.656	1199.38
363.882	1189.38
364.109	1184.38
364.335	1171.38
364.562	1206.38
364.788	1173.38
365.015	1150.38
365.241	1200.38
365.468	1193.38
365.694	1204.38
365.92	1178.38
366.147	1176.38
366.373	1162.38
366.599	1200.38
366.826	1185.38
367.052	1159.38
367.278	1194.38
367.505	1200.38
367.731	1220.38
367.957	1205.38
368.184	1183.38
368.41	1232.38
368.636	1229.38
368.862	1241.38
369.089	1210.38
369.315	1233.38
369.541	1246.38
369.767	1226.38
369.993	1259.38
370.219	1231.38
370.445	1271.38
370.672	1237.38
370.898	1269.38
371.124	1287.38
371.35	1280.38
371.576	1280.38
371.802	1288.38
372.028	1283.38
372.254	1270.38
372.48	1317.38
372.706	1300.38
372.932	1318.38
373.158	1327.38
373.384	1292.38
373.61	1309.38
373.835	1303.38
374.061	1332.38
374.287	1312.38
374.513	1334.38
374.739	1406.38
374.965	1436.38
375.191	1433.38
375.416	1414.38
375.642	1365.38
375.868	1360.38
376.094	1332.38
376.319	1333.38
376.545	1299.38
376.771	1296.38
376.997	1319.38
377.222	1297.38
377.448	1290.38
377.674	1314.38
377.899	1289.38
378.125	1294.38
378.35	1296.38
378.576	1273.38
378.802	1266.38
379.027	1304.38
379.253	1294.38
379.478	1262.38
379.704	1254.38
379.929	1292.38
380.155	1270.38
380.38	1308.38
380.606	1286.38
380.831	1260.38
381.057	1287.38
381.282	1280.38
381.507	1301.38
381.733	1311.38
381.958	1319.38
382.184	1343.38
382.409	1318.38
382.634	1364.38
382.86	1358.38
383.085	1349.38
383.31	1418.38
383.535	1399.38
383.761	1399.38
383.986	1425.38
384.211	1444.38
384.436	1431.38
384.662	1453.38
384.887	1502.38
385.112	1509.38
385.337	1540.38
385.562	1549.38
385.787	1540.38
386.013	1556.38
386.238	1519.38
386.463	1531.38
386.688	1554.38
386.913	1522.38
387.138	1495.38
387.363	1534.38
387.588	1558.38
387.813	1528.38
388.038	1533.38
388.263	1516.38
388.488	1536.38
388.713	1549.38
388.938	1541.38
389.163	1524.38
389.387	1537.38
389.612	1496.38
389.837	1543.38
390.062	1494.38
390.287	1550.38
390.512	1527.38
390.736	1535.38
390.961	1583.38
391.186	1607.38
391.411	1621.38
391.636	1629.38
391.86	1709.38
392.085	1690.38
392.31	1724.38
392.534	1672.38
392.759	1686.38
392.984	1647.38
393.208	1651.38
393.433	1662.38
393.658	1673.38
393.882	1638.38
394.107	1617.38
394.331	1644.38
394.556	1628.38
394.78	1674.38
395.005	1688.38
395.229	1630.38
395.454	1709.38
395.678	1734.38
395.903	1742.38
396.127	1732.38
396.352	1708.38
396.576	1696.38
396.801	1657.38
397.025	1710.38
397.249	1725.38
397.474	1709.38
397.698	1742.38
397.922	1712.38
398.147	1765.38
398.371	1792.38
398.595	1828.38
398.82	1900.38
399.044	2001.38
399.268	2164.38
399.492	2462.38
399.717	2662.38
399.941	2690.38
400.165	2509.38
400.389	2324.38
400.613	2129.38
400.837	2017.38
401.062	1957.38
401.286	1990.38
401.51	1928.38
401.734	1879.38
401.958	1895.38
402.182	1942.38
402.406	1945.38
402.63	1975.38
402.854	1987.38
403.078	1979.38
403.302	2030.38
403.526	2031.38
403.75	2102.38
403.974	2085.38
404.198	2054.38
404.422	2129.38
404.645	2126.38
404.869	2087.38
405.093	2098.38
405.317	2108.38
405.541	2090.38
405.765	2058.38
405.988	2071.38
406.212	2105.38
406.436	2082.38
406.66	2148.38
406.883	2149.38
407.107	2244.38
407.331	2366.38
407.555	2410.38
407.778	2405.38
408.002	2316.38
408.226	2300.38
408.449	2290.38
408.673	2144.38
408.896	2159.38
409.12	2142.38
409.344	2142.38
409.567	2095.38
409.791	2084.38
410.014	2146.38
410.238	2105.38
410.461	2112.38
410.685	2058.38
410.908	2056.38
411.132	2038.38
411.355	2000.38
411.578	1990.38
411.802	2000.38
412.025	1985.38
412.249	2026.38
412.472	2025.38
412.695	1958.38
412.919	1926.38
413.142	1930.38
413.365	1941.38
413.589	1947.38
413.812	1896.38
414.035	1851.38
414.258	1906.38
414.482	1897.38
414.705	1920.38
414.928	1920.38
415.151	1960.38
415.374	1937.38
415.597	1881.38
415.821	1864.38
416.044	1868.38
416.267	1850.38
416.49	1850.38
416.713	1804.38
416.936	1852.38
417.159	1814.38
417.382	1795.38
417.605	1829.38
417.828	1826.38
418.051	1859.38
418.274	1860.38
418.497	1829.38
418.72	1909.38
418.943	1874.38
419.166	1981.38
419.389	2122.38
419.611	2080.38
419.834	1968.38
420.057	1921.38
420.28	1905.38
420.503	1849.38
420.726	1830.38
420.948	1834.38
421.171	1833.38
421.394	1861.38
421.617	1822.38
421.839	1860.38
422.062	1880.38
422.285	1811.38
422.507	1932.38
422.73	1848.38
422.953	1856.38
423.175	1857.38
423.398	1923.38
423.621	1846.38
423.843	1876.38
424.066	1936.38
424.288	1877.38
424.511	1879.38
424.733	1863.38
424.956	1870.38
425.178	1872.38
425.401	1849.38
425.623	1833.38
425.846	1810.38
426.068	1824.38
426.291	1777.38
426.513	1800.38
426.735	1768.38
426.958	1737.38
427.18	1746.38
427.402	1705.38
427.625	1729.38
427.847	1682.38
428.069	1720.38
428.292	1705.38
428.514	1734.38
428.736	1658.38
428.958	1718.38
429.181	1626.38
429.403	1619.38
429.625	1642.38
429.847	1653.38
430.069	1639.38
430.292	1644.38
430.514	1654.38
430.736	1660.38
430.958	1628.38
431.18	1650.38
431.402	1677.38
431.624	1658.38
431.846	1698.38
432.068	1701.38
432.29	1744.38
432.512	1708.38
432.734	1710.38
432.956	1679.38
433.178	1696.38
433.4	1677.38
433.622	1714.38
433.844	1733.38
434.066	1745.38
434.287	1725.38
434.509	1805.38
434.731	1812.38
434.953	1871.38
435.175	1876.38
435.397	1856.38
435.618	1807.38
435.84	1789.38
436.062	1715.38
436.284	1677.38
436.505	1684.38
436.727	1692.38
436.949	1693.38
437.17	1652.38
437.392	1620.38
437.614	1659.38
437.835	1605.38
438.057	1618.38
438.278	1590.38
438.5	1603.38
438.721	1568.38
438.943	1601.38
439.165	1590.38
439.386	1620.38
439.608	1687.38
439.829	1650.38
440.05	1632.38
440.272	1649.38
440.493	1667.38
440.715	1710.38
440.936	1706.38
441.158	1713.38
441.379	1764.38
441.6	1836.38
441.822	1815.38
442.043	1806.38
442.264	1858.38
442.486	1764.38
442.707	1764.38
442.928	1792.38
443.149	1809.38
443.371	1784.38
443.592	1808.38
443.813	1786.38
444.034	1853.38
444.255	1870.38
444.476	1914.38
444.698	2052.38
444.919	2062.38
445.14	2162.38
445.361	2019.38
445.582	1889.38
445.803	1799.38
446.024	1740.38
446.245	1778.38
446.466	1686.38
446.687	1651.38
446.908	1627.38
447.129	1631.38
447.35	1619.38
447.571	1606.38
447.792	1539.38
448.013	1555.38
448.234	1533.38
448.455	1510.38
448.675	1500.38
448.896	1505.38
449.117	1498.38
449.338	1482.38
449.559	1485.38
449.779	1473.38
450	1484.38
450.221	1478.38
450.442	1501.38
450.662	1470.38
450.883	1496.38
451.104	1497.38
451.324	1520.38
451.545	1474.38
451.766	1492.38
451.986	1500.38
452.207	1447.38
452.428	1509.38
452.648	1455.38
452.869	1436.38
453.089	1396.38
453.31	1462.38
453.53	1432.38
453.751	1428.38
453.971	1430.38
454.192	1427.38
454.412	1407.38
454.633	1434.38
454.853	1426.38
455.073	1400.38
455.294	1420.38
455.514	1389.38
455.734	1404.38
455.955	1395.38
456.175	1415.38
456.395	1400.38
456.616	1380.38
456.836	1437.38
457.056	1387.38
457.276	1412.38
457.497	1429.38
457.717	1417.38
457.937	1434.38
458.157	1404.38
458.377	1477.38
458.598	1487.38
458.818	1539.38
459.038	1559.38
459.258	1592.38
459.478	1636.38
459.698	1713.38
459.918	1698.38
460.138	1747.38
460.358	1874.38
460.578	1886.38
460.798	1891.38
461.018	1871.38
461.238	1859.38
461.458	1895.38
461.678	1880.38
461.898	1934.38
462.118	1959.38
462.338	2033.38
462.558	2056.38
462.777	2140.38
462.997	2239.38
463.217	2366.38
463.437	2424.38
463.657	2255.38
463.876	2187.38
464.096	2215.38
464.316	2179.38
464.536	2165.38
464.755	2063.38
464.975	2018.38
465.195	1984.38
465.414	1871.38
465.634	1792.38
465.854	1708.38
466.073	1706.38
466.293	1644.38
466.512	1629.38
466.732	1614.38
466.951	1592.38
467.171	1552.38
467.391	1601.38
467.61	1581.38
467.829	1563.38
468.049	1569.38
468.268	1509.38
468.488	1512.38
468.707	1506.38
468.927	1533.38
469.146	1544.38
469.365	1550.38
469.585	1541.38
469.804	1585.38
470.023	1605.38
470.243	1593.38
470.462	1621.38
470.681	1621.38
470.901	1632.38
471.12	1597.38
471.339	1574.38
471.558	1595.38
471.777	1540.38
471.997	1564.38
472.216	1522.38
472.435	1511.38
472.654	1500.38
472.873	1479.38
473.092	1506.38
473.311	1488.38
473.53	1503.38
473.749	1528.38
473.968	1484.38
474.187	1455.38
474.406	1472.38
474.625	1495.38
474.844	1510.38
475.063	1521.38
475.282	1527.38
475.501	1522.38
475.72	1526.38
475.939	1520.38
476.158	1537.38
476.377	1579.38
476.596	1554.38
476.814	1616.38
477.033	1599.38
477.252	1658.38
477.471	1651.38
477.69	1684.38
477.908	1709.38
478.127	1762.38
478.346	1721.38
478.564	1856.38
478.783	1852.38
479.002	1871.38
479.22	1905.38
479.439	1876.38
479.658	1888.38
479.876	1918.38
480.095	1920.38
480.313	1965.38
480.532	2012.38
480.751	2014.38
480.969	1953.38
481.188	1902.38
481.406	1918.38
481.624	1858.38
481.843	1843.38
482.061	1822.38
482.28	1796.38
482.498	1820.38
482.717	1873.38
482.935	1831.38
483.153	1828.38
483.372	1840.38
483.59	1872.38
483.808	1859.38
484.027	1912.38
484.245	1936.38
484.463	1933.38
484.681	1995.38
484.9	1957.38
485.118	1984.38
485.336	1996.38
485.554	1997.38
485.772	1984.38
485.99	1983.38
486.209	2038.38
486.427	1991.38
486.645	1964.38
486.863	1979.38
487.081	1987.38
487.299	1974.38
487.517	1980.38
487.735	1988.38
487.953	1940.38
488.171	1976.38
488.389	1970.38
488.607	1932.38
488.825	1928.38
489.043	1928.38
489.261	1913.38
489.479	1909.38
489.696	1932.38
489.914	1936.38
