Data from NiCl2@0.125M.TitratingCurve.Agarose3%dH2O.NegLispCup.LampEnergy10.LIBS07252019_HRD10591_18-28-36-574.txt Node
Date: Thu Jul 25 18:28:36 EDT 2019
User: cochatt
Spectrometer: HR+D1059
Trigger mode: 1
Integration Time (sec): 1.000000E-1
Scans to average: 1
Electric dark correction enabled: true
Nonlinearity correction enabled: false
Boxcar width: 0
XAxis mode: Wavelengths
Number of Pixels in Spectrum: 2048
>>>>>Begin Spectral Data<<<<<
223.165	-22.38
223.4	-22.38
223.635	-22.38
223.869	-21.38
224.104	-11.38
224.338	-13.38
224.573	-30.38
224.808	-16.38
225.042	-5.38
225.277	6.62
225.511	-1.38
225.746	5.62
225.98	-0.38
226.215	14.62
226.449	10.62
226.683	21.62
226.918	30.62
227.152	32.62
227.387	32.62
227.621	31.62
227.856	49.62
228.09	59.62
228.324	51.62
228.559	44.62
228.793	68.62
229.027	104.62
229.262	109.62
229.496	115.62
229.73	139.62
229.964	125.62
230.199	124.62
230.433	135.62
230.667	132.62
230.901	147.62
231.136	143.62
231.37	133.62
231.604	151.62
231.838	167.62
232.072	156.62
232.306	136.62
232.541	153.62
232.775	145.62
233.009	150.62
233.243	150.62
233.477	161.62
233.711	154.62
233.945	146.62
234.179	158.62
234.413	146.62
234.647	158.62
234.881	160.62
235.115	155.62
235.349	173.62
235.583	162.62
235.817	169.62
236.051	164.62
236.285	171.62
236.519	162.62
236.753	161.62
236.987	172.62
237.221	162.62
237.455	166.62
237.689	182.62
237.922	170.62
238.156	160.62
238.39	178.62
238.624	181.62
238.858	172.62
239.091	189.62
239.325	192.62
239.559	182.62
239.793	189.62
240.027	196.62
240.26	173.62
240.494	177.62
240.728	199.62
240.961	196.62
241.195	203.62
241.429	189.62
241.662	186.62
241.896	216.62
242.13	200.62
242.363	202.62
242.597	202.62
242.83	221.62
243.064	226.62
243.298	218.62
243.531	199.62
243.765	202.62
243.998	227.62
244.232	243.62
244.465	214.62
244.699	230.62
244.932	245.62
245.166	230.62
245.399	249.62
245.633	240.62
245.866	233.62
246.099	227.62
246.333	226.62
246.566	227.62
246.8	245.62
247.033	243.62
247.266	255.62
247.5	251.62
247.733	251.62
247.966	241.62
248.2	250.62
248.433	257.62
248.666	270.62
248.899	266.62
249.133	253.62
249.366	251.62
249.599	255.62
249.832	275.62
250.066	265.62
250.299	249.62
250.532	267.62
250.765	267.62
250.998	274.62
251.231	288.62
251.465	283.62
251.698	288.62
251.931	274.62
252.164	283.62
252.397	286.62
252.63	291.62
252.863	289.62
253.096	287.62
253.329	300.62
253.562	311.62
253.795	291.62
254.028	294.62
254.261	293.62
254.494	300.62
254.727	317.62
254.96	309.62
255.193	306.62
255.426	293.62
255.659	294.62
255.892	312.62
256.124	318.62
256.357	295.62
256.59	316.62
256.823	304.62
257.056	320.62
257.289	300.62
257.521	338.62
257.754	327.62
257.987	313.62
258.22	321.62
258.452	322.62
258.685	339.62
258.918	326.62
259.151	324.62
259.383	325.62
259.616	318.62
259.849	347.62
260.081	336.62
260.314	332.62
260.547	324.62
260.779	349.62
261.012	369.62
261.244	360.62
261.477	348.62
261.71	336.62
261.942	332.62
262.175	350.62
262.407	344.62
262.64	355.62
262.872	339.62
263.105	355.62
263.337	355.62
263.57	369.62
263.802	340.62
264.035	356.62
264.267	389.62
264.499	361.62
264.732	362.62
264.964	375.62
265.197	363.62
265.429	393.62
265.661	362.62
265.894	379.62
266.126	384.62
266.358	375.62
266.591	373.62
266.823	391.62
267.055	387.62
267.287	392.62
267.52	384.62
267.752	406.62
267.984	404.62
268.216	415.62
268.448	382.62
268.681	372.62
268.913	398.62
269.145	393.62
269.377	387.62
269.609	404.62
269.841	401.62
270.073	418.62
270.306	402.62
270.538	410.62
270.77	392.62
271.002	418.62
271.234	418.62
271.466	402.62
271.698	413.62
271.93	406.62
272.162	428.62
272.394	417.62
272.626	429.62
272.858	396.62
273.09	412.62
273.322	441.62
273.553	435.62
273.785	436.62
274.017	429.62
274.249	422.62
274.481	422.62
274.713	418.62
274.945	445.62
275.176	450.62
275.408	452.62
275.64	455.62
275.872	450.62
276.104	449.62
276.335	437.62
276.567	439.62
276.799	450.62
277.031	483.62
277.262	455.62
277.494	458.62
277.726	452.62
277.957	453.62
278.189	452.62
278.421	446.62
278.652	460.62
278.884	459.62
279.115	470.62
279.347	482.62
279.579	481.62
279.81	484.62
280.042	474.62
280.273	486.62
280.505	472.62
280.736	495.62
280.968	496.62
281.199	483.62
281.431	490.62
281.662	496.62
281.894	482.62
282.125	500.62
282.356	496.62
282.588	509.62
282.819	516.62
283.051	507.62
283.282	509.62
283.513	480.62
283.745	498.62
283.976	499.62
284.207	505.62
284.439	522.62
284.67	509.62
284.901	537.62
285.132	522.62
285.364	531.62
285.595	539.62
285.826	512.62
286.057	522.62
286.288	521.62
286.52	521.62
286.751	529.62
286.982	542.62
287.213	538.62
287.444	542.62
287.675	543.62
287.906	554.62
288.138	528.62
288.369	557.62
288.6	524.62
288.831	580.62
289.062	545.62
289.293	549.62
289.524	544.62
289.755	550.62
289.986	526.62
290.217	549.62
290.448	566.62
290.679	571.62
290.91	565.62
291.141	552.62
291.371	562.62
291.602	574.62
291.833	571.62
292.064	565.62
292.295	561.62
292.526	572.62
292.757	568.62
292.987	550.62
293.218	549.62
293.449	557.62
293.68	587.62
293.91	559.62
294.141	561.62
294.372	574.62
294.603	570.62
294.833	576.62
295.064	567.62
295.295	573.62
295.525	566.62
295.756	576.62
295.987	574.62
296.217	589.62
296.448	587.62
296.679	590.62
296.909	610.62
297.14	589.62
297.37	626.62
297.601	614.62
297.831	634.62
298.062	598.62
298.292	612.62
298.523	635.62
298.753	630.62
298.984	636.62
299.214	611.62
299.445	611.62
299.675	593.62
299.905	623.62
300.136	624.62
300.366	617.62
300.597	605.62
300.827	631.62
301.057	636.62
301.288	639.62
301.518	650.62
301.748	641.62
301.979	657.62
302.209	650.62
302.439	644.62
302.669	624.62
302.9	655.62
303.13	620.62
303.36	642.62
303.59	652.62
303.82	621.62
304.051	632.62
304.281	656.62
304.511	623.62
304.741	619.62
304.971	642.62
305.201	650.62
305.431	645.62
305.661	638.62
305.891	615.62
306.121	626.62
306.352	620.62
306.582	625.62
306.812	596.62
307.042	628.62
307.272	616.62
307.502	597.62
307.731	627.62
307.961	643.62
308.191	637.62
308.421	620.62
308.651	625.62
308.881	612.62
309.111	611.62
309.341	605.62
309.571	622.62
309.8	616.62
310.03	631.62
310.26	641.62
310.49	626.62
310.72	631.62
310.949	610.62
311.179	628.62
311.409	637.62
311.639	647.62
311.868	653.62
312.098	674.62
312.328	640.62
312.557	655.62
312.787	628.62
313.017	630.62
313.246	661.62
313.476	645.62
313.706	652.62
313.935	677.62
314.165	691.62
314.394	680.62
314.624	661.62
314.853	688.62
315.083	692.62
315.312	668.62
315.542	639.62
315.771	666.62
316.001	658.62
316.23	650.62
316.46	633.62
316.689	665.62
316.919	672.62
317.148	661.62
317.377	666.62
317.607	663.62
317.836	664.62
318.065	665.62
318.295	645.62
318.524	652.62
318.753	626.62
318.983	663.62
319.212	640.62
319.441	656.62
319.67	646.62
319.9	636.62
320.129	648.62
320.358	649.62
320.587	677.62
320.816	663.62
321.046	640.62
321.275	662.62
321.504	643.62
321.733	642.62
321.962	682.62
322.191	660.62
322.42	681.62
322.649	670.62
322.878	670.62
323.108	665.62
323.337	648.62
323.566	654.62
323.795	660.62
324.024	683.62
324.253	686.62
324.482	667.62
324.71	664.62
324.939	683.62
325.168	665.62
325.397	667.62
325.626	703.62
325.855	701.62
326.084	723.62
326.313	723.62
326.542	728.62
326.77	730.62
326.999	706.62
327.228	692.62
327.457	690.62
327.686	710.62
327.914	742.62
328.143	722.62
328.372	719.62
328.6	731.62
328.829	722.62
329.058	696.62
329.287	738.62
329.515	756.62
329.744	724.62
329.972	715.62
330.201	713.62
330.43	737.62
330.658	718.62
330.887	749.62
331.115	754.62
331.344	754.62
331.572	760.62
331.801	793.62
332.03	770.62
332.258	820.62
332.486	819.62
332.715	830.62
332.943	867.62
333.172	920.62
333.4	968.62
333.629	941.62
333.857	991.62
334.085	971.62
334.314	976.62
334.542	928.62
334.771	896.62
334.999	893.62
335.227	912.62
335.455	918.62
335.684	917.62
335.912	898.62
336.14	876.62
336.369	877.62
336.597	887.62
336.825	850.62
337.053	861.62
337.281	845.62
337.51	836.62
337.738	808.62
337.966	794.62
338.194	811.62
338.422	771.62
338.65	793.62
338.878	782.62
339.106	784.62
339.334	770.62
339.562	755.62
339.79	743.62
340.018	721.62
340.246	719.62
340.474	738.62
340.702	742.62
340.93	756.62
341.158	755.62
341.386	742.62
341.614	777.62
341.842	744.62
342.07	741.62
342.298	754.62
342.526	724.62
342.754	755.62
342.981	752.62
343.209	774.62
343.437	788.62
343.665	831.62
343.893	895.62
344.12	913.62
344.348	914.62
344.576	853.62
344.804	811.62
345.031	794.62
345.259	758.62
345.487	769.62
345.714	723.62
345.942	734.62
346.17	730.62
346.397	748.62
346.625	749.62
346.853	722.62
347.08	749.62
347.308	758.62
347.535	736.62
347.763	746.62
347.99	732.62
348.218	765.62
348.445	746.62
348.673	734.62
348.9	721.62
349.128	745.62
349.355	703.62
349.583	708.62
349.81	736.62
350.037	712.62
350.265	712.62
350.492	704.62
350.72	723.62
350.947	704.62
351.174	677.62
351.402	704.62
351.629	692.62
351.856	698.62
352.083	685.62
352.311	710.62
352.538	707.62
352.765	709.62
352.992	691.62
353.22	693.62
353.447	677.62
353.674	688.62
353.901	677.62
354.128	690.62
354.355	688.62
354.583	672.62
354.81	686.62
355.037	711.62
355.264	710.62
355.491	674.62
355.718	712.62
355.945	701.62
356.172	712.62
356.399	714.62
356.626	722.62
356.853	692.62
357.08	699.62
357.307	710.62
357.534	679.62
357.761	698.62
357.988	717.62
358.215	695.62
358.441	675.62
358.668	701.62
358.895	696.62
359.122	706.62
359.349	683.62
359.576	706.62
359.802	720.62
360.029	684.62
360.256	707.62
360.483	704.62
360.709	669.62
360.936	711.62
361.163	697.62
361.39	690.62
361.616	723.62
361.843	701.62
362.07	690.62
362.296	726.62
362.523	712.62
362.749	733.62
362.976	684.62
363.203	704.62
363.429	680.62
363.656	717.62
363.882	688.62
364.109	692.62
364.335	711.62
364.562	708.62
364.788	683.62
365.015	700.62
365.241	691.62
365.468	696.62
365.694	693.62
365.92	677.62
366.147	679.62
366.373	704.62
366.599	671.62
366.826	716.62
367.052	694.62
367.278	692.62
367.505	689.62
367.731	693.62
367.957	710.62
368.184	705.62
368.41	712.62
368.636	701.62
368.862	707.62
369.089	713.62
369.315	729.62
369.541	702.62
369.767	730.62
369.993	742.62
370.219	721.62
370.445	727.62
370.672	736.62
370.898	764.62
371.124	761.62
371.35	753.62
371.576	776.62
371.802	726.62
372.028	728.62
372.254	770.62
372.48	782.62
372.706	778.62
372.932	797.62
373.158	817.62
373.384	789.62
373.61	779.62
373.835	785.62
374.061	732.62
374.287	755.62
374.513	785.62
374.739	809.62
374.965	834.62
375.191	855.62
375.416	855.62
375.642	821.62
375.868	795.62
376.094	794.62
376.319	773.62
376.545	768.62
376.771	749.62
376.997	747.62
377.222	766.62
377.448	772.62
377.674	777.62
377.899	753.62
378.125	740.62
378.35	745.62
378.576	734.62
378.802	752.62
379.027	758.62
379.253	752.62
379.478	740.62
379.704	755.62
379.929	776.62
380.155	770.62
380.38	740.62
380.606	761.62
380.831	757.62
381.057	778.62
381.282	771.62
381.507	763.62
381.733	763.62
381.958	779.62
382.184	793.62
382.409	813.62
382.634	788.62
382.86	783.62
383.085	824.62
383.31	830.62
383.535	852.62
383.761	874.62
383.986	854.62
384.211	868.62
384.436	888.62
384.662	884.62
384.887	902.62
385.112	912.62
385.337	944.62
385.562	914.62
385.787	910.62
386.013	931.62
386.238	932.62
386.463	928.62
386.688	929.62
386.913	913.62
387.138	941.62
387.363	933.62
387.588	935.62
387.813	900.62
388.038	900.62
388.263	924.62
388.488	947.62
388.713	943.62
388.938	901.62
389.163	897.62
389.387	917.62
389.612	908.62
389.837	883.62
390.062	893.62
390.287	865.62
390.512	906.62
390.736	898.62
390.961	936.62
391.186	947.62
391.411	978.62
391.636	998.62
391.86	1008.62
392.085	1051.62
392.31	1000.62
392.534	995.62
392.759	991.62
392.984	951.62
393.208	967.62
393.433	997.62
393.658	981.62
393.882	957.62
394.107	997.62
394.331	966.62
394.556	978.62
394.78	994.62
395.005	1000.62
395.229	997.62
395.454	982.62
395.678	1024.62
395.903	996.62
396.127	1028.62
396.352	973.62
396.576	985.62
396.801	1010.62
397.025	994.62
397.249	1004.62
397.474	1038.62
397.698	1038.62
397.922	1039.62
398.147	1017.62
398.371	1054.62
398.595	1046.62
398.82	1126.62
399.044	1224.62
399.268	1319.62
399.492	1511.62
399.717	1755.62
399.941	1783.62
400.165	1587.62
400.389	1427.62
400.613	1312.62
400.837	1255.62
401.062	1152.62
401.286	1156.62
401.51	1177.62
401.734	1142.62
401.958	1171.62
402.182	1186.62
402.406	1184.62
402.63	1205.62
402.854	1238.62
403.078	1285.62
403.302	1296.62
403.526	1283.62
403.75	1315.62
403.974	1315.62
404.198	1342.62
404.422	1313.62
404.645	1365.62
404.869	1293.62
405.093	1301.62
405.317	1284.62
405.541	1281.62
405.765	1284.62
405.988	1244.62
406.212	1252.62
406.436	1273.62
406.66	1282.62
406.883	1300.62
407.107	1403.62
407.331	1461.62
407.555	1497.62
407.778	1482.62
408.002	1450.62
408.226	1437.62
408.449	1388.62
408.673	1351.62
408.896	1317.62
409.12	1307.62
409.344	1326.62
409.567	1325.62
409.791	1308.62
410.014	1305.62
410.238	1304.62
410.461	1319.62
410.685	1269.62
410.908	1248.62
411.132	1232.62
411.355	1217.62
411.578	1220.62
411.802	1197.62
412.025	1204.62
412.249	1212.62
412.472	1237.62
412.695	1172.62
412.919	1120.62
413.142	1137.62
413.365	1152.62
413.589	1144.62
413.812	1144.62
414.035	1159.62
414.258	1178.62
414.482	1153.62
414.705	1210.62
414.928	1177.62
415.151	1194.62
415.374	1178.62
415.597	1153.62
415.821	1143.62
416.044	1130.62
416.267	1113.62
416.49	1140.62
416.713	1123.62
416.936	1136.62
417.159	1136.62
417.382	1110.62
417.605	1133.62
417.828	1133.62
418.051	1146.62
418.274	1152.62
418.497	1166.62
418.72	1189.62
418.943	1167.62
419.166	1260.62
419.389	1339.62
419.611	1324.62
419.834	1270.62
420.057	1183.62
420.28	1176.62
420.503	1166.62
420.726	1117.62
420.948	1142.62
421.171	1158.62
421.394	1141.62
421.617	1137.62
421.839	1121.62
422.062	1140.62
422.285	1137.62
422.507	1187.62
422.73	1187.62
422.953	1171.62
423.175	1201.62
423.398	1221.62
423.621	1168.62
423.843	1182.62
424.066	1227.62
424.288	1190.62
424.511	1168.62
424.733	1213.62
424.956	1169.62
425.178	1212.62
425.401	1176.62
425.623	1146.62
425.846	1136.62
426.068	1105.62
426.291	1141.62
426.513	1096.62
426.735	1039.62
426.958	1075.62
427.18	1050.62
427.402	1062.62
427.625	1030.62
427.847	1042.62
428.069	1046.62
428.292	1032.62
428.514	1002.62
428.736	1013.62
428.958	1034.62
429.181	1028.62
429.403	1022.62
429.625	975.62
429.847	980.62
430.069	1017.62
430.292	994.62
430.514	999.62
430.736	1018.62
430.958	1010.62
431.18	1003.62
431.402	1024.62
431.624	1017.62
431.846	1016.62
432.068	1051.62
432.29	1043.62
432.512	996.62
432.734	1026.62
432.956	1025.62
433.178	1028.62
433.4	1061.62
433.622	1024.62
433.844	1050.62
434.066	1055.62
434.287	1056.62
434.509	1109.62
434.731	1137.62
434.953	1161.62
435.175	1193.62
435.397	1169.62
435.618	1096.62
435.84	1065.62
436.062	1049.62
436.284	1038.62
436.505	1014.62
436.727	1036.62
436.949	1009.62
437.17	1044.62
437.392	1003.62
437.614	1026.62
437.835	965.62
438.057	989.62
438.278	996.62
438.5	999.62
438.721	987.62
438.943	1001.62
439.165	1018.62
439.386	985.62
439.608	1032.62
439.829	1024.62
440.05	1034.62
440.272	1051.62
440.493	1084.62
440.715	1062.62
440.936	1065.62
441.158	1071.62
441.379	1111.62
441.6	1149.62
441.822	1186.62
442.043	1170.62
442.264	1139.62
442.486	1126.62
442.707	1149.62
442.928	1143.62
443.149	1117.62
443.371	1109.62
443.592	1152.62
443.813	1170.62
444.034	1163.62
444.255	1216.62
444.476	1290.62
444.698	1347.62
444.919	1374.62
445.14	1498.62
445.361	1339.62
445.582	1221.62
445.803	1180.62
446.024	1128.62
446.245	1107.62
446.466	1080.62
446.687	1049.62
446.908	1039.62
447.129	1045.62
447.35	1002.62
447.571	984.62
447.792	973.62
448.013	979.62
448.234	960.62
448.455	966.62
448.675	962.62
448.896	968.62
449.117	955.62
449.338	966.62
449.559	955.62
449.779	959.62
450	948.62
450.221	961.62
450.442	973.62
450.662	934.62
450.883	942.62
451.104	968.62
451.324	961.62
451.545	973.62
451.766	985.62
451.986	983.62
452.207	981.62
452.428	959.62
452.648	939.62
452.869	908.62
453.089	903.62
453.31	945.62
453.53	936.62
453.751	935.62
453.971	929.62
454.192	931.62
454.412	936.62
454.633	909.62
454.853	909.62
455.073	882.62
455.294	918.62
455.514	899.62
455.734	886.62
455.955	877.62
456.175	876.62
456.395	870.62
456.616	875.62
456.836	912.62
457.056	888.62
457.276	902.62
457.497	903.62
457.717	874.62
457.937	918.62
458.157	913.62
458.377	903.62
458.598	948.62
458.818	946.62
459.038	985.62
459.258	1013.62
459.478	1036.62
459.698	1063.62
459.918	1092.62
460.138	1121.62
460.358	1230.62
460.578	1244.62
460.798	1250.62
461.018	1266.62
461.238	1231.62
461.458	1181.62
461.678	1172.62
461.898	1243.62
462.118	1255.62
462.338	1305.62
462.558	1317.62
462.777	1358.62
462.997	1506.62
463.217	1635.62
463.437	1653.62
463.657	1577.62
463.876	1494.62
464.096	1478.62
464.316	1437.62
464.536	1447.62
464.755	1394.62
464.975	1345.62
465.195	1277.62
465.414	1224.62
465.634	1126.62
465.854	1080.62
466.073	1082.62
466.293	1059.62
466.512	999.62
466.732	1014.62
466.951	1016.62
467.171	1026.62
467.391	996.62
467.61	993.62
467.829	994.62
468.049	1024.62
468.268	959.62
468.488	969.62
468.707	965.62
468.927	976.62
469.146	960.62
469.365	970.62
469.585	974.62
469.804	1002.62
470.023	1015.62
470.243	1024.62
470.462	1023.62
470.681	1025.62
470.901	1031.62
471.12	1009.62
471.339	1000.62
471.558	993.62
471.777	972.62
471.997	955.62
472.216	961.62
472.435	965.62
472.654	922.62
472.873	953.62
473.092	924.62
473.311	912.62
473.53	927.62
473.749	941.62
473.968	936.62
474.187	949.62
474.406	921.62
474.625	924.62
474.844	947.62
475.063	924.62
475.282	979.62
475.501	927.62
475.72	947.62
475.939	966.62
476.158	966.62
476.377	971.62
476.596	978.62
476.814	1000.62
477.033	1032.62
477.252	1013.62
477.471	1046.62
477.69	1056.62
477.908	1085.62
478.127	1084.62
478.346	1111.62
478.564	1136.62
478.783	1174.62
479.002	1180.62
479.22	1178.62
479.439	1187.62
479.658	1154.62
479.876	1156.62
480.095	1192.62
480.313	1217.62
480.532	1262.62
480.751	1257.62
480.969	1200.62
481.188	1177.62
481.406	1144.62
481.624	1103.62
481.843	1117.62
482.061	1079.62
482.28	1090.62
482.498	1067.62
482.717	1093.62
482.935	1054.62
483.153	1084.62
483.372	1058.62
483.59	1068.62
483.808	1088.62
484.027	1091.62
484.245	1084.62
484.463	1075.62
484.681	1105.62
484.9	1117.62
485.118	1102.62
485.336	1112.62
485.554	1130.62
485.772	1124.62
485.99	1121.62
486.209	1165.62
486.427	1163.62
486.645	1152.62
486.863	1159.62
487.081	1143.62
487.299	1140.62
487.517	1109.62
487.735	1141.62
487.953	1120.62
488.171	1103.62
488.389	1084.62
488.607	1124.62
488.825	1078.62
489.043	1115.62
489.261	1112.62
489.479	1120.62
489.696	1127.62
489.914	1137.62
490.132	1117.62
490.35	1123.62
490.568	1147.62
490.786	1146.62
491.003	1147.62
491.221	1124.62
491.439	1130.62
491.657	1149.62
491.874	1130.62
492.092	1135.62
492.31	1158.62
492.527	1149.62
492.745	1152.62
492.963	1157.62
493.18	1173.62
493.398	1179.62
493.615	1180.62
493.833	1176.62
494.05	1161.62
494.268	1191.62
494.485	1176.62
494.703	1185.62
494.92	1210.62
495.138	1223.62
495.355	1189.62
495.573	1197.62
495.79	1190.62
496.008	1226.62
496.225	1217.62
496.442	1217.62
496.66	1237.62
