Data from NiCl2@0.5M.TitratingCurve.Agarose3%dH2O.NegLispCup.LampEnergy10.LIBS07252019_HRD10591_18-20-52-571.txt Node
Date: Thu Jul 25 18:20:52 EDT 2019
User: cochatt
Spectrometer: HR+D1059
Trigger mode: 1
Integration Time (sec): 1.000000E-1
Scans to average: 1
Electric dark correction enabled: true
Nonlinearity correction enabled: false
Boxcar width: 0
XAxis mode: Wavelengths
Number of Pixels in Spectrum: 2048
>>>>>Begin Spectral Data<<<<<
223.165	-26.56
223.4	-26.56
223.635	-26.56
223.869	-21.56
224.104	-17.56
224.338	3.44
224.573	-14.56
224.808	-12.56
225.042	-2.56
225.277	-6.56
225.511	-10.56
225.746	5.44
225.98	11.44
226.215	8.44
226.449	15.44
226.683	19.44
226.918	24.44
227.152	24.44
227.387	32.44
227.621	35.44
227.856	41.44
228.09	61.44
228.324	57.44
228.559	45.44
228.793	88.44
229.027	121.44
229.262	117.44
229.496	121.44
229.73	119.44
229.964	120.44
230.199	136.44
230.433	145.44
230.667	167.44
230.901	142.44
231.136	143.44
231.37	132.44
231.604	132.44
231.838	151.44
232.072	152.44
232.306	159.44
232.541	169.44
232.775	144.44
233.009	149.44
233.243	145.44
233.477	144.44
233.711	157.44
233.945	153.44
234.179	154.44
234.413	157.44
234.647	148.44
234.881	169.44
235.115	161.44
235.349	165.44
235.583	160.44
235.817	164.44
236.051	154.44
236.285	158.44
236.519	169.44
236.753	157.44
236.987	174.44
237.221	165.44
237.455	165.44
237.689	171.44
237.922	171.44
238.156	189.44
238.39	185.44
238.624	156.44
238.858	175.44
239.091	173.44
239.325	188.44
239.559	185.44
239.793	185.44
240.027	195.44
240.26	171.44
240.494	170.44
240.728	183.44
240.961	182.44
241.195	197.44
241.429	191.44
241.662	181.44
241.896	194.44
242.13	215.44
242.363	202.44
242.597	205.44
242.83	206.44
243.064	186.44
243.298	201.44
243.531	195.44
243.765	223.44
243.998	224.44
244.232	221.44
244.465	223.44
244.699	231.44
244.932	223.44
245.166	206.44
245.399	233.44
245.633	213.44
245.866	227.44
246.099	227.44
246.333	223.44
246.566	216.44
246.8	219.44
247.033	224.44
247.266	222.44
247.5	223.44
247.733	229.44
247.966	221.44
248.2	229.44
248.433	241.44
248.666	232.44
248.899	261.44
249.133	245.44
249.366	249.44
249.599	254.44
249.832	242.44
250.066	262.44
250.299	264.44
250.532	254.44
250.765	260.44
250.998	279.44
251.231	257.44
251.465	274.44
251.698	275.44
251.931	270.44
252.164	264.44
252.397	267.44
252.63	266.44
252.863	273.44
253.096	280.44
253.329	271.44
253.562	293.44
253.795	287.44
254.028	281.44
254.261	266.44
254.494	279.44
254.727	292.44
254.96	284.44
255.193	314.44
255.426	279.44
255.659	284.44
255.892	295.44
256.124	297.44
256.357	303.44
256.59	314.44
256.823	302.44
257.056	298.44
257.289	299.44
257.521	307.44
257.754	291.44
257.987	323.44
258.22	303.44
258.452	296.44
258.685	320.44
258.918	303.44
259.151	325.44
259.383	310.44
259.616	319.44
259.849	339.44
260.081	319.44
260.314	329.44
260.547	345.44
260.779	307.44
261.012	332.44
261.244	319.44
261.477	323.44
261.71	331.44
261.942	340.44
262.175	349.44
262.407	345.44
262.64	310.44
262.872	351.44
263.105	333.44
263.337	339.44
263.57	355.44
263.802	361.44
264.035	359.44
264.267	339.44
264.499	345.44
264.732	356.44
264.964	346.44
265.197	358.44
265.429	359.44
265.661	363.44
265.894	366.44
266.126	374.44
266.358	351.44
266.591	362.44
266.823	369.44
267.055	367.44
267.287	358.44
267.52	378.44
267.752	361.44
267.984	355.44
268.216	359.44
268.448	388.44
268.681	377.44
268.913	378.44
269.145	381.44
269.377	381.44
269.609	399.44
269.841	393.44
270.073	388.44
270.306	389.44
270.538	374.44
270.77	380.44
271.002	394.44
271.234	394.44
271.466	402.44
271.698	403.44
271.93	401.44
272.162	398.44
272.394	398.44
272.626	404.44
272.858	417.44
273.09	415.44
273.322	427.44
273.553	430.44
273.785	409.44
274.017	431.44
274.249	412.44
274.481	432.44
274.713	412.44
274.945	438.44
275.176	395.44
275.408	421.44
275.64	437.44
275.872	425.44
276.104	439.44
276.335	420.44
276.567	438.44
276.799	435.44
277.031	442.44
277.262	431.44
277.494	444.44
277.726	451.44
277.957	453.44
278.189	470.44
278.421	439.44
278.652	445.44
278.884	444.44
279.115	449.44
279.347	471.44
279.579	456.44
279.81	453.44
280.042	470.44
280.273	475.44
280.505	478.44
280.736	465.44
280.968	455.44
281.199	457.44
281.431	443.44
281.662	476.44
281.894	481.44
282.125	471.44
282.356	464.44
282.588	480.44
282.819	484.44
283.051	465.44
283.282	482.44
283.513	500.44
283.745	523.44
283.976	501.44
284.207	492.44
284.439	492.44
284.67	511.44
284.901	505.44
285.132	501.44
285.364	513.44
285.595	501.44
285.826	510.44
286.057	499.44
286.288	492.44
286.52	510.44
286.751	532.44
286.982	518.44
287.213	515.44
287.444	521.44
287.675	502.44
287.906	493.44
288.138	515.44
288.369	512.44
288.6	521.44
288.831	522.44
289.062	519.44
289.293	523.44
289.524	546.44
289.755	529.44
289.986	547.44
290.217	543.44
290.448	523.44
290.679	521.44
290.91	525.44
291.141	523.44
291.371	556.44
291.602	548.44
291.833	553.44
292.064	537.44
292.295	538.44
292.526	527.44
292.757	534.44
292.987	571.44
293.218	557.44
293.449	569.44
293.68	563.44
293.91	552.44
294.141	555.44
294.372	544.44
294.603	535.44
294.833	544.44
295.064	539.44
295.295	543.44
295.525	574.44
295.756	563.44
295.987	552.44
296.217	575.44
296.448	580.44
296.679	574.44
296.909	556.44
297.14	582.44
297.37	565.44
297.601	569.44
297.831	578.44
298.062	594.44
298.292	568.44
298.523	609.44
298.753	606.44
298.984	608.44
299.214	593.44
299.445	612.44
299.675	615.44
299.905	589.44
300.136	610.44
300.366	617.44
300.597	619.44
300.827	624.44
301.057	641.44
301.288	617.44
301.518	632.44
301.748	623.44
301.979	624.44
302.209	633.44
302.439	613.44
302.669	619.44
302.9	630.44
303.13	620.44
303.36	643.44
303.59	615.44
303.82	637.44
304.051	634.44
304.281	641.44
304.511	617.44
304.741	620.44
304.971	646.44
305.201	661.44
305.431	641.44
305.661	636.44
305.891	597.44
306.121	611.44
306.352	631.44
306.582	615.44
306.812	623.44
307.042	600.44
307.272	604.44
307.502	620.44
307.731	622.44
307.961	614.44
308.191	592.44
308.421	600.44
308.651	607.44
308.881	627.44
309.111	605.44
309.341	629.44
309.571	604.44
309.8	621.44
310.03	643.44
310.26	640.44
310.49	643.44
310.72	639.44
310.949	648.44
311.179	627.44
311.409	632.44
311.639	622.44
311.868	633.44
312.098	643.44
312.328	623.44
312.557	663.44
312.787	645.44
313.017	649.44
313.246	662.44
313.476	648.44
313.706	645.44
313.935	682.44
314.165	685.44
314.394	662.44
314.624	667.44
314.853	646.44
315.083	657.44
315.312	638.44
315.542	663.44
315.771	637.44
316.001	670.44
316.23	655.44
316.46	645.44
316.689	655.44
316.919	634.44
317.148	658.44
317.377	657.44
317.607	633.44
317.836	662.44
318.065	664.44
318.295	653.44
318.524	661.44
318.753	683.44
318.983	645.44
319.212	654.44
319.441	624.44
319.67	659.44
319.9	645.44
320.129	678.44
320.358	656.44
320.587	649.44
320.816	663.44
321.046	653.44
321.275	677.44
321.504	653.44
321.733	666.44
321.962	673.44
322.191	667.44
322.42	664.44
322.649	669.44
322.878	682.44
323.108	672.44
323.337	671.44
323.566	677.44
323.795	669.44
324.024	689.44
324.253	703.44
324.482	680.44
324.71	711.44
324.939	698.44
325.168	705.44
325.397	664.44
325.626	678.44
325.855	691.44
326.084	716.44
326.313	732.44
326.542	710.44
326.77	718.44
326.999	693.44
327.228	738.44
327.457	717.44
327.686	700.44
327.914	719.44
328.143	713.44
328.372	695.44
328.6	719.44
328.829	721.44
329.058	694.44
329.287	709.44
329.515	702.44
329.744	705.44
329.972	732.44
330.201	735.44
330.43	752.44
330.658	727.44
330.887	746.44
331.115	767.44
331.344	725.44
331.572	746.44
331.801	765.44
332.03	774.44
332.258	773.44
332.486	785.44
332.715	813.44
332.943	824.44
333.172	814.44
333.4	897.44
333.629	881.44
333.857	888.44
334.085	885.44
334.314	897.44
334.542	883.44
334.771	893.44
334.999	907.44
335.227	893.44
335.455	887.44
335.684	880.44
335.912	883.44
336.14	880.44
336.369	878.44
336.597	880.44
336.825	905.44
337.053	932.44
337.281	887.44
337.51	869.44
337.738	829.44
337.966	835.44
338.194	845.44
338.422	801.44
338.65	781.44
338.878	774.44
339.106	796.44
339.334	815.44
339.562	796.44
339.79	786.44
340.018	777.44
340.246	767.44
340.474	760.44
340.702	759.44
340.93	753.44
341.158	778.44
341.386	811.44
341.614	819.44
341.842	796.44
342.07	737.44
342.298	739.44
342.526	781.44
342.754	735.44
342.981	783.44
343.209	789.44
343.437	815.44
343.665	817.44
343.893	855.44
344.12	862.44
344.348	869.44
344.576	840.44
344.804	827.44
345.031	831.44
345.259	794.44
345.487	767.44
345.714	771.44
345.942	762.44
346.17	763.44
346.397	783.44
346.625	749.44
346.853	726.44
347.08	736.44
347.308	766.44
347.535	751.44
347.763	720.44
347.99	750.44
348.218	716.44
348.445	732.44
348.673	713.44
348.9	732.44
349.128	739.44
349.355	713.44
349.583	763.44
349.81	715.44
350.037	719.44
350.265	725.44
350.492	680.44
350.72	695.44
350.947	697.44
351.174	719.44
351.402	720.44
351.629	748.44
351.856	735.44
352.083	700.44
352.311	707.44
352.538	720.44
352.765	736.44
352.992	691.44
353.22	669.44
353.447	667.44
353.674	695.44
353.901	667.44
354.128	686.44
354.355	676.44
354.583	691.44
354.81	673.44
355.037	678.44
355.264	700.44
355.491	681.44
355.718	670.44
355.945	705.44
356.172	697.44
356.399	714.44
356.626	691.44
356.853	722.44
357.08	706.44
357.307	703.44
357.534	678.44
357.761	696.44
357.988	691.44
358.215	686.44
358.441	693.44
358.668	665.44
358.895	686.44
359.122	693.44
359.349	687.44
359.576	698.44
359.802	677.44
360.029	687.44
360.256	700.44
360.483	661.44
360.709	687.44
360.936	698.44
361.163	707.44
361.39	684.44
361.616	703.44
361.843	711.44
362.07	737.44
362.296	737.44
362.523	695.44
362.749	655.44
362.976	679.44
363.203	684.44
363.429	676.44
363.656	681.44
363.882	683.44
364.109	683.44
364.335	672.44
364.562	678.44
364.788	695.44
365.015	687.44
365.241	678.44
365.468	672.44
365.694	677.44
365.92	694.44
366.147	675.44
366.373	657.44
366.599	712.44
366.826	678.44
367.052	678.44
367.278	671.44
367.505	697.44
367.731	697.44
367.957	680.44
368.184	680.44
368.41	675.44
368.636	669.44
368.862	684.44
369.089	695.44
369.315	687.44
369.541	694.44
369.767	717.44
369.993	698.44
370.219	699.44
370.445	721.44
370.672	730.44
370.898	735.44
371.124	740.44
371.35	756.44
371.576	710.44
371.802	701.44
372.028	744.44
372.254	723.44
372.48	702.44
372.706	792.44
372.932	790.44
373.158	768.44
373.384	746.44
373.61	727.44
373.835	757.44
374.061	731.44
374.287	747.44
374.513	753.44
374.739	756.44
374.965	789.44
375.191	790.44
375.416	786.44
375.642	789.44
375.868	796.44
376.094	780.44
376.319	749.44
376.545	729.44
376.771	735.44
376.997	718.44
377.222	702.44
377.448	726.44
377.674	730.44
377.899	715.44
378.125	687.44
378.35	716.44
378.576	739.44
378.802	700.44
379.027	713.44
379.253	703.44
379.478	715.44
379.704	705.44
379.929	683.44
380.155	707.44
380.38	710.44
380.606	718.44
380.831	701.44
381.057	745.44
381.282	712.44
381.507	725.44
381.733	721.44
381.958	729.44
382.184	733.44
382.409	747.44
382.634	747.44
382.86	735.44
383.085	754.44
383.31	756.44
383.535	752.44
383.761	773.44
383.986	765.44
384.211	785.44
384.436	812.44
384.662	808.44
384.887	814.44
385.112	836.44
385.337	832.44
385.562	835.44
385.787	843.44
386.013	824.44
386.238	841.44
386.463	826.44
386.688	851.44
386.913	855.44
387.138	829.44
387.363	859.44
387.588	841.44
387.813	846.44
388.038	828.44
388.263	847.44
388.488	848.44
388.713	859.44
388.938	849.44
389.163	811.44
389.387	827.44
389.612	810.44
389.837	843.44
390.062	842.44
390.287	840.44
390.512	857.44
390.736	847.44
390.961	865.44
391.186	868.44
391.411	877.44
391.636	905.44
391.86	903.44
392.085	922.44
392.31	937.44
392.534	915.44
392.759	943.44
392.984	888.44
393.208	896.44
393.433	917.44
393.658	893.44
393.882	904.44
394.107	879.44
394.331	909.44
394.556	895.44
394.78	895.44
395.005	897.44
395.229	906.44
395.454	937.44
395.678	937.44
395.903	928.44
396.127	940.44
396.352	925.44
396.576	907.44
396.801	915.44
397.025	948.44
397.249	965.44
397.474	949.44
397.698	956.44
397.922	957.44
398.147	947.44
398.371	983.44
398.595	996.44
398.82	1037.44
399.044	1113.44
399.268	1192.44
399.492	1322.44
399.717	1356.44
399.941	1425.44
400.165	1343.44
400.389	1255.44
400.613	1153.44
400.837	1148.44
401.062	1082.44
401.286	1100.44
401.51	1068.44
401.734	1073.44
401.958	1080.44
402.182	1061.44
402.406	1078.44
402.63	1069.44
402.854	1088.44
403.078	1092.44
403.302	1120.44
403.526	1120.44
403.75	1124.44
403.974	1125.44
404.198	1106.44
404.422	1150.44
404.645	1137.44
404.869	1148.44
405.093	1124.44
405.317	1104.44
405.541	1145.44
405.765	1155.44
405.988	1121.44
406.212	1155.44
406.436	1161.44
406.66	1182.44
406.883	1171.44
407.107	1221.44
407.331	1287.44
407.555	1317.44
407.778	1309.44
408.002	1299.44
408.226	1264.44
408.449	1272.44
408.673	1217.44
408.896	1227.44
409.12	1193.44
409.344	1225.44
409.567	1178.44
409.791	1217.44
410.014	1215.44
410.238	1164.44
410.461	1187.44
410.685	1155.44
410.908	1151.44
411.132	1105.44
411.355	1105.44
411.578	1083.44
411.802	1124.44
412.025	1111.44
412.249	1146.44
412.472	1139.44
412.695	1092.44
412.919	1082.44
413.142	1084.44
413.365	1076.44
413.589	1076.44
413.812	1076.44
414.035	1054.44
414.258	1062.44
414.482	1079.44
414.705	1116.44
414.928	1094.44
415.151	1091.44
415.374	1091.44
415.597	1086.44
415.821	1055.44
416.044	1042.44
416.267	1042.44
416.49	1043.44
416.713	1024.44
416.936	1075.44
417.159	1019.44
417.382	1038.44
417.605	1054.44
417.828	1036.44
418.051	1056.44
418.274	1053.44
418.497	1031.44
418.72	1080.44
418.943	1031.44
419.166	1163.44
419.389	1215.44
419.611	1194.44
419.834	1155.44
420.057	1101.44
420.28	1062.44
420.503	1046.44
420.726	1055.44
420.948	1058.44
421.171	1017.44
421.394	1052.44
421.617	1041.44
421.839	1047.44
422.062	1083.44
422.285	1044.44
422.507	1038.44
422.73	1058.44
422.953	1080.44
423.175	1100.44
423.398	1072.44
423.621	1056.44
423.843	1057.44
424.066	1060.44
424.288	1077.44
424.511	1058.44
424.733	1019.44
424.956	1049.44
425.178	1047.44
425.401	1070.44
425.623	1068.44
425.846	1038.44
426.068	1069.44
426.291	1033.44
426.513	1030.44
426.735	991.44
426.958	1031.44
427.18	1005.44
427.402	1001.44
427.625	980.44
427.847	972.44
428.069	984.44
428.292	997.44
428.514	986.44
428.736	989.44
428.958	1003.44
429.181	992.44
429.403	929.44
429.625	971.44
429.847	952.44
430.069	952.44
430.292	977.44
430.514	983.44
430.736	998.44
430.958	979.44
431.18	957.44
431.402	988.44
431.624	975.44
431.846	987.44
432.068	977.44
432.29	989.44
432.512	979.44
432.734	985.44
432.956	986.44
433.178	991.44
433.4	1012.44
433.622	1000.44
433.844	1031.44
434.066	996.44
434.287	993.44
434.509	1023.44
434.731	1058.44
434.953	1031.44
435.175	1094.44
435.397	1099.44
435.618	1036.44
435.84	1014.44
436.062	1013.44
436.284	995.44
436.505	982.44
436.727	984.44
436.949	991.44
437.17	965.44
437.392	975.44
437.614	969.44
437.835	936.44
438.057	975.44
438.278	939.44
438.5	947.44
438.721	953.44
438.943	987.44
439.165	978.44
439.386	952.44
439.608	984.44
439.829	984.44
440.05	988.44
440.272	963.44
440.493	1008.44
440.715	1015.44
440.936	1012.44
441.158	1052.44
441.379	1020.44
441.6	1085.44
441.822	1049.44
442.043	1114.44
442.264	1072.44
442.486	1056.44
442.707	1042.44
442.928	1077.44
443.149	1080.44
443.371	1050.44
443.592	1113.44
443.813	1079.44
444.034	1097.44
444.255	1126.44
444.476	1134.44
444.698	1199.44
444.919	1239.44
445.14	1294.44
445.361	1156.44
445.582	1123.44
445.803	1109.44
446.024	1069.44
446.245	1047.44
446.466	1039.44
446.687	989.44
446.908	1005.44
447.129	996.44
447.35	989.44
447.571	996.44
447.792	949.44
448.013	935.44
448.234	933.44
448.455	950.44
448.675	909.44
448.896	929.44
449.117	935.44
449.338	920.44
449.559	899.44
449.779	908.44
450	889.44
450.221	910.44
450.442	907.44
450.662	933.44
450.883	936.44
451.104	906.44
451.324	927.44
451.545	934.44
451.766	936.44
451.986	933.44
452.207	921.44
452.428	916.44
452.648	910.44
452.869	908.44
453.089	884.44
453.31	900.44
453.53	876.44
453.751	907.44
453.971	871.44
454.192	914.44
454.412	883.44
454.633	886.44
454.853	869.44
455.073	871.44
455.294	891.44
455.514	877.44
455.734	894.44
455.955	857.44
456.175	876.44
456.395	849.44
456.616	872.44
456.836	871.44
457.056	851.44
457.276	848.44
457.497	868.44
457.717	881.44
457.937	888.44
458.157	893.44
458.377	898.44
458.598	906.44
458.818	918.44
459.038	946.44
459.258	952.44
459.478	994.44
459.698	1040.44
459.918	1062.44
460.138	1070.44
460.358	1111.44
460.578	1129.44
460.798	1149.44
461.018	1168.44
461.238	1112.44
461.458	1125.44
461.678	1128.44
461.898	1166.44
462.118	1145.44
462.338	1222.44
462.558	1252.44
462.777	1273.44
462.997	1368.44
463.217	1424.44
463.437	1429.44
463.657	1355.44
463.876	1313.44
464.096	1326.44
464.316	1307.44
464.536	1292.44
464.755	1287.44
464.975	1237.44
465.195	1186.44
465.414	1122.44
465.634	1069.44
465.854	1091.44
466.073	1073.44
466.293	998.44
466.512	998.44
466.732	965.44
466.951	977.44
467.171	1026.44
467.391	949.44
467.61	939.44
467.829	957.44
468.049	957.44
468.268	904.44
468.488	927.44
468.707	940.44
468.927	959.44
469.146	933.44
469.365	932.44
469.585	930.44
469.804	974.44
470.023	980.44
470.243	983.44
470.462	987.44
470.681	1007.44
470.901	1005.44
471.12	980.44
471.339	972.44
471.558	981.44
471.777	945.44
471.997	918.44
472.216	934.44
472.435	908.44
472.654	927.44
472.873	901.44
473.092	917.44
473.311	926.44
473.53	923.44
473.749	921.44
473.968	912.44
474.187	885.44
474.406	883.44
474.625	896.44
474.844	940.44
475.063	908.44
475.282	916.44
475.501	947.44
475.72	957.44
475.939	920.44
476.158	934.44
476.377	977.44
476.596	973.44
476.814	963.44
477.033	983.44
477.252	998.44
477.471	992.44
477.69	1017.44
477.908	1071.44
478.127	1041.44
478.346	1077.44
478.564	1092.44
478.783	1089.44
479.002	1142.44
479.22	1126.44
479.439	1139.44
479.658	1120.44
479.876	1143.44
480.095	1141.44
480.313	1204.44
480.532	1151.44
480.751	1176.44
480.969	1151.44
481.188	1126.44
481.406	1124.44
481.624	1086.44
481.843	1073.44
482.061	1092.44
482.28	1049.44
482.498	1073.44
482.717	1086.44
482.935	1086.44
483.153	1070.44
483.372	1078.44
483.59	1077.44
483.808	1089.44
484.027	1081.44
484.245	1089.44
484.463	1081.44
484.681	1101.44
484.9	1118.44
485.118	1132.44
485.336	1093.44
485.554	1111.44
485.772	1133.44
485.99	1126.44
486.209	1117.44
486.427	1145.44
486.645	1135.44
486.863	1109.44
487.081	1123.44
487.299	1101.44
487.517	1112.44
487.735	1135.44
487.953	1101.44
488.171	1136.44
488.389	1109.44
488.607	1127.44
488.825	1096.44
489.043	1097.44
489.261	1085.44
489.479	1077.44
489.696	1112.44
489.914	1087.44
490.132	1091.44
490.35	1095.44
490.568	1129.44
490.786	1143.44
491.003	1146.44
491.221	1146.44
491.439	1109.44
491.657	1155.44
491.874	1157.44
492.092	1131.44
492.31	1151.44
492.527	1174.44
492.745	1168.44
492.963	1150.44
493.18	1172.44
493.398	1144.44
493.615	1179.44
493.833	1179.44
494.05	1132.44
494.268	1189.44
494.485	1175.44
494.703	1187.44
494.92	1189.44
495.138	1191.44
495.355	1205.44
495.573	1221.44
495.79	1228.44
496.008	1252.44
496.225	1239.44
496.442	1222.44
496.66	1287.44
496.877	1259.44
497.094	1296.44
497.312	1326.44
497.529	1336.44
