Data from NiCl2@0.125M.TitratingCurve.Agarose3%dH2O.NegLispCup.LampEnergy10.LIBS07252019_HRD10591_18-29-09-575.txt Node
Date: Thu Jul 25 18:29:09 EDT 2019
User: cochatt
Spectrometer: HR+D1059
Trigger mode: 1
Integration Time (sec): 1.000000E-1
Scans to average: 1
Electric dark correction enabled: true
Nonlinearity correction enabled: false
Boxcar width: 0
XAxis mode: Wavelengths
Number of Pixels in Spectrum: 2048
>>>>>Begin Spectral Data<<<<<
223.165	-25.19
223.4	-25.19
223.635	-25.19
223.869	-21.19
224.104	-27.19
224.338	-15.19
224.573	-10.19
224.808	-5.19
225.042	-7.19
225.277	-6.19
225.511	-4.19
225.746	14.81
225.98	10.81
226.215	14.81
226.449	14.81
226.683	25.81
226.918	15.81
227.152	24.81
227.387	40.81
227.621	44.81
227.856	52.81
228.09	40.81
228.324	52.81
228.559	63.81
228.793	68.81
229.027	111.81
229.262	131.81
229.496	125.81
229.73	130.81
229.964	141.81
230.199	134.81
230.433	152.81
230.667	126.81
230.901	146.81
231.136	142.81
231.37	171.81
231.604	159.81
231.838	165.81
232.072	145.81
232.306	163.81
232.541	172.81
232.775	135.81
233.009	168.81
233.243	160.81
233.477	158.81
233.711	158.81
233.945	160.81
234.179	163.81
234.413	161.81
234.647	157.81
234.881	179.81
235.115	185.81
235.349	158.81
235.583	170.81
235.817	172.81
236.051	166.81
236.285	171.81
236.519	159.81
236.753	155.81
236.987	171.81
237.221	165.81
237.455	170.81
237.689	182.81
237.922	183.81
238.156	182.81
238.39	170.81
238.624	179.81
238.858	194.81
239.091	166.81
239.325	199.81
239.559	191.81
239.793	187.81
240.027	207.81
240.26	185.81
240.494	183.81
240.728	205.81
240.961	205.81
241.195	218.81
241.429	200.81
241.662	212.81
241.896	211.81
242.13	212.81
242.363	221.81
242.597	234.81
242.83	215.81
243.064	215.81
243.298	215.81
243.531	222.81
243.765	227.81
243.998	228.81
244.232	238.81
244.465	226.81
244.699	237.81
244.932	246.81
245.166	248.81
245.399	236.81
245.633	232.81
245.866	240.81
246.099	244.81
246.333	248.81
246.566	242.81
246.8	244.81
247.033	264.81
247.266	235.81
247.5	253.81
247.733	255.81
247.966	258.81
248.2	254.81
248.433	248.81
248.666	263.81
248.899	276.81
249.133	282.81
249.366	276.81
249.599	275.81
249.832	273.81
250.066	287.81
250.299	287.81
250.532	300.81
250.765	278.81
250.998	282.81
251.231	263.81
251.465	294.81
251.698	306.81
251.931	303.81
252.164	318.81
252.397	287.81
252.63	298.81
252.863	300.81
253.096	298.81
253.329	304.81
253.562	304.81
253.795	313.81
254.028	322.81
254.261	314.81
254.494	298.81
254.727	294.81
254.96	315.81
255.193	310.81
255.426	302.81
255.659	328.81
255.892	344.81
256.124	328.81
256.357	311.81
256.59	332.81
256.823	322.81
257.056	335.81
257.289	327.81
257.521	317.81
257.754	318.81
257.987	326.81
258.22	346.81
258.452	336.81
258.685	352.81
258.918	336.81
259.151	345.81
259.383	352.81
259.616	326.81
259.849	370.81
260.081	341.81
260.314	338.81
260.547	356.81
260.779	336.81
261.012	342.81
261.244	355.81
261.477	378.81
261.71	368.81
261.942	367.81
262.175	353.81
262.407	365.81
262.64	373.81
262.872	362.81
263.105	366.81
263.337	366.81
263.57	359.81
263.802	386.81
264.035	378.81
264.267	379.81
264.499	359.81
264.732	388.81
264.964	376.81
265.197	382.81
265.429	397.81
265.661	397.81
265.894	393.81
266.126	405.81
266.358	405.81
266.591	381.81
266.823	398.81
267.055	404.81
267.287	399.81
267.52	413.81
267.752	379.81
267.984	404.81
268.216	396.81
268.448	421.81
268.681	408.81
268.913	396.81
269.145	396.81
269.377	405.81
269.609	409.81
269.841	437.81
270.073	424.81
270.306	414.81
270.538	424.81
270.77	416.81
271.002	408.81
271.234	426.81
271.466	432.81
271.698	432.81
271.93	444.81
272.162	414.81
272.394	444.81
272.626	435.81
272.858	452.81
273.09	424.81
273.322	436.81
273.553	413.81
273.785	427.81
274.017	444.81
274.249	454.81
274.481	430.81
274.713	435.81
274.945	432.81
275.176	451.81
275.408	454.81
275.64	461.81
275.872	452.81
276.104	450.81
276.335	456.81
276.567	457.81
276.799	463.81
277.031	477.81
277.262	464.81
277.494	463.81
277.726	464.81
277.957	469.81
278.189	481.81
278.421	471.81
278.652	478.81
278.884	472.81
279.115	489.81
279.347	495.81
279.579	493.81
279.81	488.81
280.042	496.81
280.273	512.81
280.505	478.81
280.736	484.81
280.968	469.81
281.199	516.81
281.431	513.81
281.662	494.81
281.894	520.81
282.125	519.81
282.356	512.81
282.588	524.81
282.819	533.81
283.051	518.81
283.282	507.81
283.513	520.81
283.745	512.81
283.976	526.81
284.207	528.81
284.439	543.81
284.67	532.81
284.901	548.81
285.132	552.81
285.364	520.81
285.595	542.81
285.826	528.81
286.057	549.81
286.288	542.81
286.52	568.81
286.751	564.81
286.982	559.81
287.213	550.81
287.444	566.81
287.675	564.81
287.906	546.81
288.138	570.81
288.369	580.81
288.6	574.81
288.831	565.81
289.062	570.81
289.293	575.81
289.524	570.81
289.755	572.81
289.986	571.81
290.217	567.81
290.448	578.81
290.679	597.81
290.91	568.81
291.141	587.81
291.371	607.81
291.602	599.81
291.833	563.81
292.064	589.81
292.295	590.81
292.526	587.81
292.757	584.81
292.987	591.81
293.218	568.81
293.449	567.81
293.68	595.81
293.91	603.81
294.141	592.81
294.372	596.81
294.603	595.81
294.833	590.81
295.064	582.81
295.295	594.81
295.525	600.81
295.756	591.81
295.987	575.81
296.217	615.81
296.448	598.81
296.679	597.81
296.909	600.81
297.14	621.81
297.37	612.81
297.601	631.81
297.831	613.81
298.062	654.81
298.292	637.81
298.523	649.81
298.753	654.81
298.984	650.81
299.214	646.81
299.445	630.81
299.675	640.81
299.905	657.81
300.136	646.81
300.366	612.81
300.597	648.81
300.827	669.81
301.057	657.81
301.288	693.81
301.518	670.81
301.748	681.81
301.979	666.81
302.209	662.81
302.439	671.81
302.669	661.81
302.9	675.81
303.13	632.81
303.36	646.81
303.59	670.81
303.82	668.81
304.051	672.81
304.281	678.81
304.511	654.81
304.741	646.81
304.971	644.81
305.201	670.81
305.431	650.81
305.661	646.81
305.891	628.81
306.121	635.81
306.352	644.81
306.582	634.81
306.812	652.81
307.042	651.81
307.272	627.81
307.502	639.81
307.731	640.81
307.961	643.81
308.191	664.81
308.421	650.81
308.651	616.81
308.881	614.81
309.111	622.81
309.341	631.81
309.571	622.81
309.8	630.81
310.03	624.81
310.26	641.81
310.49	636.81
310.72	644.81
310.949	637.81
311.179	637.81
311.409	631.81
311.639	645.81
311.868	653.81
312.098	644.81
312.328	659.81
312.557	652.81
312.787	674.81
313.017	687.81
313.246	676.81
313.476	669.81
313.706	677.81
313.935	682.81
314.165	707.81
314.394	703.81
314.624	684.81
314.853	676.81
315.083	685.81
315.312	676.81
315.542	667.81
315.771	678.81
316.001	675.81
316.23	698.81
316.46	680.81
316.689	674.81
316.919	676.81
317.148	670.81
317.377	652.81
317.607	642.81
317.836	654.81
318.065	672.81
318.295	659.81
318.524	678.81
318.753	652.81
318.983	672.81
319.212	639.81
319.441	646.81
319.67	669.81
319.9	662.81
320.129	660.81
320.358	657.81
320.587	662.81
320.816	667.81
321.046	671.81
321.275	663.81
321.504	670.81
321.733	658.81
321.962	677.81
322.191	661.81
322.42	690.81
322.649	668.81
322.878	664.81
323.108	677.81
323.337	666.81
323.566	667.81
323.795	687.81
324.024	676.81
324.253	692.81
324.482	684.81
324.71	690.81
324.939	712.81
325.168	673.81
325.397	696.81
325.626	698.81
325.855	713.81
326.084	709.81
326.313	719.81
326.542	727.81
326.77	749.81
326.999	720.81
327.228	726.81
327.457	725.81
327.686	713.81
327.914	740.81
328.143	733.81
328.372	711.81
328.6	706.81
328.829	703.81
329.058	737.81
329.287	717.81
329.515	730.81
329.744	749.81
329.972	768.81
330.201	727.81
330.43	739.81
330.658	739.81
330.887	735.81
331.115	769.81
331.344	758.81
331.572	762.81
331.801	788.81
332.03	803.81
332.258	856.81
332.486	838.81
332.715	871.81
332.943	928.81
333.172	938.81
333.4	971.81
333.629	1028.81
333.857	1000.81
334.085	1014.81
334.314	954.81
334.542	936.81
334.771	923.81
334.999	933.81
335.227	907.81
335.455	932.81
335.684	937.81
335.912	879.81
336.14	887.81
336.369	896.81
336.597	889.81
336.825	862.81
337.053	913.81
337.281	861.81
337.51	852.81
337.738	846.81
337.966	796.81
338.194	798.81
338.422	776.81
338.65	783.81
338.878	766.81
339.106	801.81
339.334	812.81
339.562	802.81
339.79	743.81
340.018	755.81
340.246	765.81
340.474	755.81
340.702	758.81
340.93	778.81
341.158	734.81
341.386	781.81
341.614	766.81
341.842	735.81
342.07	733.81
342.298	729.81
342.526	778.81
342.754	752.81
342.981	739.81
343.209	791.81
343.437	808.81
343.665	869.81
343.893	933.81
344.12	976.81
344.348	940.81
344.576	843.81
344.804	828.81
345.031	777.81
345.259	785.81
345.487	760.81
345.714	752.81
345.942	740.81
346.17	743.81
346.397	760.81
346.625	742.81
346.853	725.81
347.08	735.81
347.308	755.81
347.535	764.81
347.763	775.81
347.99	778.81
348.218	784.81
348.445	774.81
348.673	731.81
348.9	741.81
349.128	750.81
349.355	750.81
349.583	733.81
349.81	733.81
350.037	721.81
350.265	726.81
350.492	686.81
350.72	686.81
350.947	706.81
351.174	706.81
351.402	717.81
351.629	690.81
351.856	710.81
352.083	720.81
352.311	714.81
352.538	686.81
352.765	686.81
352.992	681.81
353.22	678.81
353.447	675.81
353.674	688.81
353.901	690.81
354.128	686.81
354.355	686.81
354.583	705.81
354.81	686.81
355.037	702.81
355.264	711.81
355.491	717.81
355.718	675.81
355.945	706.81
356.172	686.81
356.399	702.81
356.626	703.81
356.853	702.81
357.08	703.81
357.307	712.81
357.534	700.81
357.761	698.81
357.988	675.81
358.215	694.81
358.441	684.81
358.668	725.81
358.895	698.81
359.122	698.81
359.349	688.81
359.576	724.81
359.802	705.81
360.029	699.81
360.256	723.81
360.483	696.81
360.709	690.81
360.936	707.81
361.163	706.81
361.39	698.81
361.616	703.81
361.843	698.81
362.07	695.81
362.296	711.81
362.523	687.81
362.749	711.81
362.976	701.81
363.203	711.81
363.429	695.81
363.656	718.81
363.882	680.81
364.109	699.81
364.335	692.81
364.562	690.81
364.788	692.81
365.015	704.81
365.241	698.81
365.468	679.81
365.694	694.81
365.92	676.81
366.147	700.81
366.373	726.81
366.599	698.81
366.826	701.81
367.052	696.81
367.278	729.81
367.505	691.81
367.731	700.81
367.957	686.81
368.184	713.81
368.41	744.81
368.636	700.81
368.862	714.81
369.089	722.81
369.315	717.81
369.541	722.81
369.767	743.81
369.993	711.81
370.219	728.81
370.445	746.81
370.672	750.81
370.898	730.81
371.124	744.81
371.35	766.81
371.576	784.81
371.802	775.81
372.028	746.81
372.254	744.81
372.48	776.81
372.706	793.81
372.932	798.81
373.158	785.81
373.384	796.81
373.61	765.81
373.835	763.81
374.061	762.81
374.287	771.81
374.513	756.81
374.739	813.81
374.965	843.81
375.191	883.81
375.416	863.81
375.642	850.81
375.868	822.81
376.094	829.81
376.319	791.81
376.545	773.81
376.771	771.81
376.997	778.81
377.222	773.81
377.448	778.81
377.674	771.81
377.899	752.81
378.125	754.81
378.35	782.81
378.576	774.81
378.802	742.81
379.027	741.81
379.253	737.81
379.478	754.81
379.704	765.81
379.929	769.81
380.155	769.81
380.38	771.81
380.606	750.81
380.831	760.81
381.057	759.81
381.282	781.81
381.507	781.81
381.733	742.81
381.958	791.81
382.184	764.81
382.409	778.81
382.634	777.81
382.86	800.81
383.085	832.81
383.31	798.81
383.535	836.81
383.761	842.81
383.986	840.81
384.211	879.81
384.436	926.81
384.662	906.81
384.887	934.81
385.112	924.81
385.337	941.81
385.562	911.81
385.787	924.81
386.013	941.81
386.238	941.81
386.463	939.81
386.688	969.81
386.913	917.81
387.138	918.81
387.363	907.81
387.588	923.81
387.813	917.81
388.038	883.81
388.263	903.81
388.488	912.81
388.713	912.81
388.938	899.81
389.163	888.81
389.387	901.81
389.612	908.81
389.837	931.81
390.062	887.81
390.287	888.81
390.512	904.81
390.736	906.81
390.961	930.81
391.186	907.81
391.411	995.81
391.636	995.81
391.86	1017.81
392.085	1028.81
392.31	1065.81
392.534	1028.81
392.759	1003.81
392.984	979.81
393.208	974.81
393.433	964.81
393.658	976.81
393.882	984.81
394.107	978.81
394.331	1004.81
394.556	992.81
394.78	1007.81
395.005	963.81
395.229	1013.81
395.454	1025.81
395.678	1027.81
395.903	1061.81
396.127	1014.81
396.352	963.81
396.576	950.81
396.801	970.81
397.025	989.81
397.249	1015.81
397.474	1047.81
397.698	1038.81
397.922	1059.81
398.147	1024.81
398.371	1039.81
398.595	1083.81
398.82	1126.81
399.044	1214.81
399.268	1363.81
399.492	1582.81
399.717	1827.81
399.941	1865.81
400.165	1616.81
400.389	1417.81
400.613	1280.81
400.837	1228.81
401.062	1208.81
401.286	1191.81
401.51	1146.81
401.734	1187.81
401.958	1181.81
402.182	1188.81
402.406	1195.81
402.63	1230.81
402.854	1252.81
403.078	1267.81
403.302	1298.81
403.526	1327.81
403.75	1369.81
403.974	1397.81
404.198	1353.81
404.422	1399.81
404.645	1389.81
404.869	1351.81
405.093	1336.81
405.317	1312.81
405.541	1288.81
405.765	1304.81
405.988	1275.81
406.212	1281.81
406.436	1299.81
406.66	1284.81
406.883	1322.81
407.107	1422.81
407.331	1507.81
407.555	1539.81
407.778	1544.81
408.002	1495.81
408.226	1399.81
408.449	1429.81
408.673	1367.81
408.896	1345.81
409.12	1317.81
409.344	1361.81
409.567	1341.81
409.791	1374.81
410.014	1350.81
410.238	1343.81
410.461	1312.81
410.685	1292.81
410.908	1254.81
411.132	1221.81
411.355	1200.81
411.578	1220.81
411.802	1162.81
412.025	1191.81
412.249	1245.81
412.472	1260.81
412.695	1220.81
412.919	1182.81
413.142	1164.81
413.365	1162.81
413.589	1198.81
413.812	1133.81
414.035	1144.81
414.258	1155.81
414.482	1162.81
414.705	1192.81
414.928	1203.81
415.151	1168.81
415.374	1204.81
415.597	1128.81
415.821	1159.81
416.044	1127.81
416.267	1131.81
416.49	1150.81
416.713	1158.81
416.936	1160.81
417.159	1144.81
417.382	1126.81
417.605	1142.81
417.828	1139.81
418.051	1156.81
418.274	1173.81
418.497	1168.81
418.72	1189.81
418.943	1223.81
419.166	1282.81
419.389	1433.81
419.611	1337.81
419.834	1302.81
420.057	1220.81
420.28	1194.81
420.503	1133.81
420.726	1147.81
420.948	1140.81
421.171	1150.81
421.394	1143.81
421.617	1145.81
421.839	1158.81
422.062	1147.81
422.285	1140.81
422.507	1192.81
422.73	1169.81
422.953	1216.81
423.175	1235.81
423.398	1230.81
423.621	1247.81
423.843	1251.81
424.066	1240.81
424.288	1238.81
424.511	1235.81
424.733	1221.81
424.956	1212.81
425.178	1186.81
425.401	1154.81
425.623	1154.81
425.846	1134.81
426.068	1160.81
426.291	1124.81
426.513	1080.81
426.735	1080.81
426.958	1106.81
427.18	1074.81
427.402	1048.81
427.625	1061.81
427.847	1015.81
428.069	1005.81
428.292	1054.81
428.514	1048.81
428.736	1026.81
428.958	1064.81
429.181	1010.81
429.403	999.81
429.625	1003.81
429.847	989.81
430.069	966.81
430.292	997.81
430.514	998.81
430.736	998.81
430.958	1016.81
431.18	1019.81
431.402	1008.81
431.624	1011.81
431.846	1030.81
432.068	1055.81
432.29	1058.81
432.512	1057.81
432.734	1027.81
432.956	1019.81
433.178	1022.81
433.4	1028.81
433.622	1008.81
433.844	1043.81
434.066	1060.81
434.287	1052.81
434.509	1071.81
434.731	1136.81
434.953	1167.81
435.175	1178.81
435.397	1169.81
435.618	1102.81
435.84	1071.81
436.062	1051.81
436.284	1053.81
436.505	1053.81
436.727	1069.81
436.949	1038.81
437.17	1031.81
437.392	1005.81
437.614	1004.81
437.835	968.81
438.057	998.81
438.278	973.81
438.5	965.81
438.721	990.81
438.943	983.81
439.165	1015.81
439.386	980.81
439.608	1028.81
439.829	1022.81
440.05	1012.81
440.272	1029.81
440.493	1035.81
440.715	1040.81
440.936	1102.81
441.158	1055.81
441.379	1106.81
441.6	1191.81
441.822	1193.81
442.043	1207.81
442.264	1174.81
442.486	1149.81
442.707	1127.81
442.928	1108.81
443.149	1135.81
443.371	1143.81
443.592	1156.81
443.813	1169.81
444.034	1182.81
444.255	1232.81
444.476	1296.81
444.698	1380.81
444.919	1456.81
445.14	1554.81
445.361	1377.81
445.582	1235.81
445.803	1144.81
446.024	1126.81
446.245	1128.81
446.466	1075.81
446.687	1044.81
446.908	1080.81
447.129	1045.81
447.35	1001.81
447.571	989.81
447.792	977.81
448.013	964.81
448.234	957.81
448.455	948.81
448.675	935.81
448.896	968.81
449.117	968.81
449.338	958.81
449.559	944.81
449.779	930.81
450	932.81
450.221	943.81
450.442	948.81
450.662	961.81
450.883	982.81
451.104	1001.81
451.324	971.81
451.545	998.81
451.766	980.81
451.986	973.81
452.207	959.81
452.428	979.81
452.648	978.81
452.869	941.81
453.089	928.81
453.31	937.81
453.53	944.81
453.751	961.81
453.971	928.81
454.192	918.81
454.412	894.81
454.633	876.81
454.853	882.81
455.073	901.81
455.294	884.81
455.514	907.81
455.734	926.81
455.955	901.81
456.175	894.81
456.395	873.81
456.616	876.81
456.836	909.81
457.056	900.81
457.276	857.81
457.497	904.81
457.717	889.81
457.937	892.81
458.157	918.81
458.377	938.81
458.598	909.81
458.818	932.81
459.038	982.81
459.258	1035.81
459.478	1067.81
459.698	1068.81
459.918	1125.81
460.138	1148.81
460.358	1228.81
460.578	1264.81
460.798	1236.81
461.018	1263.81
461.238	1240.81
461.458	1248.81
461.678	1219.81
461.898	1223.81
462.118	1192.81
462.338	1339.81
462.558	1340.81
462.777	1411.81
462.997	1539.81
463.217	1721.81
463.437	1774.81
463.657	1566.81
463.876	1469.81
464.096	1495.81
464.316	1456.81
464.536	1480.81
464.755	1430.81
464.975	1352.81
465.195	1284.81
465.414	1212.81
465.634	1154.81
465.854	1108.81
466.073	1076.81
466.293	1054.81
466.512	1023.81
466.732	999.81
466.951	1010.81
467.171	998.81
467.391	1022.81
467.61	997.81
467.829	985.81
468.049	988.81
468.268	940.81
468.488	952.81
468.707	972.81
468.927	977.81
469.146	974.81
469.365	983.81
469.585	935.81
469.804	1001.81
470.023	1018.81
470.243	1000.81
470.462	1053.81
470.681	1058.81
470.901	1048.81
471.12	1013.81
471.339	1037.81
471.558	970.81
471.777	968.81
471.997	925.81
472.216	916.81
472.435	930.81
472.654	907.81
472.873	910.81
473.092	939.81
473.311	912.81
473.53	918.81
473.749	897.81
473.968	910.81
474.187	927.81
474.406	904.81
474.625	916.81
474.844	913.81
475.063	944.81
475.282	898.81
475.501	957.81
475.72	937.81
475.939	937.81
476.158	943.81
476.377	963.81
476.596	962.81
476.814	951.81
477.033	979.81
477.252	989.81
477.471	1005.81
477.69	1025.81
477.908	1026.81
478.127	1074.81
478.346	1101.81
478.564	1139.81
478.783	1131.81
479.002	1165.81
479.22	1187.81
479.439	1180.81
479.658	1164.81
479.876	1138.81
480.095	1164.81
480.313	1212.81
480.532	1305.81
480.751	1280.81
480.969	1208.81
481.188	1140.81
481.406	1125.81
481.624	1076.81
481.843	1076.81
482.061	1040.81
482.28	1049.81
482.498	1048.81
482.717	1025.81
482.935	1054.81
483.153	1061.81
483.372	1038.81
483.59	1036.81
483.808	1082.81
484.027	1044.81
484.245	1046.81
484.463	1037.81
484.681	1065.81
484.9	1059.81
485.118	1085.81
485.336	1068.81
485.554	1100.81
485.772	1090.81
485.99	1084.81
486.209	1134.81
486.427	1137.81
486.645	1086.81
486.863	1115.81
487.081	1099.81
487.299	1092.81
487.517	1086.81
487.735	1092.81
487.953	1095.81
488.171	1066.81
488.389	1096.81
488.607	1066.81
488.825	1081.81
489.043	1072.81
489.261	1065.81
489.479	1096.81
489.696	1088.81
489.914	1053.81
490.132	1104.81
490.35	1095.81
490.568	1092.81
490.786	1091.81
491.003	1106.81
491.221	1091.81
491.439	1108.81
491.657	1107.81
491.874	1103.81
492.092	1141.81
492.31	1084.81
492.527	1108.81
492.745	1159.81
492.963	1130.81
493.18	1106.81
493.398	1135.81
493.615	1153.81
493.833	1147.81
494.05	1142.81
494.268	1210.81
494.485	1142.81
494.703	1177.81
494.92	1197.81
495.138	1158.81
495.355	1152.81
495.573	1174.81
495.79	1154.81
496.008	1197.81
496.225	1186.81
496.442	1212.81
496.66	1200.81
