Data from NiCl2@0.25M.TitratingCurve.Agarose3%dH2O.NegLispCup.LampEnergy10.LIBS07252019_HRD10591_18-25-57-573.txt Node
Date: Thu Jul 25 18:25:57 EDT 2019
User: cochatt
Spectrometer: HR+D1059
Trigger mode: 1
Integration Time (sec): 1.000000E-1
Scans to average: 1
Electric dark correction enabled: true
Nonlinearity correction enabled: false
Boxcar width: 0
XAxis mode: Wavelengths
Number of Pixels in Spectrum: 2048
>>>>>Begin Spectral Data<<<<<
223.165	-6.31
223.4	-6.31
223.635	-6.31
223.869	-24.31
224.104	-24.31
224.338	-12.31
224.573	-16.31
224.808	-11.31
225.042	-15.31
225.277	-11.31
225.511	-4.31
225.746	7.69
225.98	10.69
226.215	11.69
226.449	24.69
226.683	16.69
226.918	28.69
227.152	25.69
227.387	32.69
227.621	33.69
227.856	48.69
228.09	50.69
228.324	43.69
228.559	52.69
228.793	66.69
229.027	105.69
229.262	107.69
229.496	116.69
229.73	125.69
229.964	126.69
230.199	147.69
230.433	141.69
230.667	131.69
230.901	136.69
231.136	138.69
231.37	153.69
231.604	156.69
231.838	144.69
232.072	152.69
232.306	132.69
232.541	143.69
232.775	157.69
233.009	139.69
233.243	144.69
233.477	178.69
233.711	156.69
233.945	150.69
234.179	152.69
234.413	153.69
234.647	165.69
234.881	153.69
235.115	144.69
235.349	154.69
235.583	168.69
235.817	165.69
236.051	162.69
236.285	165.69
236.519	168.69
236.753	168.69
236.987	163.69
237.221	168.69
237.455	182.69
237.689	172.69
237.922	168.69
238.156	173.69
238.39	178.69
238.624	175.69
238.858	182.69
239.091	176.69
239.325	172.69
239.559	173.69
239.793	192.69
240.027	198.69
240.26	185.69
240.494	185.69
240.728	192.69
240.961	204.69
241.195	192.69
241.429	199.69
241.662	198.69
241.896	210.69
242.13	196.69
242.363	199.69
242.597	200.69
242.83	198.69
243.064	193.69
243.298	215.69
243.531	217.69
243.765	218.69
243.998	219.69
244.232	214.69
244.465	222.69
244.699	227.69
244.932	231.69
245.166	219.69
245.399	225.69
245.633	228.69
245.866	226.69
246.099	234.69
246.333	231.69
246.566	226.69
246.8	240.69
247.033	234.69
247.266	215.69
247.5	225.69
247.733	239.69
247.966	246.69
248.2	246.69
248.433	231.69
248.666	245.69
248.899	265.69
249.133	258.69
249.366	254.69
249.599	268.69
249.832	260.69
250.066	259.69
250.299	266.69
250.532	264.69
250.765	270.69
250.998	262.69
251.231	265.69
251.465	264.69
251.698	268.69
251.931	277.69
252.164	270.69
252.397	289.69
252.63	268.69
252.863	289.69
253.096	304.69
253.329	288.69
253.562	278.69
253.795	301.69
254.028	286.69
254.261	292.69
254.494	301.69
254.727	313.69
254.96	291.69
255.193	294.69
255.426	310.69
255.659	276.69
255.892	305.69
256.124	295.69
256.357	293.69
256.59	302.69
256.823	320.69
257.056	310.69
257.289	301.69
257.521	323.69
257.754	318.69
257.987	316.69
258.22	328.69
258.452	299.69
258.685	314.69
258.918	322.69
259.151	310.69
259.383	328.69
259.616	333.69
259.849	331.69
260.081	321.69
260.314	339.69
260.547	339.69
260.779	336.69
261.012	328.69
261.244	322.69
261.477	340.69
261.71	336.69
261.942	342.69
262.175	330.69
262.407	360.69
262.64	352.69
262.872	347.69
263.105	357.69
263.337	363.69
263.57	353.69
263.802	335.69
264.035	334.69
264.267	368.69
264.499	374.69
264.732	357.69
264.964	368.69
265.197	373.69
265.429	370.69
265.661	370.69
265.894	393.69
266.126	374.69
266.358	365.69
266.591	376.69
266.823	386.69
267.055	385.69
267.287	388.69
267.52	370.69
267.752	364.69
267.984	382.69
268.216	378.69
268.448	397.69
268.681	379.69
268.913	385.69
269.145	390.69
269.377	390.69
269.609	391.69
269.841	390.69
270.073	388.69
270.306	404.69
270.538	388.69
270.77	378.69
271.002	414.69
271.234	392.69
271.466	402.69
271.698	394.69
271.93	381.69
272.162	424.69
272.394	412.69
272.626	414.69
272.858	395.69
273.09	406.69
273.322	420.69
273.553	417.69
273.785	411.69
274.017	409.69
274.249	416.69
274.481	415.69
274.713	420.69
274.945	448.69
275.176	445.69
275.408	432.69
275.64	450.69
275.872	428.69
276.104	426.69
276.335	457.69
276.567	462.69
276.799	448.69
277.031	456.69
277.262	450.69
277.494	459.69
277.726	449.69
277.957	449.69
278.189	454.69
278.421	466.69
278.652	466.69
278.884	460.69
279.115	460.69
279.347	468.69
279.579	465.69
279.81	475.69
280.042	457.69
280.273	485.69
280.505	468.69
280.736	466.69
280.968	489.69
281.199	485.69
281.431	484.69
281.662	488.69
281.894	509.69
282.125	466.69
282.356	500.69
282.588	476.69
282.819	504.69
283.051	511.69
283.282	487.69
283.513	498.69
283.745	482.69
283.976	486.69
284.207	519.69
284.439	508.69
284.67	498.69
284.901	520.69
285.132	527.69
285.364	503.69
285.595	511.69
285.826	521.69
286.057	526.69
286.288	545.69
286.52	522.69
286.751	527.69
286.982	537.69
287.213	521.69
287.444	508.69
287.675	548.69
287.906	540.69
288.138	527.69
288.369	514.69
288.6	528.69
288.831	552.69
289.062	556.69
289.293	546.69
289.524	538.69
289.755	541.69
289.986	549.69
290.217	556.69
290.448	565.69
290.679	561.69
290.91	546.69
291.141	553.69
291.371	551.69
291.602	577.69
291.833	542.69
292.064	569.69
292.295	577.69
292.526	527.69
292.757	536.69
292.987	547.69
293.218	550.69
293.449	563.69
293.68	545.69
293.91	567.69
294.141	554.69
294.372	546.69
294.603	577.69
294.833	589.69
295.064	561.69
295.295	595.69
295.525	571.69
295.756	552.69
295.987	581.69
296.217	574.69
296.448	573.69
296.679	577.69
296.909	581.69
297.14	596.69
297.37	586.69
297.601	599.69
297.831	598.69
298.062	591.69
298.292	597.69
298.523	628.69
298.753	626.69
298.984	610.69
299.214	617.69
299.445	612.69
299.675	608.69
299.905	642.69
300.136	610.69
300.366	600.69
300.597	590.69
300.827	605.69
301.057	632.69
301.288	617.69
301.518	618.69
301.748	638.69
301.979	649.69
302.209	643.69
302.439	631.69
302.669	609.69
302.9	636.69
303.13	607.69
303.36	630.69
303.59	614.69
303.82	638.69
304.051	644.69
304.281	633.69
304.511	628.69
304.741	636.69
304.971	634.69
305.201	632.69
305.431	638.69
305.661	618.69
305.891	632.69
306.121	619.69
306.352	636.69
306.582	613.69
306.812	608.69
307.042	600.69
307.272	605.69
307.502	622.69
307.731	606.69
307.961	602.69
308.191	600.69
308.421	632.69
308.651	628.69
308.881	609.69
309.111	597.69
309.341	612.69
309.571	629.69
309.8	614.69
310.03	633.69
310.26	613.69
310.49	620.69
310.72	627.69
310.949	609.69
311.179	630.69
311.409	623.69
311.639	603.69
311.868	634.69
312.098	634.69
312.328	642.69
312.557	613.69
312.787	672.69
313.017	659.69
313.246	652.69
313.476	653.69
313.706	659.69
313.935	672.69
314.165	672.69
314.394	644.69
314.624	661.69
314.853	670.69
315.083	670.69
315.312	690.69
315.542	648.69
315.771	660.69
316.001	660.69
316.23	647.69
316.46	650.69
316.689	652.69
316.919	633.69
317.148	636.69
317.377	643.69
317.607	642.69
317.836	654.69
318.065	648.69
318.295	630.69
318.524	645.69
318.753	662.69
318.983	638.69
319.212	616.69
319.441	655.69
319.67	667.69
319.9	639.69
320.129	673.69
320.358	640.69
320.587	646.69
320.816	658.69
321.046	632.69
321.275	630.69
321.504	635.69
321.733	653.69
321.962	644.69
322.191	664.69
322.42	668.69
322.649	644.69
322.878	654.69
323.108	645.69
323.337	682.69
323.566	662.69
323.795	669.69
324.024	635.69
324.253	666.69
324.482	650.69
324.71	664.69
324.939	683.69
325.168	662.69
325.397	685.69
325.626	717.69
325.855	710.69
326.084	692.69
326.313	703.69
326.542	713.69
326.77	718.69
326.999	718.69
327.228	690.69
327.457	706.69
327.686	693.69
327.914	706.69
328.143	710.69
328.372	716.69
328.6	703.69
328.829	700.69
329.058	730.69
329.287	708.69
329.515	726.69
329.744	711.69
329.972	706.69
330.201	726.69
330.43	760.69
330.658	716.69
330.887	715.69
331.115	734.69
331.344	745.69
331.572	735.69
331.801	780.69
332.03	788.69
332.258	788.69
332.486	810.69
332.715	832.69
332.943	868.69
333.172	890.69
333.4	926.69
333.629	940.69
333.857	954.69
334.085	940.69
334.314	945.69
334.542	932.69
334.771	902.69
334.999	926.69
335.227	893.69
335.455	898.69
335.684	863.69
335.912	905.69
336.14	887.69
336.369	882.69
336.597	872.69
336.825	873.69
337.053	858.69
337.281	836.69
337.51	850.69
337.738	827.69
337.966	826.69
338.194	812.69
338.422	788.69
338.65	790.69
338.878	785.69
339.106	749.69
339.334	774.69
339.562	756.69
339.79	730.69
340.018	756.69
340.246	728.69
340.474	732.69
340.702	735.69
340.93	783.69
341.158	771.69
341.386	737.69
341.614	759.69
341.842	736.69
342.07	732.69
342.298	708.69
342.526	721.69
342.754	749.69
342.981	740.69
343.209	765.69
343.437	796.69
343.665	832.69
343.893	875.69
344.12	927.69
344.348	896.69
344.576	845.69
344.804	829.69
345.031	776.69
345.259	768.69
345.487	759.69
345.714	748.69
345.942	718.69
346.17	750.69
346.397	746.69
346.625	720.69
346.853	729.69
347.08	714.69
347.308	720.69
347.535	728.69
347.763	716.69
347.99	719.69
348.218	737.69
348.445	722.69
348.673	724.69
348.9	716.69
349.128	733.69
349.355	702.69
349.583	708.69
349.81	715.69
350.037	686.69
350.265	692.69
350.492	693.69
350.72	707.69
350.947	694.69
351.174	706.69
351.402	697.69
351.629	678.69
351.856	688.69
352.083	688.69
352.311	679.69
352.538	696.69
352.765	677.69
352.992	686.69
353.22	678.69
353.447	688.69
353.674	685.69
353.901	684.69
354.128	674.69
354.355	659.69
354.583	664.69
354.81	693.69
355.037	716.69
355.264	711.69
355.491	677.69
355.718	674.69
355.945	676.69
356.172	672.69
356.399	705.69
356.626	698.69
356.853	712.69
357.08	711.69
357.307	712.69
357.534	682.69
357.761	690.69
357.988	696.69
358.215	701.69
358.441	685.69
358.668	685.69
358.895	716.69
359.122	672.69
359.349	653.69
359.576	699.69
359.802	686.69
360.029	706.69
360.256	684.69
360.483	717.69
360.709	707.69
360.936	707.69
361.163	691.69
361.39	680.69
361.616	685.69
361.843	677.69
362.07	685.69
362.296	714.69
362.523	677.69
362.749	695.69
362.976	690.69
363.203	695.69
363.429	673.69
363.656	690.69
363.882	678.69
364.109	695.69
364.335	678.69
364.562	664.69
364.788	675.69
365.015	688.69
365.241	706.69
365.468	699.69
365.694	680.69
365.92	685.69
366.147	690.69
366.373	690.69
366.599	707.69
366.826	695.69
367.052	683.69
367.278	696.69
367.505	667.69
367.731	694.69
367.957	716.69
368.184	692.69
368.41	697.69
368.636	702.69
368.862	685.69
369.089	698.69
369.315	710.69
369.541	698.69
369.767	708.69
369.993	715.69
370.219	731.69
370.445	708.69
370.672	714.69
370.898	710.69
371.124	732.69
371.35	736.69
371.576	735.69
371.802	786.69
372.028	746.69
372.254	741.69
372.48	763.69
372.706	763.69
372.932	793.69
373.158	784.69
373.384	774.69
373.61	752.69
373.835	752.69
374.061	752.69
374.287	765.69
374.513	782.69
374.739	783.69
374.965	832.69
375.191	856.69
375.416	837.69
375.642	796.69
375.868	813.69
376.094	792.69
376.319	775.69
376.545	767.69
376.771	738.69
376.997	750.69
377.222	745.69
377.448	756.69
377.674	762.69
377.899	749.69
378.125	734.69
378.35	769.69
378.576	746.69
378.802	729.69
379.027	719.69
379.253	732.69
379.478	719.69
379.704	722.69
379.929	725.69
380.155	744.69
380.38	757.69
380.606	748.69
380.831	759.69
381.057	764.69
381.282	757.69
381.507	737.69
381.733	760.69
381.958	778.69
382.184	756.69
382.409	781.69
382.634	774.69
382.86	754.69
383.085	780.69
383.31	812.69
383.535	812.69
383.761	830.69
383.986	812.69
384.211	861.69
384.436	878.69
384.662	892.69
384.887	874.69
385.112	900.69
385.337	906.69
385.562	913.69
385.787	924.69
386.013	912.69
386.238	906.69
386.463	898.69
386.688	915.69
386.913	913.69
387.138	900.69
387.363	902.69
387.588	898.69
387.813	897.69
388.038	906.69
388.263	891.69
388.488	913.69
388.713	910.69
388.938	906.69
389.163	887.69
389.387	918.69
389.612	874.69
389.837	876.69
390.062	875.69
390.287	886.69
390.512	869.69
390.736	898.69
390.961	914.69
391.186	911.69
391.411	976.69
391.636	976.69
391.86	1000.69
392.085	1021.69
392.31	1024.69
392.534	987.69
392.759	1019.69
392.984	986.69
393.208	973.69
393.433	955.69
393.658	958.69
393.882	956.69
394.107	984.69
394.331	952.69
394.556	965.69
394.78	980.69
395.005	982.69
395.229	988.69
395.454	999.69
395.678	1038.69
395.903	1018.69
396.127	1008.69
396.352	974.69
396.576	968.69
396.801	985.69
397.025	978.69
397.249	1013.69
397.474	1030.69
397.698	1025.69
397.922	1037.69
398.147	1051.69
398.371	1080.69
398.595	1105.69
398.82	1145.69
399.044	1233.69
399.268	1361.69
399.492	1501.69
399.717	1680.69
399.941	1698.69
400.165	1557.69
400.389	1416.69
400.613	1326.69
400.837	1252.69
401.062	1220.69
401.286	1180.69
401.51	1172.69
401.734	1162.69
401.958	1159.69
402.182	1208.69
402.406	1195.69
402.63	1211.69
402.854	1253.69
403.078	1244.69
403.302	1215.69
403.526	1288.69
403.75	1286.69
403.974	1325.69
404.198	1298.69
404.422	1319.69
404.645	1309.69
404.869	1267.69
405.093	1294.69
405.317	1256.69
405.541	1284.69
405.765	1281.69
405.988	1242.69
406.212	1268.69
406.436	1294.69
406.66	1297.69
406.883	1325.69
407.107	1373.69
407.331	1427.69
407.555	1516.69
407.778	1509.69
408.002	1452.69
408.226	1422.69
408.449	1365.69
408.673	1359.69
408.896	1318.69
409.12	1301.69
409.344	1344.69
409.567	1309.69
409.791	1333.69
410.014	1300.69
410.238	1241.69
410.461	1267.69
410.685	1261.69
410.908	1231.69
411.132	1232.69
411.355	1185.69
411.578	1196.69
411.802	1202.69
412.025	1173.69
412.249	1217.69
412.472	1195.69
412.695	1204.69
412.919	1146.69
413.142	1144.69
413.365	1154.69
413.589	1141.69
413.812	1168.69
414.035	1130.69
414.258	1124.69
414.482	1176.69
414.705	1179.69
414.928	1148.69
415.151	1150.69
415.374	1124.69
415.597	1103.69
415.821	1120.69
416.044	1090.69
416.267	1094.69
416.49	1085.69
416.713	1118.69
416.936	1119.69
417.159	1092.69
417.382	1108.69
417.605	1146.69
417.828	1124.69
418.051	1108.69
418.274	1118.69
418.497	1125.69
418.72	1140.69
418.943	1131.69
419.166	1249.69
419.389	1300.69
419.611	1316.69
419.834	1220.69
420.057	1185.69
420.28	1169.69
420.503	1131.69
420.726	1103.69
420.948	1108.69
421.171	1128.69
421.394	1134.69
421.617	1127.69
421.839	1152.69
422.062	1131.69
422.285	1100.69
422.507	1155.69
422.73	1167.69
422.953	1145.69
423.175	1166.69
423.398	1192.69
423.621	1159.69
423.843	1207.69
424.066	1186.69
424.288	1192.69
424.511	1190.69
424.733	1150.69
424.956	1150.69
425.178	1141.69
425.401	1151.69
425.623	1117.69
425.846	1122.69
426.068	1110.69
426.291	1097.69
426.513	1081.69
426.735	1065.69
426.958	1048.69
427.18	1022.69
427.402	1048.69
427.625	1036.69
427.847	1028.69
428.069	993.69
428.292	1030.69
428.514	1034.69
428.736	991.69
428.958	1020.69
429.181	982.69
429.403	973.69
429.625	988.69
429.847	952.69
430.069	996.69
430.292	984.69
430.514	982.69
430.736	964.69
430.958	976.69
431.18	1004.69
431.402	958.69
431.624	969.69
431.846	1009.69
432.068	1004.69
432.29	1044.69
432.512	972.69
432.734	1016.69
432.956	993.69
433.178	1034.69
433.4	993.69
433.622	996.69
433.844	1043.69
434.066	1026.69
434.287	1047.69
434.509	1100.69
434.731	1101.69
434.953	1126.69
435.175	1117.69
435.397	1112.69
435.618	1045.69
435.84	1054.69
436.062	1024.69
436.284	998.69
436.505	996.69
436.727	1036.69
436.949	1027.69
437.17	1021.69
437.392	1012.69
437.614	966.69
437.835	931.69
438.057	979.69
438.278	932.69
438.5	949.69
438.721	978.69
438.943	965.69
439.165	974.69
439.386	952.69
439.608	1008.69
439.829	979.69
440.05	996.69
440.272	1007.69
440.493	996.69
440.715	1033.69
440.936	1005.69
441.158	1042.69
441.379	1075.69
441.6	1152.69
441.822	1150.69
442.043	1114.69
442.264	1096.69
442.486	1088.69
442.707	1096.69
442.928	1093.69
443.149	1123.69
443.371	1075.69
443.592	1144.69
443.813	1130.69
444.034	1130.69
444.255	1146.69
444.476	1243.69
444.698	1290.69
444.919	1312.69
445.14	1344.69
445.361	1243.69
445.582	1161.69
445.803	1110.69
446.024	1059.69
446.245	1052.69
446.466	1027.69
446.687	1016.69
446.908	1029.69
447.129	995.69
447.35	958.69
447.571	979.69
447.792	940.69
448.013	937.69
448.234	930.69
448.455	928.69
448.675	919.69
448.896	901.69
449.117	901.69
449.338	895.69
449.559	885.69
449.779	894.69
450	937.69
450.221	886.69
450.442	898.69
450.662	927.69
450.883	900.69
451.104	950.69
451.324	941.69
451.545	931.69
451.766	933.69
451.986	948.69
452.207	910.69
452.428	892.69
452.648	904.69
452.869	870.69
453.089	880.69
453.31	917.69
453.53	884.69
453.751	922.69
453.971	914.69
454.192	884.69
454.412	852.69
454.633	885.69
454.853	889.69
455.073	846.69
455.294	900.69
455.514	851.69
455.734	830.69
455.955	835.69
456.175	864.69
456.395	853.69
456.616	873.69
456.836	852.69
457.056	845.69
457.276	849.69
457.497	881.69
457.717	876.69
457.937	853.69
458.157	876.69
458.377	906.69
458.598	916.69
458.818	930.69
459.038	974.69
459.258	1002.69
459.478	1008.69
459.698	1048.69
459.918	1059.69
460.138	1105.69
460.358	1156.69
460.578	1176.69
460.798	1210.69
461.018	1198.69
461.238	1221.69
461.458	1178.69
461.678	1204.69
461.898	1203.69
462.118	1238.69
462.338	1289.69
462.558	1295.69
462.777	1362.69
462.997	1457.69
463.217	1541.69
463.437	1617.69
463.657	1478.69
463.876	1422.69
464.096	1434.69
464.316	1431.69
464.536	1392.69
464.755	1346.69
464.975	1307.69
465.195	1233.69
465.414	1160.69
465.634	1098.69
465.854	1075.69
466.073	1024.69
466.293	1010.69
466.512	978.69
466.732	980.69
466.951	960.69
467.171	965.69
467.391	979.69
467.61	954.69
467.829	953.69
468.049	933.69
468.268	930.69
468.488	927.69
468.707	944.69
468.927	930.69
469.146	918.69
469.365	938.69
469.585	944.69
469.804	932.69
470.023	988.69
470.243	960.69
470.462	986.69
470.681	1001.69
470.901	991.69
471.12	956.69
471.339	952.69
471.558	949.69
471.777	915.69
471.997	955.69
472.216	943.69
472.435	903.69
472.654	891.69
472.873	893.69
473.092	885.69
473.311	890.69
473.53	887.69
473.749	904.69
473.968	900.69
474.187	917.69
474.406	891.69
474.625	929.69
474.844	892.69
475.063	908.69
475.282	876.69
475.501	900.69
475.72	924.69
475.939	937.69
476.158	932.69
476.377	955.69
476.596	944.69
476.814	956.69
477.033	936.69
477.252	985.69
477.471	999.69
477.69	1024.69
477.908	1016.69
478.127	1068.69
478.346	1066.69
478.564	1081.69
478.783	1108.69
479.002	1127.69
479.22	1140.69
479.439	1136.69
479.658	1141.69
479.876	1133.69
480.095	1152.69
480.313	1186.69
480.532	1196.69
480.751	1220.69
480.969	1138.69
481.188	1148.69
481.406	1097.69
481.624	1070.69
481.843	1059.69
482.061	1048.69
482.28	1048.69
482.498	1029.69
482.717	1034.69
482.935	1011.69
483.153	1008.69
483.372	1013.69
483.59	1054.69
483.808	1051.69
484.027	1012.69
484.245	1033.69
484.463	1058.69
484.681	1054.69
484.9	1053.69
485.118	1059.69
485.336	1053.69
485.554	1071.69
485.772	1096.69
485.99	1092.69
486.209	1112.69
486.427	1123.69
486.645	1117.69
486.863	1082.69
487.081	1098.69
487.299	1062.69
487.517	1064.69
487.735	1070.69
487.953	1072.69
488.171	1080.69
488.389	1070.69
488.607	1090.69
488.825	1062.69
489.043	1045.69
489.261	1080.69
489.479	1082.69
489.696	1066.69
489.914	1094.69
490.132	1100.69
490.35	1107.69
490.568	1140.69
490.786	1102.69
491.003	1090.69
491.221	1089.69
491.439	1091.69
491.657	1101.69
491.874	1114.69
492.092	1097.69
492.31	1118.69
492.527	1106.69
492.745	1112.69
492.963	1155.69
493.18	1140.69
493.398	1150.69
493.615	1152.69
493.833	1150.69
494.05	1137.69
494.268	1176.69
494.485	1177.69
494.703	1173.69
494.92	1141.69
495.138	1173.69
495.355	1172.69
495.573	1181.69
495.79	1187.69
496.008	1202.69
496.225	1204.69
496.442	1189.69
496.66	1222.69
496.877	1214.69
497.094	1257.69
