Data from NiCl2@0.125M.TitratingCurve.Agarose3%dH2O.NegLispCup.LampEnergy10.LIBS07252019_HRD10591_18-27-28-574.txt Node
Date: Thu Jul 25 18:27:28 EDT 2019
User: cochatt
Spectrometer: HR+D1059
Trigger mode: 1
Integration Time (sec): 1.000000E-1
Scans to average: 1
Electric dark correction enabled: true
Nonlinearity correction enabled: false
Boxcar width: 0
XAxis mode: Wavelengths
Number of Pixels in Spectrum: 2048
>>>>>Begin Spectral Data<<<<<
223.165	-17.56
223.4	-17.56
223.635	-17.56
223.869	-7.56
224.104	5.44
224.338	-14.56
224.573	-18.56
224.808	-25.56
225.042	-6.56
225.277	-3.56
225.511	5.44
225.746	-8.56
225.98	5.44
226.215	5.44
226.449	21.44
226.683	14.44
226.918	27.44
227.152	17.44
227.387	14.44
227.621	53.44
227.856	42.44
228.09	57.44
228.324	57.44
228.559	73.44
228.793	78.44
229.027	100.44
229.262	129.44
229.496	122.44
229.73	134.44
229.964	128.44
230.199	129.44
230.433	143.44
230.667	151.44
230.901	156.44
231.136	157.44
231.37	159.44
231.604	172.44
231.838	150.44
232.072	151.44
232.306	148.44
232.541	159.44
232.775	169.44
233.009	159.44
233.243	170.44
233.477	150.44
233.711	161.44
233.945	147.44
234.179	161.44
234.413	173.44
234.647	166.44
234.881	159.44
235.115	173.44
235.349	171.44
235.583	163.44
235.817	169.44
236.051	165.44
236.285	176.44
236.519	178.44
236.753	185.44
236.987	170.44
237.221	169.44
237.455	179.44
237.689	176.44
237.922	194.44
238.156	186.44
238.39	182.44
238.624	182.44
238.858	189.44
239.091	187.44
239.325	183.44
239.559	174.44
239.793	205.44
240.027	199.44
240.26	194.44
240.494	211.44
240.728	210.44
240.961	193.44
241.195	193.44
241.429	204.44
241.662	207.44
241.896	202.44
242.13	234.44
242.363	213.44
242.597	228.44
242.83	219.44
243.064	221.44
243.298	235.44
243.531	230.44
243.765	230.44
243.998	239.44
244.232	226.44
244.465	255.44
244.699	242.44
244.932	242.44
245.166	234.44
245.399	252.44
245.633	244.44
245.866	254.44
246.099	250.44
246.333	254.44
246.566	260.44
246.8	253.44
247.033	278.44
247.266	267.44
247.5	268.44
247.733	253.44
247.966	282.44
248.2	270.44
248.433	278.44
248.666	288.44
248.899	277.44
249.133	297.44
249.366	283.44
249.599	276.44
249.832	278.44
250.066	286.44
250.299	291.44
250.532	280.44
250.765	286.44
250.998	300.44
251.231	298.44
251.465	316.44
251.698	311.44
251.931	315.44
252.164	319.44
252.397	299.44
252.63	309.44
252.863	305.44
253.096	307.44
253.329	325.44
253.562	330.44
253.795	325.44
254.028	321.44
254.261	316.44
254.494	330.44
254.727	324.44
254.96	335.44
255.193	343.44
255.426	319.44
255.659	318.44
255.892	325.44
256.124	322.44
256.357	334.44
256.59	346.44
256.823	330.44
257.056	337.44
257.289	350.44
257.521	355.44
257.754	325.44
257.987	352.44
258.22	337.44
258.452	346.44
258.685	345.44
258.918	355.44
259.151	347.44
259.383	355.44
259.616	370.44
259.849	353.44
260.081	366.44
260.314	373.44
260.547	379.44
260.779	373.44
261.012	377.44
261.244	389.44
261.477	379.44
261.71	378.44
261.942	365.44
262.175	391.44
262.407	398.44
262.64	392.44
262.872	399.44
263.105	385.44
263.337	397.44
263.57	380.44
263.802	372.44
264.035	382.44
264.267	392.44
264.499	407.44
264.732	420.44
264.964	392.44
265.197	397.44
265.429	395.44
265.661	419.44
265.894	417.44
266.126	409.44
266.358	392.44
266.591	430.44
266.823	418.44
267.055	417.44
267.287	427.44
267.52	413.44
267.752	443.44
267.984	408.44
268.216	413.44
268.448	428.44
268.681	420.44
268.913	433.44
269.145	437.44
269.377	434.44
269.609	427.44
269.841	432.44
270.073	431.44
270.306	424.44
270.538	446.44
270.77	436.44
271.002	432.44
271.234	455.44
271.466	445.44
271.698	429.44
271.93	444.44
272.162	443.44
272.394	462.44
272.626	445.44
272.858	468.44
273.09	464.44
273.322	513.44
273.553	460.44
273.785	469.44
274.017	469.44
274.249	467.44
274.481	482.44
274.713	478.44
274.945	482.44
275.176	475.44
275.408	480.44
275.64	507.44
275.872	482.44
276.104	478.44
276.335	491.44
276.567	486.44
276.799	478.44
277.031	514.44
277.262	499.44
277.494	514.44
277.726	507.44
277.957	505.44
278.189	517.44
278.421	504.44
278.652	492.44
278.884	506.44
279.115	531.44
279.347	530.44
279.579	518.44
279.81	519.44
280.042	498.44
280.273	523.44
280.505	531.44
280.736	531.44
280.968	546.44
281.199	537.44
281.431	520.44
281.662	550.44
281.894	545.44
282.125	547.44
282.356	545.44
282.588	546.44
282.819	547.44
283.051	559.44
283.282	547.44
283.513	554.44
283.745	578.44
283.976	579.44
284.207	555.44
284.439	554.44
284.67	543.44
284.901	558.44
285.132	568.44
285.364	577.44
285.595	567.44
285.826	568.44
286.057	573.44
286.288	554.44
286.52	575.44
286.751	580.44
286.982	601.44
287.213	597.44
287.444	602.44
287.675	595.44
287.906	599.44
288.138	587.44
288.369	592.44
288.6	603.44
288.831	622.44
289.062	614.44
289.293	591.44
289.524	597.44
289.755	587.44
289.986	603.44
290.217	607.44
290.448	617.44
290.679	618.44
290.91	605.44
291.141	620.44
291.371	615.44
291.602	614.44
291.833	626.44
292.064	618.44
292.295	604.44
292.526	626.44
292.757	612.44
292.987	627.44
293.218	592.44
293.449	615.44
293.68	601.44
293.91	616.44
294.141	634.44
294.372	625.44
294.603	636.44
294.833	634.44
295.064	633.44
295.295	611.44
295.525	609.44
295.756	634.44
295.987	629.44
296.217	643.44
296.448	636.44
296.679	637.44
296.909	639.44
297.14	650.44
297.37	658.44
297.601	652.44
297.831	671.44
298.062	667.44
298.292	661.44
298.523	699.44
298.753	671.44
298.984	675.44
299.214	661.44
299.445	684.44
299.675	669.44
299.905	658.44
300.136	668.44
300.366	689.44
300.597	650.44
300.827	687.44
301.057	706.44
301.288	709.44
301.518	691.44
301.748	706.44
301.979	720.44
302.209	683.44
302.439	709.44
302.669	666.44
302.9	721.44
303.13	697.44
303.36	701.44
303.59	715.44
303.82	716.44
304.051	689.44
304.281	717.44
304.511	701.44
304.741	695.44
304.971	684.44
305.201	697.44
305.431	703.44
305.661	689.44
305.891	685.44
306.121	709.44
306.352	708.44
306.582	701.44
306.812	695.44
307.042	677.44
307.272	678.44
307.502	702.44
307.731	689.44
307.961	695.44
308.191	678.44
308.421	698.44
308.651	684.44
308.881	657.44
309.111	687.44
309.341	675.44
309.571	677.44
309.8	713.44
310.03	694.44
310.26	678.44
310.49	682.44
310.72	675.44
310.949	691.44
311.179	696.44
311.409	702.44
311.639	694.44
311.868	698.44
312.098	708.44
312.328	686.44
312.557	713.44
312.787	714.44
313.017	738.44
313.246	702.44
313.476	715.44
313.706	732.44
313.935	767.44
314.165	730.44
314.394	730.44
314.624	737.44
314.853	726.44
315.083	716.44
315.312	731.44
315.542	719.44
315.771	733.44
316.001	726.44
316.23	727.44
316.46	725.44
316.689	745.44
316.919	713.44
317.148	703.44
317.377	728.44
317.607	722.44
317.836	709.44
318.065	723.44
318.295	732.44
318.524	718.44
318.753	715.44
318.983	710.44
319.212	714.44
319.441	720.44
319.67	719.44
319.9	675.44
320.129	707.44
320.358	723.44
320.587	711.44
320.816	746.44
321.046	719.44
321.275	703.44
321.504	725.44
321.733	717.44
321.962	734.44
322.191	725.44
322.42	727.44
322.649	742.44
322.878	739.44
323.108	754.44
323.337	739.44
323.566	722.44
323.795	749.44
324.024	777.44
324.253	734.44
324.482	731.44
324.71	760.44
324.939	762.44
325.168	755.44
325.397	740.44
325.626	773.44
325.855	788.44
326.084	795.44
326.313	780.44
326.542	799.44
326.77	800.44
326.999	787.44
327.228	791.44
327.457	793.44
327.686	787.44
327.914	783.44
328.143	789.44
328.372	802.44
328.6	811.44
328.829	800.44
329.058	797.44
329.287	779.44
329.515	793.44
329.744	790.44
329.972	808.44
330.201	789.44
330.43	797.44
330.658	795.44
330.887	819.44
331.115	840.44
331.344	828.44
331.572	846.44
331.801	877.44
332.03	894.44
332.258	905.44
332.486	912.44
332.715	967.44
332.943	972.44
333.172	983.44
333.4	1036.44
333.629	1051.44
333.857	1110.44
334.085	1050.44
334.314	1037.44
334.542	1019.44
334.771	1027.44
334.999	1014.44
335.227	1035.44
335.455	1002.44
335.684	987.44
335.912	989.44
336.14	964.44
336.369	949.44
336.597	967.44
336.825	958.44
337.053	947.44
337.281	934.44
337.51	923.44
337.738	909.44
337.966	889.44
338.194	877.44
338.422	870.44
338.65	870.44
338.878	874.44
339.106	865.44
339.334	855.44
339.562	857.44
339.79	836.44
340.018	828.44
340.246	812.44
340.474	832.44
340.702	821.44
340.93	843.44
341.158	829.44
341.386	848.44
341.614	823.44
341.842	835.44
342.07	826.44
342.298	813.44
342.526	829.44
342.754	842.44
342.981	832.44
343.209	852.44
343.437	871.44
343.665	921.44
343.893	981.44
344.12	1004.44
344.348	1001.44
344.576	951.44
344.804	938.44
345.031	852.44
345.259	848.44
345.487	831.44
345.714	859.44
345.942	820.44
346.17	856.44
346.397	818.44
346.625	818.44
346.853	787.44
347.08	815.44
347.308	776.44
347.535	791.44
347.763	790.44
347.99	814.44
348.218	801.44
348.445	814.44
348.673	822.44
348.9	799.44
349.128	819.44
349.355	808.44
349.583	793.44
349.81	780.44
350.037	780.44
350.265	784.44
350.492	749.44
350.72	761.44
350.947	771.44
351.174	773.44
351.402	772.44
351.629	762.44
351.856	761.44
352.083	761.44
352.311	761.44
352.538	774.44
352.765	781.44
352.992	756.44
353.22	775.44
353.447	749.44
353.674	771.44
353.901	755.44
354.128	732.44
354.355	778.44
354.583	750.44
354.81	764.44
355.037	776.44
355.264	773.44
355.491	765.44
355.718	771.44
355.945	773.44
356.172	779.44
356.399	789.44
356.626	779.44
356.853	781.44
357.08	770.44
357.307	773.44
357.534	783.44
357.761	781.44
357.988	773.44
358.215	767.44
358.441	766.44
358.668	787.44
358.895	750.44
359.122	764.44
359.349	789.44
359.576	786.44
359.802	748.44
360.029	799.44
360.256	789.44
360.483	781.44
360.709	770.44
360.936	750.44
361.163	772.44
361.39	742.44
361.616	750.44
361.843	770.44
362.07	788.44
362.296	761.44
362.523	776.44
362.749	791.44
362.976	775.44
363.203	781.44
363.429	793.44
363.656	770.44
363.882	757.44
364.109	773.44
364.335	775.44
364.562	747.44
364.788	758.44
365.015	771.44
365.241	750.44
365.468	735.44
365.694	736.44
365.92	785.44
366.147	765.44
366.373	774.44
366.599	746.44
366.826	751.44
367.052	759.44
367.278	785.44
367.505	759.44
367.731	781.44
367.957	795.44
368.184	780.44
368.41	792.44
368.636	794.44
368.862	792.44
369.089	763.44
369.315	775.44
369.541	786.44
369.767	806.44
369.993	815.44
370.219	804.44
370.445	814.44
370.672	818.44
370.898	836.44
371.124	834.44
371.35	839.44
371.576	837.44
371.802	822.44
372.028	850.44
372.254	850.44
372.48	866.44
372.706	842.44
372.932	870.44
373.158	861.44
373.384	870.44
373.61	848.44
373.835	842.44
374.061	825.44
374.287	858.44
374.513	873.44
374.739	909.44
374.965	921.44
375.191	937.44
375.416	916.44
375.642	897.44
375.868	899.44
376.094	849.44
376.319	878.44
376.545	854.44
376.771	839.44
376.997	826.44
377.222	839.44
377.448	861.44
377.674	830.44
377.899	807.44
378.125	811.44
378.35	845.44
378.576	844.44
378.802	815.44
379.027	804.44
379.253	800.44
379.478	818.44
379.704	835.44
379.929	826.44
380.155	817.44
380.38	825.44
380.606	831.44
380.831	806.44
381.057	857.44
381.282	828.44
381.507	838.44
381.733	832.44
381.958	839.44
382.184	862.44
382.409	874.44
382.634	872.44
382.86	886.44
383.085	884.44
383.31	891.44
383.535	906.44
383.761	915.44
383.986	931.44
384.211	948.44
384.436	967.44
384.662	982.44
384.887	995.44
385.112	990.44
385.337	1011.44
385.562	972.44
385.787	1006.44
386.013	998.44
386.238	1027.44
386.463	995.44
386.688	1051.44
386.913	1024.44
387.138	989.44
387.363	1004.44
387.588	999.44
387.813	998.44
388.038	1012.44
388.263	1029.44
388.488	1014.44
388.713	993.44
388.938	1002.44
389.163	963.44
389.387	982.44
389.612	963.44
389.837	973.44
390.062	975.44
390.287	968.44
390.512	1006.44
390.736	1025.44
390.961	1009.44
391.186	1059.44
391.411	1023.44
391.636	1086.44
391.86	1101.44
392.085	1153.44
392.31	1132.44
392.534	1118.44
392.759	1123.44
392.984	1067.44
393.208	1050.44
393.433	1050.44
393.658	1103.44
393.882	1050.44
394.107	1057.44
394.331	1039.44
394.556	1073.44
394.78	1114.44
395.005	1084.44
395.229	1095.44
395.454	1114.44
395.678	1105.44
395.903	1124.44
396.127	1100.44
396.352	1082.44
396.576	1058.44
396.801	1064.44
397.025	1087.44
397.249	1109.44
397.474	1159.44
397.698	1154.44
397.922	1130.44
398.147	1097.44
398.371	1161.44
398.595	1213.44
398.82	1246.44
399.044	1307.44
399.268	1441.44
399.492	1621.44
399.717	1825.44
399.941	1861.44
400.165	1663.44
400.389	1516.44
400.613	1412.44
400.837	1340.44
401.062	1282.44
401.286	1292.44
401.51	1260.44
401.734	1287.44
401.958	1291.44
402.182	1300.44
402.406	1283.44
402.63	1345.44
402.854	1358.44
403.078	1374.44
403.302	1382.44
403.526	1422.44
403.75	1449.44
403.974	1445.44
404.198	1419.44
404.422	1476.44
404.645	1418.44
404.869	1409.44
405.093	1390.44
405.317	1376.44
405.541	1385.44
405.765	1399.44
405.988	1351.44
406.212	1362.44
406.436	1377.44
406.66	1395.44
406.883	1420.44
407.107	1498.44
407.331	1593.44
407.555	1619.44
407.778	1620.44
408.002	1591.44
408.226	1532.44
408.449	1521.44
408.673	1432.44
408.896	1428.44
409.12	1411.44
409.344	1435.44
409.567	1415.44
409.791	1410.44
410.014	1401.44
410.238	1395.44
410.461	1405.44
410.685	1385.44
410.908	1350.44
411.132	1350.44
411.355	1331.44
411.578	1327.44
411.802	1300.44
412.025	1320.44
412.249	1356.44
412.472	1300.44
412.695	1298.44
412.919	1261.44
413.142	1276.44
413.365	1266.44
413.589	1264.44
413.812	1278.44
414.035	1255.44
414.258	1266.44
414.482	1250.44
414.705	1267.44
414.928	1274.44
415.151	1258.44
415.374	1270.44
415.597	1279.44
415.821	1251.44
416.044	1257.44
416.267	1239.44
416.49	1217.44
416.713	1217.44
416.936	1273.44
417.159	1242.44
417.382	1205.44
417.605	1247.44
417.828	1254.44
418.051	1255.44
418.274	1244.44
418.497	1234.44
418.72	1256.44
418.943	1281.44
419.166	1333.44
419.389	1415.44
419.611	1395.44
419.834	1343.44
420.057	1334.44
420.28	1260.44
420.503	1226.44
420.726	1197.44
420.948	1188.44
421.171	1235.44
421.394	1275.44
421.617	1251.44
421.839	1252.44
422.062	1249.44
422.285	1255.44
422.507	1268.44
422.73	1300.44
422.953	1268.44
423.175	1320.44
423.398	1339.44
423.621	1304.44
423.843	1330.44
424.066	1332.44
424.288	1291.44
424.511	1321.44
424.733	1312.44
424.956	1275.44
425.178	1261.44
425.401	1273.44
425.623	1285.44
425.846	1213.44
426.068	1230.44
426.291	1209.44
426.513	1169.44
426.735	1182.44
426.958	1161.44
427.18	1142.44
427.402	1143.44
427.625	1165.44
427.847	1133.44
428.069	1115.44
428.292	1128.44
428.514	1115.44
428.736	1110.44
428.958	1117.44
429.181	1106.44
429.403	1093.44
429.625	1073.44
429.847	1082.44
430.069	1053.44
430.292	1062.44
430.514	1109.44
430.736	1076.44
430.958	1083.44
431.18	1096.44
431.402	1087.44
431.624	1097.44
431.846	1120.44
432.068	1113.44
432.29	1126.44
432.512	1087.44
432.734	1142.44
432.956	1083.44
433.178	1126.44
433.4	1106.44
433.622	1116.44
433.844	1126.44
434.066	1135.44
434.287	1143.44
434.509	1186.44
434.731	1193.44
434.953	1249.44
435.175	1243.44
435.397	1215.44
435.618	1158.44
435.84	1174.44
436.062	1108.44
436.284	1103.44
436.505	1108.44
436.727	1132.44
436.949	1150.44
437.17	1118.44
437.392	1088.44
437.614	1103.44
437.835	1090.44
438.057	1068.44
438.278	1060.44
438.5	1052.44
438.721	1069.44
438.943	1087.44
439.165	1079.44
439.386	1074.44
439.608	1113.44
439.829	1135.44
440.05	1101.44
440.272	1116.44
440.493	1133.44
440.715	1126.44
440.936	1155.44
441.158	1170.44
441.379	1190.44
441.6	1265.44
441.822	1283.44
442.043	1247.44
442.264	1257.44
442.486	1223.44
442.707	1227.44
442.928	1203.44
443.149	1232.44
443.371	1205.44
443.592	1223.44
443.813	1273.44
444.034	1258.44
444.255	1308.44
444.476	1350.44
444.698	1457.44
444.919	1475.44
445.14	1571.44
445.361	1424.44
445.582	1309.44
445.803	1224.44
446.024	1213.44
446.245	1183.44
446.466	1169.44
446.687	1130.44
446.908	1121.44
447.129	1091.44
447.35	1111.44
447.571	1105.44
447.792	1063.44
448.013	1060.44
448.234	1029.44
448.455	1046.44
448.675	1017.44
448.896	1031.44
449.117	986.44
449.338	1014.44
449.559	1016.44
449.779	1009.44
450	1016.44
450.221	996.44
450.442	1028.44
450.662	1023.44
450.883	1058.44
451.104	1049.44
451.324	1034.44
451.545	1059.44
451.766	1055.44
451.986	1029.44
452.207	1028.44
452.428	1003.44
452.648	1022.44
452.869	987.44
453.089	967.44
453.31	1011.44
453.53	979.44
453.751	990.44
453.971	971.44
454.192	982.44
454.412	965.44
454.633	951.44
454.853	967.44
455.073	957.44
455.294	979.44
455.514	975.44
455.734	947.44
455.955	961.44
456.175	934.44
456.395	936.44
456.616	956.44
456.836	972.44
457.056	944.44
457.276	917.44
457.497	948.44
457.717	961.44
457.937	967.44
458.157	1010.44
458.377	996.44
458.598	977.44
458.818	1042.44
459.038	1032.44
459.258	1062.44
459.478	1107.44
459.698	1174.44
459.918	1184.44
460.138	1198.44
460.358	1278.44
460.578	1282.44
460.798	1273.44
461.018	1338.44
461.238	1313.44
461.458	1301.44
461.678	1304.44
461.898	1360.44
462.118	1327.44
462.338	1401.44
462.558	1419.44
462.777	1472.44
462.997	1579.44
463.217	1720.44
463.437	1719.44
463.657	1588.44
463.876	1537.44
464.096	1521.44
464.316	1497.44
464.536	1509.44
464.755	1477.44
464.975	1435.44
465.195	1351.44
465.414	1287.44
465.634	1165.44
465.854	1159.44
466.073	1155.44
466.293	1116.44
466.512	1109.44
466.732	1079.44
466.951	1077.44
467.171	1064.44
467.391	1069.44
467.61	1060.44
467.829	1080.44
468.049	1028.44
468.268	1023.44
468.488	1008.44
468.707	1036.44
468.927	1016.44
469.146	1004.44
469.365	1036.44
469.585	1054.44
469.804	1040.44
470.023	1068.44
470.243	1090.44
470.462	1085.44
470.681	1118.44
470.901	1092.44
471.12	1070.44
471.339	1063.44
471.558	1043.44
471.777	1034.44
471.997	1033.44
472.216	1031.44
472.435	1006.44
472.654	984.44
472.873	954.44
473.092	1020.44
473.311	1029.44
473.53	1014.44
473.749	986.44
473.968	981.44
474.187	1001.44
474.406	993.44
474.625	981.44
474.844	1015.44
475.063	1019.44
475.282	1035.44
475.501	1006.44
475.72	1001.44
475.939	998.44
476.158	1002.44
476.377	1059.44
476.596	1052.44
476.814	1051.44
477.033	1051.44
477.252	1078.44
477.471	1097.44
477.69	1108.44
477.908	1155.44
478.127	1178.44
478.346	1175.44
478.564	1203.44
478.783	1227.44
479.002	1234.44
479.22	1244.44
479.439	1259.44
479.658	1224.44
479.876	1258.44
480.095	1240.44
480.313	1279.44
480.532	1330.44
480.751	1335.44
480.969	1293.44
481.188	1239.44
481.406	1205.44
481.624	1166.44
481.843	1173.44
482.061	1137.44
482.28	1133.44
482.498	1160.44
482.717	1133.44
482.935	1141.44
483.153	1127.44
483.372	1124.44
483.59	1126.44
483.808	1140.44
484.027	1126.44
484.245	1158.44
484.463	1164.44
484.681	1195.44
484.9	1166.44
485.118	1168.44
485.336	1202.44
485.554	1183.44
485.772	1197.44
485.99	1185.44
486.209	1209.44
486.427	1221.44
486.645	1195.44
486.863	1174.44
487.081	1175.44
487.299	1207.44
487.517	1203.44
487.735	1181.44
487.953	1199.44
488.171	1217.44
488.389	1157.44
488.607	1173.44
488.825	1189.44
489.043	1181.44
489.261	1172.44
489.479	1168.44
489.696	1202.44
489.914	1184.44
490.132	1188.44
490.35	1177.44
490.568	1177.44
490.786	1217.44
491.003	1198.44
491.221	1226.44
491.439	1207.44
491.657	1171.44
491.874	1197.44
492.092	1211.44
492.31	1230.44
492.527	1254.44
492.745	1234.44
492.963	1259.44
493.18	1223.44
493.398	1254.44
493.615	1235.44
493.833	1258.44
494.05	1222.44
494.268	1270.44
494.485	1260.44
494.703	1281.44
494.92	1253.44
495.138	1262.44
495.355	1289.44
