Data from NiCl2@0.25M.TitratingCurve.Agarose3%dH2O.NegLispCup.LampEnergy10.LIBS07252019_HRD10591_18-24-46-573.txt Node
Date: Thu Jul 25 18:24:46 EDT 2019
User: cochatt
Spectrometer: HR+D1059
Trigger mode: 1
Integration Time (sec): 1.000000E-1
Scans to average: 1
Electric dark correction enabled: true
Nonlinearity correction enabled: false
Boxcar width: 0
XAxis mode: Wavelengths
Number of Pixels in Spectrum: 2048
>>>>>Begin Spectral Data<<<<<
223.165	-6.19
223.4	-6.19
223.635	-6.19
223.869	-3.19
224.104	-22.19
224.338	-12.19
224.573	-13.19
224.808	-14.19
225.042	-4.19
225.277	-5.19
225.511	0.81
225.746	10.81
225.98	3.81
226.215	2.81
226.449	7.81
226.683	3.81
226.918	19.81
227.152	30.81
227.387	24.81
227.621	27.81
227.856	40.81
228.09	50.81
228.324	58.81
228.559	57.81
228.793	74.81
229.027	116.81
229.262	118.81
229.496	117.81
229.73	135.81
229.964	154.81
230.199	139.81
230.433	125.81
230.667	123.81
230.901	154.81
231.136	159.81
231.37	152.81
231.604	158.81
231.838	157.81
232.072	164.81
232.306	159.81
232.541	153.81
232.775	159.81
233.009	159.81
233.243	157.81
233.477	164.81
233.711	167.81
233.945	183.81
234.179	164.81
234.413	167.81
234.647	154.81
234.881	164.81
235.115	181.81
235.349	168.81
235.583	170.81
235.817	163.81
236.051	165.81
236.285	178.81
236.519	171.81
236.753	172.81
236.987	177.81
237.221	163.81
237.455	176.81
237.689	175.81
237.922	198.81
238.156	168.81
238.39	182.81
238.624	161.81
238.858	191.81
239.091	183.81
239.325	201.81
239.559	212.81
239.793	200.81
240.027	211.81
240.26	209.81
240.494	182.81
240.728	227.81
240.961	194.81
241.195	208.81
241.429	216.81
241.662	200.81
241.896	213.81
242.13	217.81
242.363	199.81
242.597	220.81
242.83	228.81
243.064	236.81
243.298	225.81
243.531	224.81
243.765	259.81
243.998	229.81
244.232	241.81
244.465	235.81
244.699	229.81
244.932	246.81
245.166	257.81
245.399	250.81
245.633	248.81
245.866	256.81
246.099	257.81
246.333	259.81
246.566	262.81
246.8	247.81
247.033	245.81
247.266	259.81
247.5	239.81
247.733	250.81
247.966	253.81
248.2	262.81
248.433	276.81
248.666	264.81
248.899	259.81
249.133	291.81
249.366	284.81
249.599	293.81
249.832	287.81
250.066	284.81
250.299	287.81
250.532	298.81
250.765	296.81
250.998	311.81
251.231	299.81
251.465	296.81
251.698	311.81
251.931	314.81
252.164	309.81
252.397	319.81
252.63	316.81
252.863	315.81
253.096	307.81
253.329	312.81
253.562	306.81
253.795	331.81
254.028	312.81
254.261	341.81
254.494	325.81
254.727	327.81
254.96	333.81
255.193	336.81
255.426	340.81
255.659	317.81
255.892	344.81
256.124	332.81
256.357	335.81
256.59	351.81
256.823	344.81
257.056	348.81
257.289	345.81
257.521	356.81
257.754	355.81
257.987	354.81
258.22	359.81
258.452	355.81
258.685	357.81
258.918	360.81
259.151	357.81
259.383	340.81
259.616	355.81
259.849	374.81
260.081	377.81
260.314	371.81
260.547	379.81
260.779	375.81
261.012	374.81
261.244	397.81
261.477	378.81
261.71	376.81
261.942	367.81
262.175	375.81
262.407	384.81
262.64	379.81
262.872	375.81
263.105	360.81
263.337	409.81
263.57	392.81
263.802	389.81
264.035	393.81
264.267	388.81
264.499	407.81
264.732	417.81
264.964	398.81
265.197	408.81
265.429	416.81
265.661	409.81
265.894	396.81
266.126	398.81
266.358	423.81
266.591	416.81
266.823	424.81
267.055	419.81
267.287	427.81
267.52	416.81
267.752	421.81
267.984	425.81
268.216	432.81
268.448	421.81
268.681	436.81
268.913	444.81
269.145	424.81
269.377	439.81
269.609	449.81
269.841	418.81
270.073	443.81
270.306	441.81
270.538	438.81
270.77	453.81
271.002	442.81
271.234	437.81
271.466	455.81
271.698	444.81
271.93	457.81
272.162	456.81
272.394	473.81
272.626	457.81
272.858	472.81
273.09	456.81
273.322	497.81
273.553	470.81
273.785	469.81
274.017	492.81
274.249	490.81
274.481	471.81
274.713	470.81
274.945	469.81
275.176	482.81
275.408	474.81
275.64	507.81
275.872	500.81
276.104	481.81
276.335	480.81
276.567	481.81
276.799	491.81
277.031	514.81
277.262	511.81
277.494	504.81
277.726	498.81
277.957	501.81
278.189	517.81
278.421	511.81
278.652	510.81
278.884	499.81
279.115	518.81
279.347	515.81
279.579	540.81
279.81	519.81
280.042	521.81
280.273	525.81
280.505	535.81
280.736	529.81
280.968	524.81
281.199	555.81
281.431	539.81
281.662	514.81
281.894	567.81
282.125	557.81
282.356	556.81
282.588	534.81
282.819	571.81
283.051	573.81
283.282	560.81
283.513	554.81
283.745	548.81
283.976	560.81
284.207	572.81
284.439	584.81
284.67	572.81
284.901	574.81
285.132	567.81
285.364	592.81
285.595	571.81
285.826	589.81
286.057	587.81
286.288	593.81
286.52	597.81
286.751	596.81
286.982	597.81
287.213	609.81
287.444	591.81
287.675	612.81
287.906	596.81
288.138	586.81
288.369	579.81
288.6	615.81
288.831	610.81
289.062	605.81
289.293	611.81
289.524	607.81
289.755	605.81
289.986	612.81
290.217	611.81
290.448	632.81
290.679	616.81
290.91	621.81
291.141	614.81
291.371	631.81
291.602	628.81
291.833	616.81
292.064	629.81
292.295	627.81
292.526	657.81
292.757	621.81
292.987	630.81
293.218	619.81
293.449	624.81
293.68	636.81
293.91	625.81
294.141	627.81
294.372	622.81
294.603	611.81
294.833	663.81
295.064	643.81
295.295	631.81
295.525	631.81
295.756	640.81
295.987	626.81
296.217	628.81
296.448	638.81
296.679	644.81
296.909	652.81
297.14	643.81
297.37	671.81
297.601	683.81
297.831	693.81
298.062	682.81
298.292	666.81
298.523	703.81
298.753	703.81
298.984	674.81
299.214	685.81
299.445	681.81
299.675	663.81
299.905	673.81
300.136	702.81
300.366	709.81
300.597	689.81
300.827	704.81
301.057	724.81
301.288	719.81
301.518	720.81
301.748	721.81
301.979	734.81
302.209	730.81
302.439	719.81
302.669	709.81
302.9	699.81
303.13	712.81
303.36	709.81
303.59	706.81
303.82	705.81
304.051	702.81
304.281	697.81
304.511	699.81
304.741	675.81
304.971	731.81
305.201	682.81
305.431	710.81
305.661	710.81
305.891	715.81
306.121	719.81
306.352	704.81
306.582	687.81
306.812	670.81
307.042	711.81
307.272	699.81
307.502	681.81
307.731	723.81
307.961	687.81
308.191	698.81
308.421	705.81
308.651	704.81
308.881	691.81
309.111	720.81
309.341	665.81
309.571	695.81
309.8	706.81
310.03	693.81
310.26	682.81
310.49	685.81
310.72	720.81
310.949	691.81
311.179	731.81
311.409	716.81
311.639	720.81
311.868	718.81
312.098	729.81
312.328	742.81
312.557	720.81
312.787	722.81
313.017	714.81
313.246	743.81
313.476	735.81
313.706	752.81
313.935	743.81
314.165	765.81
314.394	751.81
314.624	778.81
314.853	742.81
315.083	742.81
315.312	770.81
315.542	744.81
315.771	772.81
316.001	747.81
316.23	755.81
316.46	727.81
316.689	732.81
316.919	739.81
317.148	718.81
317.377	720.81
317.607	768.81
317.836	726.81
318.065	728.81
318.295	737.81
318.524	721.81
318.753	708.81
318.983	743.81
319.212	725.81
319.441	725.81
319.67	737.81
319.9	720.81
320.129	714.81
320.358	731.81
320.587	731.81
320.816	731.81
321.046	749.81
321.275	738.81
321.504	763.81
321.733	766.81
321.962	725.81
322.191	741.81
322.42	753.81
322.649	746.81
322.878	700.81
323.108	727.81
323.337	735.81
323.566	741.81
323.795	743.81
324.024	733.81
324.253	729.81
324.482	742.81
324.71	758.81
324.939	782.81
325.168	794.81
325.397	743.81
325.626	767.81
325.855	764.81
326.084	793.81
326.313	816.81
326.542	817.81
326.77	840.81
326.999	781.81
327.228	804.81
327.457	811.81
327.686	808.81
327.914	799.81
328.143	810.81
328.372	822.81
328.6	789.81
328.829	809.81
329.058	804.81
329.287	786.81
329.515	840.81
329.744	821.81
329.972	826.81
330.201	831.81
330.43	824.81
330.658	836.81
330.887	835.81
331.115	833.81
331.344	871.81
331.572	829.81
331.801	915.81
332.03	894.81
332.258	903.81
332.486	943.81
332.715	957.81
332.943	962.81
333.172	1026.81
333.4	1036.81
333.629	1102.81
333.857	1116.81
334.085	1147.81
334.314	1103.81
334.542	1077.81
334.771	1111.81
334.999	1046.81
335.227	1036.81
335.455	1027.81
335.684	1022.81
335.912	1011.81
336.14	964.81
336.369	981.81
336.597	974.81
336.825	972.81
337.053	986.81
337.281	966.81
337.51	931.81
337.738	907.81
337.966	928.81
338.194	927.81
338.422	909.81
338.65	893.81
338.878	876.81
339.106	864.81
339.334	867.81
339.562	887.81
339.79	828.81
340.018	839.81
340.246	849.81
340.474	856.81
340.702	855.81
340.93	859.81
341.158	867.81
341.386	835.81
341.614	850.81
341.842	862.81
342.07	845.81
342.298	838.81
342.526	842.81
342.754	867.81
342.981	872.81
343.209	868.81
343.437	883.81
343.665	936.81
343.893	1023.81
344.12	1070.81
344.348	1033.81
344.576	973.81
344.804	943.81
345.031	911.81
345.259	904.81
345.487	832.81
345.714	845.81
345.942	835.81
346.17	852.81
346.397	812.81
346.625	833.81
346.853	832.81
347.08	812.81
347.308	793.81
347.535	833.81
347.763	834.81
347.99	827.81
348.218	844.81
348.445	829.81
348.673	819.81
348.9	796.81
349.128	789.81
349.355	796.81
349.583	805.81
349.81	813.81
350.037	810.81
350.265	772.81
350.492	800.81
350.72	794.81
350.947	780.81
351.174	803.81
351.402	772.81
351.629	779.81
351.856	754.81
352.083	776.81
352.311	775.81
352.538	776.81
352.765	805.81
352.992	779.81
353.22	779.81
353.447	772.81
353.674	746.81
353.901	760.81
354.128	751.81
354.355	767.81
354.583	771.81
354.81	773.81
355.037	765.81
355.264	753.81
355.491	803.81
355.718	783.81
355.945	801.81
356.172	809.81
356.399	790.81
356.626	792.81
356.853	790.81
357.08	773.81
357.307	794.81
357.534	783.81
357.761	779.81
357.988	773.81
358.215	767.81
358.441	759.81
358.668	792.81
358.895	782.81
359.122	787.81
359.349	801.81
359.576	761.81
359.802	795.81
360.029	768.81
360.256	773.81
360.483	808.81
360.709	786.81
360.936	779.81
361.163	764.81
361.39	768.81
361.616	791.81
361.843	794.81
362.07	787.81
362.296	789.81
362.523	773.81
362.749	780.81
362.976	792.81
363.203	793.81
363.429	789.81
363.656	782.81
363.882	774.81
364.109	758.81
364.335	780.81
364.562	767.81
364.788	786.81
365.015	751.81
365.241	755.81
365.468	756.81
365.694	788.81
365.92	775.81
366.147	757.81
366.373	763.81
366.599	776.81
366.826	786.81
367.052	772.81
367.278	795.81
367.505	804.81
367.731	819.81
367.957	789.81
368.184	796.81
368.41	812.81
368.636	778.81
368.862	788.81
369.089	803.81
369.315	820.81
369.541	776.81
369.767	789.81
369.993	815.81
370.219	821.81
370.445	826.81
370.672	834.81
370.898	823.81
371.124	833.81
371.35	839.81
371.576	860.81
371.802	859.81
372.028	869.81
372.254	851.81
372.48	860.81
372.706	873.81
372.932	887.81
373.158	876.81
373.384	858.81
373.61	867.81
373.835	874.81
374.061	865.81
374.287	866.81
374.513	885.81
374.739	911.81
374.965	925.81
375.191	940.81
375.416	950.81
375.642	911.81
375.868	933.81
376.094	908.81
376.319	904.81
376.545	900.81
376.771	887.81
376.997	886.81
377.222	850.81
377.448	850.81
377.674	855.81
377.899	841.81
378.125	828.81
378.35	843.81
378.576	857.81
378.802	854.81
379.027	853.81
379.253	865.81
379.478	850.81
379.704	853.81
379.929	861.81
380.155	856.81
380.38	846.81
380.606	849.81
380.831	832.81
381.057	840.81
381.282	831.81
381.507	869.81
381.733	868.81
381.958	884.81
382.184	869.81
382.409	874.81
382.634	882.81
382.86	887.81
383.085	901.81
383.31	915.81
383.535	903.81
383.761	948.81
383.986	956.81
384.211	988.81
384.436	1001.81
384.662	1003.81
384.887	1032.81
385.112	1011.81
385.337	1035.81
385.562	1023.81
385.787	1051.81
386.013	1101.81
386.238	1027.81
386.463	1076.81
386.688	1039.81
386.913	1041.81
387.138	1048.81
387.363	1060.81
387.588	1052.81
387.813	1028.81
388.038	1056.81
388.263	1053.81
388.488	1035.81
388.713	1017.81
388.938	1014.81
389.163	1015.81
389.387	1025.81
389.612	1013.81
389.837	1019.81
390.062	1013.81
390.287	1035.81
390.512	1010.81
390.736	1049.81
390.961	1049.81
391.186	1072.81
391.411	1123.81
391.636	1140.81
391.86	1149.81
392.085	1173.81
392.31	1221.81
392.534	1148.81
392.759	1151.81
392.984	1144.81
393.208	1114.81
393.433	1092.81
393.658	1103.81
393.882	1131.81
394.107	1138.81
394.331	1127.81
394.556	1116.81
394.78	1109.81
395.005	1127.81
395.229	1132.81
395.454	1166.81
395.678	1165.81
395.903	1173.81
396.127	1149.81
396.352	1156.81
396.576	1135.81
396.801	1099.81
397.025	1149.81
397.249	1175.81
397.474	1169.81
397.698	1194.81
397.922	1212.81
398.147	1178.81
398.371	1210.81
398.595	1280.81
398.82	1319.81
399.044	1420.81
399.268	1557.81
399.492	1744.81
399.717	1921.81
399.941	2005.81
400.165	1832.81
400.389	1650.81
400.613	1557.81
400.837	1473.81
401.062	1393.81
401.286	1380.81
401.51	1364.81
401.734	1346.81
401.958	1364.81
402.182	1370.81
402.406	1405.81
402.63	1415.81
402.854	1407.81
403.078	1437.81
403.302	1466.81
403.526	1482.81
403.75	1489.81
403.974	1502.81
404.198	1533.81
404.422	1514.81
404.645	1507.81
404.869	1515.81
405.093	1512.81
405.317	1460.81
405.541	1449.81
405.765	1470.81
405.988	1439.81
406.212	1467.81
406.436	1447.81
406.66	1510.81
406.883	1548.81
407.107	1623.81
407.331	1683.81
407.555	1725.81
407.778	1716.81
408.002	1675.81
408.226	1653.81
408.449	1636.81
408.673	1557.81
408.896	1539.81
409.12	1507.81
409.344	1488.81
409.567	1507.81
409.791	1478.81
410.014	1514.81
410.238	1507.81
410.461	1505.81
410.685	1483.81
410.908	1425.81
411.132	1417.81
411.355	1356.81
411.578	1387.81
411.802	1402.81
412.025	1395.81
412.249	1409.81
412.472	1428.81
412.695	1366.81
412.919	1323.81
413.142	1360.81
413.365	1343.81
413.589	1356.81
413.812	1312.81
414.035	1322.81
414.258	1316.81
414.482	1358.81
414.705	1312.81
414.928	1337.81
415.151	1329.81
415.374	1302.81
415.597	1289.81
415.821	1301.81
416.044	1289.81
416.267	1285.81
416.49	1297.81
416.713	1298.81
416.936	1285.81
417.159	1284.81
417.382	1307.81
417.605	1301.81
417.828	1321.81
418.051	1329.81
418.274	1289.81
418.497	1308.81
418.72	1350.81
418.943	1316.81
419.166	1392.81
419.389	1537.81
419.611	1511.81
419.834	1425.81
420.057	1356.81
420.28	1333.81
420.503	1295.81
420.726	1304.81
420.948	1306.81
421.171	1295.81
421.394	1313.81
421.617	1275.81
421.839	1293.81
422.062	1322.81
422.285	1281.81
422.507	1339.81
422.73	1327.81
422.953	1337.81
423.175	1322.81
423.398	1378.81
423.621	1351.81
423.843	1362.81
424.066	1363.81
424.288	1329.81
424.511	1329.81
424.733	1330.81
424.956	1315.81
425.178	1300.81
425.401	1283.81
425.623	1305.81
425.846	1314.81
426.068	1290.81
426.291	1270.81
426.513	1238.81
426.735	1262.81
426.958	1223.81
427.18	1215.81
427.402	1170.81
427.625	1205.81
427.847	1161.81
428.069	1177.81
428.292	1199.81
428.514	1165.81
428.736	1145.81
428.958	1166.81
429.181	1135.81
429.403	1132.81
429.625	1131.81
429.847	1126.81
430.069	1118.81
430.292	1132.81
430.514	1132.81
430.736	1114.81
430.958	1173.81
431.18	1144.81
431.402	1148.81
431.624	1115.81
431.846	1183.81
432.068	1147.81
432.29	1161.81
432.512	1169.81
432.734	1156.81
432.956	1148.81
433.178	1148.81
433.4	1152.81
433.622	1165.81
433.844	1187.81
434.066	1159.81
434.287	1191.81
434.509	1232.81
434.731	1266.81
434.953	1312.81
435.175	1329.81
435.397	1287.81
435.618	1243.81
435.84	1194.81
436.062	1199.81
436.284	1173.81
436.505	1159.81
436.727	1157.81
436.949	1139.81
437.17	1141.81
437.392	1135.81
437.614	1124.81
437.835	1111.81
438.057	1096.81
438.278	1107.81
438.5	1110.81
438.721	1099.81
438.943	1143.81
439.165	1119.81
439.386	1091.81
439.608	1128.81
439.829	1135.81
440.05	1137.81
440.272	1136.81
440.493	1173.81
440.715	1150.81
440.936	1181.81
441.158	1181.81
441.379	1206.81
441.6	1319.81
441.822	1292.81
442.043	1339.81
442.264	1268.81
442.486	1246.81
442.707	1256.81
442.928	1255.81
443.149	1244.81
443.371	1232.81
443.592	1308.81
443.813	1287.81
444.034	1318.81
444.255	1357.81
444.476	1427.81
444.698	1484.81
444.919	1521.81
445.14	1617.81
445.361	1478.81
445.582	1365.81
445.803	1290.81
446.024	1243.81
446.245	1219.81
446.466	1178.81
446.687	1183.81
446.908	1217.81
447.129	1166.81
447.35	1151.81
447.571	1112.81
447.792	1083.81
448.013	1085.81
448.234	1083.81
448.455	1065.81
448.675	1060.81
448.896	1113.81
449.117	1015.81
449.338	1042.81
449.559	1030.81
449.779	1029.81
450	1025.81
450.221	1012.81
450.442	1047.81
450.662	1023.81
450.883	1056.81
451.104	1068.81
451.324	1089.81
451.545	1100.81
451.766	1082.81
451.986	1047.81
452.207	1043.81
452.428	1025.81
452.648	1036.81
452.869	1003.81
453.089	1023.81
453.31	1040.81
453.53	1010.81
453.751	998.81
453.971	991.81
454.192	1013.81
454.412	984.81
454.633	972.81
454.853	1012.81
455.073	974.81
455.294	994.81
455.514	957.81
455.734	973.81
455.955	969.81
456.175	969.81
456.395	968.81
456.616	973.81
456.836	986.81
457.056	998.81
457.276	976.81
457.497	993.81
457.717	988.81
457.937	985.81
458.157	986.81
458.377	1017.81
458.598	1045.81
458.818	1079.81
459.038	1090.81
459.258	1120.81
459.478	1187.81
459.698	1184.81
459.918	1190.81
460.138	1261.81
460.358	1358.81
460.578	1333.81
460.798	1387.81
461.018	1392.81
461.238	1375.81
461.458	1372.81
461.678	1355.81
461.898	1401.81
462.118	1401.81
462.338	1456.81
462.558	1532.81
462.777	1589.81
462.997	1676.81
463.217	1780.81
463.437	1825.81
463.657	1692.81
463.876	1636.81
464.096	1617.81
464.316	1563.81
464.536	1595.81
464.755	1532.81
464.975	1475.81
465.195	1442.81
465.414	1378.81
465.634	1271.81
465.854	1214.81
466.073	1201.81
466.293	1160.81
466.512	1145.81
466.732	1103.81
466.951	1112.81
467.171	1085.81
467.391	1114.81
467.61	1107.81
467.829	1107.81
468.049	1094.81
468.268	1068.81
468.488	1041.81
468.707	1073.81
468.927	1062.81
469.146	1029.81
469.365	1079.81
469.585	1112.81
469.804	1116.81
470.023	1128.81
470.243	1141.81
470.462	1157.81
470.681	1164.81
470.901	1138.81
471.12	1125.81
471.339	1106.81
471.558	1072.81
471.777	1089.81
471.997	1055.81
472.216	1039.81
472.435	1044.81
472.654	1045.81
472.873	1044.81
473.092	1030.81
473.311	1032.81
473.53	1030.81
473.749	1012.81
473.968	1024.81
474.187	1028.81
474.406	988.81
474.625	1033.81
474.844	1024.81
475.063	1037.81
475.282	1045.81
475.501	1030.81
475.72	1022.81
475.939	1076.81
476.158	1076.81
476.377	1055.81
476.596	1077.81
476.814	1087.81
477.033	1101.81
477.252	1121.81
477.471	1136.81
477.69	1188.81
477.908	1171.81
478.127	1190.81
478.346	1214.81
478.564	1256.81
478.783	1263.81
479.002	1322.81
479.22	1301.81
479.439	1304.81
479.658	1349.81
479.876	1289.81
480.095	1296.81
480.313	1356.81
480.532	1387.81
480.751	1372.81
480.969	1313.81
481.188	1303.81
481.406	1279.81
481.624	1253.81
481.843	1202.81
482.061	1184.81
482.28	1171.81
482.498	1193.81
482.717	1161.81
482.935	1170.81
483.153	1171.81
483.372	1206.81
483.59	1195.81
483.808	1163.81
484.027	1170.81
484.245	1162.81
484.463	1177.81
484.681	1199.81
484.9	1206.81
485.118	1229.81
485.336	1207.81
485.554	1227.81
485.772	1210.81
485.99	1231.81
486.209	1238.81
486.427	1226.81
486.645	1225.81
486.863	1220.81
487.081	1256.81
487.299	1243.81
487.517	1226.81
487.735	1197.81
487.953	1279.81
488.171	1228.81
488.389	1216.81
488.607	1231.81
488.825	1217.81
489.043	1212.81
489.261	1191.81
489.479	1247.81
489.696	1213.81
489.914	1226.81
490.132	1218.81
490.35	1227.81
490.568	1226.81
490.786	1221.81
491.003	1268.81
491.221	1264.81
491.439	1234.81
491.657	1258.81
491.874	1256.81
492.092	1249.81
492.31	1250.81
492.527	1263.81
492.745	1253.81
492.963	1291.81
493.18	1280.81
493.398	1313.81
493.615	1324.81
493.833	1294.81
494.05	1274.81
494.268	1315.81
494.485	1308.81
494.703	1349.81
494.92	1329.81
