Data from NiCl2@0.25M.TitratingCurve.Agarose3%dH2O.NegLispCup.LampEnergy10.LIBS07252019_HRD10591_18-24-24-573.txt Node
Date: Thu Jul 25 18:24:24 EDT 2019
User: cochatt
Spectrometer: HR+D1059
Trigger mode: 1
Integration Time (sec): 1.000000E-1
Scans to average: 1
Electric dark correction enabled: true
Nonlinearity correction enabled: false
Boxcar width: 0
XAxis mode: Wavelengths
Number of Pixels in Spectrum: 2048
>>>>>Begin Spectral Data<<<<<
223.165	-11.62
223.4	-11.62
223.635	-11.62
223.869	-0.62
224.104	-16.62
224.338	-16.62
224.573	-7.62
224.808	-7.62
225.042	-15.62
225.277	-0.62
225.511	-8.62
225.746	3.38
225.98	8.38
226.215	9.38
226.449	2.38
226.683	3.38
226.918	30.38
227.152	28.38
227.387	25.38
227.621	44.38
227.856	53.38
228.09	40.38
228.324	39.38
228.559	50.38
228.793	76.38
229.027	112.38
229.262	128.38
229.496	127.38
229.73	119.38
229.964	126.38
230.199	132.38
230.433	121.38
230.667	145.38
230.901	148.38
231.136	145.38
231.37	146.38
231.604	149.38
231.838	153.38
232.072	157.38
232.306	157.38
232.541	164.38
232.775	150.38
233.009	163.38
233.243	168.38
233.477	162.38
233.711	164.38
233.945	144.38
234.179	150.38
234.413	178.38
234.647	169.38
234.881	164.38
235.115	159.38
235.349	163.38
235.583	166.38
235.817	178.38
236.051	162.38
236.285	164.38
236.519	169.38
236.753	158.38
236.987	159.38
237.221	166.38
237.455	169.38
237.689	184.38
237.922	171.38
238.156	184.38
238.39	176.38
238.624	185.38
238.858	176.38
239.091	190.38
239.325	187.38
239.559	201.38
239.793	194.38
240.027	211.38
240.26	186.38
240.494	199.38
240.728	186.38
240.961	211.38
241.195	192.38
241.429	220.38
241.662	205.38
241.896	209.38
242.13	208.38
242.363	205.38
242.597	201.38
242.83	213.38
243.064	215.38
243.298	219.38
243.531	231.38
243.765	238.38
243.998	222.38
244.232	231.38
244.465	220.38
244.699	223.38
244.932	242.38
245.166	238.38
245.399	231.38
245.633	231.38
245.866	238.38
246.099	247.38
246.333	241.38
246.566	254.38
246.8	259.38
247.033	246.38
247.266	267.38
247.5	249.38
247.733	250.38
247.966	255.38
248.2	264.38
248.433	264.38
248.666	275.38
248.899	261.38
249.133	264.38
249.366	258.38
249.599	283.38
249.832	270.38
250.066	277.38
250.299	287.38
250.532	279.38
250.765	304.38
250.998	299.38
251.231	278.38
251.465	288.38
251.698	288.38
251.931	284.38
252.164	282.38
252.397	311.38
252.63	305.38
252.863	303.38
253.096	314.38
253.329	312.38
253.562	309.38
253.795	310.38
254.028	299.38
254.261	305.38
254.494	309.38
254.727	315.38
254.96	300.38
255.193	310.38
255.426	331.38
255.659	315.38
255.892	327.38
256.124	309.38
256.357	328.38
256.59	321.38
256.823	329.38
257.056	317.38
257.289	324.38
257.521	321.38
257.754	345.38
257.987	339.38
258.22	346.38
258.452	330.38
258.685	348.38
258.918	347.38
259.151	355.38
259.383	366.38
259.616	354.38
259.849	368.38
260.081	344.38
260.314	364.38
260.547	363.38
260.779	369.38
261.012	340.38
261.244	363.38
261.477	358.38
261.71	358.38
261.942	353.38
262.175	367.38
262.407	367.38
262.64	375.38
262.872	368.38
263.105	350.38
263.337	382.38
263.57	378.38
263.802	377.38
264.035	400.38
264.267	392.38
264.499	396.38
264.732	391.38
264.964	389.38
265.197	366.38
265.429	395.38
265.661	384.38
265.894	390.38
266.126	397.38
266.358	389.38
266.591	408.38
266.823	399.38
267.055	392.38
267.287	384.38
267.52	406.38
267.752	398.38
267.984	388.38
268.216	419.38
268.448	418.38
268.681	439.38
268.913	411.38
269.145	414.38
269.377	430.38
269.609	428.38
269.841	422.38
270.073	419.38
270.306	418.38
270.538	410.38
270.77	421.38
271.002	417.38
271.234	449.38
271.466	432.38
271.698	441.38
271.93	450.38
272.162	451.38
272.394	434.38
272.626	442.38
272.858	434.38
273.09	436.38
273.322	459.38
273.553	458.38
273.785	454.38
274.017	451.38
274.249	465.38
274.481	469.38
274.713	476.38
274.945	443.38
275.176	457.38
275.408	453.38
275.64	469.38
275.872	478.38
276.104	466.38
276.335	466.38
276.567	485.38
276.799	466.38
277.031	474.38
277.262	482.38
277.494	465.38
277.726	477.38
277.957	487.38
278.189	486.38
278.421	480.38
278.652	491.38
278.884	511.38
279.115	498.38
279.347	500.38
279.579	499.38
279.81	511.38
280.042	518.38
280.273	516.38
280.505	500.38
280.736	516.38
280.968	502.38
281.199	528.38
281.431	518.38
281.662	514.38
281.894	512.38
282.125	527.38
282.356	523.38
282.588	521.38
282.819	535.38
283.051	544.38
283.282	564.38
283.513	544.38
283.745	533.38
283.976	551.38
284.207	534.38
284.439	564.38
284.67	570.38
284.901	564.38
285.132	577.38
285.364	562.38
285.595	543.38
285.826	558.38
286.057	542.38
286.288	561.38
286.52	555.38
286.751	543.38
286.982	563.38
287.213	579.38
287.444	579.38
287.675	570.38
287.906	577.38
288.138	564.38
288.369	585.38
288.6	583.38
288.831	590.38
289.062	567.38
289.293	591.38
289.524	576.38
289.755	588.38
289.986	606.38
290.217	586.38
290.448	572.38
290.679	598.38
290.91	597.38
291.141	604.38
291.371	595.38
291.602	591.38
291.833	618.38
292.064	600.38
292.295	604.38
292.526	595.38
292.757	605.38
292.987	605.38
293.218	625.38
293.449	608.38
293.68	603.38
293.91	594.38
294.141	597.38
294.372	605.38
294.603	596.38
294.833	628.38
295.064	610.38
295.295	615.38
295.525	606.38
295.756	632.38
295.987	583.38
296.217	605.38
296.448	606.38
296.679	626.38
296.909	627.38
297.14	615.38
297.37	649.38
297.601	646.38
297.831	629.38
298.062	648.38
298.292	623.38
298.523	696.38
298.753	656.38
298.984	645.38
299.214	648.38
299.445	642.38
299.675	646.38
299.905	640.38
300.136	636.38
300.366	660.38
300.597	673.38
300.827	690.38
301.057	690.38
301.288	690.38
301.518	691.38
301.748	705.38
301.979	696.38
302.209	666.38
302.439	698.38
302.669	675.38
302.9	659.38
303.13	659.38
303.36	673.38
303.59	673.38
303.82	679.38
304.051	680.38
304.281	683.38
304.511	670.38
304.741	652.38
304.971	682.38
305.201	688.38
305.431	681.38
305.661	685.38
305.891	674.38
306.121	690.38
306.352	658.38
306.582	663.38
306.812	671.38
307.042	688.38
307.272	667.38
307.502	682.38
307.731	662.38
307.961	654.38
308.191	635.38
308.421	667.38
308.651	672.38
308.881	662.38
309.111	674.38
309.341	668.38
309.571	674.38
309.8	664.38
310.03	673.38
310.26	663.38
310.49	674.38
310.72	669.38
310.949	674.38
311.179	698.38
311.409	694.38
311.639	679.38
311.868	669.38
312.098	689.38
312.328	682.38
312.557	690.38
312.787	694.38
313.017	676.38
313.246	718.38
313.476	739.38
313.706	729.38
313.935	720.38
314.165	729.38
314.394	704.38
314.624	733.38
314.853	722.38
315.083	720.38
315.312	719.38
315.542	728.38
315.771	699.38
316.001	694.38
316.23	706.38
316.46	725.38
316.689	727.38
316.919	709.38
317.148	708.38
317.377	702.38
317.607	690.38
317.836	685.38
318.065	703.38
318.295	710.38
318.524	698.38
318.753	698.38
318.983	706.38
319.212	666.38
319.441	711.38
319.67	682.38
319.9	711.38
320.129	692.38
320.358	704.38
320.587	710.38
320.816	693.38
321.046	708.38
321.275	712.38
321.504	699.38
321.733	739.38
321.962	704.38
322.191	699.38
322.42	721.38
322.649	718.38
322.878	703.38
323.108	711.38
323.337	724.38
323.566	711.38
323.795	741.38
324.024	741.38
324.253	735.38
324.482	715.38
324.71	707.38
324.939	719.38
325.168	733.38
325.397	751.38
325.626	755.38
325.855	776.38
326.084	782.38
326.313	766.38
326.542	778.38
326.77	799.38
326.999	766.38
327.228	762.38
327.457	771.38
327.686	768.38
327.914	786.38
328.143	788.38
328.372	777.38
328.6	792.38
328.829	773.38
329.058	779.38
329.287	790.38
329.515	795.38
329.744	780.38
329.972	800.38
330.201	796.38
330.43	790.38
330.658	794.38
330.887	801.38
331.115	821.38
331.344	840.38
331.572	844.38
331.801	872.38
332.03	893.38
332.258	888.38
332.486	921.38
332.715	904.38
332.943	983.38
333.172	1023.38
333.4	1056.38
333.629	1091.38
333.857	1069.38
334.085	1051.38
334.314	1041.38
334.542	1024.38
334.771	1004.38
334.999	1000.38
335.227	979.38
335.455	988.38
335.684	966.38
335.912	957.38
336.14	961.38
336.369	929.38
336.597	930.38
336.825	942.38
337.053	936.38
337.281	914.38
337.51	887.38
337.738	874.38
337.966	896.38
338.194	891.38
338.422	867.38
338.65	865.38
338.878	840.38
339.106	860.38
339.334	846.38
339.562	835.38
339.79	835.38
340.018	843.38
340.246	816.38
340.474	831.38
340.702	843.38
340.93	811.38
341.158	843.38
341.386	800.38
341.614	811.38
341.842	803.38
342.07	809.38
342.298	814.38
342.526	820.38
342.754	822.38
342.981	807.38
343.209	833.38
343.437	868.38
343.665	929.38
343.893	998.38
344.12	1055.38
344.348	994.38
344.576	920.38
344.804	896.38
345.031	841.38
345.259	833.38
345.487	818.38
345.714	803.38
345.942	810.38
346.17	794.38
346.397	794.38
346.625	796.38
346.853	790.38
347.08	788.38
347.308	770.38
347.535	798.38
347.763	794.38
347.99	803.38
348.218	802.38
348.445	785.38
348.673	774.38
348.9	785.38
349.128	790.38
349.355	776.38
349.583	760.38
349.81	762.38
350.037	791.38
350.265	774.38
350.492	785.38
350.72	788.38
350.947	772.38
351.174	747.38
351.402	782.38
351.629	760.38
351.856	758.38
352.083	751.38
352.311	741.38
352.538	770.38
352.765	768.38
352.992	742.38
353.22	726.38
353.447	754.38
353.674	769.38
353.901	747.38
354.128	746.38
354.355	723.38
354.583	750.38
354.81	788.38
355.037	774.38
355.264	753.38
355.491	723.38
355.718	755.38
355.945	736.38
356.172	788.38
356.399	762.38
356.626	778.38
356.853	760.38
357.08	784.38
357.307	742.38
357.534	771.38
357.761	751.38
357.988	744.38
358.215	760.38
358.441	768.38
358.668	757.38
358.895	762.38
359.122	759.38
359.349	754.38
359.576	770.38
359.802	747.38
360.029	772.38
360.256	755.38
360.483	726.38
360.709	764.38
360.936	777.38
361.163	771.38
361.39	766.38
361.616	762.38
361.843	751.38
362.07	766.38
362.296	786.38
362.523	759.38
362.749	770.38
362.976	750.38
363.203	750.38
363.429	731.38
363.656	752.38
363.882	743.38
364.109	776.38
364.335	768.38
364.562	736.38
364.788	743.38
365.015	743.38
365.241	748.38
365.468	742.38
365.694	743.38
365.92	755.38
366.147	761.38
366.373	752.38
366.599	767.38
366.826	756.38
367.052	748.38
367.278	765.38
367.505	735.38
367.731	757.38
367.957	754.38
368.184	769.38
368.41	786.38
368.636	763.38
368.862	760.38
369.089	784.38
369.315	784.38
369.541	775.38
369.767	778.38
369.993	784.38
370.219	794.38
370.445	805.38
370.672	809.38
370.898	806.38
371.124	836.38
371.35	825.38
371.576	848.38
371.802	818.38
372.028	827.38
372.254	772.38
372.48	832.38
372.706	852.38
372.932	847.38
373.158	853.38
373.384	848.38
373.61	826.38
373.835	832.38
374.061	830.38
374.287	827.38
374.513	839.38
374.739	859.38
374.965	891.38
375.191	933.38
375.416	907.38
375.642	889.38
375.868	886.38
376.094	867.38
376.319	850.38
376.545	863.38
376.771	819.38
376.997	814.38
377.222	827.38
377.448	821.38
377.674	856.38
377.899	817.38
378.125	788.38
378.35	831.38
378.576	778.38
378.802	819.38
379.027	811.38
379.253	824.38
379.478	800.38
379.704	803.38
379.929	826.38
380.155	818.38
380.38	804.38
380.606	823.38
380.831	782.38
381.057	852.38
381.282	808.38
381.507	834.38
381.733	845.38
381.958	807.38
382.184	818.38
382.409	846.38
382.634	873.38
382.86	864.38
383.085	858.38
383.31	888.38
383.535	899.38
383.761	921.38
383.986	949.38
384.211	951.38
384.436	983.38
384.662	992.38
384.887	991.38
385.112	997.38
385.337	1006.38
385.562	1007.38
385.787	967.38
386.013	1026.38
386.238	1042.38
386.463	1008.38
386.688	1020.38
386.913	993.38
387.138	987.38
387.363	954.38
387.588	976.38
387.813	988.38
388.038	969.38
388.263	985.38
388.488	982.38
388.713	964.38
388.938	956.38
389.163	960.38
389.387	960.38
389.612	970.38
389.837	975.38
390.062	976.38
390.287	982.38
390.512	980.38
390.736	990.38
390.961	1008.38
391.186	1031.38
391.411	1039.38
391.636	1082.38
391.86	1105.38
392.085	1132.38
392.31	1151.38
392.534	1078.38
392.759	1061.38
392.984	1064.38
393.208	1058.38
393.433	1090.38
393.658	1047.38
393.882	1063.38
394.107	1074.38
394.331	1097.38
394.556	1064.38
394.78	1074.38
395.005	1065.38
395.229	1069.38
395.454	1105.38
395.678	1138.38
395.903	1148.38
396.127	1097.38
396.352	1058.38
396.576	1062.38
396.801	1052.38
397.025	1064.38
397.249	1059.38
397.474	1106.38
397.698	1160.38
397.922	1170.38
398.147	1116.38
398.371	1146.38
398.595	1186.38
398.82	1241.38
399.044	1313.38
399.268	1486.38
399.492	1769.38
399.717	1959.38
399.941	1940.38
400.165	1700.38
400.389	1527.38
400.613	1406.38
400.837	1338.38
401.062	1300.38
401.286	1229.38
401.51	1255.38
401.734	1278.38
401.958	1273.38
402.182	1326.38
402.406	1306.38
402.63	1310.38
402.854	1339.38
403.078	1366.38
403.302	1390.38
403.526	1414.38
403.75	1450.38
403.974	1519.38
404.198	1495.38
404.422	1500.38
404.645	1455.38
404.869	1448.38
405.093	1443.38
405.317	1423.38
405.541	1405.38
405.765	1386.38
405.988	1356.38
406.212	1382.38
406.436	1376.38
406.66	1417.38
406.883	1412.38
407.107	1512.38
407.331	1620.38
407.555	1654.38
407.778	1617.38
408.002	1588.38
408.226	1534.38
408.449	1528.38
408.673	1465.38
408.896	1458.38
409.12	1411.38
409.344	1442.38
409.567	1380.38
409.791	1432.38
410.014	1402.38
410.238	1405.38
410.461	1406.38
410.685	1383.38
410.908	1360.38
411.132	1351.38
411.355	1296.38
411.578	1316.38
411.802	1271.38
412.025	1303.38
412.249	1316.38
412.472	1316.38
412.695	1287.38
412.919	1238.38
413.142	1227.38
413.365	1258.38
413.589	1243.38
413.812	1206.38
414.035	1210.38
414.258	1252.38
414.482	1269.38
414.705	1261.38
414.928	1288.38
415.151	1256.38
415.374	1263.38
415.597	1257.38
415.821	1234.38
416.044	1204.38
416.267	1179.38
416.49	1203.38
416.713	1218.38
416.936	1245.38
417.159	1193.38
417.382	1199.38
417.605	1202.38
417.828	1238.38
418.051	1258.38
418.274	1231.38
418.497	1237.38
418.72	1292.38
418.943	1278.38
419.166	1351.38
419.389	1458.38
419.611	1372.38
419.834	1337.38
420.057	1319.38
420.28	1231.38
420.503	1188.38
420.726	1185.38
420.948	1237.38
421.171	1258.38
421.394	1231.38
421.617	1225.38
421.839	1258.38
422.062	1231.38
422.285	1223.38
422.507	1246.38
422.73	1238.38
422.953	1282.38
423.175	1302.38
423.398	1300.38
423.621	1318.38
423.843	1336.38
424.066	1355.38
424.288	1339.38
424.511	1317.38
424.733	1267.38
424.956	1258.38
425.178	1268.38
425.401	1245.38
425.623	1241.38
425.846	1201.38
426.068	1192.38
426.291	1168.38
426.513	1160.38
426.735	1137.38
426.958	1150.38
427.18	1109.38
427.402	1120.38
427.625	1084.38
427.847	1098.38
428.069	1076.38
428.292	1103.38
428.514	1089.38
428.736	1072.38
428.958	1057.38
429.181	1063.38
429.403	1060.38
429.625	1074.38
429.847	1055.38
430.069	1077.38
430.292	1076.38
430.514	1024.38
430.736	1080.38
430.958	1064.38
431.18	1043.38
431.402	1064.38
431.624	1082.38
431.846	1101.38
432.068	1128.38
432.29	1094.38
432.512	1078.38
432.734	1088.38
432.956	1101.38
433.178	1079.38
433.4	1083.38
433.622	1078.38
433.844	1108.38
434.066	1079.38
434.287	1127.38
434.509	1153.38
434.731	1216.38
434.953	1216.38
435.175	1245.38
435.397	1219.38
435.618	1150.38
435.84	1151.38
436.062	1111.38
436.284	1081.38
436.505	1107.38
436.727	1096.38
436.949	1118.38
437.17	1074.38
437.392	1058.38
437.614	1052.38
437.835	1021.38
438.057	1044.38
438.278	1042.38
438.5	1057.38
438.721	1023.38
438.943	1050.38
439.165	1028.38
439.386	1042.38
439.608	1108.38
439.829	1099.38
440.05	1064.38
440.272	1081.38
440.493	1109.38
440.715	1087.38
440.936	1140.38
441.158	1147.38
441.379	1170.38
441.6	1230.38
441.822	1216.38
442.043	1237.38
442.264	1188.38
442.486	1164.38
442.707	1204.38
442.928	1157.38
443.149	1238.38
443.371	1198.38
443.592	1206.38
443.813	1242.38
444.034	1239.38
444.255	1291.38
444.476	1313.38
444.698	1426.38
444.919	1468.38
445.14	1544.38
445.361	1372.38
445.582	1268.38
445.803	1171.38
446.024	1175.38
446.245	1138.38
446.466	1100.38
446.687	1086.38
446.908	1095.38
447.129	1074.38
447.35	1038.38
447.571	1017.38
447.792	1019.38
448.013	1032.38
448.234	990.38
448.455	994.38
448.675	1012.38
448.896	998.38
449.117	974.38
449.338	954.38
449.559	969.38
449.779	928.38
450	956.38
450.221	974.38
450.442	1001.38
450.662	1031.38
450.883	1044.38
451.104	995.38
451.324	1030.38
451.545	1008.38
451.766	997.38
451.986	984.38
452.207	1021.38
452.428	1001.38
452.648	978.38
452.869	973.38
453.089	987.38
453.31	970.38
453.53	942.38
453.751	955.38
453.971	938.38
454.192	955.38
454.412	947.38
454.633	943.38
454.853	935.38
455.073	914.38
455.294	948.38
455.514	929.38
455.734	928.38
455.955	917.38
456.175	929.38
456.395	928.38
456.616	919.38
456.836	939.38
457.056	930.38
457.276	906.38
457.497	941.38
457.717	910.38
457.937	896.38
458.157	913.38
458.377	947.38
458.598	954.38
458.818	1007.38
459.038	1054.38
459.258	1056.38
459.478	1112.38
459.698	1107.38
459.918	1138.38
460.138	1244.38
460.358	1286.38
460.578	1282.38
460.798	1283.38
461.018	1328.38
461.238	1280.38
461.458	1296.38
461.678	1258.38
461.898	1322.38
462.118	1323.38
462.338	1379.38
462.558	1413.38
462.777	1447.38
462.997	1612.38
463.217	1794.38
463.437	1782.38
463.657	1580.38
463.876	1516.38
464.096	1508.38
464.316	1497.38
464.536	1512.38
464.755	1454.38
464.975	1403.38
465.195	1326.38
465.414	1253.38
465.634	1174.38
465.854	1145.38
466.073	1115.38
466.293	1094.38
466.512	1047.38
466.732	1036.38
466.951	1059.38
467.171	1035.38
467.391	1028.38
467.61	1026.38
467.829	1030.38
468.049	1015.38
468.268	994.38
468.488	991.38
468.707	1009.38
468.927	1004.38
469.146	999.38
469.365	984.38
469.585	994.38
469.804	1027.38
470.023	1040.38
470.243	1039.38
470.462	1058.38
470.681	1056.38
470.901	1092.38
471.12	1036.38
471.339	1025.38
471.558	1033.38
471.777	1017.38
471.997	995.38
472.216	997.38
472.435	986.38
472.654	958.38
472.873	949.38
473.092	959.38
473.311	958.38
473.53	970.38
473.749	952.38
473.968	951.38
474.187	950.38
474.406	967.38
474.625	969.38
474.844	967.38
475.063	977.38
475.282	978.38
475.501	959.38
475.72	946.38
475.939	995.38
476.158	1008.38
476.377	992.38
476.596	998.38
476.814	1047.38
477.033	1043.38
477.252	1074.38
477.471	1097.38
477.69	1104.38
477.908	1129.38
478.127	1156.38
478.346	1167.38
478.564	1177.38
478.783	1163.38
479.002	1218.38
479.22	1188.38
479.439	1229.38
479.658	1234.38
479.876	1228.38
480.095	1224.38
480.313	1303.38
480.532	1299.38
480.751	1314.38
480.969	1255.38
481.188	1204.38
481.406	1190.38
481.624	1169.38
481.843	1110.38
482.061	1110.38
482.28	1115.38
482.498	1123.38
482.717	1093.38
482.935	1100.38
483.153	1121.38
483.372	1114.38
483.59	1110.38
483.808	1127.38
484.027	1106.38
484.245	1123.38
484.463	1102.38
484.681	1130.38
484.9	1140.38
485.118	1130.38
485.336	1138.38
485.554	1153.38
485.772	1184.38
485.99	1154.38
486.209	1153.38
486.427	1196.38
486.645	1172.38
486.863	1171.38
487.081	1160.38
487.299	1172.38
487.517	1150.38
487.735	1152.38
487.953	1159.38
488.171	1181.38
488.389	1149.38
488.607	1146.38
488.825	1140.38
489.043	1108.38
489.261	1144.38
489.479	1190.38
489.696	1161.38
489.914	1156.38
490.132	1127.38
490.35	1179.38
490.568	1182.38
490.786	1152.38
491.003	1173.38
491.221	1187.38
491.439	1170.38
491.657	1184.38
491.874	1179.38
492.092	1171.38
492.31	1228.38
492.527	1189.38
492.745	1196.38
492.963	1220.38
493.18	1207.38
493.398	1206.38
493.615	1201.38
493.833	1239.38
494.05	1247.38
494.268	1267.38
494.485	1231.38
494.703	1223.38
494.92	1242.38
495.138	1232.38
495.355	1236.38
495.573	1216.38
495.79	1234.38
