Data from NiCl2@0.0625M.TitratingCurve.Agarose3%dH2O.NegLispCup.LampEnergy10.LIBS07252019_HRD10591_18-35-00-577.txt Node
Date: Thu Jul 25 18:35:00 EDT 2019
User: cochatt
Spectrometer: HR+D1059
Trigger mode: 1
Integration Time (sec): 1.000000E-1
Scans to average: 1
Electric dark correction enabled: true
Nonlinearity correction enabled: false
Boxcar width: 0
XAxis mode: Wavelengths
Number of Pixels in Spectrum: 2048
>>>>>Begin Spectral Data<<<<<
223.165	1.12
223.4	1.12
223.635	1.12
223.869	-25.88
224.104	-13.88
224.338	-11.88
224.573	-25.88
224.808	-15.88
225.042	-8.88
225.277	4.12
225.511	3.12
225.746	8.12
225.98	4.12
226.215	6.12
226.449	7.12
226.683	13.12
226.918	33.12
227.152	22.12
227.387	25.12
227.621	39.12
227.856	33.12
228.09	50.12
228.324	46.12
228.559	62.12
228.793	87.12
229.027	136.12
229.262	139.12
229.496	147.12
229.73	164.12
229.964	162.12
230.199	157.12
230.433	165.12
230.667	166.12
230.901	167.12
231.136	186.12
231.37	161.12
231.604	169.12
231.838	177.12
232.072	195.12
232.306	196.12
232.541	206.12
232.775	184.12
233.009	193.12
233.243	187.12
233.477	184.12
233.711	189.12
233.945	198.12
234.179	184.12
234.413	213.12
234.647	206.12
234.881	210.12
235.115	191.12
235.349	191.12
235.583	217.12
235.817	195.12
236.051	214.12
236.285	199.12
236.519	206.12
236.753	202.12
236.987	217.12
237.221	198.12
237.455	192.12
237.689	222.12
237.922	204.12
238.156	219.12
238.39	234.12
238.624	224.12
238.858	233.12
239.091	241.12
239.325	243.12
239.559	242.12
239.793	234.12
240.027	242.12
240.26	250.12
240.494	239.12
240.728	255.12
240.961	252.12
241.195	253.12
241.429	251.12
241.662	261.12
241.896	282.12
242.13	289.12
242.363	274.12
242.597	289.12
242.83	264.12
243.064	274.12
243.298	274.12
243.531	277.12
243.765	284.12
243.998	299.12
244.232	298.12
244.465	303.12
244.699	281.12
244.932	301.12
245.166	308.12
245.399	295.12
245.633	304.12
245.866	303.12
246.099	319.12
246.333	324.12
246.566	309.12
246.8	317.12
247.033	307.12
247.266	318.12
247.5	322.12
247.733	333.12
247.966	344.12
248.2	354.12
248.433	355.12
248.666	343.12
248.899	347.12
249.133	363.12
249.366	358.12
249.599	361.12
249.832	357.12
250.066	352.12
250.299	353.12
250.532	360.12
250.765	369.12
250.998	358.12
251.231	391.12
251.465	391.12
251.698	373.12
251.931	375.12
252.164	386.12
252.397	374.12
252.63	367.12
252.863	401.12
253.096	383.12
253.329	387.12
253.562	394.12
253.795	403.12
254.028	410.12
254.261	395.12
254.494	406.12
254.727	390.12
254.96	404.12
255.193	419.12
255.426	427.12
255.659	416.12
255.892	424.12
256.124	437.12
256.357	424.12
256.59	440.12
256.823	416.12
257.056	444.12
257.289	436.12
257.521	445.12
257.754	443.12
257.987	435.12
258.22	459.12
258.452	469.12
258.685	462.12
258.918	448.12
259.151	481.12
259.383	458.12
259.616	445.12
259.849	476.12
260.081	483.12
260.314	464.12
260.547	470.12
260.779	489.12
261.012	491.12
261.244	465.12
261.477	500.12
261.71	489.12
261.942	499.12
262.175	511.12
262.407	486.12
262.64	497.12
262.872	511.12
263.105	480.12
263.337	500.12
263.57	505.12
263.802	525.12
264.035	513.12
264.267	509.12
264.499	513.12
264.732	518.12
264.964	521.12
265.197	539.12
265.429	514.12
265.661	531.12
265.894	541.12
266.126	551.12
266.358	523.12
266.591	516.12
266.823	550.12
267.055	547.12
267.287	544.12
267.52	533.12
267.752	553.12
267.984	557.12
268.216	547.12
268.448	578.12
268.681	585.12
268.913	574.12
269.145	545.12
269.377	563.12
269.609	573.12
269.841	570.12
270.073	562.12
270.306	589.12
270.538	589.12
270.77	565.12
271.002	578.12
271.234	586.12
271.466	592.12
271.698	589.12
271.93	583.12
272.162	595.12
272.394	585.12
272.626	598.12
272.858	623.12
273.09	629.12
273.322	624.12
273.553	615.12
273.785	609.12
274.017	607.12
274.249	629.12
274.481	627.12
274.713	607.12
274.945	621.12
275.176	619.12
275.408	619.12
275.64	624.12
275.872	647.12
276.104	647.12
276.335	632.12
276.567	611.12
276.799	645.12
277.031	649.12
277.262	652.12
277.494	655.12
277.726	664.12
277.957	675.12
278.189	657.12
278.421	664.12
278.652	669.12
278.884	673.12
279.115	669.12
279.347	696.12
279.579	693.12
279.81	714.12
280.042	688.12
280.273	685.12
280.505	695.12
280.736	686.12
280.968	698.12
281.199	694.12
281.431	741.12
281.662	714.12
281.894	709.12
282.125	709.12
282.356	734.12
282.588	731.12
282.819	723.12
283.051	735.12
283.282	707.12
283.513	757.12
283.745	747.12
283.976	728.12
284.207	761.12
284.439	739.12
284.67	751.12
284.901	762.12
285.132	757.12
285.364	756.12
285.595	745.12
285.826	742.12
286.057	758.12
286.288	785.12
286.52	741.12
286.751	722.12
286.982	765.12
287.213	777.12
287.444	751.12
287.675	775.12
287.906	772.12
288.138	785.12
288.369	785.12
288.6	802.12
288.831	779.12
289.062	783.12
289.293	803.12
289.524	796.12
289.755	791.12
289.986	797.12
290.217	790.12
290.448	834.12
290.679	832.12
290.91	809.12
291.141	823.12
291.371	824.12
291.602	805.12
291.833	795.12
292.064	831.12
292.295	815.12
292.526	807.12
292.757	816.12
292.987	789.12
293.218	820.12
293.449	823.12
293.68	794.12
293.91	823.12
294.141	839.12
294.372	802.12
294.603	789.12
294.833	838.12
295.064	825.12
295.295	834.12
295.525	821.12
295.756	820.12
295.987	814.12
296.217	832.12
296.448	841.12
296.679	837.12
296.909	810.12
297.14	815.12
297.37	833.12
297.601	848.12
297.831	855.12
298.062	877.12
298.292	849.12
298.523	891.12
298.753	908.12
298.984	879.12
299.214	898.12
299.445	892.12
299.675	844.12
299.905	897.12
300.136	866.12
300.366	888.12
300.597	880.12
300.827	913.12
301.057	933.12
301.288	917.12
301.518	925.12
301.748	902.12
301.979	951.12
302.209	928.12
302.439	919.12
302.669	949.12
302.9	897.12
303.13	938.12
303.36	925.12
303.59	911.12
303.82	919.12
304.051	937.12
304.281	920.12
304.511	905.12
304.741	933.12
304.971	934.12
305.201	909.12
305.431	935.12
305.661	909.12
305.891	905.12
306.121	920.12
306.352	897.12
306.582	903.12
306.812	885.12
307.042	914.12
307.272	907.12
307.502	924.12
307.731	917.12
307.961	949.12
308.191	906.12
308.421	895.12
308.651	919.12
308.881	894.12
309.111	937.12
309.341	891.12
309.571	906.12
309.8	901.12
310.03	899.12
310.26	915.12
310.49	944.12
310.72	937.12
310.949	911.12
311.179	905.12
311.409	909.12
311.639	934.12
311.868	931.12
312.098	942.12
312.328	965.12
312.557	968.12
312.787	948.12
313.017	965.12
313.246	991.12
313.476	988.12
313.706	973.12
313.935	971.12
314.165	999.12
314.394	999.12
314.624	973.12
314.853	977.12
315.083	964.12
315.312	976.12
315.542	988.12
315.771	967.12
316.001	990.12
316.23	1001.12
316.46	958.12
316.689	959.12
316.919	1005.12
317.148	995.12
317.377	942.12
317.607	984.12
317.836	959.12
318.065	952.12
318.295	976.12
318.524	965.12
318.753	971.12
318.983	954.12
319.212	960.12
319.441	1000.12
319.67	960.12
319.9	970.12
320.129	974.12
320.358	985.12
320.587	987.12
320.816	1008.12
321.046	989.12
321.275	996.12
321.504	1000.12
321.733	979.12
321.962	970.12
322.191	994.12
322.42	998.12
322.649	971.12
322.878	974.12
323.108	1006.12
323.337	1002.12
323.566	997.12
323.795	1029.12
324.024	1036.12
324.253	1009.12
324.482	1036.12
324.71	1041.12
324.939	1055.12
325.168	1035.12
325.397	1040.12
325.626	1034.12
325.855	1031.12
326.084	1048.12
326.313	1043.12
326.542	1046.12
326.77	1085.12
326.999	1056.12
327.228	1048.12
327.457	1058.12
327.686	1038.12
327.914	1054.12
328.143	1074.12
328.372	1051.12
328.6	1066.12
328.829	1069.12
329.058	1084.12
329.287	1098.12
329.515	1074.12
329.744	1076.12
329.972	1108.12
330.201	1081.12
330.43	1080.12
330.658	1064.12
330.887	1089.12
331.115	1105.12
331.344	1110.12
331.572	1112.12
331.801	1139.12
332.03	1144.12
332.258	1181.12
332.486	1186.12
332.715	1233.12
332.943	1284.12
333.172	1267.12
333.4	1301.12
333.629	1343.12
333.857	1360.12
334.085	1390.12
334.314	1391.12
334.542	1348.12
334.771	1347.12
334.999	1321.12
335.227	1346.12
335.455	1319.12
335.684	1293.12
335.912	1310.12
336.14	1309.12
336.369	1281.12
336.597	1277.12
336.825	1283.12
337.053	1264.12
337.281	1297.12
337.51	1233.12
337.738	1237.12
337.966	1221.12
338.194	1174.12
338.422	1190.12
338.65	1186.12
338.878	1149.12
339.106	1154.12
339.334	1162.12
339.562	1157.12
339.79	1157.12
340.018	1121.12
340.246	1143.12
340.474	1092.12
340.702	1119.12
340.93	1130.12
341.158	1135.12
341.386	1141.12
341.614	1121.12
341.842	1141.12
342.07	1114.12
342.298	1079.12
342.526	1117.12
342.754	1101.12
342.981	1123.12
343.209	1141.12
343.437	1194.12
343.665	1212.12
343.893	1311.12
344.12	1313.12
344.348	1264.12
344.576	1236.12
344.804	1199.12
345.031	1165.12
345.259	1149.12
345.487	1146.12
345.714	1121.12
345.942	1095.12
346.17	1105.12
346.397	1087.12
346.625	1050.12
346.853	1098.12
347.08	1083.12
347.308	1079.12
347.535	1084.12
347.763	1079.12
347.99	1071.12
348.218	1061.12
348.445	1053.12
348.673	1064.12
348.9	1074.12
349.128	1074.12
349.355	1072.12
349.583	1065.12
349.81	1066.12
350.037	1049.12
350.265	1044.12
350.492	1036.12
350.72	1050.12
350.947	1035.12
351.174	1032.12
351.402	1024.12
351.629	1030.12
351.856	1053.12
352.083	1034.12
352.311	1050.12
352.538	1026.12
352.765	1035.12
352.992	1045.12
353.22	1018.12
353.447	1011.12
353.674	999.12
353.901	1037.12
354.128	1034.12
354.355	1020.12
354.583	1024.12
354.81	1023.12
355.037	1013.12
355.264	1012.12
355.491	1018.12
355.718	1034.12
355.945	1015.12
356.172	1051.12
356.399	1017.12
356.626	1038.12
356.853	1021.12
357.08	1019.12
357.307	1022.12
357.534	1027.12
357.761	1071.12
357.988	1050.12
358.215	1018.12
358.441	1038.12
358.668	1013.12
358.895	991.12
359.122	1027.12
359.349	1047.12
359.576	1038.12
359.802	1043.12
360.029	1021.12
360.256	1015.12
360.483	1055.12
360.709	1031.12
360.936	1031.12
361.163	1033.12
361.39	1016.12
361.616	1073.12
361.843	1058.12
362.07	1045.12
362.296	1049.12
362.523	1037.12
362.749	1044.12
362.976	1044.12
363.203	1041.12
363.429	1007.12
363.656	1014.12
363.882	1017.12
364.109	1012.12
364.335	1067.12
364.562	1041.12
364.788	993.12
365.015	1027.12
365.241	1043.12
365.468	1015.12
365.694	1049.12
365.92	1027.12
366.147	1059.12
366.373	1038.12
366.599	1038.12
366.826	1036.12
367.052	1013.12
367.278	1031.12
367.505	1031.12
367.731	1039.12
367.957	1027.12
368.184	1047.12
368.41	1074.12
368.636	1059.12
368.862	1092.12
369.089	1054.12
369.315	1078.12
369.541	1082.12
369.767	1094.12
369.993	1097.12
370.219	1057.12
370.445	1094.12
370.672	1079.12
370.898	1103.12
371.124	1114.12
371.35	1130.12
371.576	1126.12
371.802	1130.12
372.028	1091.12
372.254	1149.12
372.48	1130.12
372.706	1142.12
372.932	1182.12
373.158	1161.12
373.384	1136.12
373.61	1144.12
373.835	1164.12
374.061	1101.12
374.287	1144.12
374.513	1176.12
374.739	1154.12
374.965	1217.12
375.191	1220.12
375.416	1227.12
375.642	1191.12
375.868	1179.12
376.094	1138.12
376.319	1138.12
376.545	1103.12
376.771	1129.12
376.997	1127.12
377.222	1157.12
377.448	1106.12
377.674	1128.12
377.899	1093.12
378.125	1134.12
378.35	1124.12
378.576	1140.12
378.802	1110.12
379.027	1087.12
379.253	1107.12
379.478	1097.12
379.704	1117.12
379.929	1111.12
380.155	1112.12
380.38	1093.12
380.606	1108.12
380.831	1094.12
381.057	1126.12
381.282	1106.12
381.507	1143.12
381.733	1153.12
381.958	1126.12
382.184	1119.12
382.409	1152.12
382.634	1169.12
382.86	1164.12
383.085	1189.12
383.31	1186.12
383.535	1201.12
383.761	1201.12
383.986	1226.12
384.211	1234.12
384.436	1242.12
384.662	1286.12
384.887	1334.12
385.112	1297.12
385.337	1311.12
385.562	1303.12
385.787	1313.12
386.013	1346.12
386.238	1336.12
386.463	1317.12
386.688	1356.12
386.913	1317.12
387.138	1349.12
387.363	1343.12
387.588	1320.12
387.813	1329.12
388.038	1311.12
388.263	1346.12
388.488	1370.12
388.713	1314.12
388.938	1337.12
389.163	1333.12
389.387	1378.12
389.612	1334.12
389.837	1341.12
390.062	1289.12
390.287	1318.12
390.512	1326.12
390.736	1374.12
390.961	1384.12
391.186	1339.12
391.411	1410.12
391.636	1448.12
391.86	1450.12
392.085	1495.12
392.31	1465.12
392.534	1462.12
392.759	1467.12
392.984	1418.12
393.208	1396.12
393.433	1398.12
393.658	1407.12
393.882	1380.12
394.107	1405.12
394.331	1393.12
394.556	1408.12
394.78	1405.12
395.005	1448.12
395.229	1456.12
395.454	1456.12
395.678	1513.12
395.903	1469.12
396.127	1482.12
396.352	1394.12
396.576	1437.12
396.801	1426.12
397.025	1458.12
397.249	1492.12
397.474	1499.12
397.698	1503.12
397.922	1539.12
398.147	1487.12
398.371	1544.12
398.595	1560.12
398.82	1660.12
399.044	1765.12
399.268	1882.12
399.492	2087.12
399.717	2271.12
399.941	2305.12
400.165	2131.12
400.389	2005.12
400.613	1841.12
400.837	1783.12
401.062	1738.12
401.286	1697.12
401.51	1694.12
401.734	1676.12
401.958	1680.12
402.182	1661.12
402.406	1688.12
402.63	1702.12
402.854	1701.12
403.078	1747.12
403.302	1767.12
403.526	1787.12
403.75	1790.12
403.974	1835.12
404.198	1843.12
404.422	1860.12
404.645	1789.12
404.869	1802.12
405.093	1829.12
405.317	1779.12
405.541	1770.12
405.765	1786.12
405.988	1751.12
406.212	1794.12
406.436	1805.12
406.66	1845.12
406.883	1845.12
407.107	1960.12
407.331	2045.12
407.555	2097.12
407.778	2057.12
408.002	2020.12
408.226	2016.12
408.449	2022.12
408.673	1921.12
408.896	1862.12
409.12	1878.12
409.344	1872.12
409.567	1845.12
409.791	1832.12
410.014	1822.12
410.238	1855.12
410.461	1826.12
410.685	1805.12
410.908	1800.12
411.132	1775.12
411.355	1714.12
411.578	1743.12
411.802	1748.12
412.025	1703.12
412.249	1791.12
412.472	1720.12
412.695	1724.12
412.919	1703.12
413.142	1683.12
413.365	1657.12
413.589	1717.12
413.812	1657.12
414.035	1639.12
414.258	1674.12
414.482	1615.12
414.705	1667.12
414.928	1676.12
415.151	1637.12
415.374	1667.12
415.597	1615.12
415.821	1612.12
416.044	1609.12
416.267	1559.12
416.49	1583.12
416.713	1608.12
416.936	1599.12
417.159	1585.12
417.382	1570.12
417.605	1599.12
417.828	1589.12
418.051	1600.12
418.274	1599.12
418.497	1618.12
418.72	1665.12
418.943	1608.12
419.166	1719.12
419.389	1854.12
419.611	1813.12
419.834	1749.12
420.057	1683.12
420.28	1641.12
420.503	1576.12
420.726	1597.12
420.948	1569.12
421.171	1611.12
421.394	1623.12
421.617	1582.12
421.839	1607.12
422.062	1601.12
422.285	1559.12
422.507	1655.12
422.73	1656.12
422.953	1607.12
423.175	1627.12
423.398	1685.12
423.621	1674.12
423.843	1655.12
424.066	1671.12
424.288	1637.12
424.511	1641.12
424.733	1639.12
424.956	1602.12
425.178	1609.12
425.401	1607.12
425.623	1619.12
425.846	1546.12
426.068	1607.12
426.291	1571.12
426.513	1562.12
426.735	1566.12
426.958	1547.12
427.18	1492.12
427.402	1504.12
427.625	1521.12
427.847	1478.12
428.069	1459.12
428.292	1505.12
428.514	1447.12
428.736	1450.12
428.958	1423.12
429.181	1410.12
429.403	1445.12
429.625	1393.12
429.847	1433.12
430.069	1399.12
430.292	1418.12
430.514	1437.12
430.736	1461.12
430.958	1455.12
431.18	1434.12
431.402	1433.12
431.624	1411.12
431.846	1454.12
432.068	1473.12
432.29	1516.12
432.512	1450.12
432.734	1491.12
432.956	1476.12
433.178	1461.12
433.4	1462.12
433.622	1499.12
433.844	1512.12
434.066	1509.12
434.287	1509.12
434.509	1562.12
434.731	1575.12
434.953	1599.12
435.175	1626.12
435.397	1602.12
435.618	1535.12
435.84	1513.12
436.062	1501.12
436.284	1473.12
436.505	1456.12
436.727	1471.12
436.949	1482.12
437.17	1458.12
437.392	1446.12
437.614	1436.12
437.835	1403.12
438.057	1396.12
438.278	1394.12
438.5	1374.12
438.721	1372.12
438.943	1406.12
439.165	1400.12
439.386	1351.12
439.608	1455.12
439.829	1431.12
440.05	1464.12
440.272	1426.12
440.493	1431.12
440.715	1486.12
440.936	1451.12
441.158	1485.12
441.379	1526.12
441.6	1553.12
441.822	1539.12
442.043	1571.12
442.264	1531.12
442.486	1545.12
442.707	1510.12
442.928	1549.12
443.149	1542.12
443.371	1576.12
443.592	1570.12
443.813	1588.12
444.034	1569.12
444.255	1623.12
444.476	1693.12
444.698	1750.12
444.919	1783.12
445.14	1889.12
445.361	1746.12
445.582	1618.12
445.803	1578.12
446.024	1521.12
446.245	1506.12
446.466	1482.12
446.687	1433.12
446.908	1456.12
447.129	1389.12
447.35	1394.12
447.571	1381.12
447.792	1337.12
448.013	1389.12
448.234	1335.12
448.455	1333.12
448.675	1329.12
448.896	1338.12
449.117	1294.12
449.338	1285.12
449.559	1303.12
449.779	1309.12
450	1312.12
450.221	1327.12
450.442	1302.12
450.662	1286.12
450.883	1319.12
451.104	1320.12
451.324	1312.12
451.545	1310.12
451.766	1285.12
451.986	1265.12
452.207	1293.12
452.428	1247.12
452.648	1266.12
452.869	1272.12
453.089	1227.12
453.31	1258.12
453.53	1265.12
453.751	1267.12
453.971	1231.12
454.192	1259.12
454.412	1230.12
454.633	1221.12
454.853	1247.12
455.073	1235.12
455.294	1265.12
455.514	1213.12
455.734	1226.12
455.955	1192.12
456.175	1174.12
456.395	1230.12
456.616	1227.12
456.836	1225.12
457.056	1191.12
457.276	1205.12
457.497	1246.12
457.717	1237.12
457.937	1229.12
458.157	1297.12
458.377	1248.12
458.598	1329.12
458.818	1329.12
459.038	1390.12
459.258	1417.12
459.478	1419.12
459.698	1465.12
459.918	1516.12
460.138	1563.12
460.358	1579.12
460.578	1626.12
460.798	1613.12
461.018	1702.12
461.238	1635.12
461.458	1640.12
461.678	1606.12
461.898	1664.12
462.118	1648.12
462.338	1697.12
462.558	1774.12
462.777	1867.12
462.997	1967.12
463.217	2029.12
463.437	2069.12
463.657	1959.12
463.876	1896.12
464.096	1866.12
464.316	1884.12
464.536	1869.12
464.755	1839.12
464.975	1753.12
465.195	1654.12
465.414	1619.12
465.634	1533.12
465.854	1505.12
466.073	1445.12
466.293	1401.12
466.512	1393.12
466.732	1375.12
466.951	1328.12
467.171	1363.12
467.391	1371.12
467.61	1370.12
467.829	1354.12
468.049	1362.12
468.268	1305.12
468.488	1291.12
468.707	1307.12
468.927	1305.12
469.146	1301.12
469.365	1348.12
469.585	1338.12
469.804	1349.12
470.023	1353.12
470.243	1393.12
470.462	1402.12
470.681	1390.12
470.901	1429.12
471.12	1365.12
471.339	1363.12
471.558	1346.12
471.777	1329.12
471.997	1327.12
472.216	1343.12
472.435	1328.12
472.654	1290.12
472.873	1281.12
473.092	1328.12
473.311	1314.12
473.53	1304.12
473.749	1279.12
473.968	1298.12
474.187	1283.12
474.406	1307.12
474.625	1316.12
474.844	1309.12
475.063	1310.12
475.282	1305.12
475.501	1302.12
475.72	1318.12
475.939	1371.12
476.158	1361.12
476.377	1335.12
476.596	1366.12
476.814	1409.12
477.033	1362.12
477.252	1425.12
477.471	1465.12
477.69	1464.12
477.908	1471.12
478.127	1521.12
478.346	1581.12
478.564	1587.12
478.783	1593.12
479.002	1627.12
479.22	1665.12
479.439	1638.12
479.658	1640.12
479.876	1607.12
480.095	1659.12
480.313	1697.12
480.532	1715.12
480.751	1723.12
480.969	1657.12
481.188	1618.12
481.406	1586.12
481.624	1576.12
481.843	1553.12
482.061	1582.12
482.28	1581.12
482.498	1569.12
482.717	1577.12
482.935	1542.12
483.153	1588.12
483.372	1585.12
483.59	1578.12
483.808	1598.12
484.027	1624.12
484.245	1620.12
484.463	1618.12
484.681	1642.12
484.9	1665.12
485.118	1684.12
485.336	1663.12
485.554	1721.12
485.772	1754.12
485.99	1745.12
486.209	1744.12
486.427	1733.12
486.645	1709.12
486.863	1736.12
487.081	1705.12
487.299	1732.12
487.517	1714.12
487.735	1669.12
487.953	1703.12
488.171	1665.12
488.389	1681.12
488.607	1661.12
488.825	1662.12
489.043	1628.12
489.261	1650.12
489.479	1668.12
489.696	1665.12
489.914	1666.12
490.132	1635.12
490.35	1629.12
490.568	1647.12
490.786	1605.12
491.003	1621.12
491.221	1636.12
491.439	1611.12
