Data from NiCl2@0.5M.TitratingCurve.Agarose3%dH2O.NegLispCup.LampEnergy10.LIBS07252019_HRD10591_18-20-12-571.txt Node
Date: Thu Jul 25 18:20:12 EDT 2019
User: cochatt
Spectrometer: HR+D1059
Trigger mode: 1
Integration Time (sec): 1.000000E-1
Scans to average: 1
Electric dark correction enabled: true
Nonlinearity correction enabled: false
Boxcar width: 0
XAxis mode: Wavelengths
Number of Pixels in Spectrum: 2048
>>>>>Begin Spectral Data<<<<<
223.165	-4.56
223.4	-4.56
223.635	-4.56
223.869	-21.56
224.104	-30.56
224.338	-17.56
224.573	-16.56
224.808	-11.56
225.042	1.44
225.277	11.44
225.511	-6.56
225.746	8.44
225.98	-2.56
226.215	15.44
226.449	18.44
226.683	16.44
226.918	15.44
227.152	24.44
227.387	21.44
227.621	41.44
227.856	40.44
228.09	53.44
228.324	48.44
228.559	83.44
228.793	78.44
229.027	107.44
229.262	106.44
229.496	105.44
229.73	121.44
229.964	120.44
230.199	109.44
230.433	132.44
230.667	131.44
230.901	129.44
231.136	139.44
231.37	139.44
231.604	133.44
231.838	133.44
232.072	135.44
232.306	140.44
232.541	139.44
232.775	142.44
233.009	136.44
233.243	134.44
233.477	131.44
233.711	149.44
233.945	156.44
234.179	149.44
234.413	137.44
234.647	143.44
234.881	135.44
235.115	140.44
235.349	150.44
235.583	141.44
235.817	151.44
236.051	140.44
236.285	136.44
236.519	148.44
236.753	153.44
236.987	145.44
237.221	156.44
237.455	142.44
237.689	155.44
237.922	147.44
238.156	155.44
238.39	145.44
238.624	156.44
238.858	155.44
239.091	164.44
239.325	173.44
239.559	160.44
239.793	172.44
240.027	179.44
240.26	175.44
240.494	168.44
240.728	157.44
240.961	166.44
241.195	168.44
241.429	176.44
241.662	160.44
241.896	182.44
242.13	183.44
242.363	172.44
242.597	186.44
242.83	183.44
243.064	180.44
243.298	181.44
243.531	192.44
243.765	184.44
243.998	188.44
244.232	192.44
244.465	190.44
244.699	183.44
244.932	200.44
245.166	204.44
245.399	190.44
245.633	204.44
245.866	200.44
246.099	212.44
246.333	197.44
246.566	209.44
246.8	213.44
247.033	207.44
247.266	200.44
247.5	195.44
247.733	217.44
247.966	216.44
248.2	220.44
248.433	217.44
248.666	206.44
248.899	234.44
249.133	199.44
249.366	212.44
249.599	223.44
249.832	229.44
250.066	236.44
250.299	235.44
250.532	239.44
250.765	229.44
250.998	236.44
251.231	226.44
251.465	243.44
251.698	251.44
251.931	244.44
252.164	247.44
252.397	248.44
252.63	232.44
252.863	226.44
253.096	249.44
253.329	239.44
253.562	242.44
253.795	243.44
254.028	264.44
254.261	240.44
254.494	261.44
254.727	255.44
254.96	238.44
255.193	245.44
255.426	255.44
255.659	267.44
255.892	272.44
256.124	257.44
256.357	245.44
256.59	256.44
256.823	254.44
257.056	253.44
257.289	241.44
257.521	259.44
257.754	285.44
257.987	279.44
258.22	287.44
258.452	265.44
258.685	280.44
258.918	264.44
259.151	279.44
259.383	281.44
259.616	279.44
259.849	281.44
260.081	292.44
260.314	268.44
260.547	280.44
260.779	289.44
261.012	280.44
261.244	293.44
261.477	294.44
261.71	299.44
261.942	285.44
262.175	300.44
262.407	313.44
262.64	304.44
262.872	295.44
263.105	296.44
263.337	318.44
263.57	307.44
263.802	309.44
264.035	303.44
264.267	294.44
264.499	295.44
264.732	323.44
264.964	315.44
265.197	308.44
265.429	327.44
265.661	312.44
265.894	317.44
266.126	313.44
266.358	320.44
266.591	299.44
266.823	327.44
267.055	316.44
267.287	305.44
267.52	329.44
267.752	342.44
267.984	347.44
268.216	309.44
268.448	327.44
268.681	322.44
268.913	342.44
269.145	349.44
269.377	349.44
269.609	305.44
269.841	337.44
270.073	334.44
270.306	333.44
270.538	328.44
270.77	326.44
271.002	346.44
271.234	329.44
271.466	353.44
271.698	361.44
271.93	336.44
272.162	342.44
272.394	352.44
272.626	342.44
272.858	363.44
273.09	356.44
273.322	368.44
273.553	350.44
273.785	355.44
274.017	358.44
274.249	360.44
274.481	354.44
274.713	353.44
274.945	374.44
275.176	381.44
275.408	361.44
275.64	386.44
275.872	358.44
276.104	374.44
276.335	368.44
276.567	381.44
276.799	377.44
277.031	393.44
277.262	404.44
277.494	386.44
277.726	384.44
277.957	388.44
278.189	379.44
278.421	379.44
278.652	381.44
278.884	387.44
279.115	401.44
279.347	398.44
279.579	392.44
279.81	390.44
280.042	381.44
280.273	401.44
280.505	405.44
280.736	398.44
280.968	399.44
281.199	433.44
281.431	409.44
281.662	415.44
281.894	396.44
282.125	419.44
282.356	406.44
282.588	411.44
282.819	419.44
283.051	416.44
283.282	405.44
283.513	431.44
283.745	412.44
283.976	405.44
284.207	439.44
284.439	436.44
284.67	441.44
284.901	439.44
285.132	417.44
285.364	446.44
285.595	457.44
285.826	422.44
286.057	443.44
286.288	423.44
286.52	445.44
286.751	446.44
286.982	443.44
287.213	448.44
287.444	440.44
287.675	438.44
287.906	450.44
288.138	454.44
288.369	470.44
288.6	472.44
288.831	474.44
289.062	463.44
289.293	460.44
289.524	466.44
289.755	463.44
289.986	451.44
290.217	471.44
290.448	471.44
290.679	464.44
290.91	465.44
291.141	470.44
291.371	460.44
291.602	467.44
291.833	451.44
292.064	451.44
292.295	450.44
292.526	443.44
292.757	476.44
292.987	478.44
293.218	461.44
293.449	478.44
293.68	472.44
293.91	461.44
294.141	475.44
294.372	465.44
294.603	464.44
294.833	465.44
295.064	485.44
295.295	488.44
295.525	469.44
295.756	487.44
295.987	485.44
296.217	472.44
296.448	508.44
296.679	471.44
296.909	488.44
297.14	496.44
297.37	503.44
297.601	494.44
297.831	477.44
298.062	509.44
298.292	515.44
298.523	500.44
298.753	535.44
298.984	512.44
299.214	517.44
299.445	511.44
299.675	494.44
299.905	513.44
300.136	520.44
300.366	526.44
300.597	524.44
300.827	519.44
301.057	537.44
301.288	530.44
301.518	536.44
301.748	542.44
301.979	532.44
302.209	543.44
302.439	542.44
302.669	535.44
302.9	541.44
303.13	526.44
303.36	548.44
303.59	534.44
303.82	542.44
304.051	532.44
304.281	526.44
304.511	544.44
304.741	541.44
304.971	530.44
305.201	548.44
305.431	567.44
305.661	570.44
305.891	545.44
306.121	531.44
306.352	524.44
306.582	550.44
306.812	517.44
307.042	533.44
307.272	536.44
307.502	530.44
307.731	525.44
307.961	531.44
308.191	526.44
308.421	529.44
308.651	489.44
308.881	515.44
309.111	542.44
309.341	543.44
309.571	569.44
309.8	530.44
310.03	537.44
310.26	552.44
310.49	560.44
310.72	544.44
310.949	543.44
311.179	526.44
311.409	548.44
311.639	557.44
311.868	565.44
312.098	539.44
312.328	541.44
312.557	557.44
312.787	535.44
313.017	564.44
313.246	578.44
313.476	580.44
313.706	565.44
313.935	561.44
314.165	565.44
314.394	542.44
314.624	565.44
314.853	597.44
315.083	568.44
315.312	588.44
315.542	586.44
315.771	556.44
316.001	562.44
316.23	580.44
316.46	563.44
316.689	570.44
316.919	571.44
317.148	561.44
317.377	570.44
317.607	567.44
317.836	563.44
318.065	585.44
318.295	565.44
318.524	558.44
318.753	584.44
318.983	571.44
319.212	551.44
319.441	552.44
319.67	576.44
319.9	583.44
320.129	576.44
320.358	582.44
320.587	579.44
320.816	583.44
321.046	577.44
321.275	554.44
321.504	565.44
321.733	571.44
321.962	561.44
322.191	584.44
322.42	579.44
322.649	596.44
322.878	578.44
323.108	577.44
323.337	587.44
323.566	582.44
323.795	591.44
324.024	589.44
324.253	558.44
324.482	612.44
324.71	582.44
324.939	607.44
325.168	573.44
325.397	600.44
325.626	600.44
325.855	627.44
326.084	600.44
326.313	624.44
326.542	596.44
326.77	612.44
326.999	602.44
327.228	616.44
327.457	613.44
327.686	607.44
327.914	619.44
328.143	593.44
328.372	598.44
328.6	629.44
328.829	629.44
329.058	600.44
329.287	659.44
329.515	611.44
329.744	623.44
329.972	619.44
330.201	630.44
330.43	621.44
330.658	649.44
330.887	642.44
331.115	649.44
331.344	663.44
331.572	645.44
331.801	675.44
332.03	695.44
332.258	699.44
332.486	698.44
332.715	699.44
332.943	720.44
333.172	736.44
333.4	751.44
333.629	792.44
333.857	779.44
334.085	791.44
334.314	767.44
334.542	772.44
334.771	760.44
334.999	752.44
335.227	763.44
335.455	756.44
335.684	750.44
335.912	744.44
336.14	758.44
336.369	767.44
336.597	743.44
336.825	740.44
337.053	740.44
337.281	757.44
337.51	715.44
337.738	720.44
337.966	708.44
338.194	713.44
338.422	709.44
338.65	696.44
338.878	695.44
339.106	668.44
339.334	691.44
339.562	663.44
339.79	649.44
340.018	669.44
340.246	681.44
340.474	638.44
340.702	633.44
340.93	638.44
341.158	654.44
341.386	682.44
341.614	692.44
341.842	658.44
342.07	659.44
342.298	643.44
342.526	645.44
342.754	653.44
342.981	634.44
343.209	655.44
343.437	681.44
343.665	704.44
343.893	759.44
344.12	744.44
344.348	737.44
344.576	725.44
344.804	712.44
345.031	678.44
345.259	664.44
345.487	668.44
345.714	643.44
345.942	656.44
346.17	661.44
346.397	640.44
346.625	641.44
346.853	642.44
347.08	613.44
347.308	631.44
347.535	631.44
347.763	616.44
347.99	612.44
348.218	648.44
348.445	655.44
348.673	634.44
348.9	625.44
349.128	632.44
349.355	615.44
349.583	656.44
349.81	627.44
350.037	597.44
350.265	621.44
350.492	609.44
350.72	609.44
350.947	608.44
351.174	606.44
351.402	622.44
351.629	636.44
351.856	647.44
352.083	609.44
352.311	593.44
352.538	638.44
352.765	647.44
352.992	608.44
353.22	585.44
353.447	592.44
353.674	584.44
353.901	582.44
354.128	601.44
354.355	570.44
354.583	600.44
354.81	621.44
355.037	585.44
355.264	618.44
355.491	604.44
355.718	594.44
355.945	590.44
356.172	566.44
356.399	576.44
356.626	638.44
356.853	632.44
357.08	588.44
357.307	585.44
357.534	588.44
357.761	591.44
357.988	582.44
358.215	580.44
358.441	587.44
358.668	595.44
358.895	570.44
359.122	591.44
359.349	585.44
359.576	599.44
359.802	580.44
360.029	621.44
360.256	591.44
360.483	588.44
360.709	586.44
360.936	605.44
361.163	580.44
361.39	583.44
361.616	616.44
361.843	588.44
362.07	607.44
362.296	634.44
362.523	583.44
362.749	608.44
362.976	599.44
363.203	597.44
363.429	593.44
363.656	575.44
363.882	588.44
364.109	593.44
364.335	572.44
364.562	608.44
364.788	565.44
365.015	592.44
365.241	571.44
365.468	581.44
365.694	577.44
365.92	598.44
366.147	580.44
366.373	583.44
366.599	596.44
366.826	601.44
367.052	598.44
367.278	590.44
367.505	592.44
367.731	600.44
367.957	601.44
368.184	605.44
368.41	606.44
368.636	595.44
368.862	617.44
369.089	599.44
369.315	595.44
369.541	612.44
369.767	608.44
369.993	594.44
370.219	581.44
370.445	590.44
370.672	636.44
370.898	631.44
371.124	602.44
371.35	624.44
371.576	643.44
371.802	645.44
372.028	622.44
372.254	616.44
372.48	617.44
372.706	640.44
372.932	626.44
373.158	636.44
373.384	613.44
373.61	624.44
373.835	607.44
374.061	621.44
374.287	639.44
374.513	641.44
374.739	639.44
374.965	681.44
375.191	689.44
375.416	686.44
375.642	639.44
375.868	663.44
376.094	630.44
376.319	628.44
376.545	642.44
376.771	647.44
376.997	626.44
377.222	640.44
377.448	637.44
377.674	640.44
377.899	611.44
378.125	599.44
378.35	621.44
378.576	621.44
378.802	615.44
379.027	630.44
379.253	608.44
379.478	609.44
379.704	621.44
379.929	616.44
380.155	638.44
380.38	607.44
380.606	611.44
380.831	619.44
381.057	609.44
381.282	616.44
381.507	621.44
381.733	618.44
381.958	616.44
382.184	643.44
382.409	620.44
382.634	627.44
382.86	637.44
383.085	636.44
383.31	669.44
383.535	670.44
383.761	658.44
383.986	669.44
384.211	680.44
384.436	729.44
384.662	696.44
384.887	704.44
385.112	701.44
385.337	680.44
385.562	710.44
385.787	728.44
386.013	731.44
386.238	751.44
386.463	748.44
386.688	741.44
386.913	712.44
387.138	735.44
387.363	707.44
387.588	718.44
387.813	709.44
388.038	720.44
388.263	724.44
388.488	699.44
388.713	725.44
388.938	717.44
389.163	720.44
389.387	720.44
389.612	730.44
389.837	723.44
390.062	736.44
390.287	718.44
390.512	698.44
390.736	717.44
390.961	762.44
391.186	763.44
391.411	763.44
391.636	790.44
391.86	799.44
392.085	784.44
392.31	805.44
392.534	809.44
392.759	750.44
392.984	764.44
393.208	775.44
393.433	766.44
393.658	769.44
393.882	747.44
394.107	758.44
394.331	798.44
394.556	776.44
394.78	795.44
395.005	791.44
395.229	762.44
395.454	805.44
395.678	823.44
395.903	831.44
396.127	814.44
396.352	775.44
396.576	791.44
396.801	780.44
397.025	767.44
397.249	783.44
397.474	803.44
397.698	811.44
397.922	829.44
398.147	822.44
398.371	838.44
398.595	858.44
398.82	918.44
399.044	953.44
399.268	1040.44
399.492	1143.44
399.717	1246.44
399.941	1235.44
400.165	1169.44
400.389	1031.44
400.613	985.44
400.837	953.44
401.062	927.44
401.286	922.44
401.51	905.44
401.734	895.44
401.958	896.44
402.182	923.44
402.406	919.44
402.63	943.44
402.854	941.44
403.078	951.44
403.302	968.44
403.526	993.44
403.75	962.44
403.974	978.44
404.198	965.44
404.422	1023.44
404.645	1016.44
404.869	1008.44
405.093	963.44
405.317	949.44
405.541	973.44
405.765	976.44
405.988	979.44
406.212	988.44
406.436	948.44
406.66	1019.44
406.883	997.44
407.107	1058.44
407.331	1079.44
407.555	1119.44
407.778	1120.44
408.002	1128.44
408.226	1069.44
408.449	1085.44
408.673	1057.44
408.896	1035.44
409.12	1006.44
409.344	1023.44
409.567	1011.44
409.791	1036.44
410.014	1003.44
410.238	1017.44
410.461	1013.44
410.685	984.44
410.908	964.44
411.132	965.44
411.355	939.44
411.578	928.44
411.802	947.44
412.025	956.44
412.249	980.44
412.472	948.44
412.695	928.44
412.919	908.44
413.142	935.44
413.365	959.44
413.589	931.44
413.812	900.44
414.035	903.44
414.258	896.44
414.482	926.44
414.705	945.44
414.928	945.44
415.151	960.44
415.374	904.44
415.597	916.44
415.821	918.44
416.044	909.44
416.267	874.44
416.49	873.44
416.713	905.44
416.936	937.44
417.159	894.44
417.382	860.44
417.605	862.44
417.828	907.44
418.051	902.44
418.274	909.44
418.497	919.44
418.72	921.44
418.943	911.44
419.166	981.44
419.389	999.44
419.611	988.44
419.834	981.44
420.057	913.44
420.28	909.44
420.503	944.44
420.726	904.44
420.948	908.44
421.171	927.44
421.394	903.44
421.617	924.44
421.839	941.44
422.062	932.44
422.285	901.44
422.507	922.44
422.73	934.44
422.953	941.44
423.175	917.44
423.398	944.44
423.621	948.44
423.843	955.44
424.066	944.44
424.288	937.44
424.511	928.44
424.733	919.44
424.956	917.44
425.178	908.44
425.401	920.44
425.623	941.44
425.846	896.44
426.068	910.44
426.291	897.44
426.513	894.44
426.735	853.44
426.958	876.44
427.18	846.44
427.402	846.44
427.625	860.44
427.847	845.44
428.069	856.44
428.292	861.44
428.514	822.44
428.736	844.44
428.958	863.44
429.181	836.44
429.403	835.44
429.625	845.44
429.847	852.44
430.069	819.44
430.292	844.44
430.514	821.44
430.736	815.44
430.958	825.44
431.18	823.44
431.402	823.44
431.624	838.44
431.846	832.44
432.068	854.44
432.29	869.44
432.512	848.44
432.734	857.44
432.956	831.44
433.178	857.44
433.4	878.44
433.622	853.44
433.844	878.44
434.066	884.44
434.287	884.44
434.509	893.44
434.731	903.44
434.953	912.44
435.175	945.44
435.397	907.44
435.618	876.44
435.84	891.44
436.062	871.44
436.284	849.44
436.505	860.44
436.727	846.44
436.949	838.44
437.17	817.44
437.392	864.44
437.614	829.44
437.835	792.44
438.057	829.44
438.278	816.44
438.5	814.44
438.721	836.44
438.943	832.44
439.165	817.44
439.386	832.44
439.608	825.44
439.829	853.44
440.05	861.44
440.272	871.44
440.493	851.44
440.715	883.44
440.936	880.44
441.158	901.44
441.379	913.44
441.6	958.44
441.822	945.44
442.043	949.44
442.264	953.44
442.486	929.44
442.707	932.44
442.928	931.44
443.149	937.44
443.371	919.44
443.592	918.44
443.813	930.44
444.034	964.44
444.255	952.44
444.476	985.44
444.698	1053.44
444.919	1101.44
445.14	1132.44
445.361	1022.44
445.582	978.44
445.803	951.44
446.024	922.44
446.245	888.44
446.466	880.44
446.687	887.44
446.908	857.44
447.129	856.44
447.35	834.44
447.571	806.44
447.792	825.44
448.013	799.44
448.234	799.44
448.455	807.44
448.675	819.44
448.896	788.44
449.117	779.44
449.338	819.44
449.559	791.44
449.779	789.44
450	770.44
450.221	807.44
450.442	812.44
450.662	826.44
450.883	833.44
451.104	824.44
451.324	825.44
451.545	802.44
451.766	800.44
451.986	785.44
452.207	793.44
452.428	776.44
452.648	793.44
452.869	775.44
453.089	764.44
453.31	772.44
453.53	789.44
453.751	785.44
453.971	770.44
454.192	761.44
454.412	746.44
454.633	757.44
454.853	751.44
455.073	733.44
455.294	760.44
455.514	751.44
455.734	752.44
455.955	740.44
456.175	767.44
456.395	739.44
456.616	734.44
456.836	759.44
457.056	774.44
457.276	755.44
457.497	776.44
457.717	737.44
457.937	794.44
458.157	744.44
458.377	766.44
458.598	793.44
458.818	796.44
459.038	824.44
459.258	830.44
459.478	866.44
459.698	889.44
459.918	909.44
460.138	944.44
460.358	985.44
460.578	968.44
460.798	964.44
461.018	995.44
461.238	1001.44
461.458	987.44
461.678	984.44
461.898	1020.44
462.118	1023.44
462.338	1051.44
462.558	1069.44
462.777	1093.44
462.997	1180.44
463.217	1281.44
463.437	1288.44
463.657	1179.44
463.876	1168.44
464.096	1120.44
464.316	1127.44
464.536	1111.44
464.755	1097.44
464.975	1056.44
465.195	1045.44
465.414	959.44
465.634	931.44
465.854	901.44
466.073	895.44
466.293	839.44
466.512	857.44
466.732	865.44
466.951	849.44
467.171	842.44
467.391	837.44
467.61	848.44
467.829	855.44
468.049	847.44
468.268	825.44
468.488	811.44
468.707	837.44
468.927	810.44
469.146	801.44
469.365	831.44
469.585	808.44
469.804	842.44
470.023	859.44
470.243	862.44
470.462	866.44
470.681	843.44
470.901	872.44
471.12	855.44
471.339	836.44
471.558	841.44
471.777	824.44
471.997	823.44
472.216	777.44
472.435	822.44
472.654	810.44
472.873	809.44
473.092	814.44
473.311	804.44
473.53	807.44
473.749	815.44
473.968	801.44
474.187	788.44
474.406	803.44
474.625	813.44
474.844	794.44
475.063	799.44
475.282	800.44
475.501	835.44
475.72	831.44
475.939	820.44
476.158	837.44
476.377	852.44
476.596	839.44
476.814	847.44
477.033	859.44
477.252	871.44
477.471	881.44
477.69	896.44
477.908	905.44
478.127	904.44
478.346	940.44
478.564	932.44
478.783	969.44
479.002	978.44
479.22	999.44
479.439	971.44
479.658	976.44
479.876	990.44
480.095	980.44
480.313	1006.44
480.532	1046.44
480.751	1030.44
480.969	1003.44
481.188	944.44
481.406	955.44
481.624	953.44
481.843	930.44
482.061	911.44
482.28	884.44
482.498	900.44
482.717	905.44
482.935	944.44
483.153	911.44
483.372	905.44
483.59	920.44
483.808	902.44
484.027	920.44
484.245	919.44
484.463	944.44
484.681	970.44
484.9	955.44
485.118	957.44
485.336	947.44
485.554	947.44
485.772	1003.44
485.99	947.44
486.209	936.44
486.427	950.44
486.645	945.44
486.863	941.44
487.081	991.44
487.299	948.44
487.517	931.44
487.735	934.44
487.953	968.44
488.171	982.44
488.389	980.44
488.607	944.44
488.825	965.44
489.043	915.44
489.261	936.44
489.479	920.44
489.696	946.44
489.914	929.44
490.132	951.44
490.35	963.44
490.568	997.44
490.786	996.44
491.003	1027.44
491.221	985.44
491.439	972.44
491.657	958.44
491.874	970.44
492.092	982.44
492.31	1005.44
492.527	1022.44
492.745	997.44
492.963	1030.44
493.18	1046.44
493.398	1015.44
493.615	995.44
493.833	1011.44
494.05	1013.44
494.268	1016.44
494.485	1027.44
494.703	1001.44
494.92	1063.44
495.138	1007.44
495.355	1031.44
495.573	1068.44
495.79	1068.44
496.008	1059.44
496.225	1034.44
496.442	1054.44
496.66	1081.44
496.877	1083.44
497.094	1085.44
497.312	1117.44
497.529	1137.44
497.746	1134.44
497.963	1180.44
498.181	1269.44
498.398	1280.44
498.615	1366.44
498.832	1411.44
499.049	1515.44
499.267	1583.44
499.484	1760.44
499.701	1923.44
499.918	2102.44
500.135	2304.44
500.352	2559.44
