Data from NiCl2@0.125M.TitratingCurve.Agarose3%dH2O.NegLispCup.LampEnergy10.LIBS07252019_HRD10591_18-30-26-575.txt Node
Date: Thu Jul 25 18:30:26 EDT 2019
User: cochatt
Spectrometer: HR+D1059
Trigger mode: 1
Integration Time (sec): 1.000000E-1
Scans to average: 1
Electric dark correction enabled: true
Nonlinearity correction enabled: false
Boxcar width: 0
XAxis mode: Wavelengths
Number of Pixels in Spectrum: 2048
>>>>>Begin Spectral Data<<<<<
223.165	-17.44
223.4	-17.44
223.635	-17.44
223.869	-29.44
224.104	-13.44
224.338	-3.44
224.573	-15.44
224.808	-24.44
225.042	-1.44
225.277	-19.44
225.511	2.56
225.746	7.56
225.98	18.56
226.215	11.56
226.449	13.56
226.683	8.56
226.918	25.56
227.152	36.56
227.387	36.56
227.621	47.56
227.856	42.56
228.09	38.56
228.324	46.56
228.559	52.56
228.793	58.56
229.027	103.56
229.262	96.56
229.496	99.56
229.73	116.56
229.964	116.56
230.199	147.56
230.433	129.56
230.667	131.56
230.901	133.56
231.136	131.56
231.37	129.56
231.604	125.56
231.838	138.56
232.072	150.56
232.306	140.56
232.541	152.56
232.775	140.56
233.009	152.56
233.243	150.56
233.477	138.56
233.711	136.56
233.945	140.56
234.179	133.56
234.413	143.56
234.647	140.56
234.881	152.56
235.115	141.56
235.349	143.56
235.583	137.56
235.817	147.56
236.051	162.56
236.285	144.56
236.519	148.56
236.753	156.56
236.987	146.56
237.221	150.56
237.455	153.56
237.689	159.56
237.922	148.56
238.156	157.56
238.39	148.56
238.624	144.56
238.858	166.56
239.091	170.56
239.325	159.56
239.559	161.56
239.793	181.56
240.027	169.56
240.26	174.56
240.494	180.56
240.728	165.56
240.961	156.56
241.195	179.56
241.429	167.56
241.662	170.56
241.896	184.56
242.13	179.56
242.363	188.56
242.597	175.56
242.83	176.56
243.064	189.56
243.298	196.56
243.531	183.56
243.765	170.56
243.998	197.56
244.232	182.56
244.465	201.56
244.699	199.56
244.932	220.56
245.166	229.56
245.399	198.56
245.633	180.56
245.866	202.56
246.099	207.56
246.333	208.56
246.566	206.56
246.8	211.56
247.033	211.56
247.266	202.56
247.5	208.56
247.733	230.56
247.966	208.56
248.2	225.56
248.433	213.56
248.666	228.56
248.899	232.56
249.133	233.56
249.366	223.56
249.599	240.56
249.832	242.56
250.066	250.56
250.299	259.56
250.532	231.56
250.765	238.56
250.998	238.56
251.231	222.56
251.465	232.56
251.698	247.56
251.931	259.56
252.164	250.56
252.397	241.56
252.63	256.56
252.863	255.56
253.096	248.56
253.329	267.56
253.562	244.56
253.795	256.56
254.028	266.56
254.261	264.56
254.494	266.56
254.727	256.56
254.96	251.56
255.193	238.56
255.426	240.56
255.659	261.56
255.892	269.56
256.124	276.56
256.357	278.56
256.59	262.56
256.823	284.56
257.056	275.56
257.289	282.56
257.521	274.56
257.754	272.56
257.987	275.56
258.22	279.56
258.452	269.56
258.685	291.56
258.918	274.56
259.151	296.56
259.383	269.56
259.616	286.56
259.849	306.56
260.081	291.56
260.314	283.56
260.547	287.56
260.779	294.56
261.012	302.56
261.244	295.56
261.477	305.56
261.71	302.56
261.942	279.56
262.175	320.56
262.407	298.56
262.64	289.56
262.872	310.56
263.105	299.56
263.337	307.56
263.57	296.56
263.802	311.56
264.035	297.56
264.267	312.56
264.499	320.56
264.732	331.56
264.964	323.56
265.197	302.56
265.429	331.56
265.661	315.56
265.894	313.56
266.126	321.56
266.358	312.56
266.591	312.56
266.823	340.56
267.055	323.56
267.287	332.56
267.52	314.56
267.752	315.56
267.984	339.56
268.216	351.56
268.448	327.56
268.681	347.56
268.913	343.56
269.145	336.56
269.377	346.56
269.609	324.56
269.841	361.56
270.073	337.56
270.306	324.56
270.538	330.56
270.77	346.56
271.002	353.56
271.234	329.56
271.466	350.56
271.698	366.56
271.93	354.56
272.162	364.56
272.394	354.56
272.626	357.56
272.858	362.56
273.09	346.56
273.322	375.56
273.553	368.56
273.785	351.56
274.017	362.56
274.249	386.56
274.481	388.56
274.713	359.56
274.945	368.56
275.176	372.56
275.408	359.56
275.64	382.56
275.872	377.56
276.104	363.56
276.335	390.56
276.567	386.56
276.799	367.56
277.031	386.56
277.262	393.56
277.494	387.56
277.726	388.56
277.957	383.56
278.189	400.56
278.421	395.56
278.652	408.56
278.884	400.56
279.115	413.56
279.347	390.56
279.579	402.56
279.81	405.56
280.042	399.56
280.273	403.56
280.505	406.56
280.736	421.56
280.968	402.56
281.199	419.56
281.431	419.56
281.662	415.56
281.894	423.56
282.125	416.56
282.356	421.56
282.588	431.56
282.819	430.56
283.051	432.56
283.282	443.56
283.513	432.56
283.745	430.56
283.976	421.56
284.207	431.56
284.439	425.56
284.67	441.56
284.901	471.56
285.132	429.56
285.364	455.56
285.595	467.56
285.826	441.56
286.057	455.56
286.288	453.56
286.52	463.56
286.751	453.56
286.982	452.56
287.213	467.56
287.444	472.56
287.675	462.56
287.906	467.56
288.138	489.56
288.369	469.56
288.6	463.56
288.831	459.56
289.062	480.56
289.293	470.56
289.524	472.56
289.755	469.56
289.986	464.56
290.217	454.56
290.448	491.56
290.679	482.56
290.91	482.56
291.141	474.56
291.371	490.56
291.602	475.56
291.833	466.56
292.064	498.56
292.295	453.56
292.526	494.56
292.757	478.56
292.987	486.56
293.218	485.56
293.449	500.56
293.68	475.56
293.91	488.56
294.141	483.56
294.372	487.56
294.603	491.56
294.833	469.56
295.064	510.56
295.295	492.56
295.525	484.56
295.756	511.56
295.987	496.56
296.217	502.56
296.448	520.56
296.679	496.56
296.909	508.56
297.14	516.56
297.37	524.56
297.601	519.56
297.831	517.56
298.062	528.56
298.292	534.56
298.523	549.56
298.753	524.56
298.984	547.56
299.214	520.56
299.445	539.56
299.675	543.56
299.905	512.56
300.136	541.56
300.366	516.56
300.597	551.56
300.827	551.56
301.057	543.56
301.288	554.56
301.518	552.56
301.748	563.56
301.979	562.56
302.209	554.56
302.439	560.56
302.669	553.56
302.9	548.56
303.13	543.56
303.36	538.56
303.59	537.56
303.82	536.56
304.051	535.56
304.281	545.56
304.511	542.56
304.741	539.56
304.971	550.56
305.201	549.56
305.431	533.56
305.661	541.56
305.891	535.56
306.121	526.56
306.352	534.56
306.582	538.56
306.812	511.56
307.042	523.56
307.272	510.56
307.502	532.56
307.731	528.56
307.961	529.56
308.191	524.56
308.421	515.56
308.651	535.56
308.881	522.56
309.111	536.56
309.341	537.56
309.571	530.56
309.8	537.56
310.03	516.56
310.26	540.56
310.49	529.56
310.72	534.56
310.949	522.56
311.179	524.56
311.409	534.56
311.639	538.56
311.868	534.56
312.098	562.56
312.328	554.56
312.557	543.56
312.787	544.56
313.017	574.56
313.246	564.56
313.476	540.56
313.706	547.56
313.935	577.56
314.165	569.56
314.394	583.56
314.624	559.56
314.853	581.56
315.083	563.56
315.312	546.56
315.542	562.56
315.771	548.56
316.001	543.56
316.23	550.56
316.46	555.56
316.689	546.56
316.919	568.56
317.148	532.56
317.377	543.56
317.607	549.56
317.836	534.56
318.065	545.56
318.295	549.56
318.524	548.56
318.753	564.56
318.983	561.56
319.212	547.56
319.441	532.56
319.67	548.56
319.9	553.56
320.129	548.56
320.358	551.56
320.587	575.56
320.816	535.56
321.046	561.56
321.275	544.56
321.504	562.56
321.733	565.56
321.962	538.56
322.191	548.56
322.42	540.56
322.649	549.56
322.878	547.56
323.108	559.56
323.337	556.56
323.566	545.56
323.795	569.56
324.024	577.56
324.253	568.56
324.482	565.56
324.71	565.56
324.939	594.56
325.168	587.56
325.397	574.56
325.626	585.56
325.855	619.56
326.084	602.56
326.313	608.56
326.542	618.56
326.77	632.56
326.999	600.56
327.228	583.56
327.457	586.56
327.686	590.56
327.914	622.56
328.143	626.56
328.372	602.56
328.6	598.56
328.829	595.56
329.058	584.56
329.287	594.56
329.515	599.56
329.744	606.56
329.972	602.56
330.201	610.56
330.43	601.56
330.658	617.56
330.887	626.56
331.115	628.56
331.344	641.56
331.572	649.56
331.801	665.56
332.03	661.56
332.258	698.56
332.486	676.56
332.715	720.56
332.943	743.56
333.172	747.56
333.4	796.56
333.629	840.56
333.857	805.56
334.085	824.56
334.314	796.56
334.542	776.56
334.771	768.56
334.999	744.56
335.227	758.56
335.455	746.56
335.684	759.56
335.912	752.56
336.14	713.56
336.369	732.56
336.597	756.56
336.825	704.56
337.053	728.56
337.281	734.56
337.51	700.56
337.738	693.56
337.966	694.56
338.194	637.56
338.422	673.56
338.65	630.56
338.878	659.56
339.106	645.56
339.334	663.56
339.562	627.56
339.79	616.56
340.018	628.56
340.246	627.56
340.474	623.56
340.702	616.56
340.93	632.56
341.158	644.56
341.386	642.56
341.614	653.56
341.842	612.56
342.07	622.56
342.298	606.56
342.526	610.56
342.754	616.56
342.981	622.56
343.209	650.56
343.437	649.56
343.665	715.56
343.893	751.56
344.12	805.56
344.348	764.56
344.576	666.56
344.804	694.56
345.031	649.56
345.259	651.56
345.487	625.56
345.714	637.56
345.942	626.56
346.17	632.56
346.397	598.56
346.625	616.56
346.853	616.56
347.08	603.56
347.308	610.56
347.535	626.56
347.763	640.56
347.99	638.56
348.218	614.56
348.445	622.56
348.673	635.56
348.9	600.56
349.128	606.56
349.355	595.56
349.583	598.56
349.81	599.56
350.037	606.56
350.265	596.56
350.492	582.56
350.72	592.56
350.947	592.56
351.174	599.56
351.402	595.56
351.629	603.56
351.856	579.56
352.083	590.56
352.311	574.56
352.538	562.56
352.765	569.56
352.992	581.56
353.22	587.56
353.447	559.56
353.674	594.56
353.901	581.56
354.128	577.56
354.355	579.56
354.583	603.56
354.81	579.56
355.037	589.56
355.264	592.56
355.491	592.56
355.718	603.56
355.945	611.56
356.172	611.56
356.399	593.56
356.626	576.56
356.853	603.56
357.08	598.56
357.307	593.56
357.534	585.56
357.761	590.56
357.988	588.56
358.215	585.56
358.441	575.56
358.668	581.56
358.895	601.56
359.122	593.56
359.349	587.56
359.576	606.56
359.802	579.56
360.029	586.56
360.256	614.56
360.483	622.56
360.709	591.56
360.936	580.56
361.163	586.56
361.39	577.56
361.616	570.56
361.843	614.56
362.07	593.56
362.296	598.56
362.523	595.56
362.749	603.56
362.976	595.56
363.203	612.56
363.429	588.56
363.656	601.56
363.882	578.56
364.109	579.56
364.335	581.56
364.562	578.56
364.788	580.56
365.015	575.56
365.241	587.56
365.468	572.56
365.694	599.56
365.92	574.56
366.147	602.56
366.373	586.56
366.599	592.56
366.826	596.56
367.052	591.56
367.278	599.56
367.505	597.56
367.731	583.56
367.957	587.56
368.184	579.56
368.41	592.56
368.636	602.56
368.862	606.56
369.089	557.56
369.315	625.56
369.541	598.56
369.767	601.56
369.993	604.56
370.219	609.56
370.445	597.56
370.672	624.56
370.898	633.56
371.124	624.56
371.35	628.56
371.576	644.56
371.802	630.56
372.028	646.56
372.254	629.56
372.48	635.56
372.706	646.56
372.932	654.56
373.158	672.56
373.384	662.56
373.61	636.56
373.835	646.56
374.061	639.56
374.287	636.56
374.513	667.56
374.739	687.56
374.965	667.56
375.191	721.56
375.416	713.56
375.642	680.56
375.868	679.56
376.094	672.56
376.319	649.56
376.545	665.56
376.771	648.56
376.997	642.56
377.222	647.56
377.448	644.56
377.674	629.56
377.899	630.56
378.125	619.56
378.35	626.56
378.576	627.56
378.802	643.56
379.027	619.56
379.253	632.56
379.478	624.56
379.704	629.56
379.929	618.56
380.155	633.56
380.38	624.56
380.606	601.56
380.831	638.56
381.057	644.56
381.282	634.56
381.507	657.56
381.733	644.56
381.958	647.56
382.184	644.56
382.409	645.56
382.634	652.56
382.86	674.56
383.085	677.56
383.31	675.56
383.535	711.56
383.761	721.56
383.986	709.56
384.211	703.56
384.436	735.56
384.662	752.56
384.887	774.56
385.112	753.56
385.337	776.56
385.562	784.56
385.787	779.56
386.013	784.56
386.238	769.56
386.463	802.56
386.688	774.56
386.913	761.56
387.138	768.56
387.363	757.56
387.588	751.56
387.813	760.56
388.038	760.56
388.263	758.56
388.488	748.56
388.713	729.56
388.938	759.56
389.163	760.56
389.387	753.56
389.612	722.56
389.837	732.56
390.062	763.56
390.287	747.56
390.512	752.56
390.736	739.56
390.961	766.56
391.186	786.56
391.411	785.56
391.636	840.56
391.86	851.56
392.085	856.56
392.31	881.56
392.534	808.56
392.759	822.56
392.984	811.56
393.208	790.56
393.433	810.56
393.658	796.56
393.882	828.56
394.107	831.56
394.331	832.56
394.556	839.56
394.78	809.56
395.005	841.56
395.229	826.56
395.454	822.56
395.678	865.56
395.903	874.56
396.127	888.56
396.352	820.56
396.576	812.56
396.801	828.56
397.025	811.56
397.249	841.56
397.474	848.56
397.698	857.56
397.922	839.56
398.147	870.56
398.371	845.56
398.595	894.56
398.82	940.56
399.044	994.56
399.268	1118.56
399.492	1313.56
399.717	1505.56
399.941	1532.56
400.165	1305.56
400.389	1176.56
400.613	1080.56
400.837	1023.56
401.062	965.56
401.286	951.56
401.51	948.56
401.734	933.56
401.958	983.56
402.182	979.56
402.406	996.56
402.63	991.56
402.854	1051.56
403.078	1033.56
403.302	1079.56
403.526	1092.56
403.75	1110.56
403.974	1120.56
404.198	1133.56
404.422	1138.56
404.645	1119.56
404.869	1128.56
405.093	1103.56
405.317	1067.56
405.541	1055.56
405.765	1064.56
405.988	1042.56
406.212	1058.56
406.436	1070.56
406.66	1097.56
406.883	1099.56
407.107	1174.56
407.331	1230.56
407.555	1286.56
407.778	1267.56
408.002	1211.56
408.226	1182.56
408.449	1127.56
408.673	1135.56
408.896	1117.56
409.12	1096.56
409.344	1093.56
409.567	1113.56
409.791	1131.56
410.014	1127.56
410.238	1102.56
410.461	1102.56
410.685	1084.56
410.908	1062.56
411.132	1008.56
411.355	1006.56
411.578	1005.56
411.802	991.56
412.025	1022.56
412.249	1040.56
412.472	1014.56
412.695	948.56
412.919	960.56
413.142	967.56
413.365	970.56
413.589	977.56
413.812	967.56
414.035	931.56
414.258	945.56
414.482	974.56
414.705	967.56
414.928	982.56
415.151	970.56
415.374	977.56
415.597	956.56
415.821	939.56
416.044	953.56
416.267	911.56
416.49	940.56
416.713	941.56
416.936	950.56
417.159	923.56
417.382	942.56
417.605	940.56
417.828	930.56
418.051	957.56
418.274	962.56
418.497	973.56
418.72	976.56
418.943	986.56
419.166	1049.56
419.389	1137.56
419.611	1115.56
419.834	1023.56
420.057	1031.56
420.28	971.56
420.503	969.56
420.726	953.56
420.948	942.56
421.171	939.56
421.394	958.56
421.617	961.56
421.839	977.56
422.062	968.56
422.285	961.56
422.507	997.56
422.73	1006.56
422.953	982.56
423.175	990.56
423.398	1009.56
423.621	1014.56
423.843	1042.56
424.066	1019.56
424.288	1029.56
424.511	999.56
424.733	1006.56
424.956	1002.56
425.178	994.56
425.401	963.56
425.623	993.56
425.846	942.56
426.068	955.56
426.291	916.56
426.513	904.56
426.735	902.56
426.958	919.56
427.18	864.56
427.402	861.56
427.625	857.56
427.847	869.56
428.069	854.56
428.292	860.56
428.514	842.56
428.736	850.56
428.958	863.56
429.181	834.56
429.403	837.56
429.625	849.56
429.847	841.56
430.069	851.56
430.292	828.56
430.514	831.56
430.736	834.56
430.958	862.56
431.18	838.56
431.402	862.56
431.624	825.56
431.846	840.56
432.068	858.56
432.29	896.56
432.512	834.56
432.734	863.56
432.956	857.56
433.178	864.56
433.4	874.56
433.622	869.56
433.844	887.56
434.066	872.56
434.287	882.56
434.509	903.56
434.731	954.56
434.953	985.56
435.175	991.56
435.397	969.56
435.618	936.56
435.84	916.56
436.062	866.56
436.284	860.56
436.505	867.56
436.727	863.56
436.949	880.56
437.17	866.56
437.392	864.56
437.614	849.56
437.835	814.56
438.057	840.56
438.278	832.56
438.5	826.56
438.721	833.56
438.943	869.56
439.165	837.56
439.386	831.56
439.608	866.56
439.829	878.56
440.05	849.56
440.272	886.56
440.493	872.56
440.715	855.56
440.936	903.56
441.158	918.56
441.379	918.56
441.6	966.56
441.822	1006.56
442.043	1016.56
442.264	1023.56
442.486	944.56
442.707	935.56
442.928	945.56
443.149	964.56
443.371	928.56
443.592	982.56
443.813	981.56
444.034	957.56
444.255	1042.56
444.476	1067.56
444.698	1169.56
444.919	1190.56
445.14	1284.56
445.361	1112.56
445.582	1002.56
445.803	966.56
446.024	894.56
446.245	914.56
446.466	903.56
446.687	897.56
446.908	885.56
447.129	865.56
447.35	840.56
447.571	856.56
447.792	820.56
448.013	835.56
448.234	821.56
448.455	818.56
448.675	804.56
448.896	814.56
449.117	782.56
449.338	795.56
449.559	817.56
449.779	802.56
450	800.56
450.221	784.56
450.442	814.56
450.662	825.56
450.883	852.56
451.104	827.56
451.324	831.56
451.545	836.56
451.766	836.56
451.986	811.56
452.207	819.56
452.428	789.56
452.648	792.56
452.869	770.56
453.089	806.56
453.31	794.56
453.53	789.56
453.751	785.56
453.971	788.56
454.192	764.56
454.412	756.56
454.633	774.56
454.853	755.56
455.073	754.56
455.294	784.56
455.514	753.56
455.734	770.56
455.955	739.56
456.175	731.56
456.395	739.56
456.616	750.56
456.836	730.56
457.056	753.56
457.276	750.56
457.497	751.56
457.717	738.56
457.937	777.56
458.157	768.56
458.377	778.56
458.598	785.56
458.818	789.56
459.038	821.56
459.258	859.56
459.478	878.56
459.698	896.56
459.918	943.56
460.138	950.56
460.358	1044.56
460.578	1032.56
460.798	1025.56
461.018	1056.56
461.238	1034.56
461.458	1016.56
461.678	1005.56
461.898	1012.56
462.118	1013.56
462.338	1098.56
462.558	1122.56
462.777	1138.56
462.997	1270.56
463.217	1412.56
463.437	1449.56
463.657	1302.56
463.876	1238.56
464.096	1249.56
464.316	1213.56
464.536	1237.56
464.755	1188.56
464.975	1134.56
465.195	1071.56
465.414	1002.56
465.634	942.56
465.854	945.56
466.073	869.56
466.293	859.56
466.512	855.56
466.732	846.56
466.951	842.56
467.171	824.56
467.391	817.56
467.61	828.56
467.829	808.56
468.049	835.56
468.268	822.56
468.488	782.56
468.707	812.56
468.927	801.56
469.146	795.56
469.365	825.56
469.585	806.56
469.804	842.56
470.023	840.56
470.243	841.56
470.462	875.56
470.681	862.56
470.901	860.56
471.12	856.56
471.339	823.56
471.558	809.56
471.777	848.56
471.997	806.56
472.216	783.56
472.435	785.56
472.654	819.56
472.873	788.56
473.092	772.56
473.311	801.56
473.53	772.56
473.749	766.56
473.968	753.56
474.187	774.56
474.406	787.56
474.625	764.56
474.844	778.56
475.063	795.56
475.282	796.56
475.501	775.56
475.72	786.56
475.939	798.56
476.158	781.56
476.377	818.56
476.596	807.56
476.814	820.56
477.033	834.56
477.252	850.56
477.471	860.56
477.69	881.56
477.908	886.56
478.127	926.56
478.346	913.56
478.564	979.56
478.783	959.56
479.002	985.56
479.22	987.56
479.439	970.56
479.658	947.56
479.876	954.56
480.095	998.56
480.313	1019.56
480.532	1040.56
480.751	1065.56
480.969	1025.56
481.188	957.56
481.406	956.56
481.624	924.56
481.843	898.56
482.061	904.56
482.28	881.56
482.498	884.56
482.717	875.56
482.935	874.56
483.153	879.56
483.372	882.56
483.59	890.56
483.808	868.56
484.027	901.56
484.245	902.56
484.463	904.56
484.681	912.56
484.9	929.56
485.118	940.56
485.336	917.56
485.554	929.56
485.772	960.56
485.99	970.56
486.209	971.56
486.427	949.56
486.645	958.56
486.863	959.56
487.081	946.56
487.299	944.56
487.517	942.56
487.735	895.56
487.953	918.56
488.171	934.56
488.389	911.56
488.607	928.56
488.825	919.56
489.043	912.56
489.261	922.56
489.479	944.56
489.696	906.56
489.914	922.56
490.132	927.56
490.35	939.56
490.568	937.56
490.786	951.56
491.003	955.56
491.221	958.56
491.439	938.56
491.657	936.56
491.874	931.56
492.092	951.56
492.31	951.56
492.527	943.56
492.745	969.56
492.963	968.56
493.18	987.56
493.398	986.56
493.615	957.56
493.833	971.56
494.05	966.56
494.268	959.56
494.485	972.56
494.703	986.56
494.92	981.56
495.138	977.56
495.355	972.56
495.573	985.56
495.79	982.56
496.008	986.56
496.225	1025.56
496.442	1024.56
496.66	1011.56
496.877	1025.56
497.094	1065.56
497.312	1073.56
497.529	1092.56
497.746	1096.56
497.963	1120.56
498.181	1150.56
498.398	1229.56
498.615	1318.56
498.832	1414.56
499.049	1488.56
499.267	1607.56
499.484	1798.56
499.701	1961.56
499.918	2178.56
