Data from NiCl2@0.0625M.TitratingCurve.Agarose3%dH2O.NegLispCup.LampEnergy10.LIBS07252019_HRD10591_18-35-27-578.txt Node
Date: Thu Jul 25 18:35:27 EDT 2019
User: cochatt
Spectrometer: HR+D1059
Trigger mode: 1
Integration Time (sec): 1.000000E-1
Scans to average: 1
Electric dark correction enabled: true
Nonlinearity correction enabled: false
Boxcar width: 0
XAxis mode: Wavelengths
Number of Pixels in Spectrum: 2048
>>>>>Begin Spectral Data<<<<<
223.165	-21.62
223.4	-21.62
223.635	-21.62
223.869	-19.62
224.104	-29.62
224.338	-23.62
224.573	-10.62
224.808	-4.62
225.042	-9.62
225.277	-3.62
225.511	7.38
225.746	7.38
225.98	8.38
226.215	9.38
226.449	-4.62
226.683	27.38
226.918	36.38
227.152	31.38
227.387	25.38
227.621	36.38
227.856	45.38
228.09	53.38
228.324	47.38
228.559	59.38
228.793	76.38
229.027	156.38
229.262	147.38
229.496	163.38
229.73	140.38
229.964	160.38
230.199	168.38
230.433	156.38
230.667	169.38
230.901	168.38
231.136	180.38
231.37	179.38
231.604	185.38
231.838	179.38
232.072	179.38
232.306	186.38
232.541	181.38
232.775	208.38
233.009	175.38
233.243	199.38
233.477	199.38
233.711	196.38
233.945	191.38
234.179	199.38
234.413	202.38
234.647	209.38
234.881	197.38
235.115	196.38
235.349	202.38
235.583	206.38
235.817	195.38
236.051	199.38
236.285	205.38
236.519	214.38
236.753	208.38
236.987	211.38
237.221	218.38
237.455	216.38
237.689	220.38
237.922	221.38
238.156	229.38
238.39	254.38
238.624	229.38
238.858	231.38
239.091	228.38
239.325	241.38
239.559	222.38
239.793	229.38
240.027	246.38
240.26	245.38
240.494	252.38
240.728	252.38
240.961	257.38
241.195	257.38
241.429	258.38
241.662	282.38
241.896	267.38
242.13	265.38
242.363	283.38
242.597	266.38
242.83	280.38
243.064	274.38
243.298	289.38
243.531	277.38
243.765	283.38
243.998	290.38
244.232	300.38
244.465	315.38
244.699	305.38
244.932	315.38
245.166	335.38
245.399	308.38
245.633	304.38
245.866	305.38
246.099	335.38
246.333	327.38
246.566	307.38
246.8	327.38
247.033	331.38
247.266	328.38
247.5	326.38
247.733	328.38
247.966	330.38
248.2	341.38
248.433	355.38
248.666	363.38
248.899	355.38
249.133	368.38
249.366	337.38
249.599	341.38
249.832	358.38
250.066	368.38
250.299	364.38
250.532	372.38
250.765	371.38
250.998	382.38
251.231	365.38
251.465	373.38
251.698	383.38
251.931	397.38
252.164	378.38
252.397	392.38
252.63	395.38
252.863	386.38
253.096	396.38
253.329	402.38
253.562	416.38
253.795	405.38
254.028	420.38
254.261	412.38
254.494	432.38
254.727	406.38
254.96	409.38
255.193	422.38
255.426	433.38
255.659	446.38
255.892	435.38
256.124	435.38
256.357	439.38
256.59	420.38
256.823	428.38
257.056	428.38
257.289	449.38
257.521	431.38
257.754	442.38
257.987	471.38
258.22	450.38
258.452	452.38
258.685	456.38
258.918	427.38
259.151	462.38
259.383	460.38
259.616	476.38
259.849	468.38
260.081	479.38
260.314	466.38
260.547	473.38
260.779	476.38
261.012	463.38
261.244	490.38
261.477	491.38
261.71	498.38
261.942	500.38
262.175	478.38
262.407	491.38
262.64	493.38
262.872	505.38
263.105	496.38
263.337	515.38
263.57	516.38
263.802	500.38
264.035	515.38
264.267	509.38
264.499	519.38
264.732	529.38
264.964	511.38
265.197	529.38
265.429	536.38
265.661	540.38
265.894	534.38
266.126	521.38
266.358	545.38
266.591	528.38
266.823	566.38
267.055	547.38
267.287	548.38
267.52	551.38
267.752	576.38
267.984	552.38
268.216	556.38
268.448	560.38
268.681	569.38
268.913	568.38
269.145	559.38
269.377	566.38
269.609	589.38
269.841	583.38
270.073	584.38
270.306	553.38
270.538	568.38
270.77	576.38
271.002	586.38
271.234	589.38
271.466	598.38
271.698	602.38
271.93	590.38
272.162	608.38
272.394	618.38
272.626	631.38
272.858	624.38
273.09	603.38
273.322	623.38
273.553	623.38
273.785	615.38
274.017	620.38
274.249	618.38
274.481	614.38
274.713	635.38
274.945	647.38
275.176	638.38
275.408	658.38
275.64	642.38
275.872	657.38
276.104	639.38
276.335	644.38
276.567	665.38
276.799	666.38
277.031	657.38
277.262	685.38
277.494	657.38
277.726	679.38
277.957	675.38
278.189	667.38
278.421	667.38
278.652	693.38
278.884	699.38
279.115	661.38
279.347	684.38
279.579	708.38
279.81	691.38
280.042	696.38
280.273	708.38
280.505	716.38
280.736	693.38
280.968	715.38
281.199	700.38
281.431	729.38
281.662	729.38
281.894	701.38
282.125	734.38
282.356	727.38
282.588	743.38
282.819	729.38
283.051	744.38
283.282	711.38
283.513	741.38
283.745	707.38
283.976	753.38
284.207	736.38
284.439	737.38
284.67	760.38
284.901	753.38
285.132	774.38
285.364	776.38
285.595	762.38
285.826	777.38
286.057	762.38
286.288	753.38
286.52	794.38
286.751	777.38
286.982	788.38
287.213	772.38
287.444	786.38
287.675	781.38
287.906	800.38
288.138	784.38
288.369	785.38
288.6	776.38
288.831	803.38
289.062	775.38
289.293	812.38
289.524	788.38
289.755	781.38
289.986	801.38
290.217	785.38
290.448	810.38
290.679	813.38
290.91	810.38
291.141	821.38
291.371	836.38
291.602	810.38
291.833	817.38
292.064	824.38
292.295	811.38
292.526	821.38
292.757	811.38
292.987	817.38
293.218	824.38
293.449	812.38
293.68	819.38
293.91	827.38
294.141	836.38
294.372	827.38
294.603	831.38
294.833	817.38
295.064	826.38
295.295	840.38
295.525	838.38
295.756	849.38
295.987	831.38
296.217	817.38
296.448	838.38
296.679	869.38
296.909	852.38
297.14	841.38
297.37	875.38
297.601	839.38
297.831	850.38
298.062	874.38
298.292	884.38
298.523	901.38
298.753	914.38
298.984	889.38
299.214	881.38
299.445	861.38
299.675	884.38
299.905	883.38
300.136	875.38
300.366	898.38
300.597	920.38
300.827	907.38
301.057	906.38
301.288	923.38
301.518	908.38
301.748	913.38
301.979	964.38
302.209	929.38
302.439	931.38
302.669	936.38
302.9	907.38
303.13	914.38
303.36	932.38
303.59	933.38
303.82	928.38
304.051	939.38
304.281	909.38
304.511	923.38
304.741	941.38
304.971	954.38
305.201	921.38
305.431	920.38
305.661	944.38
305.891	917.38
306.121	921.38
306.352	940.38
306.582	923.38
306.812	912.38
307.042	923.38
307.272	929.38
307.502	891.38
307.731	905.38
307.961	917.38
308.191	912.38
308.421	924.38
308.651	916.38
308.881	901.38
309.111	918.38
309.341	920.38
309.571	920.38
309.8	918.38
310.03	949.38
310.26	918.38
310.49	947.38
310.72	938.38
310.949	925.38
311.179	936.38
311.409	917.38
311.639	957.38
311.868	960.38
312.098	932.38
312.328	939.38
312.557	969.38
312.787	972.38
313.017	962.38
313.246	975.38
313.476	973.38
313.706	977.38
313.935	1015.38
314.165	1002.38
314.394	993.38
314.624	999.38
314.853	982.38
315.083	998.38
315.312	992.38
315.542	992.38
315.771	978.38
316.001	983.38
316.23	995.38
316.46	977.38
316.689	970.38
316.919	970.38
317.148	1010.38
317.377	982.38
317.607	985.38
317.836	982.38
318.065	960.38
318.295	992.38
318.524	996.38
318.753	991.38
318.983	961.38
319.212	986.38
319.441	974.38
319.67	972.38
319.9	974.38
320.129	968.38
320.358	1006.38
320.587	986.38
320.816	970.38
321.046	1013.38
321.275	995.38
321.504	979.38
321.733	979.38
321.962	989.38
322.191	1002.38
322.42	1004.38
322.649	1004.38
322.878	989.38
323.108	999.38
323.337	1019.38
323.566	994.38
323.795	1004.38
324.024	1020.38
324.253	985.38
324.482	999.38
324.71	1060.38
324.939	1058.38
325.168	1044.38
325.397	1027.38
325.626	1009.38
325.855	1047.38
326.084	1083.38
326.313	1080.38
326.542	1041.38
326.77	1092.38
326.999	1040.38
327.228	1049.38
327.457	1052.38
327.686	1058.38
327.914	1051.38
328.143	1076.38
328.372	1107.38
328.6	1075.38
328.829	1110.38
329.058	1083.38
329.287	1083.38
329.515	1079.38
329.744	1082.38
329.972	1102.38
330.201	1068.38
330.43	1120.38
330.658	1115.38
330.887	1105.38
331.115	1114.38
331.344	1139.38
331.572	1140.38
331.801	1115.38
332.03	1157.38
332.258	1188.38
332.486	1220.38
332.715	1192.38
332.943	1284.38
333.172	1299.38
333.4	1343.38
333.629	1336.38
333.857	1372.38
334.085	1379.38
334.314	1393.38
334.542	1352.38
334.771	1372.38
334.999	1344.38
335.227	1321.38
335.455	1348.38
335.684	1329.38
335.912	1338.38
336.14	1306.38
336.369	1311.38
336.597	1317.38
336.825	1288.38
337.053	1263.38
337.281	1247.38
337.51	1262.38
337.738	1232.38
337.966	1225.38
338.194	1211.38
338.422	1187.38
338.65	1190.38
338.878	1177.38
339.106	1152.38
339.334	1185.38
339.562	1160.38
339.79	1143.38
340.018	1155.38
340.246	1147.38
340.474	1108.38
340.702	1146.38
340.93	1161.38
341.158	1135.38
341.386	1112.38
341.614	1141.38
341.842	1136.38
342.07	1143.38
342.298	1137.38
342.526	1139.38
342.754	1145.38
342.981	1120.38
343.209	1146.38
343.437	1179.38
343.665	1246.38
343.893	1301.38
344.12	1324.38
344.348	1343.38
344.576	1285.38
344.804	1240.38
345.031	1177.38
345.259	1152.38
345.487	1133.38
345.714	1153.38
345.942	1143.38
346.17	1108.38
346.397	1087.38
346.625	1091.38
346.853	1081.38
347.08	1100.38
347.308	1096.38
347.535	1079.38
347.763	1109.38
347.99	1079.38
348.218	1087.38
348.445	1039.38
348.673	1057.38
348.9	1084.38
349.128	1063.38
349.355	1041.38
349.583	1083.38
349.81	1064.38
350.037	1028.38
350.265	1037.38
350.492	1063.38
350.72	1047.38
350.947	1051.38
351.174	1043.38
351.402	1054.38
351.629	1041.38
351.856	1059.38
352.083	1057.38
352.311	1056.38
352.538	1040.38
352.765	1047.38
352.992	1049.38
353.22	1028.38
353.447	1034.38
353.674	1012.38
353.901	1028.38
354.128	1051.38
354.355	1047.38
354.583	1036.38
354.81	1052.38
355.037	1025.38
355.264	1035.38
355.491	1055.38
355.718	1039.38
355.945	1044.38
356.172	1083.38
356.399	1044.38
356.626	1043.38
356.853	1077.38
357.08	1056.38
357.307	1050.38
357.534	1045.38
357.761	1087.38
357.988	1029.38
358.215	1033.38
358.441	1033.38
358.668	1013.38
358.895	1063.38
359.122	1014.38
359.349	1047.38
359.576	1045.38
359.802	1048.38
360.029	1049.38
360.256	1045.38
360.483	1037.38
360.709	1064.38
360.936	1068.38
361.163	1068.38
361.39	1015.38
361.616	1056.38
361.843	1052.38
362.07	1050.38
362.296	1036.38
362.523	1044.38
362.749	1062.38
362.976	1045.38
363.203	1040.38
363.429	1007.38
363.656	1017.38
363.882	1006.38
364.109	1041.38
364.335	1041.38
364.562	1048.38
364.788	1061.38
365.015	1061.38
365.241	1043.38
365.468	1036.38
365.694	1053.38
365.92	1061.38
366.147	1046.38
366.373	1051.38
366.599	1045.38
366.826	1048.38
367.052	1036.38
367.278	1095.38
367.505	1080.38
367.731	1064.38
367.957	1043.38
368.184	1055.38
368.41	1080.38
368.636	1049.38
368.862	1068.38
369.089	1043.38
369.315	1053.38
369.541	1064.38
369.767	1102.38
369.993	1075.38
370.219	1068.38
370.445	1083.38
370.672	1089.38
370.898	1130.38
371.124	1101.38
371.35	1140.38
371.576	1117.38
371.802	1140.38
372.028	1134.38
372.254	1119.38
372.48	1164.38
372.706	1138.38
372.932	1161.38
373.158	1177.38
373.384	1175.38
373.61	1129.38
373.835	1163.38
374.061	1161.38
374.287	1154.38
374.513	1187.38
374.739	1208.38
374.965	1227.38
375.191	1268.38
375.416	1236.38
375.642	1218.38
375.868	1197.38
376.094	1203.38
376.319	1166.38
376.545	1154.38
376.771	1190.38
376.997	1111.38
377.222	1137.38
377.448	1128.38
377.674	1151.38
377.899	1115.38
378.125	1116.38
378.35	1130.38
378.576	1116.38
378.802	1148.38
379.027	1092.38
379.253	1127.38
379.478	1110.38
379.704	1140.38
379.929	1137.38
380.155	1124.38
380.38	1115.38
380.606	1093.38
380.831	1136.38
381.057	1140.38
381.282	1096.38
381.507	1131.38
381.733	1113.38
381.958	1147.38
382.184	1123.38
382.409	1162.38
382.634	1176.38
382.86	1179.38
383.085	1168.38
383.31	1221.38
383.535	1233.38
383.761	1226.38
383.986	1227.38
384.211	1252.38
384.436	1297.38
384.662	1270.38
384.887	1320.38
385.112	1297.38
385.337	1332.38
385.562	1315.38
385.787	1340.38
386.013	1337.38
386.238	1350.38
386.463	1362.38
386.688	1348.38
386.913	1347.38
387.138	1337.38
387.363	1371.38
387.588	1296.38
387.813	1350.38
388.038	1309.38
388.263	1317.38
388.488	1361.38
388.713	1350.38
388.938	1348.38
389.163	1353.38
389.387	1352.38
389.612	1299.38
389.837	1333.38
390.062	1348.38
390.287	1363.38
390.512	1336.38
390.736	1369.38
390.961	1351.38
391.186	1397.38
391.411	1397.38
391.636	1446.38
391.86	1442.38
392.085	1486.38
392.31	1488.38
392.534	1445.38
392.759	1463.38
392.984	1457.38
393.208	1419.38
393.433	1425.38
393.658	1417.38
393.882	1388.38
394.107	1403.38
394.331	1399.38
394.556	1422.38
394.78	1443.38
395.005	1474.38
395.229	1480.38
395.454	1457.38
395.678	1510.38
395.903	1512.38
396.127	1476.38
396.352	1468.38
396.576	1437.38
396.801	1437.38
397.025	1461.38
397.249	1495.38
397.474	1514.38
397.698	1514.38
397.922	1510.38
398.147	1493.38
398.371	1557.38
398.595	1636.38
398.82	1664.38
399.044	1752.38
399.268	1903.38
399.492	2077.38
399.717	2289.38
399.941	2276.38
400.165	2183.38
400.389	2005.38
400.613	1876.38
400.837	1734.38
401.062	1723.38
401.286	1677.38
401.51	1705.38
401.734	1682.38
401.958	1681.38
402.182	1694.38
402.406	1702.38
402.63	1695.38
402.854	1714.38
403.078	1689.38
403.302	1804.38
403.526	1816.38
403.75	1816.38
403.974	1845.38
404.198	1812.38
404.422	1861.38
404.645	1802.38
404.869	1828.38
405.093	1787.38
405.317	1775.38
405.541	1800.38
405.765	1805.38
405.988	1777.38
406.212	1822.38
406.436	1820.38
406.66	1881.38
406.883	1880.38
407.107	1931.38
407.331	2071.38
407.555	2116.38
407.778	2127.38
408.002	2071.38
408.226	2005.38
408.449	1973.38
408.673	1911.38
408.896	1883.38
409.12	1851.38
409.344	1876.38
409.567	1864.38
409.791	1855.38
410.014	1833.38
410.238	1821.38
410.461	1805.38
410.685	1793.38
410.908	1761.38
411.132	1775.38
411.355	1684.38
411.578	1740.38
411.802	1737.38
412.025	1732.38
412.249	1813.38
412.472	1779.38
412.695	1703.38
412.919	1673.38
413.142	1691.38
413.365	1658.38
413.589	1683.38
413.812	1657.38
414.035	1678.38
414.258	1679.38
414.482	1668.38
414.705	1675.38
414.928	1662.38
415.151	1675.38
415.374	1681.38
415.597	1672.38
415.821	1612.38
416.044	1579.38
416.267	1595.38
416.49	1598.38
416.713	1611.38
416.936	1641.38
417.159	1555.38
417.382	1580.38
417.605	1580.38
417.828	1634.38
418.051	1604.38
418.274	1653.38
418.497	1620.38
418.72	1676.38
418.943	1610.38
419.166	1739.38
419.389	1849.38
419.611	1853.38
419.834	1751.38
420.057	1684.38
420.28	1655.38
420.503	1618.38
420.726	1604.38
420.948	1565.38
421.171	1608.38
421.394	1614.38
421.617	1594.38
421.839	1629.38
422.062	1592.38
422.285	1600.38
422.507	1644.38
422.73	1623.38
422.953	1587.38
423.175	1653.38
423.398	1666.38
423.621	1640.38
423.843	1651.38
424.066	1667.38
424.288	1626.38
424.511	1649.38
424.733	1646.38
424.956	1635.38
425.178	1618.38
425.401	1621.38
425.623	1613.38
425.846	1584.38
426.068	1589.38
426.291	1539.38
426.513	1565.38
426.735	1539.38
426.958	1531.38
427.18	1491.38
427.402	1502.38
427.625	1528.38
427.847	1461.38
428.069	1439.38
428.292	1481.38
428.514	1450.38
428.736	1469.38
428.958	1495.38
429.181	1457.38
429.403	1450.38
429.625	1435.38
429.847	1426.38
430.069	1419.38
430.292	1440.38
430.514	1428.38
430.736	1449.38
430.958	1460.38
431.18	1471.38
431.402	1437.38
431.624	1485.38
431.846	1468.38
432.068	1495.38
432.29	1507.38
432.512	1483.38
432.734	1511.38
432.956	1476.38
433.178	1506.38
433.4	1467.38
433.622	1555.38
433.844	1560.38
434.066	1524.38
434.287	1497.38
434.509	1585.38
434.731	1639.38
434.953	1612.38
435.175	1630.38
435.397	1619.38
435.618	1561.38
435.84	1510.38
436.062	1492.38
436.284	1485.38
436.505	1462.38
436.727	1489.38
436.949	1453.38
437.17	1478.38
437.392	1438.38
437.614	1428.38
437.835	1403.38
438.057	1420.38
438.278	1397.38
438.5	1387.38
438.721	1404.38
438.943	1437.38
439.165	1387.38
439.386	1411.38
439.608	1408.38
439.829	1432.38
440.05	1449.38
440.272	1440.38
440.493	1466.38
440.715	1465.38
440.936	1520.38
441.158	1503.38
441.379	1548.38
441.6	1621.38
441.822	1617.38
442.043	1564.38
442.264	1606.38
442.486	1556.38
442.707	1532.38
442.928	1525.38
443.149	1560.38
443.371	1565.38
443.592	1563.38
443.813	1581.38
444.034	1611.38
444.255	1651.38
444.476	1713.38
444.698	1766.38
444.919	1839.38
445.14	1868.38
445.361	1749.38
445.582	1659.38
445.803	1555.38
446.024	1516.38
446.245	1480.38
446.466	1514.38
446.687	1433.38
446.908	1481.38
447.129	1438.38
447.35	1411.38
447.571	1385.38
447.792	1369.38
448.013	1372.38
448.234	1324.38
448.455	1318.38
448.675	1312.38
448.896	1321.38
449.117	1268.38
449.338	1324.38
449.559	1288.38
449.779	1316.38
450	1302.38
450.221	1277.38
450.442	1322.38
450.662	1289.38
450.883	1325.38
451.104	1335.38
451.324	1330.38
451.545	1323.38
451.766	1317.38
451.986	1274.38
452.207	1295.38
452.428	1323.38
452.648	1318.38
452.869	1263.38
453.089	1269.38
453.31	1280.38
453.53	1267.38
453.751	1277.38
453.971	1292.38
454.192	1289.38
454.412	1239.38
454.633	1259.38
454.853	1235.38
455.073	1246.38
455.294	1219.38
455.514	1207.38
455.734	1243.38
455.955	1192.38
456.175	1205.38
456.395	1204.38
456.616	1177.38
456.836	1241.38
457.056	1246.38
457.276	1212.38
457.497	1245.38
457.717	1206.38
457.937	1265.38
458.157	1265.38
458.377	1292.38
458.598	1321.38
458.818	1316.38
459.038	1329.38
459.258	1387.38
459.478	1441.38
459.698	1485.38
459.918	1537.38
460.138	1543.38
460.358	1643.38
460.578	1624.38
460.798	1659.38
461.018	1655.38
461.238	1640.38
461.458	1626.38
461.678	1635.38
461.898	1668.38
462.118	1706.38
462.338	1748.38
462.558	1811.38
462.777	1845.38
462.997	1977.38
463.217	2104.38
463.437	2127.38
463.657	1991.38
463.876	1937.38
464.096	1906.38
464.316	1910.38
464.536	1904.38
464.755	1847.38
464.975	1776.38
465.195	1704.38
465.414	1639.38
465.634	1586.38
465.854	1524.38
466.073	1479.38
466.293	1452.38
466.512	1437.38
466.732	1386.38
466.951	1365.38
467.171	1376.38
467.391	1422.38
467.61	1370.38
467.829	1363.38
468.049	1362.38
468.268	1324.38
468.488	1316.38
468.707	1333.38
468.927	1348.38
469.146	1332.38
469.365	1341.38
469.585	1343.38
469.804	1365.38
470.023	1373.38
470.243	1400.38
470.462	1394.38
470.681	1424.38
470.901	1417.38
471.12	1396.38
471.339	1376.38
471.558	1347.38
471.777	1359.38
471.997	1361.38
472.216	1347.38
472.435	1320.38
472.654	1303.38
472.873	1339.38
473.092	1295.38
473.311	1337.38
473.53	1317.38
473.749	1322.38
473.968	1344.38
474.187	1293.38
474.406	1292.38
474.625	1320.38
474.844	1319.38
475.063	1343.38
475.282	1333.38
475.501	1338.38
475.72	1337.38
475.939	1376.38
476.158	1390.38
476.377	1405.38
476.596	1398.38
476.814	1375.38
477.033	1417.38
477.252	1423.38
477.471	1415.38
477.69	1467.38
477.908	1516.38
478.127	1558.38
478.346	1561.38
478.564	1551.38
478.783	1619.38
479.002	1613.38
479.22	1620.38
479.439	1639.38
479.658	1628.38
479.876	1634.38
480.095	1697.38
480.313	1736.38
480.532	1750.38
480.751	1698.38
480.969	1705.38
481.188	1696.38
481.406	1649.38
481.624	1614.38
481.843	1626.38
482.061	1604.38
482.28	1612.38
482.498	1560.38
482.717	1558.38
482.935	1593.38
483.153	1583.38
483.372	1595.38
483.59	1643.38
483.808	1617.38
484.027	1647.38
484.245	1665.38
484.463	1653.38
484.681	1693.38
484.9	1695.38
485.118	1743.38
485.336	1741.38
485.554	1740.38
485.772	1762.38
485.99	1760.38
486.209	1791.38
486.427	1744.38
486.645	1767.38
486.863	1760.38
487.081	1724.38
487.299	1754.38
487.517	1760.38
487.735	1725.38
487.953	1749.38
488.171	1661.38
488.389	1710.38
488.607	1693.38
488.825	1681.38
489.043	1677.38
489.261	1670.38
489.479	1662.38
489.696	1668.38
489.914	1638.38
490.132	1644.38
490.35	1698.38
490.568	1634.38
490.786	1651.38
491.003	1650.38
491.221	1664.38
