Data from NiCl2@0.5M.TitratingCurve.Agarose3%dH2O.NegLispCup.LampEnergy10.LIBS07252019_HRD10591_18-20-05-571.txt Node
Date: Thu Jul 25 18:20:05 EDT 2019
User: cochatt
Spectrometer: HR+D1059
Trigger mode: 1
Integration Time (sec): 1.000000E-1
Scans to average: 1
Electric dark correction enabled: true
Nonlinearity correction enabled: false
Boxcar width: 0
XAxis mode: Wavelengths
Number of Pixels in Spectrum: 2048
>>>>>Begin Spectral Data<<<<<
223.165	-5.25
223.4	-5.25
223.635	-5.25
223.869	-13.25
224.104	-34.25
224.338	-16.25
224.573	-7.25
224.808	-12.25
225.042	-8.25
225.277	5.75
225.511	-9.25
225.746	4.75
225.98	16.75
226.215	1.75
226.449	13.75
226.683	8.75
226.918	25.75
227.152	28.75
227.387	57.75
227.621	30.75
227.856	32.75
228.09	45.75
228.324	44.75
228.559	48.75
228.793	76.75
229.027	93.75
229.262	111.75
229.496	118.75
229.73	112.75
229.964	111.75
230.199	130.75
230.433	124.75
230.667	116.75
230.901	126.75
231.136	133.75
231.37	127.75
231.604	135.75
231.838	141.75
232.072	111.75
232.306	146.75
232.541	140.75
232.775	149.75
233.009	144.75
233.243	134.75
233.477	138.75
233.711	149.75
233.945	126.75
234.179	135.75
234.413	138.75
234.647	133.75
234.881	125.75
235.115	137.75
235.349	127.75
235.583	127.75
235.817	134.75
236.051	150.75
236.285	143.75
236.519	146.75
236.753	140.75
236.987	155.75
237.221	145.75
237.455	145.75
237.689	145.75
237.922	130.75
238.156	146.75
238.39	140.75
238.624	148.75
238.858	158.75
239.091	156.75
239.325	158.75
239.559	133.75
239.793	166.75
240.027	151.75
240.26	144.75
240.494	154.75
240.728	157.75
240.961	147.75
241.195	170.75
241.429	173.75
241.662	154.75
241.896	167.75
242.13	168.75
242.363	165.75
242.597	159.75
242.83	175.75
243.064	173.75
243.298	182.75
243.531	174.75
243.765	161.75
243.998	171.75
244.232	184.75
244.465	169.75
244.699	185.75
244.932	202.75
245.166	187.75
245.399	180.75
245.633	199.75
245.866	176.75
246.099	193.75
246.333	180.75
246.566	180.75
246.8	196.75
247.033	200.75
247.266	181.75
247.5	193.75
247.733	189.75
247.966	198.75
248.2	194.75
248.433	197.75
248.666	215.75
248.899	202.75
249.133	200.75
249.366	193.75
249.599	212.75
249.832	218.75
250.066	207.75
250.299	201.75
250.532	209.75
250.765	216.75
250.998	208.75
251.231	213.75
251.465	222.75
251.698	216.75
251.931	215.75
252.164	221.75
252.397	205.75
252.63	215.75
252.863	231.75
253.096	231.75
253.329	214.75
253.562	228.75
253.795	226.75
254.028	237.75
254.261	223.75
254.494	243.75
254.727	246.75
254.96	225.75
255.193	235.75
255.426	233.75
255.659	243.75
255.892	223.75
256.124	228.75
256.357	234.75
256.59	245.75
256.823	239.75
257.056	257.75
257.289	235.75
257.521	254.75
257.754	262.75
257.987	249.75
258.22	237.75
258.452	247.75
258.685	245.75
258.918	265.75
259.151	241.75
259.383	260.75
259.616	252.75
259.849	256.75
260.081	253.75
260.314	286.75
260.547	253.75
260.779	278.75
261.012	254.75
261.244	261.75
261.477	284.75
261.71	258.75
261.942	277.75
262.175	250.75
262.407	288.75
262.64	274.75
262.872	281.75
263.105	274.75
263.337	274.75
263.57	271.75
263.802	297.75
264.035	284.75
264.267	288.75
264.499	281.75
264.732	277.75
264.964	288.75
265.197	287.75
265.429	263.75
265.661	296.75
265.894	281.75
266.126	291.75
266.358	289.75
266.591	282.75
266.823	319.75
267.055	284.75
267.287	285.75
267.52	289.75
267.752	292.75
267.984	288.75
268.216	298.75
268.448	309.75
268.681	310.75
268.913	304.75
269.145	301.75
269.377	321.75
269.609	312.75
269.841	305.75
270.073	329.75
270.306	312.75
270.538	299.75
270.77	308.75
271.002	310.75
271.234	314.75
271.466	341.75
271.698	332.75
271.93	316.75
272.162	304.75
272.394	325.75
272.626	320.75
272.858	327.75
273.09	329.75
273.322	326.75
273.553	330.75
273.785	336.75
274.017	335.75
274.249	343.75
274.481	341.75
274.713	328.75
274.945	343.75
275.176	332.75
275.408	327.75
275.64	355.75
275.872	350.75
276.104	350.75
276.335	337.75
276.567	351.75
276.799	339.75
277.031	345.75
277.262	331.75
277.494	351.75
277.726	354.75
277.957	351.75
278.189	349.75
278.421	360.75
278.652	357.75
278.884	336.75
279.115	351.75
279.347	350.75
279.579	368.75
279.81	357.75
280.042	366.75
280.273	377.75
280.505	368.75
280.736	359.75
280.968	386.75
281.199	386.75
281.431	396.75
281.662	365.75
281.894	386.75
282.125	400.75
282.356	385.75
282.588	388.75
282.819	382.75
283.051	393.75
283.282	380.75
283.513	362.75
283.745	373.75
283.976	386.75
284.207	383.75
284.439	392.75
284.67	399.75
284.901	410.75
285.132	414.75
285.364	382.75
285.595	392.75
285.826	382.75
286.057	390.75
286.288	399.75
286.52	421.75
286.751	418.75
286.982	418.75
287.213	398.75
287.444	394.75
287.675	416.75
287.906	417.75
288.138	403.75
288.369	413.75
288.6	409.75
288.831	424.75
289.062	440.75
289.293	445.75
289.524	406.75
289.755	408.75
289.986	433.75
290.217	424.75
290.448	433.75
290.679	434.75
290.91	425.75
291.141	428.75
291.371	413.75
291.602	430.75
291.833	428.75
292.064	410.75
292.295	430.75
292.526	445.75
292.757	433.75
292.987	432.75
293.218	410.75
293.449	424.75
293.68	452.75
293.91	444.75
294.141	450.75
294.372	428.75
294.603	433.75
294.833	438.75
295.064	459.75
295.295	425.75
295.525	445.75
295.756	455.75
295.987	449.75
296.217	431.75
296.448	454.75
296.679	436.75
296.909	448.75
297.14	468.75
297.37	462.75
297.601	452.75
297.831	457.75
298.062	456.75
298.292	462.75
298.523	487.75
298.753	485.75
298.984	481.75
299.214	479.75
299.445	477.75
299.675	468.75
299.905	477.75
300.136	491.75
300.366	501.75
300.597	516.75
300.827	501.75
301.057	498.75
301.288	492.75
301.518	516.75
301.748	518.75
301.979	502.75
302.209	496.75
302.439	481.75
302.669	496.75
302.9	467.75
303.13	503.75
303.36	491.75
303.59	514.75
303.82	502.75
304.051	516.75
304.281	503.75
304.511	487.75
304.741	521.75
304.971	508.75
305.201	516.75
305.431	522.75
305.661	523.75
305.891	473.75
306.121	494.75
306.352	493.75
306.582	480.75
306.812	481.75
307.042	487.75
307.272	511.75
307.502	489.75
307.731	481.75
307.961	480.75
308.191	493.75
308.421	500.75
308.651	499.75
308.881	461.75
309.111	496.75
309.341	459.75
309.571	472.75
309.8	488.75
310.03	532.75
310.26	510.75
310.49	501.75
310.72	504.75
310.949	503.75
311.179	519.75
311.409	496.75
311.639	502.75
311.868	512.75
312.098	510.75
312.328	516.75
312.557	486.75
312.787	522.75
313.017	508.75
313.246	530.75
313.476	515.75
313.706	534.75
313.935	526.75
314.165	528.75
314.394	533.75
314.624	537.75
314.853	528.75
315.083	524.75
315.312	518.75
315.542	537.75
315.771	522.75
316.001	518.75
316.23	521.75
316.46	500.75
316.689	522.75
316.919	527.75
317.148	544.75
317.377	527.75
317.607	513.75
317.836	526.75
318.065	512.75
318.295	522.75
318.524	508.75
318.753	519.75
318.983	521.75
319.212	520.75
319.441	502.75
319.67	524.75
319.9	523.75
320.129	531.75
320.358	522.75
320.587	525.75
320.816	531.75
321.046	506.75
321.275	522.75
321.504	549.75
321.733	531.75
321.962	544.75
322.191	548.75
322.42	537.75
322.649	527.75
322.878	527.75
323.108	549.75
323.337	520.75
323.566	528.75
323.795	542.75
324.024	548.75
324.253	537.75
324.482	549.75
324.71	518.75
324.939	543.75
325.168	556.75
325.397	540.75
325.626	557.75
325.855	540.75
326.084	576.75
326.313	565.75
326.542	585.75
326.77	573.75
326.999	564.75
327.228	567.75
327.457	590.75
327.686	561.75
327.914	574.75
328.143	556.75
328.372	554.75
328.6	587.75
328.829	586.75
329.058	569.75
329.287	563.75
329.515	575.75
329.744	557.75
329.972	571.75
330.201	579.75
330.43	598.75
330.658	586.75
330.887	607.75
331.115	592.75
331.344	616.75
331.572	596.75
331.801	620.75
332.03	612.75
332.258	630.75
332.486	650.75
332.715	656.75
332.943	669.75
333.172	714.75
333.4	720.75
333.629	719.75
333.857	731.75
334.085	757.75
334.314	724.75
334.542	743.75
334.771	725.75
334.999	703.75
335.227	692.75
335.455	698.75
335.684	702.75
335.912	698.75
336.14	692.75
336.369	695.75
336.597	702.75
336.825	693.75
337.053	685.75
337.281	692.75
337.51	648.75
337.738	654.75
337.966	630.75
338.194	631.75
338.422	612.75
338.65	638.75
338.878	650.75
339.106	620.75
339.334	620.75
339.562	609.75
339.79	604.75
340.018	577.75
340.246	561.75
340.474	594.75
340.702	620.75
340.93	594.75
341.158	599.75
341.386	600.75
341.614	621.75
341.842	616.75
342.07	619.75
342.298	601.75
342.526	602.75
342.754	606.75
342.981	610.75
343.209	613.75
343.437	630.75
343.665	664.75
343.893	681.75
344.12	681.75
344.348	690.75
344.576	665.75
344.804	655.75
345.031	646.75
345.259	614.75
345.487	618.75
345.714	609.75
345.942	614.75
346.17	625.75
346.397	618.75
346.625	599.75
346.853	581.75
347.08	581.75
347.308	582.75
347.535	607.75
347.763	584.75
347.99	591.75
348.218	588.75
348.445	590.75
348.673	575.75
348.9	580.75
349.128	568.75
349.355	569.75
349.583	576.75
349.81	572.75
350.037	553.75
350.265	556.75
350.492	568.75
350.72	568.75
350.947	549.75
351.174	566.75
351.402	585.75
351.629	578.75
351.856	560.75
352.083	559.75
352.311	557.75
352.538	565.75
352.765	574.75
352.992	572.75
353.22	566.75
353.447	548.75
353.674	534.75
353.901	539.75
354.128	529.75
354.355	541.75
354.583	531.75
354.81	548.75
355.037	569.75
355.264	552.75
355.491	544.75
355.718	534.75
355.945	552.75
356.172	534.75
356.399	536.75
356.626	566.75
356.853	567.75
357.08	564.75
357.307	561.75
357.534	549.75
357.761	546.75
357.988	557.75
358.215	546.75
358.441	525.75
358.668	540.75
358.895	541.75
359.122	533.75
359.349	538.75
359.576	536.75
359.802	551.75
360.029	540.75
360.256	561.75
360.483	556.75
360.709	549.75
360.936	550.75
361.163	549.75
361.39	555.75
361.616	557.75
361.843	559.75
362.07	569.75
362.296	558.75
362.523	532.75
362.749	548.75
362.976	519.75
363.203	554.75
363.429	553.75
363.656	555.75
363.882	542.75
364.109	549.75
364.335	557.75
364.562	534.75
364.788	525.75
365.015	526.75
365.241	534.75
365.468	536.75
365.694	519.75
365.92	543.75
366.147	520.75
366.373	546.75
366.599	539.75
366.826	515.75
367.052	528.75
367.278	540.75
367.505	545.75
367.731	536.75
367.957	529.75
368.184	538.75
368.41	530.75
368.636	534.75
368.862	540.75
369.089	546.75
369.315	535.75
369.541	542.75
369.767	532.75
369.993	539.75
370.219	540.75
370.445	552.75
370.672	565.75
370.898	558.75
371.124	581.75
371.35	578.75
371.576	572.75
371.802	571.75
372.028	588.75
372.254	598.75
372.48	589.75
372.706	593.75
372.932	617.75
373.158	616.75
373.384	573.75
373.61	569.75
373.835	563.75
374.061	584.75
374.287	570.75
374.513	574.75
374.739	626.75
374.965	626.75
375.191	615.75
375.416	616.75
375.642	604.75
375.868	593.75
376.094	564.75
376.319	578.75
376.545	583.75
376.771	574.75
376.997	578.75
377.222	573.75
377.448	575.75
377.674	573.75
377.899	565.75
378.125	548.75
378.35	554.75
378.576	543.75
378.802	553.75
379.027	567.75
379.253	562.75
379.478	562.75
379.704	544.75
379.929	565.75
380.155	550.75
380.38	547.75
380.606	568.75
380.831	552.75
381.057	566.75
381.282	557.75
381.507	566.75
381.733	556.75
381.958	579.75
382.184	566.75
382.409	576.75
382.634	573.75
382.86	576.75
383.085	581.75
383.31	586.75
383.535	632.75
383.761	611.75
383.986	620.75
384.211	620.75
384.436	638.75
384.662	636.75
384.887	664.75
385.112	636.75
385.337	633.75
385.562	667.75
385.787	662.75
386.013	680.75
386.238	680.75
386.463	656.75
386.688	674.75
386.913	648.75
387.138	685.75
387.363	679.75
387.588	672.75
387.813	637.75
388.038	649.75
388.263	667.75
388.488	658.75
388.713	651.75
388.938	656.75
389.163	648.75
389.387	646.75
389.612	654.75
389.837	635.75
390.062	643.75
390.287	662.75
390.512	632.75
390.736	661.75
390.961	698.75
391.186	680.75
391.411	693.75
391.636	726.75
391.86	726.75
392.085	711.75
392.31	749.75
392.534	710.75
392.759	705.75
392.984	718.75
393.208	702.75
393.433	702.75
393.658	701.75
393.882	705.75
394.107	700.75
394.331	730.75
394.556	700.75
394.78	697.75
395.005	726.75
395.229	709.75
395.454	724.75
395.678	734.75
395.903	742.75
396.127	732.75
396.352	717.75
396.576	717.75
396.801	708.75
397.025	702.75
397.249	729.75
397.474	746.75
397.698	750.75
397.922	778.75
398.147	738.75
398.371	784.75
398.595	793.75
398.82	820.75
399.044	875.75
399.268	962.75
399.492	1043.75
399.717	1171.75
399.941	1147.75
400.165	1049.75
400.389	975.75
400.613	901.75
400.837	848.75
401.062	848.75
401.286	834.75
401.51	832.75
401.734	806.75
401.958	878.75
402.182	858.75
402.406	820.75
402.63	853.75
402.854	876.75
403.078	898.75
403.302	902.75
403.526	899.75
403.75	898.75
403.974	932.75
404.198	940.75
404.422	951.75
404.645	924.75
404.869	915.75
405.093	896.75
405.317	891.75
405.541	907.75
405.765	902.75
405.988	882.75
406.212	911.75
406.436	904.75
406.66	912.75
406.883	934.75
407.107	996.75
407.331	1035.75
407.555	1073.75
407.778	1038.75
408.002	1040.75
408.226	986.75
408.449	966.75
408.673	941.75
408.896	968.75
409.12	925.75
409.344	988.75
409.567	952.75
409.791	967.75
410.014	929.75
410.238	925.75
410.461	921.75
410.685	935.75
410.908	919.75
411.132	897.75
411.355	850.75
411.578	856.75
411.802	881.75
412.025	878.75
412.249	887.75
412.472	908.75
412.695	856.75
412.919	832.75
413.142	837.75
413.365	870.75
413.589	845.75
413.812	859.75
414.035	845.75
414.258	847.75
414.482	836.75
414.705	839.75
414.928	845.75
415.151	854.75
415.374	859.75
415.597	847.75
415.821	812.75
416.044	818.75
416.267	818.75
416.49	817.75
416.713	812.75
416.936	838.75
417.159	821.75
417.382	830.75
417.605	831.75
417.828	820.75
418.051	847.75
418.274	861.75
418.497	850.75
418.72	856.75
418.943	849.75
419.166	908.75
419.389	938.75
419.611	964.75
419.834	882.75
420.057	879.75
420.28	860.75
420.503	822.75
420.726	828.75
420.948	802.75
421.171	844.75
421.394	849.75
421.617	829.75
421.839	824.75
422.062	854.75
422.285	854.75
422.507	862.75
422.73	862.75
422.953	832.75
423.175	884.75
423.398	864.75
423.621	893.75
423.843	868.75
424.066	881.75
424.288	894.75
424.511	860.75
424.733	868.75
424.956	869.75
425.178	874.75
425.401	870.75
425.623	828.75
425.846	844.75
426.068	809.75
426.291	817.75
426.513	815.75
426.735	809.75
426.958	823.75
427.18	778.75
427.402	825.75
427.625	814.75
427.847	767.75
428.069	780.75
428.292	769.75
428.514	775.75
428.736	755.75
428.958	765.75
429.181	761.75
429.403	778.75
429.625	736.75
429.847	748.75
430.069	753.75
430.292	761.75
430.514	782.75
430.736	758.75
430.958	757.75
431.18	758.75
431.402	773.75
431.624	759.75
431.846	765.75
432.068	792.75
432.29	801.75
432.512	774.75
432.734	796.75
432.956	787.75
433.178	819.75
433.4	804.75
433.622	792.75
433.844	798.75
434.066	789.75
434.287	812.75
434.509	822.75
434.731	879.75
434.953	868.75
435.175	865.75
435.397	853.75
435.618	844.75
435.84	809.75
436.062	794.75
436.284	813.75
436.505	775.75
436.727	798.75
436.949	782.75
437.17	789.75
437.392	764.75
437.614	778.75
437.835	771.75
438.057	751.75
438.278	722.75
438.5	748.75
438.721	750.75
438.943	800.75
439.165	752.75
439.386	764.75
439.608	789.75
439.829	777.75
440.05	762.75
440.272	825.75
440.493	781.75
440.715	809.75
440.936	798.75
441.158	820.75
441.379	858.75
441.6	871.75
441.822	877.75
442.043	848.75
442.264	877.75
442.486	865.75
442.707	848.75
442.928	829.75
443.149	847.75
443.371	859.75
443.592	855.75
443.813	877.75
444.034	870.75
444.255	899.75
444.476	933.75
444.698	962.75
444.919	1030.75
445.14	1102.75
445.361	972.75
445.582	931.75
445.803	864.75
446.024	849.75
446.245	840.75
446.466	841.75
446.687	825.75
446.908	835.75
447.129	798.75
447.35	797.75
447.571	754.75
447.792	752.75
448.013	776.75
448.234	740.75
448.455	757.75
448.675	756.75
448.896	774.75
449.117	730.75
449.338	722.75
449.559	778.75
449.779	738.75
450	736.75
450.221	751.75
450.442	718.75
450.662	756.75
450.883	747.75
451.104	749.75
451.324	751.75
451.545	747.75
451.766	748.75
451.986	768.75
452.207	731.75
452.428	720.75
452.648	720.75
452.869	734.75
453.089	726.75
453.31	727.75
453.53	695.75
453.751	696.75
453.971	699.75
454.192	693.75
454.412	694.75
454.633	694.75
454.853	704.75
455.073	685.75
455.294	712.75
455.514	685.75
455.734	696.75
455.955	716.75
456.175	711.75
456.395	700.75
456.616	686.75
456.836	697.75
457.056	684.75
457.276	695.75
457.497	702.75
457.717	705.75
457.937	673.75
458.157	715.75
458.377	721.75
458.598	722.75
458.818	738.75
459.038	756.75
459.258	781.75
459.478	784.75
459.698	836.75
459.918	861.75
460.138	906.75
460.358	921.75
460.578	907.75
460.798	896.75
461.018	932.75
461.238	912.75
461.458	913.75
461.678	932.75
461.898	927.75
462.118	935.75
462.338	988.75
462.558	975.75
462.777	1036.75
462.997	1162.75
463.217	1181.75
463.437	1174.75
463.657	1117.75
463.876	1066.75
464.096	1075.75
464.316	1071.75
464.536	1064.75
464.755	1046.75
464.975	988.75
465.195	973.75
465.414	910.75
465.634	863.75
465.854	876.75
466.073	811.75
466.293	800.75
466.512	822.75
466.732	792.75
466.951	776.75
467.171	777.75
467.391	789.75
467.61	784.75
467.829	752.75
468.049	772.75
468.268	764.75
468.488	773.75
468.707	752.75
468.927	757.75
469.146	737.75
469.365	744.75
469.585	760.75
469.804	780.75
470.023	794.75
470.243	804.75
470.462	811.75
470.681	799.75
470.901	820.75
471.12	788.75
471.339	788.75
471.558	773.75
471.777	783.75
471.997	754.75
472.216	774.75
472.435	735.75
472.654	740.75
472.873	725.75
473.092	741.75
473.311	746.75
473.53	735.75
473.749	729.75
473.968	744.75
474.187	716.75
474.406	700.75
474.625	713.75
474.844	742.75
475.063	744.75
475.282	751.75
475.501	730.75
475.72	767.75
475.939	751.75
476.158	762.75
476.377	780.75
476.596	800.75
476.814	776.75
477.033	772.75
477.252	767.75
477.471	814.75
477.69	817.75
477.908	834.75
478.127	891.75
478.346	883.75
478.564	864.75
478.783	884.75
479.002	891.75
479.22	920.75
479.439	929.75
479.658	923.75
479.876	909.75
480.095	917.75
480.313	934.75
480.532	970.75
480.751	958.75
480.969	952.75
481.188	898.75
481.406	897.75
481.624	860.75
481.843	846.75
482.061	830.75
482.28	847.75
482.498	831.75
482.717	813.75
482.935	833.75
483.153	844.75
483.372	872.75
483.59	854.75
483.808	864.75
484.027	830.75
484.245	834.75
484.463	862.75
484.681	878.75
484.9	840.75
485.118	874.75
485.336	881.75
485.554	865.75
485.772	902.75
485.99	898.75
486.209	896.75
486.427	887.75
486.645	882.75
486.863	884.75
487.081	882.75
487.299	868.75
487.517	910.75
487.735	888.75
487.953	879.75
488.171	898.75
488.389	879.75
488.607	868.75
488.825	850.75
489.043	883.75
489.261	856.75
489.479	864.75
489.696	882.75
489.914	893.75
490.132	910.75
490.35	913.75
490.568	907.75
490.786	908.75
491.003	893.75
491.221	884.75
491.439	888.75
491.657	911.75
491.874	904.75
492.092	905.75
492.31	909.75
492.527	953.75
492.745	920.75
492.963	910.75
493.18	908.75
493.398	928.75
493.615	922.75
493.833	950.75
494.05	956.75
494.268	934.75
494.485	942.75
494.703	927.75
494.92	959.75
495.138	939.75
495.355	934.75
495.573	969.75
495.79	967.75
496.008	935.75
496.225	957.75
496.442	980.75
496.66	1004.75
496.877	1000.75
497.094	997.75
497.312	1034.75
497.529	1056.75
497.746	1102.75
497.963	1118.75
498.181	1153.75
498.398	1172.75
498.615	1259.75
498.832	1326.75
499.049	1432.75
499.267	1525.75
499.484	1630.75
499.701	1840.75
499.918	1952.75
500.135	2158.75
500.352	2360.75
500.569	2481.75
500.786	2449.75
501.003	2333.75
501.22	2130.75
