Data from NiCl2@0.5M.TitratingCurve.Agarose3%dH2O.NegLispCup.LampEnergy10.LIBS07252019_HRD10591_18-20-41-573.txt Node
Date: Thu Jul 25 18:20:41 EDT 2019
User: cochatt
Spectrometer: HR+D1059
Trigger mode: 1
Integration Time (sec): 1.000000E-1
Scans to average: 1
Electric dark correction enabled: true
Nonlinearity correction enabled: false
Boxcar width: 0
XAxis mode: Wavelengths
Number of Pixels in Spectrum: 2048
>>>>>Begin Spectral Data<<<<<
223.165	-1.81
223.4	-1.81
223.635	-1.81
223.869	-12.81
224.104	-9.81
224.338	-27.81
224.573	-21.81
224.808	-4.81
225.042	-4.81
225.277	-4.81
225.511	6.19
225.746	6.19
225.98	1.19
226.215	11.19
226.449	16.19
226.683	8.19
226.918	17.19
227.152	22.19
227.387	27.19
227.621	45.19
227.856	40.19
228.09	43.19
228.324	47.19
228.559	48.19
228.793	74.19
229.027	91.19
229.262	94.19
229.496	103.19
229.73	103.19
229.964	106.19
230.199	102.19
230.433	110.19
230.667	116.19
230.901	110.19
231.136	112.19
231.37	134.19
231.604	142.19
231.838	129.19
232.072	132.19
232.306	128.19
232.541	141.19
232.775	144.19
233.009	121.19
233.243	132.19
233.477	144.19
233.711	147.19
233.945	139.19
234.179	140.19
234.413	141.19
234.647	138.19
234.881	150.19
235.115	145.19
235.349	152.19
235.583	143.19
235.817	146.19
236.051	146.19
236.285	134.19
236.519	139.19
236.753	154.19
236.987	153.19
237.221	144.19
237.455	148.19
237.689	151.19
237.922	152.19
238.156	152.19
238.39	153.19
238.624	155.19
238.858	158.19
239.091	139.19
239.325	162.19
239.559	174.19
239.793	174.19
240.027	184.19
240.26	185.19
240.494	181.19
240.728	155.19
240.961	165.19
241.195	170.19
241.429	172.19
241.662	159.19
241.896	181.19
242.13	186.19
242.363	183.19
242.597	183.19
242.83	185.19
243.064	164.19
243.298	169.19
243.531	191.19
243.765	188.19
243.998	185.19
244.232	184.19
244.465	192.19
244.699	203.19
244.932	199.19
245.166	200.19
245.399	194.19
245.633	198.19
245.866	212.19
246.099	193.19
246.333	193.19
246.566	178.19
246.8	204.19
247.033	213.19
247.266	200.19
247.5	210.19
247.733	210.19
247.966	230.19
248.2	225.19
248.433	211.19
248.666	208.19
248.899	216.19
249.133	234.19
249.366	208.19
249.599	239.19
249.832	232.19
250.066	216.19
250.299	218.19
250.532	224.19
250.765	239.19
250.998	229.19
251.231	225.19
251.465	227.19
251.698	236.19
251.931	241.19
252.164	230.19
252.397	243.19
252.63	248.19
252.863	224.19
253.096	235.19
253.329	241.19
253.562	240.19
253.795	242.19
254.028	254.19
254.261	255.19
254.494	266.19
254.727	264.19
254.96	254.19
255.193	249.19
255.426	256.19
255.659	256.19
255.892	268.19
256.124	252.19
256.357	247.19
256.59	238.19
256.823	272.19
257.056	256.19
257.289	272.19
257.521	278.19
257.754	283.19
257.987	269.19
258.22	282.19
258.452	272.19
258.685	268.19
258.918	270.19
259.151	289.19
259.383	279.19
259.616	285.19
259.849	294.19
260.081	298.19
260.314	294.19
260.547	280.19
260.779	295.19
261.012	287.19
261.244	293.19
261.477	299.19
261.71	289.19
261.942	303.19
262.175	302.19
262.407	291.19
262.64	299.19
262.872	295.19
263.105	304.19
263.337	310.19
263.57	322.19
263.802	330.19
264.035	298.19
264.267	307.19
264.499	318.19
264.732	322.19
264.964	337.19
265.197	322.19
265.429	335.19
265.661	324.19
265.894	313.19
266.126	322.19
266.358	331.19
266.591	326.19
266.823	336.19
267.055	321.19
267.287	344.19
267.52	317.19
267.752	333.19
267.984	337.19
268.216	337.19
268.448	342.19
268.681	341.19
268.913	318.19
269.145	331.19
269.377	332.19
269.609	337.19
269.841	352.19
270.073	345.19
270.306	332.19
270.538	336.19
270.77	353.19
271.002	344.19
271.234	366.19
271.466	359.19
271.698	368.19
271.93	368.19
272.162	351.19
272.394	346.19
272.626	378.19
272.858	382.19
273.09	352.19
273.322	360.19
273.553	378.19
273.785	347.19
274.017	388.19
274.249	382.19
274.481	387.19
274.713	359.19
274.945	368.19
275.176	386.19
275.408	385.19
275.64	379.19
275.872	381.19
276.104	379.19
276.335	397.19
276.567	365.19
276.799	368.19
277.031	408.19
277.262	393.19
277.494	419.19
277.726	388.19
277.957	400.19
278.189	388.19
278.421	413.19
278.652	383.19
278.884	409.19
279.115	414.19
279.347	414.19
279.579	427.19
279.81	411.19
280.042	407.19
280.273	381.19
280.505	404.19
280.736	410.19
280.968	435.19
281.199	430.19
281.431	421.19
281.662	420.19
281.894	436.19
282.125	414.19
282.356	436.19
282.588	446.19
282.819	449.19
283.051	439.19
283.282	446.19
283.513	443.19
283.745	459.19
283.976	449.19
284.207	473.19
284.439	449.19
284.67	444.19
284.901	465.19
285.132	480.19
285.364	425.19
285.595	432.19
285.826	441.19
286.057	477.19
286.288	459.19
286.52	457.19
286.751	450.19
286.982	471.19
287.213	454.19
287.444	465.19
287.675	464.19
287.906	466.19
288.138	460.19
288.369	463.19
288.6	479.19
288.831	475.19
289.062	452.19
289.293	477.19
289.524	470.19
289.755	453.19
289.986	472.19
290.217	470.19
290.448	486.19
290.679	481.19
290.91	475.19
291.141	492.19
291.371	508.19
291.602	491.19
291.833	486.19
292.064	476.19
292.295	475.19
292.526	498.19
292.757	490.19
292.987	486.19
293.218	464.19
293.449	486.19
293.68	484.19
293.91	489.19
294.141	472.19
294.372	482.19
294.603	493.19
294.833	489.19
295.064	488.19
295.295	498.19
295.525	494.19
295.756	515.19
295.987	482.19
296.217	498.19
296.448	508.19
296.679	503.19
296.909	495.19
297.14	515.19
297.37	520.19
297.601	528.19
297.831	522.19
298.062	536.19
298.292	548.19
298.523	549.19
298.753	544.19
298.984	520.19
299.214	528.19
299.445	535.19
299.675	523.19
299.905	519.19
300.136	543.19
300.366	553.19
300.597	565.19
300.827	546.19
301.057	562.19
301.288	565.19
301.518	581.19
301.748	579.19
301.979	581.19
302.209	567.19
302.439	546.19
302.669	566.19
302.9	542.19
303.13	538.19
303.36	541.19
303.59	563.19
303.82	539.19
304.051	546.19
304.281	586.19
304.511	566.19
304.741	548.19
304.971	560.19
305.201	573.19
305.431	572.19
305.661	564.19
305.891	579.19
306.121	576.19
306.352	566.19
306.582	561.19
306.812	546.19
307.042	550.19
307.272	574.19
307.502	550.19
307.731	537.19
307.961	542.19
308.191	523.19
308.421	557.19
308.651	560.19
308.881	546.19
309.111	565.19
309.341	548.19
309.571	574.19
309.8	546.19
310.03	583.19
310.26	575.19
310.49	587.19
310.72	547.19
310.949	568.19
311.179	582.19
311.409	573.19
311.639	544.19
311.868	567.19
312.098	582.19
312.328	578.19
312.557	581.19
312.787	583.19
313.017	573.19
313.246	597.19
313.476	607.19
313.706	593.19
313.935	593.19
314.165	597.19
314.394	591.19
314.624	612.19
314.853	580.19
315.083	593.19
315.312	618.19
315.542	596.19
315.771	565.19
316.001	593.19
316.23	576.19
316.46	574.19
316.689	588.19
316.919	601.19
317.148	593.19
317.377	602.19
317.607	578.19
317.836	593.19
318.065	595.19
318.295	585.19
318.524	572.19
318.753	574.19
318.983	582.19
319.212	590.19
319.441	616.19
319.67	599.19
319.9	588.19
320.129	610.19
320.358	594.19
320.587	598.19
320.816	587.19
321.046	587.19
321.275	586.19
321.504	590.19
321.733	610.19
321.962	604.19
322.191	614.19
322.42	602.19
322.649	609.19
322.878	617.19
323.108	613.19
323.337	615.19
323.566	609.19
323.795	619.19
324.024	618.19
324.253	629.19
324.482	636.19
324.71	609.19
324.939	622.19
325.168	609.19
325.397	590.19
325.626	640.19
325.855	647.19
326.084	657.19
326.313	640.19
326.542	628.19
326.77	661.19
326.999	664.19
327.228	624.19
327.457	627.19
327.686	651.19
327.914	652.19
328.143	627.19
328.372	664.19
328.6	650.19
328.829	651.19
329.058	654.19
329.287	648.19
329.515	665.19
329.744	668.19
329.972	646.19
330.201	643.19
330.43	688.19
330.658	703.19
330.887	665.19
331.115	669.19
331.344	686.19
331.572	664.19
331.801	687.19
332.03	704.19
332.258	728.19
332.486	743.19
332.715	731.19
332.943	760.19
333.172	793.19
333.4	798.19
333.629	836.19
333.857	822.19
334.085	827.19
334.314	802.19
334.542	784.19
334.771	814.19
334.999	811.19
335.227	816.19
335.455	786.19
335.684	806.19
335.912	786.19
336.14	791.19
336.369	791.19
336.597	803.19
336.825	798.19
337.053	805.19
337.281	802.19
337.51	783.19
337.738	729.19
337.966	738.19
338.194	737.19
338.422	751.19
338.65	712.19
338.878	706.19
339.106	711.19
339.334	735.19
339.562	710.19
339.79	692.19
340.018	689.19
340.246	696.19
340.474	682.19
340.702	675.19
340.93	689.19
341.158	696.19
341.386	694.19
341.614	728.19
341.842	702.19
342.07	660.19
342.298	673.19
342.526	683.19
342.754	673.19
342.981	688.19
343.209	702.19
343.437	713.19
343.665	756.19
343.893	810.19
344.12	791.19
344.348	791.19
344.576	748.19
344.804	766.19
345.031	728.19
345.259	702.19
345.487	699.19
345.714	702.19
345.942	692.19
346.17	700.19
346.397	683.19
346.625	664.19
346.853	656.19
347.08	641.19
347.308	666.19
347.535	680.19
347.763	684.19
347.99	654.19
348.218	665.19
348.445	672.19
348.673	657.19
348.9	663.19
349.128	671.19
349.355	639.19
349.583	670.19
349.81	639.19
350.037	630.19
350.265	640.19
350.492	624.19
350.72	603.19
350.947	634.19
351.174	634.19
351.402	635.19
351.629	658.19
351.856	643.19
352.083	641.19
352.311	656.19
352.538	643.19
352.765	658.19
352.992	595.19
353.22	632.19
353.447	628.19
353.674	614.19
353.901	627.19
354.128	641.19
354.355	618.19
354.583	638.19
354.81	628.19
355.037	619.19
355.264	635.19
355.491	642.19
355.718	622.19
355.945	614.19
356.172	608.19
356.399	603.19
356.626	636.19
356.853	653.19
357.08	648.19
357.307	630.19
357.534	632.19
357.761	638.19
357.988	614.19
358.215	622.19
358.441	620.19
358.668	630.19
358.895	590.19
359.122	616.19
359.349	622.19
359.576	612.19
359.802	636.19
360.029	614.19
360.256	636.19
360.483	632.19
360.709	604.19
360.936	610.19
361.163	630.19
361.39	634.19
361.616	614.19
361.843	626.19
362.07	650.19
362.296	636.19
362.523	604.19
362.749	606.19
362.976	625.19
363.203	624.19
363.429	626.19
363.656	610.19
363.882	596.19
364.109	632.19
364.335	617.19
364.562	606.19
364.788	626.19
365.015	622.19
365.241	619.19
365.468	627.19
365.694	620.19
365.92	628.19
366.147	638.19
366.373	611.19
366.599	608.19
366.826	615.19
367.052	605.19
367.278	620.19
367.505	636.19
367.731	632.19
367.957	643.19
368.184	652.19
368.41	640.19
368.636	641.19
368.862	626.19
369.089	634.19
369.315	621.19
369.541	643.19
369.767	634.19
369.993	652.19
370.219	626.19
370.445	662.19
370.672	645.19
370.898	657.19
371.124	661.19
371.35	695.19
371.576	674.19
371.802	678.19
372.028	671.19
372.254	648.19
372.48	642.19
372.706	680.19
372.932	711.19
373.158	685.19
373.384	694.19
373.61	667.19
373.835	671.19
374.061	655.19
374.287	679.19
374.513	667.19
374.739	689.19
374.965	708.19
375.191	724.19
375.416	727.19
375.642	702.19
375.868	702.19
376.094	675.19
376.319	655.19
376.545	672.19
376.771	674.19
376.997	653.19
377.222	656.19
377.448	653.19
377.674	663.19
377.899	677.19
378.125	655.19
378.35	642.19
378.576	675.19
378.802	661.19
379.027	669.19
379.253	681.19
379.478	642.19
379.704	651.19
379.929	683.19
380.155	636.19
380.38	665.19
380.606	642.19
380.831	686.19
381.057	636.19
381.282	667.19
381.507	678.19
381.733	657.19
381.958	699.19
382.184	691.19
382.409	662.19
382.634	680.19
382.86	630.19
383.085	676.19
383.31	688.19
383.535	708.19
383.761	699.19
383.986	751.19
384.211	740.19
384.436	758.19
384.662	756.19
384.887	790.19
385.112	775.19
385.337	757.19
385.562	751.19
385.787	772.19
386.013	780.19
386.238	788.19
386.463	771.19
386.688	768.19
386.913	776.19
387.138	766.19
387.363	776.19
387.588	781.19
387.813	775.19
388.038	768.19
388.263	794.19
388.488	782.19
388.713	777.19
388.938	775.19
389.163	769.19
389.387	776.19
389.612	759.19
389.837	781.19
390.062	780.19
390.287	799.19
390.512	754.19
390.736	797.19
390.961	794.19
391.186	780.19
391.411	822.19
391.636	834.19
391.86	847.19
392.085	860.19
392.31	870.19
392.534	810.19
392.759	834.19
392.984	806.19
393.208	808.19
393.433	827.19
393.658	826.19
393.882	791.19
394.107	848.19
394.331	808.19
394.556	828.19
394.78	821.19
395.005	836.19
395.229	854.19
395.454	882.19
395.678	854.19
395.903	881.19
396.127	830.19
396.352	866.19
396.576	832.19
396.801	818.19
397.025	849.19
397.249	859.19
397.474	871.19
397.698	874.19
397.922	873.19
398.147	873.19
398.371	898.19
398.595	918.19
398.82	955.19
399.044	1029.19
399.268	1088.19
399.492	1230.19
399.717	1332.19
399.941	1326.19
400.165	1218.19
400.389	1163.19
400.613	1072.19
400.837	1010.19
401.062	966.19
401.286	980.19
401.51	961.19
401.734	950.19
401.958	977.19
402.182	987.19
402.406	1006.19
402.63	999.19
402.854	979.19
403.078	1019.19
403.302	1020.19
403.526	1008.19
403.75	1058.19
403.974	1068.19
404.198	1062.19
404.422	1088.19
404.645	1068.19
404.869	1057.19
405.093	1038.19
405.317	1010.19
405.541	1046.19
405.765	1011.19
405.988	1063.19
406.212	1058.19
406.436	1064.19
406.66	1102.19
406.883	1058.19
407.107	1107.19
407.331	1172.19
407.555	1221.19
407.778	1234.19
408.002	1196.19
408.226	1162.19
408.449	1137.19
408.673	1110.19
408.896	1084.19
409.12	1085.19
409.344	1103.19
409.567	1089.19
409.791	1126.19
410.014	1107.19
410.238	1090.19
410.461	1093.19
410.685	1042.19
410.908	1028.19
411.132	1021.19
411.355	1023.19
411.578	1052.19
411.802	1020.19
412.025	1011.19
412.249	1030.19
412.472	1021.19
412.695	1011.19
412.919	987.19
413.142	970.19
413.365	993.19
413.589	1000.19
413.812	1007.19
414.035	999.19
414.258	981.19
414.482	969.19
414.705	986.19
414.928	983.19
415.151	994.19
415.374	999.19
415.597	993.19
415.821	955.19
416.044	946.19
416.267	960.19
416.49	937.19
416.713	937.19
416.936	949.19
417.159	954.19
417.382	946.19
417.605	937.19
417.828	933.19
418.051	994.19
418.274	967.19
418.497	943.19
418.72	955.19
418.943	947.19
419.166	1048.19
419.389	1081.19
419.611	1076.19
419.834	1019.19
420.057	983.19
420.28	982.19
420.503	944.19
420.726	954.19
420.948	972.19
421.171	977.19
421.394	954.19
421.617	963.19
421.839	974.19
422.062	954.19
422.285	948.19
422.507	1003.19
422.73	990.19
422.953	958.19
423.175	991.19
423.398	978.19
423.621	999.19
423.843	982.19
424.066	988.19
424.288	986.19
424.511	987.19
424.733	983.19
424.956	965.19
425.178	980.19
425.401	966.19
425.623	984.19
425.846	922.19
426.068	933.19
426.291	914.19
426.513	930.19
426.735	936.19
426.958	939.19
427.18	909.19
427.402	890.19
427.625	904.19
427.847	894.19
428.069	907.19
428.292	912.19
428.514	888.19
428.736	869.19
428.958	865.19
429.181	873.19
429.403	863.19
429.625	880.19
429.847	883.19
430.069	868.19
430.292	874.19
430.514	858.19
430.736	884.19
430.958	894.19
431.18	874.19
431.402	880.19
431.624	882.19
431.846	867.19
432.068	900.19
432.29	907.19
432.512	843.19
432.734	873.19
432.956	886.19
433.178	894.19
433.4	896.19
433.622	898.19
433.844	899.19
434.066	916.19
434.287	916.19
434.509	961.19
434.731	975.19
434.953	970.19
435.175	987.19
435.397	977.19
435.618	957.19
435.84	914.19
436.062	906.19
436.284	894.19
436.505	899.19
436.727	908.19
436.949	907.19
437.17	902.19
437.392	863.19
437.614	868.19
437.835	846.19
438.057	858.19
438.278	854.19
438.5	853.19
438.721	871.19
438.943	884.19
439.165	896.19
439.386	884.19
439.608	882.19
439.829	882.19
440.05	893.19
440.272	883.19
440.493	919.19
440.715	910.19
440.936	934.19
441.158	939.19
441.379	963.19
441.6	997.19
441.822	1009.19
442.043	1006.19
442.264	1004.19
442.486	973.19
442.707	975.19
442.928	965.19
443.149	971.19
443.371	969.19
443.592	991.19
443.813	1006.19
444.034	975.19
444.255	1042.19
444.476	1052.19
444.698	1110.19
444.919	1132.19
445.14	1188.19
445.361	1126.19
445.582	1035.19
445.803	960.19
446.024	937.19
446.245	964.19
446.466	940.19
446.687	931.19
446.908	920.19
447.129	911.19
447.35	879.19
447.571	902.19
447.792	860.19
448.013	886.19
448.234	854.19
448.455	834.19
448.675	848.19
448.896	873.19
449.117	819.19
449.338	836.19
449.559	846.19
449.779	807.19
450	806.19
450.221	855.19
450.442	829.19
450.662	830.19
450.883	869.19
451.104	858.19
451.324	858.19
451.545	830.19
451.766	832.19
451.986	815.19
452.207	843.19
452.428	812.19
452.648	824.19
452.869	834.19
453.089	785.19
453.31	829.19
453.53	780.19
453.751	809.19
453.971	793.19
454.192	800.19
454.412	784.19
454.633	794.19
454.853	802.19
455.073	786.19
455.294	789.19
455.514	756.19
455.734	786.19
455.955	758.19
456.175	777.19
456.395	777.19
456.616	748.19
456.836	769.19
457.056	782.19
457.276	763.19
457.497	792.19
457.717	774.19
457.937	772.19
458.157	818.19
458.377	806.19
458.598	816.19
458.818	827.19
459.038	851.19
459.258	892.19
459.478	926.19
459.698	924.19
459.918	934.19
460.138	984.19
460.358	1017.19
460.578	1006.19
460.798	1033.19
461.018	1035.19
461.238	1028.19
461.458	1093.19
461.678	1048.19
461.898	1078.19
462.118	1085.19
462.338	1111.19
462.558	1118.19
462.777	1141.19
462.997	1224.19
463.217	1303.19
463.437	1304.19
463.657	1266.19
463.876	1234.19
464.096	1216.19
464.316	1204.19
464.536	1204.19
464.755	1140.19
464.975	1137.19
465.195	1091.19
465.414	1050.19
465.634	974.19
465.854	991.19
466.073	945.19
466.293	924.19
466.512	884.19
466.732	868.19
466.951	891.19
467.171	916.19
467.391	903.19
467.61	892.19
467.829	885.19
468.049	857.19
468.268	842.19
468.488	853.19
468.707	858.19
468.927	865.19
469.146	856.19
469.365	868.19
469.585	852.19
469.804	875.19
470.023	881.19
470.243	865.19
470.462	890.19
470.681	900.19
470.901	883.19
471.12	905.19
471.339	896.19
471.558	866.19
471.777	905.19
471.997	873.19
472.216	867.19
472.435	833.19
472.654	841.19
472.873	819.19
473.092	833.19
473.311	867.19
473.53	860.19
473.749	820.19
473.968	842.19
474.187	834.19
474.406	852.19
474.625	847.19
474.844	832.19
475.063	850.19
475.282	844.19
475.501	850.19
475.72	871.19
475.939	896.19
476.158	859.19
476.377	877.19
476.596	874.19
476.814	902.19
477.033	890.19
477.252	906.19
477.471	925.19
477.69	932.19
477.908	968.19
478.127	968.19
478.346	979.19
478.564	990.19
478.783	988.19
479.002	1051.19
479.22	1040.19
479.439	1007.19
479.658	1006.19
479.876	1043.19
480.095	1066.19
480.313	1077.19
480.532	1098.19
480.751	1104.19
480.969	1038.19
481.188	1034.19
481.406	988.19
481.624	972.19
481.843	958.19
482.061	958.19
482.28	979.19
482.498	952.19
482.717	963.19
482.935	982.19
483.153	956.19
483.372	965.19
483.59	979.19
483.808	993.19
484.027	969.19
484.245	1004.19
484.463	987.19
484.681	1021.19
484.9	988.19
485.118	1000.19
485.336	982.19
485.554	1007.19
485.772	983.19
485.99	1022.19
486.209	1003.19
486.427	1028.19
486.645	1042.19
486.863	1029.19
487.081	1007.19
487.299	1015.19
487.517	1000.19
487.735	1000.19
487.953	1028.19
488.171	1029.19
488.389	1014.19
488.607	992.19
488.825	1022.19
489.043	992.19
489.261	999.19
489.479	1006.19
489.696	1006.19
489.914	1025.19
490.132	1015.19
490.35	1018.19
490.568	1026.19
490.786	1036.19
491.003	1038.19
491.221	1043.19
491.439	1043.19
491.657	1044.19
491.874	1036.19
492.092	1029.19
492.31	1040.19
492.527	1042.19
492.745	1051.19
492.963	1074.19
493.18	1046.19
493.398	1082.19
493.615	1093.19
493.833	1061.19
494.05	1087.19
494.268	1109.19
494.485	1083.19
494.703	1072.19
494.92	1081.19
495.138	1067.19
495.355	1105.19
495.573	1138.19
495.79	1108.19
496.008	1070.19
496.225	1071.19
496.442	1096.19
496.66	1139.19
496.877	1178.19
497.094	1167.19
497.312	1191.19
497.529	1218.19
497.746	1208.19
497.963	1284.19
498.181	1320.19
498.398	1375.19
498.615	1443.19
498.832	1490.19
499.049	1633.19
499.267	1710.19
499.484	1792.19
