Data from NiCl2@0.25M.TitratingCurve.Agarose3%dH2O.NegLispCup.LampEnergy10.LIBS07252019_HRD10591_18-23-04-573.txt Node
Date: Thu Jul 25 18:23:04 EDT 2019
User: cochatt
Spectrometer: HR+D1059
Trigger mode: 1
Integration Time (sec): 1.000000E-1
Scans to average: 1
Electric dark correction enabled: true
Nonlinearity correction enabled: false
Boxcar width: 0
XAxis mode: Wavelengths
Number of Pixels in Spectrum: 2048
>>>>>Begin Spectral Data<<<<<
223.165	3.19
223.4	3.19
223.635	3.19
223.869	-13.81
224.104	-24.81
224.338	-11.81
224.573	-14.81
224.808	-26.81
225.042	-15.81
225.277	-10.81
225.511	4.19
225.746	12.19
225.98	5.19
226.215	3.19
226.449	8.19
226.683	18.19
226.918	27.19
227.152	37.19
227.387	32.19
227.621	48.19
227.856	49.19
228.09	53.19
228.324	54.19
228.559	49.19
228.793	45.19
229.027	69.19
229.262	91.19
229.496	117.19
229.73	124.19
229.964	119.19
230.199	101.19
230.433	115.19
230.667	128.19
230.901	129.19
231.136	126.19
231.37	128.19
231.604	125.19
231.838	129.19
232.072	129.19
232.306	126.19
232.541	121.19
232.775	122.19
233.009	116.19
233.243	135.19
233.477	129.19
233.711	138.19
233.945	146.19
234.179	139.19
234.413	121.19
234.647	133.19
234.881	140.19
235.115	129.19
235.349	140.19
235.583	137.19
235.817	140.19
236.051	137.19
236.285	126.19
236.519	140.19
236.753	133.19
236.987	147.19
237.221	142.19
237.455	143.19
237.689	140.19
237.922	160.19
238.156	149.19
238.39	149.19
238.624	149.19
238.858	146.19
239.091	147.19
239.325	154.19
239.559	149.19
239.793	147.19
240.027	144.19
240.26	164.19
240.494	143.19
240.728	156.19
240.961	165.19
241.195	151.19
241.429	181.19
241.662	159.19
241.896	175.19
242.13	187.19
242.363	172.19
242.597	170.19
242.83	183.19
243.064	164.19
243.298	165.19
243.531	164.19
243.765	164.19
243.998	184.19
244.232	175.19
244.465	185.19
244.699	176.19
244.932	197.19
245.166	201.19
245.399	191.19
245.633	190.19
245.866	192.19
246.099	186.19
246.333	179.19
246.566	184.19
246.8	185.19
247.033	197.19
247.266	194.19
247.5	192.19
247.733	203.19
247.966	204.19
248.2	207.19
248.433	199.19
248.666	211.19
248.899	202.19
249.133	211.19
249.366	211.19
249.599	222.19
249.832	219.19
250.066	218.19
250.299	212.19
250.532	203.19
250.765	222.19
250.998	217.19
251.231	230.19
251.465	213.19
251.698	227.19
251.931	220.19
252.164	223.19
252.397	230.19
252.63	243.19
252.863	223.19
253.096	230.19
253.329	245.19
253.562	234.19
253.795	232.19
254.028	239.19
254.261	247.19
254.494	227.19
254.727	220.19
254.96	234.19
255.193	235.19
255.426	232.19
255.659	229.19
255.892	252.19
256.124	256.19
256.357	243.19
256.59	244.19
256.823	245.19
257.056	255.19
257.289	249.19
257.521	249.19
257.754	250.19
257.987	253.19
258.22	261.19
258.452	260.19
258.685	255.19
258.918	265.19
259.151	267.19
259.383	272.19
259.616	265.19
259.849	274.19
260.081	273.19
260.314	269.19
260.547	261.19
260.779	253.19
261.012	252.19
261.244	269.19
261.477	268.19
261.71	272.19
261.942	268.19
262.175	281.19
262.407	283.19
262.64	253.19
262.872	266.19
263.105	279.19
263.337	289.19
263.57	275.19
263.802	298.19
264.035	295.19
264.267	288.19
264.499	272.19
264.732	284.19
264.964	291.19
265.197	292.19
265.429	284.19
265.661	295.19
265.894	291.19
266.126	309.19
266.358	296.19
266.591	293.19
266.823	295.19
267.055	298.19
267.287	311.19
267.52	305.19
267.752	313.19
267.984	308.19
268.216	317.19
268.448	319.19
268.681	305.19
268.913	312.19
269.145	300.19
269.377	307.19
269.609	324.19
269.841	321.19
270.073	319.19
270.306	299.19
270.538	317.19
270.77	309.19
271.002	321.19
271.234	319.19
271.466	316.19
271.698	335.19
271.93	324.19
272.162	327.19
272.394	317.19
272.626	326.19
272.858	316.19
273.09	319.19
273.322	343.19
273.553	340.19
273.785	339.19
274.017	336.19
274.249	344.19
274.481	335.19
274.713	337.19
274.945	346.19
275.176	355.19
275.408	352.19
275.64	352.19
275.872	363.19
276.104	338.19
276.335	346.19
276.567	354.19
276.799	346.19
277.031	368.19
277.262	369.19
277.494	337.19
277.726	351.19
277.957	353.19
278.189	364.19
278.421	373.19
278.652	377.19
278.884	365.19
279.115	353.19
279.347	353.19
279.579	385.19
279.81	376.19
280.042	365.19
280.273	369.19
280.505	369.19
280.736	373.19
280.968	378.19
281.199	378.19
281.431	400.19
281.662	391.19
281.894	380.19
282.125	402.19
282.356	392.19
282.588	373.19
282.819	386.19
283.051	378.19
283.282	385.19
283.513	394.19
283.745	394.19
283.976	407.19
284.207	401.19
284.439	411.19
284.67	401.19
284.901	403.19
285.132	425.19
285.364	424.19
285.595	392.19
285.826	405.19
286.057	415.19
286.288	407.19
286.52	403.19
286.751	408.19
286.982	409.19
287.213	431.19
287.444	423.19
287.675	411.19
287.906	414.19
288.138	428.19
288.369	414.19
288.6	454.19
288.831	433.19
289.062	405.19
289.293	425.19
289.524	408.19
289.755	443.19
289.986	427.19
290.217	425.19
290.448	435.19
290.679	440.19
290.91	422.19
291.141	431.19
291.371	441.19
291.602	429.19
291.833	457.19
292.064	440.19
292.295	443.19
292.526	444.19
292.757	439.19
292.987	432.19
293.218	439.19
293.449	437.19
293.68	456.19
293.91	447.19
294.141	437.19
294.372	446.19
294.603	432.19
294.833	422.19
295.064	445.19
295.295	454.19
295.525	438.19
295.756	451.19
295.987	454.19
296.217	459.19
296.448	461.19
296.679	450.19
296.909	455.19
297.14	453.19
297.37	472.19
297.601	486.19
297.831	468.19
298.062	466.19
298.292	471.19
298.523	483.19
298.753	485.19
298.984	471.19
299.214	490.19
299.445	470.19
299.675	473.19
299.905	492.19
300.136	479.19
300.366	481.19
300.597	489.19
300.827	494.19
301.057	509.19
301.288	508.19
301.518	498.19
301.748	513.19
301.979	498.19
302.209	490.19
302.439	498.19
302.669	509.19
302.9	493.19
303.13	496.19
303.36	458.19
303.59	506.19
303.82	495.19
304.051	492.19
304.281	515.19
304.511	507.19
304.741	509.19
304.971	479.19
305.201	509.19
305.431	488.19
305.661	519.19
305.891	503.19
306.121	504.19
306.352	492.19
306.582	497.19
306.812	503.19
307.042	484.19
307.272	474.19
307.502	498.19
307.731	482.19
307.961	468.19
308.191	488.19
308.421	493.19
308.651	468.19
308.881	489.19
309.111	517.19
309.341	464.19
309.571	499.19
309.8	480.19
310.03	511.19
310.26	473.19
310.49	504.19
310.72	491.19
310.949	533.19
311.179	524.19
311.409	497.19
311.639	513.19
311.868	507.19
312.098	497.19
312.328	517.19
312.557	530.19
312.787	520.19
313.017	514.19
313.246	512.19
313.476	531.19
313.706	535.19
313.935	559.19
314.165	537.19
314.394	533.19
314.624	516.19
314.853	520.19
315.083	520.19
315.312	534.19
315.542	543.19
315.771	499.19
316.001	511.19
316.23	530.19
316.46	517.19
316.689	525.19
316.919	547.19
317.148	546.19
317.377	514.19
317.607	510.19
317.836	537.19
318.065	516.19
318.295	529.19
318.524	528.19
318.753	530.19
318.983	507.19
319.212	519.19
319.441	521.19
319.67	532.19
319.9	548.19
320.129	528.19
320.358	532.19
320.587	516.19
320.816	521.19
321.046	538.19
321.275	519.19
321.504	535.19
321.733	545.19
321.962	526.19
322.191	523.19
322.42	533.19
322.649	551.19
322.878	544.19
323.108	547.19
323.337	549.19
323.566	544.19
323.795	543.19
324.024	561.19
324.253	549.19
324.482	547.19
324.71	541.19
324.939	548.19
325.168	590.19
325.397	565.19
325.626	543.19
325.855	545.19
326.084	560.19
326.313	588.19
326.542	595.19
326.77	593.19
326.999	548.19
327.228	575.19
327.457	572.19
327.686	571.19
327.914	568.19
328.143	570.19
328.372	561.19
328.6	585.19
328.829	571.19
329.058	580.19
329.287	572.19
329.515	567.19
329.744	555.19
329.972	582.19
330.201	595.19
330.43	588.19
330.658	604.19
330.887	607.19
331.115	596.19
331.344	586.19
331.572	586.19
331.801	641.19
332.03	640.19
332.258	655.19
332.486	654.19
332.715	699.19
332.943	693.19
333.172	728.19
333.4	759.19
333.629	743.19
333.857	732.19
334.085	740.19
334.314	720.19
334.542	730.19
334.771	723.19
334.999	698.19
335.227	714.19
335.455	704.19
335.684	693.19
335.912	707.19
336.14	694.19
336.369	698.19
336.597	653.19
336.825	675.19
337.053	693.19
337.281	679.19
337.51	645.19
337.738	651.19
337.966	616.19
338.194	639.19
338.422	647.19
338.65	635.19
338.878	612.19
339.106	630.19
339.334	646.19
339.562	615.19
339.79	607.19
340.018	627.19
340.246	623.19
340.474	604.19
340.702	620.19
340.93	612.19
341.158	619.19
341.386	630.19
341.614	627.19
341.842	625.19
342.07	596.19
342.298	632.19
342.526	588.19
342.754	583.19
342.981	620.19
343.209	648.19
343.437	675.19
343.665	693.19
343.893	722.19
344.12	741.19
344.348	701.19
344.576	672.19
344.804	647.19
345.031	619.19
345.259	616.19
345.487	629.19
345.714	621.19
345.942	595.19
346.17	612.19
346.397	595.19
346.625	599.19
346.853	593.19
347.08	579.19
347.308	584.19
347.535	586.19
347.763	580.19
347.99	583.19
348.218	585.19
348.445	579.19
348.673	547.19
348.9	583.19
349.128	595.19
349.355	566.19
349.583	610.19
349.81	577.19
350.037	576.19
350.265	573.19
350.492	581.19
350.72	555.19
350.947	563.19
351.174	588.19
351.402	580.19
351.629	571.19
351.856	587.19
352.083	588.19
352.311	560.19
352.538	579.19
352.765	600.19
352.992	561.19
353.22	563.19
353.447	555.19
353.674	545.19
353.901	579.19
354.128	566.19
354.355	534.19
354.583	581.19
354.81	550.19
355.037	580.19
355.264	569.19
355.491	575.19
355.718	557.19
355.945	547.19
356.172	585.19
356.399	560.19
356.626	571.19
356.853	603.19
357.08	558.19
357.307	529.19
357.534	562.19
357.761	567.19
357.988	572.19
358.215	569.19
358.441	576.19
358.668	576.19
358.895	595.19
359.122	581.19
359.349	551.19
359.576	548.19
359.802	587.19
360.029	554.19
360.256	569.19
360.483	571.19
360.709	569.19
360.936	576.19
361.163	576.19
361.39	584.19
361.616	576.19
361.843	576.19
362.07	567.19
362.296	585.19
362.523	556.19
362.749	577.19
362.976	573.19
363.203	572.19
363.429	578.19
363.656	576.19
363.882	558.19
364.109	571.19
364.335	579.19
364.562	547.19
364.788	567.19
365.015	549.19
365.241	574.19
365.468	583.19
365.694	588.19
365.92	568.19
366.147	571.19
366.373	590.19
366.599	577.19
366.826	556.19
367.052	568.19
367.278	586.19
367.505	597.19
367.731	585.19
367.957	588.19
368.184	581.19
368.41	564.19
368.636	599.19
368.862	601.19
369.089	585.19
369.315	570.19
369.541	597.19
369.767	576.19
369.993	590.19
370.219	595.19
370.445	591.19
370.672	608.19
370.898	619.19
371.124	633.19
371.35	604.19
371.576	616.19
371.802	633.19
372.028	618.19
372.254	609.19
372.48	595.19
372.706	633.19
372.932	659.19
373.158	643.19
373.384	653.19
373.61	614.19
373.835	601.19
374.061	631.19
374.287	625.19
374.513	632.19
374.739	663.19
374.965	635.19
375.191	694.19
375.416	667.19
375.642	659.19
375.868	672.19
376.094	607.19
376.319	645.19
376.545	632.19
376.771	602.19
376.997	609.19
377.222	618.19
377.448	624.19
377.674	623.19
377.899	595.19
378.125	605.19
378.35	602.19
378.576	605.19
378.802	624.19
379.027	619.19
379.253	609.19
379.478	595.19
379.704	616.19
379.929	579.19
380.155	597.19
380.38	605.19
380.606	619.19
380.831	610.19
381.057	626.19
381.282	607.19
381.507	631.19
381.733	622.19
381.958	613.19
382.184	632.19
382.409	635.19
382.634	651.19
382.86	632.19
383.085	665.19
383.31	680.19
383.535	651.19
383.761	662.19
383.986	682.19
384.211	715.19
384.436	702.19
384.662	723.19
384.887	725.19
385.112	720.19
385.337	708.19
385.562	736.19
385.787	739.19
386.013	731.19
386.238	729.19
386.463	759.19
386.688	754.19
386.913	729.19
387.138	732.19
387.363	718.19
387.588	740.19
387.813	733.19
388.038	745.19
388.263	739.19
388.488	729.19
388.713	753.19
388.938	724.19
389.163	706.19
389.387	712.19
389.612	711.19
389.837	721.19
390.062	694.19
390.287	707.19
390.512	737.19
390.736	711.19
390.961	701.19
391.186	731.19
391.411	759.19
391.636	792.19
391.86	802.19
392.085	820.19
392.31	821.19
392.534	810.19
392.759	801.19
392.984	767.19
393.208	751.19
393.433	757.19
393.658	770.19
393.882	754.19
394.107	761.19
394.331	770.19
394.556	780.19
394.78	774.19
395.005	770.19
395.229	782.19
395.454	827.19
395.678	816.19
395.903	831.19
396.127	788.19
396.352	764.19
396.576	791.19
396.801	775.19
397.025	771.19
397.249	779.19
397.474	838.19
397.698	816.19
397.922	810.19
398.147	839.19
398.371	832.19
398.595	846.19
398.82	897.19
399.044	966.19
399.268	1060.19
399.492	1181.19
399.717	1307.19
399.941	1320.19
400.165	1163.19
400.389	1076.19
400.613	984.19
400.837	946.19
401.062	930.19
401.286	946.19
401.51	894.19
401.734	936.19
401.958	917.19
402.182	927.19
402.406	917.19
402.63	950.19
402.854	967.19
403.078	964.19
403.302	1016.19
403.526	1022.19
403.75	1020.19
403.974	1041.19
404.198	997.19
404.422	1033.19
404.645	1041.19
404.869	1004.19
405.093	996.19
405.317	983.19
405.541	986.19
405.765	989.19
405.988	972.19
406.212	988.19
406.436	992.19
406.66	1025.19
406.883	1015.19
407.107	1104.19
407.331	1121.19
407.555	1139.19
407.778	1126.19
408.002	1109.19
408.226	1079.19
408.449	1087.19
408.673	1047.19
408.896	1009.19
409.12	991.19
409.344	1047.19
409.567	1018.19
409.791	1017.19
410.014	1000.19
410.238	968.19
410.461	984.19
410.685	1003.19
410.908	964.19
411.132	941.19
411.355	911.19
411.578	939.19
411.802	950.19
412.025	927.19
412.249	945.19
412.472	989.19
412.695	945.19
412.919	919.19
413.142	918.19
413.365	915.19
413.589	917.19
413.812	906.19
414.035	907.19
414.258	901.19
414.482	924.19
414.705	931.19
414.928	922.19
415.151	921.19
415.374	890.19
415.597	913.19
415.821	900.19
416.044	868.19
416.267	865.19
416.49	861.19
416.713	878.19
416.936	893.19
417.159	901.19
417.382	874.19
417.605	885.19
417.828	893.19
418.051	897.19
418.274	912.19
418.497	902.19
418.72	894.19
418.943	901.19
419.166	976.19
419.389	1031.19
419.611	995.19
419.834	947.19
420.057	938.19
420.28	897.19
420.503	891.19
420.726	856.19
420.948	860.19
421.171	883.19
421.394	868.19
421.617	897.19
421.839	889.19
422.062	888.19
422.285	900.19
422.507	914.19
422.73	910.19
422.953	934.19
423.175	891.19
423.398	933.19
423.621	901.19
423.843	955.19
424.066	932.19
424.288	922.19
424.511	942.19
424.733	898.19
424.956	930.19
425.178	938.19
425.401	906.19
425.623	904.19
425.846	864.19
426.068	861.19
426.291	891.19
426.513	842.19
426.735	857.19
426.958	831.19
427.18	828.19
427.402	826.19
427.625	827.19
427.847	798.19
428.069	799.19
428.292	817.19
428.514	823.19
428.736	803.19
428.958	791.19
429.181	794.19
429.403	794.19
429.625	776.19
429.847	778.19
430.069	797.19
430.292	771.19
430.514	762.19
430.736	793.19
430.958	793.19
431.18	790.19
431.402	811.19
431.624	812.19
431.846	788.19
432.068	826.19
432.29	807.19
432.512	811.19
432.734	795.19
432.956	801.19
433.178	790.19
433.4	807.19
433.622	831.19
433.844	821.19
434.066	808.19
434.287	810.19
434.509	809.19
434.731	858.19
434.953	877.19
435.175	910.19
435.397	883.19
435.618	832.19
435.84	851.19
436.062	799.19
436.284	802.19
436.505	805.19
436.727	795.19
436.949	803.19
437.17	828.19
437.392	795.19
437.614	791.19
437.835	751.19
438.057	757.19
438.278	770.19
438.5	787.19
438.721	756.19
438.943	770.19
439.165	764.19
439.386	794.19
439.608	786.19
439.829	797.19
440.05	816.19
440.272	801.19
440.493	818.19
440.715	820.19
440.936	811.19
441.158	823.19
441.379	852.19
441.6	885.19
441.822	915.19
442.043	896.19
442.264	869.19
442.486	874.19
442.707	893.19
442.928	864.19
443.149	881.19
443.371	866.19
443.592	891.19
443.813	894.19
444.034	888.19
444.255	929.19
444.476	951.19
444.698	1027.19
444.919	1027.19
445.14	1155.19
445.361	1017.19
445.582	916.19
445.803	885.19
446.024	843.19
446.245	847.19
446.466	823.19
446.687	817.19
446.908	810.19
447.129	801.19
447.35	774.19
447.571	764.19
447.792	751.19
448.013	769.19
448.234	729.19
448.455	767.19
448.675	740.19
448.896	755.19
449.117	716.19
449.338	735.19
449.559	744.19
449.779	725.19
450	729.19
450.221	709.19
450.442	743.19
450.662	714.19
450.883	723.19
451.104	733.19
451.324	747.19
451.545	756.19
451.766	757.19
451.986	737.19
452.207	749.19
452.428	722.19
452.648	725.19
452.869	708.19
453.089	726.19
453.31	717.19
453.53	717.19
453.751	727.19
453.971	714.19
454.192	717.19
454.412	681.19
454.633	685.19
454.853	691.19
455.073	703.19
455.294	703.19
455.514	708.19
455.734	683.19
455.955	683.19
456.175	693.19
456.395	671.19
456.616	693.19
456.836	680.19
457.056	690.19
457.276	693.19
457.497	702.19
457.717	715.19
457.937	699.19
458.157	717.19
458.377	697.19
458.598	718.19
458.818	749.19
459.038	775.19
459.258	794.19
459.478	810.19
459.698	839.19
459.918	865.19
460.138	896.19
460.358	904.19
460.578	916.19
460.798	934.19
461.018	935.19
461.238	910.19
461.458	925.19
461.678	913.19
461.898	942.19
462.118	928.19
462.338	1015.19
462.558	1033.19
462.777	1029.19
462.997	1102.19
463.217	1192.19
463.437	1168.19
463.657	1114.19
463.876	1081.19
464.096	1074.19
464.316	1083.19
464.536	1081.19
464.755	1053.19
464.975	1004.19
465.195	960.19
465.414	895.19
465.634	832.19
465.854	839.19
466.073	847.19
466.293	827.19
466.512	794.19
466.732	789.19
466.951	775.19
467.171	787.19
467.391	793.19
467.61	755.19
467.829	780.19
468.049	761.19
468.268	744.19
468.488	757.19
468.707	777.19
468.927	727.19
469.146	747.19
469.365	744.19
469.585	781.19
469.804	763.19
470.023	785.19
470.243	765.19
470.462	818.19
470.681	801.19
470.901	790.19
471.12	803.19
471.339	761.19
471.558	792.19
471.777	752.19
471.997	746.19
472.216	761.19
472.435	739.19
472.654	749.19
472.873	730.19
473.092	743.19
473.311	744.19
473.53	736.19
473.749	728.19
473.968	748.19
474.187	738.19
474.406	707.19
474.625	725.19
474.844	719.19
475.063	745.19
475.282	776.19
475.501	725.19
475.72	751.19
475.939	755.19
476.158	770.19
476.377	768.19
476.596	740.19
476.814	789.19
477.033	767.19
477.252	787.19
477.471	816.19
477.69	842.19
477.908	838.19
478.127	859.19
478.346	872.19
478.564	892.19
478.783	915.19
479.002	896.19
479.22	922.19
479.439	895.19
479.658	893.19
479.876	902.19
480.095	921.19
480.313	949.19
480.532	954.19
480.751	971.19
480.969	899.19
481.188	883.19
481.406	872.19
481.624	882.19
481.843	846.19
482.061	833.19
482.28	836.19
482.498	834.19
482.717	823.19
482.935	801.19
483.153	833.19
483.372	839.19
483.59	849.19
483.808	829.19
484.027	832.19
484.245	821.19
484.463	837.19
484.681	855.19
484.9	891.19
485.118	845.19
485.336	863.19
485.554	856.19
485.772	868.19
485.99	856.19
486.209	855.19
486.427	880.19
486.645	882.19
486.863	868.19
487.081	856.19
487.299	859.19
487.517	877.19
487.735	885.19
487.953	875.19
488.171	897.19
488.389	889.19
488.607	880.19
488.825	852.19
489.043	867.19
489.261	855.19
489.479	882.19
489.696	899.19
489.914	913.19
490.132	867.19
490.35	892.19
490.568	876.19
490.786	894.19
491.003	911.19
491.221	898.19
491.439	880.19
491.657	878.19
491.874	896.19
492.092	901.19
492.31	896.19
492.527	884.19
492.745	894.19
492.963	913.19
493.18	927.19
493.398	908.19
493.615	894.19
493.833	932.19
494.05	946.19
494.268	946.19
494.485	917.19
494.703	924.19
494.92	944.19
495.138	963.19
495.355	962.19
495.573	969.19
495.79	940.19
496.008	959.19
496.225	994.19
496.442	966.19
496.66	981.19
496.877	972.19
497.094	1014.19
497.312	997.19
497.529	1045.19
497.746	1047.19
497.963	1074.19
498.181	1119.19
498.398	1163.19
498.615	1262.19
498.832	1324.19
499.049	1420.19
499.267	1503.19
499.484	1634.19
499.701	1844.19
499.918	1970.19
500.135	2239.19
500.352	2521.19
500.569	2613.19
500.786	2573.19
