Data from NiCl2@0.25M.TitratingCurve.Agarose3%dH2O.NegLispCup.LampEnergy10.LIBS07252019_HRD10591_18-24-05-576.txt Node
Date: Thu Jul 25 18:24:05 EDT 2019
User: cochatt
Spectrometer: HR+D1059
Trigger mode: 1
Integration Time (sec): 1.000000E-1
Scans to average: 1
Electric dark correction enabled: true
Nonlinearity correction enabled: false
Boxcar width: 0
XAxis mode: Wavelengths
Number of Pixels in Spectrum: 2048
>>>>>Begin Spectral Data<<<<<
223.165	-19.69
223.4	-19.69
223.635	-19.69
223.869	-14.69
224.104	-22.69
224.338	-8.69
224.573	1.31
224.808	-7.69
225.042	-18.69
225.277	-15.69
225.511	-13.69
225.746	17.31
225.98	-5.69
226.215	11.31
226.449	18.31
226.683	23.31
226.918	22.31
227.152	33.31
227.387	28.31
227.621	34.31
227.856	39.31
228.09	50.31
228.324	43.31
228.559	60.31
228.793	69.31
229.027	124.31
229.262	116.31
229.496	119.31
229.73	123.31
229.964	133.31
230.199	139.31
230.433	118.31
230.667	125.31
230.901	155.31
231.136	129.31
231.37	144.31
231.604	138.31
231.838	138.31
232.072	149.31
232.306	156.31
232.541	140.31
232.775	149.31
233.009	143.31
233.243	153.31
233.477	131.31
233.711	151.31
233.945	154.31
234.179	148.31
234.413	157.31
234.647	134.31
234.881	164.31
235.115	158.31
235.349	161.31
235.583	172.31
235.817	165.31
236.051	152.31
236.285	162.31
236.519	153.31
236.753	154.31
236.987	176.31
237.221	155.31
237.455	165.31
237.689	161.31
237.922	173.31
238.156	171.31
238.39	166.31
238.624	169.31
238.858	189.31
239.091	194.31
239.325	179.31
239.559	187.31
239.793	185.31
240.027	177.31
240.26	190.31
240.494	177.31
240.728	173.31
240.961	193.31
241.195	199.31
241.429	184.31
241.662	197.31
241.896	192.31
242.13	202.31
242.363	211.31
242.597	181.31
242.83	207.31
243.064	206.31
243.298	217.31
243.531	205.31
243.765	211.31
243.998	221.31
244.232	215.31
244.465	220.31
244.699	229.31
244.932	225.31
245.166	219.31
245.399	202.31
245.633	230.31
245.866	221.31
246.099	211.31
246.333	214.31
246.566	226.31
246.8	235.31
247.033	220.31
247.266	229.31
247.5	231.31
247.733	228.31
247.966	231.31
248.2	251.31
248.433	245.31
248.666	264.31
248.899	240.31
249.133	230.31
249.366	253.31
249.599	264.31
249.832	258.31
250.066	264.31
250.299	264.31
250.532	263.31
250.765	281.31
250.998	247.31
251.231	262.31
251.465	269.31
251.698	269.31
251.931	265.31
252.164	277.31
252.397	299.31
252.63	292.31
252.863	290.31
253.096	289.31
253.329	268.31
253.562	277.31
253.795	283.31
254.028	292.31
254.261	286.31
254.494	294.31
254.727	291.31
254.96	284.31
255.193	287.31
255.426	299.31
255.659	295.31
255.892	290.31
256.124	281.31
256.357	307.31
256.59	307.31
256.823	290.31
257.056	304.31
257.289	296.31
257.521	306.31
257.754	279.31
257.987	294.31
258.22	324.31
258.452	312.31
258.685	300.31
258.918	340.31
259.151	310.31
259.383	323.31
259.616	323.31
259.849	328.31
260.081	338.31
260.314	316.31
260.547	327.31
260.779	346.31
261.012	340.31
261.244	334.31
261.477	338.31
261.71	332.31
261.942	325.31
262.175	330.31
262.407	337.31
262.64	338.31
262.872	339.31
263.105	343.31
263.337	318.31
263.57	344.31
263.802	341.31
264.035	344.31
264.267	353.31
264.499	340.31
264.732	334.31
264.964	358.31
265.197	368.31
265.429	360.31
265.661	361.31
265.894	354.31
266.126	366.31
266.358	353.31
266.591	370.31
266.823	372.31
267.055	386.31
267.287	368.31
267.52	375.31
267.752	374.31
267.984	363.31
268.216	371.31
268.448	374.31
268.681	390.31
268.913	386.31
269.145	396.31
269.377	389.31
269.609	377.31
269.841	375.31
270.073	410.31
270.306	391.31
270.538	395.31
270.77	400.31
271.002	389.31
271.234	392.31
271.466	402.31
271.698	392.31
271.93	392.31
272.162	405.31
272.394	396.31
272.626	398.31
272.858	381.31
273.09	423.31
273.322	410.31
273.553	415.31
273.785	432.31
274.017	437.31
274.249	427.31
274.481	421.31
274.713	435.31
274.945	425.31
275.176	430.31
275.408	413.31
275.64	429.31
275.872	417.31
276.104	421.31
276.335	420.31
276.567	436.31
276.799	427.31
277.031	423.31
277.262	421.31
277.494	436.31
277.726	437.31
277.957	458.31
278.189	437.31
278.421	428.31
278.652	448.31
278.884	460.31
279.115	464.31
279.347	456.31
279.579	455.31
279.81	438.31
280.042	462.31
280.273	454.31
280.505	475.31
280.736	452.31
280.968	468.31
281.199	488.31
281.431	486.31
281.662	470.31
281.894	465.31
282.125	478.31
282.356	491.31
282.588	473.31
282.819	468.31
283.051	485.31
283.282	479.31
283.513	488.31
283.745	496.31
283.976	494.31
284.207	469.31
284.439	510.31
284.67	502.31
284.901	500.31
285.132	514.31
285.364	511.31
285.595	502.31
285.826	521.31
286.057	512.31
286.288	505.31
286.52	510.31
286.751	529.31
286.982	507.31
287.213	522.31
287.444	518.31
287.675	526.31
287.906	541.31
288.138	520.31
288.369	517.31
288.6	526.31
288.831	527.31
289.062	545.31
289.293	525.31
289.524	535.31
289.755	545.31
289.986	545.31
290.217	525.31
290.448	564.31
290.679	550.31
290.91	531.31
291.141	520.31
291.371	538.31
291.602	550.31
291.833	537.31
292.064	554.31
292.295	562.31
292.526	566.31
292.757	544.31
292.987	551.31
293.218	529.31
293.449	555.31
293.68	567.31
293.91	538.31
294.141	556.31
294.372	552.31
294.603	558.31
294.833	548.31
295.064	532.31
295.295	527.31
295.525	550.31
295.756	548.31
295.987	546.31
296.217	571.31
296.448	548.31
296.679	576.31
296.909	580.31
297.14	580.31
297.37	595.31
297.601	600.31
297.831	565.31
298.062	597.31
298.292	580.31
298.523	589.31
298.753	596.31
298.984	588.31
299.214	590.31
299.445	605.31
299.675	587.31
299.905	604.31
300.136	603.31
300.366	622.31
300.597	584.31
300.827	612.31
301.057	617.31
301.288	643.31
301.518	620.31
301.748	609.31
301.979	643.31
302.209	632.31
302.439	624.31
302.669	624.31
302.9	602.31
303.13	601.31
303.36	624.31
303.59	592.31
303.82	619.31
304.051	593.31
304.281	622.31
304.511	598.31
304.741	640.31
304.971	625.31
305.201	616.31
305.431	615.31
305.661	625.31
305.891	611.31
306.121	612.31
306.352	600.31
306.582	591.31
306.812	592.31
307.042	619.31
307.272	607.31
307.502	613.31
307.731	605.31
307.961	619.31
308.191	600.31
308.421	605.31
308.651	613.31
308.881	603.31
309.111	613.31
309.341	579.31
309.571	618.31
309.8	615.31
310.03	600.31
310.26	597.31
310.49	582.31
310.72	624.31
310.949	611.31
311.179	621.31
311.409	612.31
311.639	628.31
311.868	616.31
312.098	597.31
312.328	636.31
312.557	631.31
312.787	635.31
313.017	648.31
313.246	625.31
313.476	624.31
313.706	636.31
313.935	631.31
314.165	659.31
314.394	652.31
314.624	653.31
314.853	646.31
315.083	655.31
315.312	637.31
315.542	658.31
315.771	636.31
316.001	645.31
316.23	653.31
316.46	656.31
316.689	645.31
316.919	648.31
317.148	654.31
317.377	633.31
317.607	626.31
317.836	644.31
318.065	657.31
318.295	651.31
318.524	620.31
318.753	600.31
318.983	645.31
319.212	610.31
319.441	631.31
319.67	648.31
319.9	645.31
320.129	640.31
320.358	638.31
320.587	628.31
320.816	619.31
321.046	619.31
321.275	652.31
321.504	644.31
321.733	651.31
321.962	659.31
322.191	644.31
322.42	659.31
322.649	666.31
322.878	642.31
323.108	633.31
323.337	667.31
323.566	646.31
323.795	666.31
324.024	657.31
324.253	640.31
324.482	643.31
324.71	672.31
324.939	651.31
325.168	661.31
325.397	665.31
325.626	682.31
325.855	675.31
326.084	722.31
326.313	707.31
326.542	718.31
326.77	698.31
326.999	717.31
327.228	692.31
327.457	692.31
327.686	697.31
327.914	701.31
328.143	696.31
328.372	703.31
328.6	705.31
328.829	684.31
329.058	683.31
329.287	707.31
329.515	678.31
329.744	707.31
329.972	701.31
330.201	726.31
330.43	714.31
330.658	721.31
330.887	699.31
331.115	740.31
331.344	752.31
331.572	751.31
331.801	731.31
332.03	785.31
332.258	809.31
332.486	809.31
332.715	847.31
332.943	846.31
333.172	894.31
333.4	934.31
333.629	940.31
333.857	965.31
334.085	942.31
334.314	929.31
334.542	925.31
334.771	922.31
334.999	899.31
335.227	908.31
335.455	887.31
335.684	880.31
335.912	884.31
336.14	871.31
336.369	873.31
336.597	908.31
336.825	849.31
337.053	842.31
337.281	834.31
337.51	807.31
337.738	790.31
337.966	807.31
338.194	782.31
338.422	776.31
338.65	787.31
338.878	770.31
339.106	759.31
339.334	759.31
339.562	766.31
339.79	746.31
340.018	758.31
340.246	714.31
340.474	773.31
340.702	718.31
340.93	719.31
341.158	729.31
341.386	754.31
341.614	753.31
341.842	745.31
342.07	724.31
342.298	728.31
342.526	743.31
342.754	737.31
342.981	730.31
343.209	756.31
343.437	797.31
343.665	822.31
343.893	887.31
344.12	906.31
344.348	892.31
344.576	872.31
344.804	822.31
345.031	789.31
345.259	749.31
345.487	724.31
345.714	736.31
345.942	721.31
346.17	729.31
346.397	715.31
346.625	718.31
346.853	704.31
347.08	694.31
347.308	723.31
347.535	706.31
347.763	710.31
347.99	719.31
348.218	708.31
348.445	706.31
348.673	698.31
348.9	691.31
349.128	701.31
349.355	700.31
349.583	700.31
349.81	714.31
350.037	684.31
350.265	696.31
350.492	654.31
350.72	671.31
350.947	693.31
351.174	695.31
351.402	710.31
351.629	676.31
351.856	676.31
352.083	669.31
352.311	690.31
352.538	696.31
352.765	674.31
352.992	674.31
353.22	663.31
353.447	672.31
353.674	679.31
353.901	662.31
354.128	672.31
354.355	658.31
354.583	657.31
354.81	668.31
355.037	696.31
355.264	672.31
355.491	670.31
355.718	706.31
355.945	650.31
356.172	677.31
356.399	700.31
356.626	688.31
356.853	700.31
357.08	688.31
357.307	676.31
357.534	692.31
357.761	681.31
357.988	698.31
358.215	676.31
358.441	668.31
358.668	672.31
358.895	674.31
359.122	694.31
359.349	680.31
359.576	664.31
359.802	682.31
360.029	664.31
360.256	692.31
360.483	694.31
360.709	703.31
360.936	689.31
361.163	691.31
361.39	688.31
361.616	677.31
361.843	694.31
362.07	677.31
362.296	681.31
362.523	702.31
362.749	690.31
362.976	684.31
363.203	678.31
363.429	682.31
363.656	687.31
363.882	679.31
364.109	690.31
364.335	665.31
364.562	656.31
364.788	670.31
365.015	669.31
365.241	665.31
365.468	664.31
365.694	660.31
365.92	671.31
366.147	692.31
366.373	683.31
366.599	668.31
366.826	684.31
367.052	693.31
367.278	689.31
367.505	675.31
367.731	686.31
367.957	689.31
368.184	692.31
368.41	719.31
368.636	724.31
368.862	673.31
369.089	698.31
369.315	712.31
369.541	699.31
369.767	700.31
369.993	695.31
370.219	711.31
370.445	726.31
370.672	728.31
370.898	730.31
371.124	757.31
371.35	748.31
371.576	736.31
371.802	737.31
372.028	753.31
372.254	752.31
372.48	746.31
372.706	736.31
372.932	768.31
373.158	777.31
373.384	737.31
373.61	738.31
373.835	737.31
374.061	738.31
374.287	759.31
374.513	764.31
374.739	804.31
374.965	820.31
375.191	802.31
375.416	830.31
375.642	819.31
375.868	794.31
376.094	789.31
376.319	752.31
376.545	764.31
376.771	754.31
376.997	766.31
377.222	746.31
377.448	733.31
377.674	733.31
377.899	758.31
378.125	738.31
378.35	736.31
378.576	719.31
378.802	760.31
379.027	743.31
379.253	740.31
379.478	754.31
379.704	733.31
379.929	749.31
380.155	736.31
380.38	744.31
380.606	742.31
380.831	739.31
381.057	762.31
381.282	746.31
381.507	749.31
381.733	748.31
381.958	764.31
382.184	740.31
382.409	767.31
382.634	779.31
382.86	792.31
383.085	804.31
383.31	782.31
383.535	816.31
383.761	799.31
383.986	825.31
384.211	836.31
384.436	876.31
384.662	861.31
384.887	869.31
385.112	895.31
385.337	922.31
385.562	902.31
385.787	912.31
386.013	917.31
386.238	923.31
386.463	906.31
386.688	907.31
386.913	870.31
387.138	905.31
387.363	884.31
387.588	884.31
387.813	907.31
388.038	890.31
388.263	869.31
388.488	888.31
388.713	875.31
388.938	874.31
389.163	871.31
389.387	870.31
389.612	894.31
389.837	890.31
390.062	858.31
390.287	859.31
390.512	902.31
390.736	871.31
390.961	911.31
391.186	930.31
391.411	947.31
391.636	979.31
391.86	1014.31
392.085	1052.31
392.31	1044.31
392.534	1001.31
392.759	991.31
392.984	969.31
393.208	980.31
393.433	950.31
393.658	961.31
393.882	967.31
394.107	955.31
394.331	982.31
394.556	984.31
394.78	946.31
395.005	970.31
395.229	967.31
395.454	1000.31
395.678	1034.31
395.903	1040.31
396.127	1011.31
396.352	985.31
396.576	996.31
396.801	964.31
397.025	959.31
397.249	987.31
397.474	1038.31
397.698	1004.31
397.922	1057.31
398.147	1026.31
398.371	1044.31
398.595	1088.31
398.82	1143.31
399.044	1216.31
399.268	1350.31
399.492	1559.31
399.717	1692.31
399.941	1730.31
400.165	1533.31
400.389	1428.31
400.613	1304.31
400.837	1240.31
401.062	1209.31
401.286	1144.31
401.51	1172.31
401.734	1152.31
401.958	1199.31
402.182	1181.31
402.406	1192.31
402.63	1188.31
402.854	1235.31
403.078	1228.31
403.302	1280.31
403.526	1256.31
403.75	1315.31
403.974	1312.31
404.198	1323.31
404.422	1317.31
404.645	1318.31
404.869	1298.31
405.093	1291.31
405.317	1304.31
405.541	1297.31
405.765	1257.31
405.988	1272.31
406.212	1276.31
406.436	1252.31
406.66	1276.31
406.883	1317.31
407.107	1380.31
407.331	1410.31
407.555	1485.31
407.778	1496.31
408.002	1456.31
408.226	1428.31
408.449	1366.31
408.673	1326.31
408.896	1332.31
409.12	1277.31
409.344	1296.31
409.567	1268.31
409.791	1250.31
410.014	1293.31
410.238	1265.31
410.461	1269.31
410.685	1212.31
410.908	1213.31
411.132	1198.31
411.355	1204.31
411.578	1186.31
411.802	1174.31
412.025	1170.31
412.249	1233.31
412.472	1239.31
412.695	1200.31
412.919	1177.31
413.142	1141.31
413.365	1143.31
413.589	1123.31
413.812	1149.31
414.035	1114.31
414.258	1118.31
414.482	1153.31
414.705	1152.31
414.928	1162.31
415.151	1149.31
415.374	1139.31
415.597	1142.31
415.821	1132.31
416.044	1120.31
416.267	1110.31
416.49	1141.31
416.713	1104.31
416.936	1096.31
417.159	1064.31
417.382	1125.31
417.605	1128.31
417.828	1146.31
418.051	1145.31
418.274	1150.31
418.497	1159.31
418.72	1160.31
418.943	1148.31
419.166	1229.31
419.389	1346.31
419.611	1300.31
419.834	1216.31
420.057	1202.31
420.28	1148.31
420.503	1137.31
420.726	1122.31
420.948	1118.31
421.171	1139.31
421.394	1112.31
421.617	1138.31
421.839	1135.31
422.062	1138.31
422.285	1142.31
422.507	1152.31
422.73	1168.31
422.953	1138.31
423.175	1167.31
423.398	1161.31
423.621	1159.31
423.843	1177.31
424.066	1178.31
424.288	1216.31
424.511	1157.31
424.733	1184.31
424.956	1127.31
425.178	1137.31
425.401	1147.31
425.623	1118.31
425.846	1098.31
426.068	1122.31
426.291	1066.31
426.513	1072.31
426.735	1059.31
426.958	1044.31
427.18	1015.31
427.402	1016.31
427.625	1059.31
427.847	1026.31
428.069	1027.31
428.292	1037.31
428.514	1014.31
428.736	992.31
428.958	1005.31
429.181	973.31
429.403	988.31
429.625	993.31
429.847	966.31
430.069	957.31
430.292	1018.31
430.514	973.31
430.736	970.31
430.958	995.31
431.18	977.31
431.402	973.31
431.624	985.31
431.846	995.31
432.068	1026.31
432.29	1001.31
432.512	996.31
432.734	999.31
432.956	1007.31
433.178	1011.31
433.4	987.31
433.622	1018.31
433.844	1028.31
434.066	1045.31
434.287	1025.31
434.509	1054.31
434.731	1107.31
434.953	1116.31
435.175	1121.31
435.397	1132.31
435.618	1078.31
435.84	1029.31
436.062	1044.31
436.284	1011.31
436.505	1016.31
436.727	965.31
436.949	997.31
437.17	970.31
437.392	969.31
437.614	965.31
437.835	937.31
438.057	940.31
438.278	950.31
438.5	938.31
438.721	969.31
438.943	978.31
439.165	970.31
439.386	983.31
439.608	999.31
439.829	985.31
440.05	982.31
440.272	1002.31
440.493	981.31
440.715	1014.31
440.936	1032.31
441.158	1048.31
441.379	1052.31
441.6	1143.31
441.822	1131.31
442.043	1126.31
442.264	1090.31
442.486	1078.31
442.707	1097.31
442.928	1099.31
443.149	1091.31
443.371	1097.31
443.592	1129.31
443.813	1103.31
444.034	1121.31
444.255	1184.31
444.476	1244.31
444.698	1245.31
444.919	1332.31
445.14	1402.31
445.361	1250.31
445.582	1167.31
445.803	1091.31
446.024	1074.31
446.245	1051.31
446.466	1017.31
446.687	1029.31
446.908	1035.31
447.129	1012.31
447.35	962.31
447.571	950.31
447.792	938.31
448.013	940.31
448.234	937.31
448.455	895.31
448.675	907.31
448.896	928.31
449.117	902.31
449.338	896.31
449.559	909.31
449.779	909.31
450	860.31
450.221	886.31
450.442	906.31
450.662	908.31
450.883	883.31
451.104	939.31
451.324	908.31
451.545	945.31
451.766	902.31
451.986	915.31
452.207	878.31
452.428	894.31
452.648	908.31
452.869	883.31
453.089	870.31
453.31	915.31
453.53	902.31
453.751	876.31
453.971	874.31
454.192	888.31
454.412	856.31
454.633	841.31
454.853	866.31
455.073	850.31
455.294	866.31
455.514	882.31
455.734	867.31
455.955	837.31
456.175	854.31
456.395	850.31
456.616	826.31
456.836	872.31
457.056	842.31
457.276	862.31
457.497	855.31
457.717	877.31
457.937	880.31
458.157	889.31
458.377	888.31
458.598	892.31
458.818	920.31
459.038	962.31
459.258	982.31
459.478	1024.31
459.698	1055.31
459.918	1061.31
460.138	1110.31
460.358	1150.31
460.578	1176.31
460.798	1176.31
461.018	1213.31
461.238	1188.31
461.458	1171.31
461.678	1162.31
461.898	1187.31
462.118	1198.31
462.338	1291.31
462.558	1325.31
462.777	1358.31
462.997	1447.31
463.217	1568.31
463.437	1576.31
463.657	1486.31
463.876	1426.31
464.096	1397.31
464.316	1375.31
464.536	1420.31
464.755	1318.31
464.975	1283.31
465.195	1218.31
465.414	1170.31
465.634	1085.31
465.854	1037.31
466.073	1028.31
466.293	1002.31
466.512	981.31
466.732	972.31
466.951	934.31
467.171	969.31
467.391	930.31
467.61	938.31
467.829	932.31
468.049	932.31
468.268	911.31
468.488	894.31
468.707	907.31
468.927	933.31
469.146	910.31
469.365	960.31
469.585	951.31
469.804	956.31
470.023	975.31
470.243	963.31
470.462	998.31
470.681	985.31
470.901	993.31
471.12	998.31
471.339	989.31
471.558	924.31
471.777	966.31
471.997	948.31
472.216	908.31
472.435	930.31
472.654	922.31
472.873	876.31
473.092	892.31
473.311	898.31
473.53	917.31
473.749	897.31
473.968	891.31
474.187	908.31
474.406	876.31
474.625	890.31
474.844	912.31
475.063	901.31
475.282	905.31
475.501	898.31
475.72	905.31
475.939	902.31
476.158	923.31
476.377	952.31
476.596	930.31
476.814	950.31
477.033	957.31
477.252	971.31
477.471	1019.31
477.69	1008.31
477.908	1003.31
478.127	1060.31
478.346	1061.31
478.564	1094.31
478.783	1102.31
479.002	1136.31
479.22	1127.31
479.439	1142.31
479.658	1094.31
479.876	1113.31
480.095	1151.31
480.313	1167.31
480.532	1195.31
480.751	1195.31
480.969	1148.31
481.188	1092.31
481.406	1088.31
481.624	1032.31
481.843	1039.31
482.061	1019.31
482.28	1052.31
482.498	1034.31
482.717	1022.31
482.935	1025.31
483.153	1019.31
483.372	1026.31
483.59	1050.31
483.808	1035.31
484.027	1036.31
484.245	1042.31
484.463	1051.31
484.681	1042.31
484.9	1052.31
485.118	1074.31
485.336	1035.31
485.554	1082.31
485.772	1096.31
485.99	1073.31
486.209	1066.31
486.427	1107.31
486.645	1110.31
486.863	1072.31
487.081	1080.31
487.299	1069.31
487.517	1053.31
487.735	1042.31
487.953	1067.31
488.171	1074.31
488.389	1076.31
488.607	1062.31
488.825	1028.31
489.043	1038.31
489.261	1061.31
489.479	1083.31
489.696	1062.31
489.914	1066.31
490.132	1061.31
490.35	1061.31
490.568	1106.31
490.786	1082.31
491.003	1071.31
491.221	1094.31
491.439	1054.31
491.657	1094.31
491.874	1104.31
492.092	1086.31
492.31	1085.31
492.527	1099.31
492.745	1125.31
492.963	1109.31
493.18	1096.31
493.398	1139.31
493.615	1142.31
493.833	1113.31
494.05	1172.31
494.268	1127.31
494.485	1117.31
494.703	1162.31
494.92	1132.31
495.138	1153.31
495.355	1169.31
495.573	1195.31
495.79	1156.31
496.008	1196.31
496.225	1188.31
496.442	1172.31
496.66	1214.31
496.877	1248.31
497.094	1243.31
