Data from NiCl2@0.25M.TitratingCurve.Agarose3%dH2O.NegLispCup.LampEnergy10.LIBS07252019_HRD10591_18-25-42-573.txt Node
Date: Thu Jul 25 18:25:42 EDT 2019
User: cochatt
Spectrometer: HR+D1059
Trigger mode: 1
Integration Time (sec): 1.000000E-1
Scans to average: 1
Electric dark correction enabled: true
Nonlinearity correction enabled: false
Boxcar width: 0
XAxis mode: Wavelengths
Number of Pixels in Spectrum: 2048
>>>>>Begin Spectral Data<<<<<
223.165	-4.94
223.4	-4.94
223.635	-4.94
223.869	-6.94
224.104	-11.94
224.338	-17.94
224.573	-15.94
224.808	-17.94
225.042	-21.94
225.277	-16.94
225.511	-3.94
225.746	3.06
225.98	-1.94
226.215	9.06
226.449	24.06
226.683	34.06
226.918	14.06
227.152	36.06
227.387	31.06
227.621	25.06
227.856	43.06
228.09	57.06
228.324	64.06
228.559	62.06
228.793	74.06
229.027	114.06
229.262	136.06
229.496	143.06
229.73	155.06
229.964	144.06
230.199	159.06
230.433	147.06
230.667	167.06
230.901	162.06
231.136	164.06
231.37	177.06
231.604	177.06
231.838	168.06
232.072	177.06
232.306	163.06
232.541	186.06
232.775	181.06
233.009	191.06
233.243	186.06
233.477	184.06
233.711	177.06
233.945	188.06
234.179	193.06
234.413	160.06
234.647	185.06
234.881	204.06
235.115	182.06
235.349	214.06
235.583	189.06
235.817	198.06
236.051	186.06
236.285	187.06
236.519	189.06
236.753	196.06
236.987	197.06
237.221	211.06
237.455	194.06
237.689	209.06
237.922	205.06
238.156	208.06
238.39	226.06
238.624	213.06
238.858	197.06
239.091	221.06
239.325	227.06
239.559	220.06
239.793	217.06
240.027	232.06
240.26	217.06
240.494	249.06
240.728	230.06
240.961	245.06
241.195	245.06
241.429	241.06
241.662	245.06
241.896	245.06
242.13	257.06
242.363	248.06
242.597	245.06
242.83	263.06
243.064	238.06
243.298	260.06
243.531	267.06
243.765	244.06
243.998	278.06
244.232	274.06
244.465	282.06
244.699	283.06
244.932	276.06
245.166	291.06
245.399	279.06
245.633	267.06
245.866	279.06
246.099	287.06
246.333	302.06
246.566	310.06
246.8	291.06
247.033	296.06
247.266	300.06
247.5	292.06
247.733	311.06
247.966	298.06
248.2	319.06
248.433	322.06
248.666	316.06
248.899	315.06
249.133	328.06
249.366	309.06
249.599	315.06
249.832	326.06
250.066	323.06
250.299	319.06
250.532	318.06
250.765	326.06
250.998	354.06
251.231	341.06
251.465	340.06
251.698	332.06
251.931	340.06
252.164	350.06
252.397	344.06
252.63	354.06
252.863	379.06
253.096	365.06
253.329	364.06
253.562	369.06
253.795	369.06
254.028	375.06
254.261	393.06
254.494	374.06
254.727	387.06
254.96	377.06
255.193	365.06
255.426	371.06
255.659	383.06
255.892	395.06
256.124	392.06
256.357	397.06
256.59	380.06
256.823	408.06
257.056	384.06
257.289	389.06
257.521	414.06
257.754	413.06
257.987	392.06
258.22	413.06
258.452	398.06
258.685	404.06
258.918	388.06
259.151	403.06
259.383	412.06
259.616	417.06
259.849	417.06
260.081	432.06
260.314	426.06
260.547	433.06
260.779	437.06
261.012	425.06
261.244	434.06
261.477	434.06
261.71	448.06
261.942	430.06
262.175	443.06
262.407	439.06
262.64	447.06
262.872	445.06
263.105	452.06
263.337	423.06
263.57	447.06
263.802	475.06
264.035	442.06
264.267	459.06
264.499	474.06
264.732	466.06
264.964	479.06
265.197	467.06
265.429	477.06
265.661	446.06
265.894	478.06
266.126	484.06
266.358	481.06
266.591	486.06
266.823	483.06
267.055	486.06
267.287	494.06
267.52	482.06
267.752	498.06
267.984	490.06
268.216	487.06
268.448	491.06
268.681	512.06
268.913	531.06
269.145	513.06
269.377	505.06
269.609	518.06
269.841	495.06
270.073	506.06
270.306	509.06
270.538	532.06
270.77	510.06
271.002	537.06
271.234	512.06
271.466	525.06
271.698	534.06
271.93	518.06
272.162	524.06
272.394	526.06
272.626	537.06
272.858	559.06
273.09	553.06
273.322	570.06
273.553	563.06
273.785	541.06
274.017	535.06
274.249	533.06
274.481	579.06
274.713	567.06
274.945	574.06
275.176	556.06
275.408	562.06
275.64	587.06
275.872	584.06
276.104	566.06
276.335	577.06
276.567	600.06
276.799	596.06
277.031	588.06
277.262	602.06
277.494	590.06
277.726	600.06
277.957	604.06
278.189	573.06
278.421	595.06
278.652	581.06
278.884	601.06
279.115	617.06
279.347	612.06
279.579	602.06
279.81	607.06
280.042	618.06
280.273	620.06
280.505	623.06
280.736	614.06
280.968	619.06
281.199	622.06
281.431	645.06
281.662	624.06
281.894	645.06
282.125	656.06
282.356	625.06
282.588	644.06
282.819	669.06
283.051	645.06
283.282	644.06
283.513	636.06
283.745	671.06
283.976	659.06
284.207	644.06
284.439	639.06
284.67	665.06
284.901	701.06
285.132	686.06
285.364	683.06
285.595	671.06
285.826	694.06
286.057	691.06
286.288	662.06
286.52	700.06
286.751	699.06
286.982	691.06
287.213	702.06
287.444	692.06
287.675	680.06
287.906	699.06
288.138	691.06
288.369	705.06
288.6	710.06
288.831	724.06
289.062	730.06
289.293	723.06
289.524	707.06
289.755	713.06
289.986	735.06
290.217	727.06
290.448	715.06
290.679	717.06
290.91	708.06
291.141	729.06
291.371	727.06
291.602	741.06
291.833	734.06
292.064	710.06
292.295	716.06
292.526	724.06
292.757	713.06
292.987	705.06
293.218	699.06
293.449	714.06
293.68	742.06
293.91	742.06
294.141	738.06
294.372	755.06
294.603	742.06
294.833	743.06
295.064	728.06
295.295	754.06
295.525	721.06
295.756	765.06
295.987	746.06
296.217	755.06
296.448	746.06
296.679	765.06
296.909	753.06
297.14	757.06
297.37	794.06
297.601	781.06
297.831	790.06
298.062	805.06
298.292	807.06
298.523	842.06
298.753	834.06
298.984	793.06
299.214	829.06
299.445	792.06
299.675	771.06
299.905	785.06
300.136	802.06
300.366	791.06
300.597	777.06
300.827	828.06
301.057	806.06
301.288	827.06
301.518	851.06
301.748	854.06
301.979	838.06
302.209	843.06
302.439	838.06
302.669	851.06
302.9	842.06
303.13	836.06
303.36	822.06
303.59	823.06
303.82	828.06
304.051	830.06
304.281	845.06
304.511	792.06
304.741	836.06
304.971	833.06
305.201	808.06
305.431	829.06
305.661	831.06
305.891	798.06
306.121	798.06
306.352	812.06
306.582	808.06
306.812	807.06
307.042	814.06
307.272	819.06
307.502	793.06
307.731	803.06
307.961	823.06
308.191	796.06
308.421	811.06
308.651	799.06
308.881	784.06
309.111	812.06
309.341	801.06
309.571	801.06
309.8	822.06
310.03	802.06
310.26	806.06
310.49	828.06
310.72	825.06
310.949	827.06
311.179	835.06
311.409	827.06
311.639	840.06
311.868	834.06
312.098	837.06
312.328	842.06
312.557	826.06
312.787	813.06
313.017	861.06
313.246	850.06
313.476	872.06
313.706	863.06
313.935	890.06
314.165	881.06
314.394	867.06
314.624	905.06
314.853	875.06
315.083	872.06
315.312	866.06
315.542	867.06
315.771	870.06
316.001	869.06
316.23	880.06
316.46	873.06
316.689	867.06
316.919	876.06
317.148	847.06
317.377	842.06
317.607	820.06
317.836	848.06
318.065	837.06
318.295	868.06
318.524	835.06
318.753	851.06
318.983	852.06
319.212	851.06
319.441	851.06
319.67	858.06
319.9	867.06
320.129	836.06
320.358	854.06
320.587	843.06
320.816	823.06
321.046	838.06
321.275	859.06
321.504	842.06
321.733	867.06
321.962	844.06
322.191	856.06
322.42	874.06
322.649	842.06
322.878	877.06
323.108	854.06
323.337	911.06
323.566	851.06
323.795	875.06
324.024	853.06
324.253	871.06
324.482	871.06
324.71	877.06
324.939	889.06
325.168	893.06
325.397	893.06
325.626	906.06
325.855	947.06
326.084	920.06
326.313	939.06
326.542	938.06
326.77	955.06
326.999	930.06
327.228	914.06
327.457	908.06
327.686	924.06
327.914	931.06
328.143	931.06
328.372	951.06
328.6	952.06
328.829	964.06
329.058	924.06
329.287	940.06
329.515	930.06
329.744	929.06
329.972	946.06
330.201	956.06
330.43	946.06
330.658	940.06
330.887	947.06
331.115	966.06
331.344	989.06
331.572	981.06
331.801	988.06
332.03	1001.06
332.258	1036.06
332.486	1055.06
332.715	1114.06
332.943	1150.06
333.172	1189.06
333.4	1256.06
333.629	1252.06
333.857	1286.06
334.085	1230.06
334.314	1255.06
334.542	1242.06
334.771	1213.06
334.999	1213.06
335.227	1208.06
335.455	1181.06
335.684	1192.06
335.912	1187.06
336.14	1167.06
336.369	1137.06
336.597	1157.06
336.825	1116.06
337.053	1134.06
337.281	1118.06
337.51	1090.06
337.738	1064.06
337.966	1086.06
338.194	1044.06
338.422	1028.06
338.65	1042.06
338.878	1014.06
339.106	1013.06
339.334	1016.06
339.562	997.06
339.79	990.06
340.018	972.06
340.246	968.06
340.474	946.06
340.702	994.06
340.93	986.06
341.158	981.06
341.386	1012.06
341.614	940.06
341.842	984.06
342.07	979.06
342.298	960.06
342.526	978.06
342.754	954.06
342.981	966.06
343.209	980.06
343.437	1038.06
343.665	1126.06
343.893	1175.06
344.12	1196.06
344.348	1193.06
344.576	1109.06
344.804	1061.06
345.031	1016.06
345.259	1008.06
345.487	1007.06
345.714	966.06
345.942	977.06
346.17	949.06
346.397	950.06
346.625	958.06
346.853	953.06
347.08	927.06
347.308	937.06
347.535	953.06
347.763	946.06
347.99	957.06
348.218	929.06
348.445	961.06
348.673	953.06
348.9	914.06
349.128	939.06
349.355	941.06
349.583	916.06
349.81	917.06
350.037	904.06
350.265	906.06
350.492	908.06
350.72	908.06
350.947	892.06
351.174	919.06
351.402	929.06
351.629	905.06
351.856	912.06
352.083	908.06
352.311	910.06
352.538	909.06
352.765	910.06
352.992	895.06
353.22	878.06
353.447	898.06
353.674	878.06
353.901	878.06
354.128	906.06
354.355	911.06
354.583	893.06
354.81	894.06
355.037	897.06
355.264	905.06
355.491	895.06
355.718	915.06
355.945	927.06
356.172	898.06
356.399	883.06
356.626	921.06
356.853	902.06
357.08	889.06
357.307	928.06
357.534	913.06
357.761	911.06
357.988	926.06
358.215	910.06
358.441	896.06
358.668	893.06
358.895	914.06
359.122	911.06
359.349	916.06
359.576	897.06
359.802	889.06
360.029	901.06
360.256	896.06
360.483	898.06
360.709	904.06
360.936	909.06
361.163	892.06
361.39	904.06
361.616	938.06
361.843	902.06
362.07	920.06
362.296	925.06
362.523	891.06
362.749	891.06
362.976	905.06
363.203	896.06
363.429	890.06
363.656	926.06
363.882	888.06
364.109	914.06
364.335	891.06
364.562	866.06
364.788	875.06
365.015	885.06
365.241	893.06
365.468	882.06
365.694	894.06
365.92	873.06
366.147	891.06
366.373	889.06
366.599	915.06
366.826	883.06
367.052	907.06
367.278	911.06
367.505	916.06
367.731	929.06
367.957	926.06
368.184	915.06
368.41	899.06
368.636	936.06
368.862	910.06
369.089	943.06
369.315	929.06
369.541	944.06
369.767	929.06
369.993	928.06
370.219	966.06
370.445	929.06
370.672	950.06
370.898	935.06
371.124	981.06
371.35	996.06
371.576	991.06
371.802	990.06
372.028	950.06
372.254	973.06
372.48	988.06
372.706	1008.06
372.932	1017.06
373.158	1008.06
373.384	1003.06
373.61	1013.06
373.835	947.06
374.061	1004.06
374.287	999.06
374.513	979.06
374.739	1031.06
374.965	1089.06
375.191	1093.06
375.416	1121.06
375.642	1075.06
375.868	1066.06
376.094	1009.06
376.319	1031.06
376.545	1026.06
376.771	967.06
376.997	978.06
377.222	1013.06
377.448	1014.06
377.674	985.06
377.899	967.06
378.125	946.06
378.35	990.06
378.576	982.06
378.802	976.06
379.027	973.06
379.253	969.06
379.478	977.06
379.704	954.06
379.929	981.06
380.155	981.06
380.38	979.06
380.606	999.06
380.831	981.06
381.057	985.06
381.282	989.06
381.507	960.06
381.733	989.06
381.958	1011.06
382.184	1000.06
382.409	1005.06
382.634	1010.06
382.86	1021.06
383.085	1050.06
383.31	1035.06
383.535	1077.06
383.761	1085.06
383.986	1099.06
384.211	1130.06
384.436	1161.06
384.662	1156.06
384.887	1178.06
385.112	1183.06
385.337	1189.06
385.562	1177.06
385.787	1197.06
386.013	1220.06
386.238	1221.06
386.463	1209.06
386.688	1221.06
386.913	1195.06
387.138	1179.06
387.363	1232.06
387.588	1198.06
387.813	1195.06
388.038	1180.06
388.263	1167.06
388.488	1201.06
388.713	1209.06
388.938	1172.06
389.163	1148.06
389.387	1163.06
389.612	1194.06
389.837	1159.06
390.062	1157.06
390.287	1175.06
390.512	1167.06
390.736	1161.06
390.961	1214.06
391.186	1210.06
391.411	1246.06
391.636	1335.06
391.86	1327.06
392.085	1366.06
392.31	1323.06
392.534	1297.06
392.759	1318.06
392.984	1263.06
393.208	1291.06
393.433	1293.06
393.658	1274.06
393.882	1276.06
394.107	1266.06
394.331	1263.06
394.556	1257.06
394.78	1277.06
395.005	1303.06
395.229	1301.06
395.454	1336.06
395.678	1366.06
395.903	1342.06
396.127	1339.06
396.352	1302.06
396.576	1278.06
396.801	1295.06
397.025	1291.06
397.249	1335.06
397.474	1347.06
397.698	1333.06
397.922	1356.06
398.147	1364.06
398.371	1399.06
398.595	1433.06
398.82	1501.06
399.044	1605.06
399.268	1777.06
399.492	2022.06
399.717	2243.06
399.941	2284.06
400.165	2081.06
400.389	1869.06
400.613	1689.06
400.837	1630.06
401.062	1560.06
401.286	1557.06
401.51	1541.06
401.734	1506.06
401.958	1570.06
402.182	1540.06
402.406	1549.06
402.63	1593.06
402.854	1631.06
403.078	1621.06
403.302	1657.06
403.526	1690.06
403.75	1678.06
403.974	1734.06
404.198	1704.06
404.422	1759.06
404.645	1704.06
404.869	1713.06
405.093	1694.06
405.317	1684.06
405.541	1694.06
405.765	1685.06
405.988	1662.06
406.212	1682.06
406.436	1667.06
406.66	1711.06
406.883	1733.06
407.107	1849.06
407.331	1915.06
407.555	1990.06
407.778	1996.06
408.002	1954.06
408.226	1882.06
408.449	1811.06
408.673	1729.06
408.896	1738.06
409.12	1672.06
409.344	1737.06
409.567	1726.06
409.791	1725.06
410.014	1715.06
410.238	1657.06
410.461	1697.06
410.685	1667.06
410.908	1646.06
411.132	1610.06
411.355	1549.06
411.578	1589.06
411.802	1542.06
412.025	1598.06
412.249	1599.06
412.472	1626.06
412.695	1563.06
412.919	1514.06
413.142	1504.06
413.365	1524.06
413.589	1499.06
413.812	1549.06
414.035	1489.06
414.258	1493.06
414.482	1492.06
414.705	1547.06
414.928	1547.06
415.151	1521.06
415.374	1520.06
415.597	1467.06
415.821	1487.06
416.044	1471.06
416.267	1440.06
416.49	1465.06
416.713	1469.06
416.936	1478.06
417.159	1481.06
417.382	1453.06
417.605	1456.06
417.828	1459.06
418.051	1467.06
418.274	1503.06
418.497	1472.06
418.72	1518.06
418.943	1517.06
419.166	1634.06
419.389	1780.06
419.611	1706.06
419.834	1587.06
420.057	1573.06
420.28	1541.06
420.503	1494.06
420.726	1457.06
420.948	1460.06
421.171	1483.06
421.394	1461.06
421.617	1476.06
421.839	1495.06
422.062	1503.06
422.285	1467.06
422.507	1522.06
422.73	1491.06
422.953	1547.06
423.175	1527.06
423.398	1570.06
423.621	1537.06
423.843	1578.06
424.066	1587.06
424.288	1540.06
424.511	1565.06
424.733	1514.06
424.956	1541.06
425.178	1535.06
425.401	1492.06
425.623	1509.06
425.846	1430.06
426.068	1464.06
426.291	1434.06
426.513	1422.06
426.735	1418.06
426.958	1388.06
427.18	1352.06
427.402	1397.06
427.625	1335.06
427.847	1281.06
428.069	1322.06
428.292	1340.06
428.514	1303.06
428.736	1316.06
428.958	1334.06
429.181	1281.06
429.403	1267.06
429.625	1275.06
429.847	1300.06
430.069	1281.06
430.292	1258.06
430.514	1244.06
430.736	1270.06
430.958	1289.06
431.18	1293.06
431.402	1294.06
431.624	1305.06
431.846	1311.06
432.068	1306.06
432.29	1351.06
432.512	1301.06
432.734	1329.06
432.956	1308.06
433.178	1292.06
433.4	1339.06
433.622	1323.06
433.844	1332.06
434.066	1333.06
434.287	1324.06
434.509	1403.06
434.731	1433.06
434.953	1461.06
435.175	1473.06
435.397	1466.06
435.618	1383.06
435.84	1370.06
436.062	1338.06
436.284	1332.06
436.505	1295.06
436.727	1315.06
436.949	1305.06
437.17	1309.06
437.392	1287.06
437.614	1251.06
437.835	1217.06
438.057	1280.06
438.278	1231.06
438.5	1239.06
438.721	1301.06
438.943	1270.06
439.165	1251.06
439.386	1273.06
439.608	1287.06
439.829	1266.06
440.05	1262.06
440.272	1291.06
440.493	1281.06
440.715	1326.06
440.936	1367.06
441.158	1355.06
441.379	1379.06
441.6	1463.06
441.822	1461.06
442.043	1490.06
442.264	1468.06
442.486	1429.06
442.707	1452.06
442.928	1426.06
443.149	1396.06
443.371	1447.06
443.592	1462.06
443.813	1444.06
444.034	1479.06
444.255	1546.06
444.476	1579.06
444.698	1669.06
444.919	1721.06
445.14	1754.06
445.361	1680.06
445.582	1540.06
445.803	1465.06
446.024	1389.06
446.245	1375.06
446.466	1383.06
446.687	1306.06
446.908	1334.06
447.129	1289.06
447.35	1297.06
447.571	1261.06
447.792	1216.06
448.013	1253.06
448.234	1235.06
448.455	1191.06
448.675	1194.06
448.896	1182.06
449.117	1172.06
449.338	1206.06
449.559	1161.06
449.779	1163.06
450	1173.06
450.221	1178.06
450.442	1182.06
450.662	1171.06
450.883	1156.06
451.104	1241.06
451.324	1228.06
451.545	1220.06
451.766	1226.06
451.986	1148.06
452.207	1178.06
452.428	1187.06
452.648	1186.06
452.869	1134.06
453.089	1138.06
453.31	1142.06
453.53	1133.06
453.751	1141.06
453.971	1111.06
454.192	1123.06
454.412	1117.06
454.633	1127.06
454.853	1134.06
455.073	1095.06
455.294	1115.06
455.514	1105.06
455.734	1099.06
455.955	1099.06
456.175	1124.06
456.395	1091.06
456.616	1093.06
456.836	1090.06
457.056	1101.06
457.276	1070.06
457.497	1124.06
457.717	1114.06
457.937	1103.06
458.157	1119.06
458.377	1135.06
458.598	1186.06
458.818	1189.06
459.038	1249.06
459.258	1247.06
459.478	1331.06
459.698	1379.06
459.918	1412.06
460.138	1457.06
460.358	1549.06
460.578	1558.06
460.798	1576.06
461.018	1570.06
461.238	1540.06
461.458	1518.06
461.678	1549.06
461.898	1574.06
462.118	1582.06
462.338	1644.06
462.558	1708.06
462.777	1797.06
462.997	1903.06
463.217	2039.06
463.437	2059.06
463.657	1950.06
463.876	1855.06
464.096	1815.06
464.316	1807.06
464.536	1810.06
464.755	1754.06
464.975	1658.06
465.195	1598.06
465.414	1545.06
465.634	1431.06
465.854	1387.06
466.073	1337.06
466.293	1310.06
466.512	1296.06
466.732	1254.06
466.951	1253.06
467.171	1238.06
467.391	1273.06
467.61	1245.06
467.829	1225.06
468.049	1210.06
468.268	1191.06
468.488	1171.06
468.707	1186.06
468.927	1161.06
469.146	1188.06
469.365	1195.06
469.585	1219.06
469.804	1237.06
470.023	1266.06
470.243	1264.06
470.462	1253.06
470.681	1299.06
470.901	1288.06
471.12	1285.06
471.339	1267.06
471.558	1251.06
471.777	1205.06
471.997	1236.06
472.216	1229.06
472.435	1222.06
472.654	1167.06
472.873	1157.06
473.092	1150.06
473.311	1189.06
473.53	1179.06
473.749	1146.06
473.968	1163.06
474.187	1152.06
474.406	1161.06
474.625	1152.06
474.844	1168.06
475.063	1185.06
475.282	1184.06
475.501	1230.06
475.72	1196.06
475.939	1216.06
476.158	1235.06
476.377	1225.06
476.596	1230.06
476.814	1257.06
477.033	1244.06
477.252	1283.06
477.471	1291.06
477.69	1320.06
477.908	1348.06
478.127	1372.06
478.346	1411.06
478.564	1403.06
478.783	1432.06
479.002	1454.06
479.22	1510.06
479.439	1470.06
479.658	1450.06
479.876	1462.06
480.095	1435.06
480.313	1544.06
480.532	1593.06
480.751	1590.06
480.969	1514.06
481.188	1464.06
481.406	1419.06
481.624	1394.06
481.843	1418.06
482.061	1348.06
482.28	1323.06
482.498	1310.06
482.717	1317.06
482.935	1361.06
483.153	1365.06
483.372	1316.06
483.59	1349.06
483.808	1310.06
484.027	1329.06
484.245	1363.06
484.463	1366.06
484.681	1366.06
484.9	1376.06
485.118	1383.06
485.336	1398.06
485.554	1419.06
485.772	1407.06
485.99	1406.06
486.209	1451.06
486.427	1419.06
486.645	1399.06
486.863	1435.06
487.081	1447.06
487.299	1429.06
487.517	1380.06
487.735	1384.06
487.953	1401.06
488.171	1398.06
488.389	1388.06
488.607	1372.06
488.825	1386.06
489.043	1376.06
489.261	1386.06
489.479	1420.06
489.696	1393.06
489.914	1384.06
490.132	1404.06
490.35	1413.06
490.568	1439.06
490.786	1431.06
491.003	1457.06
491.221	1441.06
491.439	1424.06
491.657	1422.06
491.874	1405.06
492.092	1396.06
492.31	1429.06
492.527	1442.06
492.745	1471.06
492.963	1457.06
493.18	1449.06
493.398	1467.06
493.615	1464.06
493.833	1475.06
