Data from NiCl2@0.5M.TitratingCurve.Agarose3%dH2O.NegLispCup.LampEnergy10.LIBS07252019_HRD10591_18-20-26-571.txt Node
Date: Thu Jul 25 18:20:26 EDT 2019
User: cochatt
Spectrometer: HR+D1059
Trigger mode: 1
Integration Time (sec): 1.000000E-1
Scans to average: 1
Electric dark correction enabled: true
Nonlinearity correction enabled: false
Boxcar width: 0
XAxis mode: Wavelengths
Number of Pixels in Spectrum: 2048
>>>>>Begin Spectral Data<<<<<
223.165	-19.88
223.4	-19.88
223.635	-19.88
223.869	-9.88
224.104	-27.88
224.338	-24.88
224.573	-10.88
224.808	-19.88
225.042	-2.88
225.277	-8.88
225.511	-5.88
225.746	8.12
225.98	9.12
226.215	4.12
226.449	10.12
226.683	26.12
226.918	35.12
227.152	38.12
227.387	39.12
227.621	33.12
227.856	55.12
228.09	39.12
228.324	43.12
228.559	52.12
228.793	49.12
229.027	79.12
229.262	98.12
229.496	99.12
229.73	103.12
229.964	117.12
230.199	114.12
230.433	106.12
230.667	117.12
230.901	120.12
231.136	113.12
231.37	117.12
231.604	127.12
231.838	113.12
232.072	121.12
232.306	123.12
232.541	119.12
232.775	125.12
233.009	129.12
233.243	125.12
233.477	129.12
233.711	127.12
233.945	134.12
234.179	120.12
234.413	129.12
234.647	123.12
234.881	135.12
235.115	141.12
235.349	129.12
235.583	119.12
235.817	114.12
236.051	134.12
236.285	130.12
236.519	122.12
236.753	124.12
236.987	141.12
237.221	136.12
237.455	137.12
237.689	138.12
237.922	130.12
238.156	132.12
238.39	126.12
238.624	136.12
238.858	138.12
239.091	151.12
239.325	138.12
239.559	133.12
239.793	135.12
240.027	126.12
240.26	137.12
240.494	142.12
240.728	149.12
240.961	155.12
241.195	146.12
241.429	164.12
241.662	153.12
241.896	149.12
242.13	144.12
242.363	145.12
242.597	144.12
242.83	151.12
243.064	142.12
243.298	162.12
243.531	152.12
243.765	153.12
243.998	152.12
244.232	163.12
244.465	156.12
244.699	157.12
244.932	164.12
245.166	171.12
245.399	160.12
245.633	184.12
245.866	171.12
246.099	172.12
246.333	180.12
246.566	159.12
246.8	157.12
247.033	180.12
247.266	164.12
247.5	170.12
247.733	169.12
247.966	179.12
248.2	173.12
248.433	179.12
248.666	185.12
248.899	195.12
249.133	179.12
249.366	180.12
249.599	205.12
249.832	197.12
250.066	200.12
250.299	184.12
250.532	189.12
250.765	178.12
250.998	183.12
251.231	202.12
251.465	197.12
251.698	188.12
251.931	193.12
252.164	204.12
252.397	212.12
252.63	203.12
252.863	204.12
253.096	200.12
253.329	193.12
253.562	194.12
253.795	196.12
254.028	211.12
254.261	194.12
254.494	201.12
254.727	204.12
254.96	215.12
255.193	226.12
255.426	204.12
255.659	208.12
255.892	201.12
256.124	222.12
256.357	221.12
256.59	208.12
256.823	220.12
257.056	226.12
257.289	233.12
257.521	222.12
257.754	221.12
257.987	230.12
258.22	218.12
258.452	219.12
258.685	221.12
258.918	227.12
259.151	243.12
259.383	214.12
259.616	228.12
259.849	249.12
260.081	231.12
260.314	239.12
260.547	233.12
260.779	234.12
261.012	244.12
261.244	235.12
261.477	237.12
261.71	233.12
261.942	231.12
262.175	258.12
262.407	245.12
262.64	245.12
262.872	241.12
263.105	245.12
263.337	235.12
263.57	253.12
263.802	265.12
264.035	246.12
264.267	261.12
264.499	264.12
264.732	266.12
264.964	239.12
265.197	274.12
265.429	243.12
265.661	267.12
265.894	250.12
266.126	245.12
266.358	265.12
266.591	266.12
266.823	276.12
267.055	251.12
267.287	265.12
267.52	266.12
267.752	273.12
267.984	245.12
268.216	263.12
268.448	276.12
268.681	263.12
268.913	282.12
269.145	265.12
269.377	260.12
269.609	281.12
269.841	273.12
270.073	279.12
270.306	281.12
270.538	285.12
270.77	283.12
271.002	269.12
271.234	298.12
271.466	296.12
271.698	301.12
271.93	301.12
272.162	298.12
272.394	308.12
272.626	284.12
272.858	265.12
273.09	292.12
273.322	297.12
273.553	298.12
273.785	302.12
274.017	292.12
274.249	308.12
274.481	300.12
274.713	316.12
274.945	287.12
275.176	312.12
275.408	292.12
275.64	287.12
275.872	287.12
276.104	300.12
276.335	294.12
276.567	319.12
276.799	307.12
277.031	324.12
277.262	314.12
277.494	304.12
277.726	323.12
277.957	331.12
278.189	318.12
278.421	318.12
278.652	309.12
278.884	318.12
279.115	344.12
279.347	328.12
279.579	310.12
279.81	344.12
280.042	335.12
280.273	322.12
280.505	335.12
280.736	340.12
280.968	337.12
281.199	338.12
281.431	348.12
281.662	341.12
281.894	339.12
282.125	352.12
282.356	354.12
282.588	338.12
282.819	344.12
283.051	335.12
283.282	347.12
283.513	335.12
283.745	338.12
283.976	372.12
284.207	345.12
284.439	348.12
284.67	370.12
284.901	337.12
285.132	364.12
285.364	373.12
285.595	365.12
285.826	369.12
286.057	345.12
286.288	358.12
286.52	385.12
286.751	374.12
286.982	381.12
287.213	379.12
287.444	366.12
287.675	369.12
287.906	373.12
288.138	365.12
288.369	391.12
288.6	387.12
288.831	386.12
289.062	366.12
289.293	366.12
289.524	394.12
289.755	367.12
289.986	362.12
290.217	376.12
290.448	377.12
290.679	381.12
290.91	376.12
291.141	382.12
291.371	386.12
291.602	382.12
291.833	379.12
292.064	377.12
292.295	384.12
292.526	379.12
292.757	379.12
292.987	403.12
293.218	373.12
293.449	397.12
293.68	387.12
293.91	376.12
294.141	381.12
294.372	404.12
294.603	395.12
294.833	381.12
295.064	395.12
295.295	399.12
295.525	402.12
295.756	412.12
295.987	406.12
296.217	400.12
296.448	391.12
296.679	389.12
296.909	387.12
297.14	422.12
297.37	403.12
297.601	421.12
297.831	422.12
298.062	440.12
298.292	410.12
298.523	429.12
298.753	428.12
298.984	405.12
299.214	419.12
299.445	423.12
299.675	411.12
299.905	418.12
300.136	424.12
300.366	417.12
300.597	441.12
300.827	455.12
301.057	447.12
301.288	430.12
301.518	443.12
301.748	441.12
301.979	461.12
302.209	433.12
302.439	440.12
302.669	458.12
302.9	429.12
303.13	445.12
303.36	426.12
303.59	429.12
303.82	435.12
304.051	431.12
304.281	457.12
304.511	424.12
304.741	433.12
304.971	417.12
305.201	472.12
305.431	437.12
305.661	447.12
305.891	442.12
306.121	455.12
306.352	431.12
306.582	449.12
306.812	426.12
307.042	433.12
307.272	440.12
307.502	424.12
307.731	434.12
307.961	421.12
308.191	453.12
308.421	438.12
308.651	420.12
308.881	436.12
309.111	437.12
309.341	416.12
309.571	443.12
309.8	442.12
310.03	439.12
310.26	455.12
310.49	461.12
310.72	439.12
310.949	428.12
311.179	447.12
311.409	447.12
311.639	458.12
311.868	454.12
312.098	465.12
312.328	456.12
312.557	463.12
312.787	458.12
313.017	449.12
313.246	454.12
313.476	468.12
313.706	489.12
313.935	448.12
314.165	470.12
314.394	458.12
314.624	493.12
314.853	475.12
315.083	482.12
315.312	463.12
315.542	476.12
315.771	484.12
316.001	475.12
316.23	455.12
316.46	465.12
316.689	470.12
316.919	452.12
317.148	492.12
317.377	478.12
317.607	461.12
317.836	453.12
318.065	462.12
318.295	460.12
318.524	476.12
318.753	470.12
318.983	463.12
319.212	475.12
319.441	462.12
319.67	462.12
319.9	454.12
320.129	466.12
320.358	475.12
320.587	458.12
320.816	462.12
321.046	468.12
321.275	466.12
321.504	463.12
321.733	478.12
321.962	447.12
322.191	459.12
322.42	457.12
322.649	457.12
322.878	473.12
323.108	477.12
323.337	466.12
323.566	475.12
323.795	482.12
324.024	486.12
324.253	464.12
324.482	491.12
324.71	489.12
324.939	474.12
325.168	488.12
325.397	485.12
325.626	498.12
325.855	483.12
326.084	517.12
326.313	501.12
326.542	519.12
326.77	517.12
326.999	507.12
327.228	499.12
327.457	489.12
327.686	497.12
327.914	523.12
328.143	516.12
328.372	512.12
328.6	503.12
328.829	509.12
329.058	521.12
329.287	501.12
329.515	495.12
329.744	503.12
329.972	522.12
330.201	517.12
330.43	528.12
330.658	525.12
330.887	524.12
331.115	551.12
331.344	541.12
331.572	542.12
331.801	543.12
332.03	566.12
332.258	574.12
332.486	562.12
332.715	614.12
332.943	621.12
333.172	635.12
333.4	637.12
333.629	658.12
333.857	666.12
334.085	668.12
334.314	660.12
334.542	637.12
334.771	633.12
334.999	619.12
335.227	641.12
335.455	615.12
335.684	630.12
335.912	620.12
336.14	619.12
336.369	620.12
336.597	618.12
336.825	606.12
337.053	598.12
337.281	603.12
337.51	597.12
337.738	577.12
337.966	565.12
338.194	582.12
338.422	576.12
338.65	551.12
338.878	565.12
339.106	563.12
339.334	551.12
339.562	555.12
339.79	536.12
340.018	524.12
340.246	526.12
340.474	541.12
340.702	549.12
340.93	531.12
341.158	508.12
341.386	541.12
341.614	535.12
341.842	537.12
342.07	526.12
342.298	529.12
342.526	528.12
342.754	539.12
342.981	523.12
343.209	535.12
343.437	556.12
343.665	587.12
343.893	632.12
344.12	625.12
344.348	635.12
344.576	588.12
344.804	569.12
345.031	548.12
345.259	570.12
345.487	531.12
345.714	532.12
345.942	537.12
346.17	542.12
346.397	533.12
346.625	551.12
346.853	517.12
347.08	513.12
347.308	512.12
347.535	527.12
347.763	545.12
347.99	525.12
348.218	527.12
348.445	518.12
348.673	531.12
348.9	517.12
349.128	516.12
349.355	509.12
349.583	536.12
349.81	478.12
350.037	473.12
350.265	510.12
350.492	484.12
350.72	485.12
350.947	508.12
351.174	502.12
351.402	514.12
351.629	523.12
351.856	498.12
352.083	490.12
352.311	499.12
352.538	501.12
352.765	516.12
352.992	509.12
353.22	478.12
353.447	483.12
353.674	489.12
353.901	489.12
354.128	469.12
354.355	489.12
354.583	501.12
354.81	489.12
355.037	511.12
355.264	479.12
355.491	477.12
355.718	492.12
355.945	489.12
356.172	472.12
356.399	489.12
356.626	477.12
356.853	493.12
357.08	481.12
357.307	489.12
357.534	496.12
357.761	474.12
357.988	489.12
358.215	479.12
358.441	485.12
358.668	487.12
358.895	506.12
359.122	474.12
359.349	488.12
359.576	482.12
359.802	452.12
360.029	495.12
360.256	500.12
360.483	483.12
360.709	481.12
360.936	485.12
361.163	487.12
361.39	496.12
361.616	467.12
361.843	493.12
362.07	490.12
362.296	493.12
362.523	499.12
362.749	475.12
362.976	463.12
363.203	502.12
363.429	471.12
363.656	486.12
363.882	469.12
364.109	481.12
364.335	481.12
364.562	482.12
364.788	465.12
365.015	463.12
365.241	463.12
365.468	484.12
365.694	489.12
365.92	508.12
366.147	473.12
366.373	477.12
366.599	495.12
366.826	458.12
367.052	468.12
367.278	467.12
367.505	494.12
367.731	487.12
367.957	495.12
368.184	514.12
368.41	493.12
368.636	481.12
368.862	484.12
369.089	487.12
369.315	472.12
369.541	509.12
369.767	513.12
369.993	513.12
370.219	493.12
370.445	495.12
370.672	512.12
370.898	512.12
371.124	531.12
371.35	491.12
371.576	502.12
371.802	515.12
372.028	503.12
372.254	522.12
372.48	545.12
372.706	524.12
372.932	505.12
373.158	542.12
373.384	515.12
373.61	505.12
373.835	503.12
374.061	507.12
374.287	552.12
374.513	529.12
374.739	556.12
374.965	548.12
375.191	595.12
375.416	556.12
375.642	536.12
375.868	538.12
376.094	524.12
376.319	531.12
376.545	519.12
376.771	536.12
376.997	528.12
377.222	519.12
377.448	517.12
377.674	502.12
377.899	514.12
378.125	516.12
378.35	506.12
378.576	499.12
378.802	498.12
379.027	486.12
379.253	500.12
379.478	508.12
379.704	510.12
379.929	515.12
380.155	517.12
380.38	501.12
380.606	504.12
380.831	513.12
381.057	514.12
381.282	476.12
381.507	491.12
381.733	510.12
381.958	489.12
382.184	507.12
382.409	524.12
382.634	524.12
382.86	542.12
383.085	550.12
383.31	538.12
383.535	539.12
383.761	535.12
383.986	554.12
384.211	553.12
384.436	569.12
384.662	610.12
384.887	603.12
385.112	577.12
385.337	611.12
385.562	642.12
385.787	604.12
386.013	620.12
386.238	587.12
386.463	607.12
386.688	597.12
386.913	612.12
387.138	605.12
387.363	598.12
387.588	583.12
387.813	591.12
388.038	600.12
388.263	622.12
388.488	592.12
388.713	609.12
388.938	583.12
389.163	588.12
389.387	583.12
389.612	577.12
389.837	584.12
390.062	568.12
390.287	598.12
390.512	606.12
390.736	596.12
390.961	616.12
391.186	616.12
391.411	654.12
391.636	669.12
391.86	647.12
392.085	667.12
392.31	664.12
392.534	641.12
392.759	643.12
392.984	645.12
393.208	635.12
393.433	635.12
393.658	606.12
393.882	626.12
394.107	635.12
394.331	642.12
394.556	612.12
394.78	637.12
395.005	652.12
395.229	641.12
395.454	662.12
395.678	654.12
395.903	693.12
396.127	698.12
396.352	638.12
396.576	632.12
396.801	638.12
397.025	631.12
397.249	662.12
397.474	687.12
397.698	665.12
397.922	688.12
398.147	654.12
398.371	698.12
398.595	701.12
398.82	738.12
399.044	771.12
399.268	842.12
399.492	959.12
399.717	1045.12
399.941	1046.12
400.165	973.12
400.389	859.12
400.613	871.12
400.837	759.12
401.062	761.12
401.286	771.12
401.51	740.12
401.734	731.12
401.958	745.12
402.182	760.12
402.406	784.12
402.63	783.12
402.854	783.12
403.078	799.12
403.302	818.12
403.526	846.12
403.75	819.12
403.974	846.12
404.198	814.12
404.422	831.12
404.645	843.12
404.869	831.12
405.093	825.12
405.317	791.12
405.541	775.12
405.765	815.12
405.988	797.12
406.212	825.12
406.436	806.12
406.66	846.12
406.883	863.12
407.107	905.12
407.331	931.12
407.555	964.12
407.778	951.12
408.002	924.12
408.226	907.12
408.449	897.12
408.673	840.12
408.896	901.12
409.12	851.12
409.344	837.12
409.567	853.12
409.791	829.12
410.014	831.12
410.238	844.12
410.461	862.12
410.685	819.12
410.908	818.12
411.132	768.12
411.355	790.12
411.578	757.12
411.802	786.12
412.025	818.12
412.249	807.12
412.472	781.12
412.695	796.12
412.919	778.12
413.142	758.12
413.365	765.12
413.589	760.12
413.812	764.12
414.035	773.12
414.258	737.12
414.482	772.12
414.705	779.12
414.928	766.12
415.151	762.12
415.374	757.12
415.597	740.12
415.821	761.12
416.044	739.12
416.267	739.12
416.49	723.12
416.713	727.12
416.936	734.12
417.159	739.12
417.382	742.12
417.605	741.12
417.828	744.12
418.051	755.12
418.274	757.12
418.497	765.12
418.72	769.12
418.943	766.12
419.166	803.12
419.389	846.12
419.611	821.12
419.834	798.12
420.057	799.12
420.28	759.12
420.503	749.12
420.726	748.12
420.948	725.12
421.171	763.12
421.394	757.12
421.617	746.12
421.839	753.12
422.062	772.12
422.285	773.12
422.507	783.12
422.73	758.12
422.953	759.12
423.175	773.12
423.398	802.12
423.621	781.12
423.843	806.12
424.066	803.12
424.288	797.12
424.511	783.12
424.733	758.12
424.956	760.12
425.178	778.12
425.401	761.12
425.623	770.12
425.846	735.12
426.068	741.12
426.291	707.12
426.513	736.12
426.735	707.12
426.958	727.12
427.18	715.12
427.402	695.12
427.625	700.12
427.847	719.12
428.069	703.12
428.292	717.12
428.514	701.12
428.736	698.12
428.958	719.12
429.181	701.12
429.403	695.12
429.625	660.12
429.847	703.12
430.069	697.12
430.292	692.12
430.514	684.12
430.736	670.12
430.958	675.12
431.18	681.12
431.402	675.12
431.624	686.12
431.846	697.12
432.068	676.12
432.29	716.12
432.512	704.12
432.734	737.12
432.956	698.12
433.178	714.12
433.4	690.12
433.622	696.12
433.844	702.12
434.066	705.12
434.287	709.12
434.509	726.12
434.731	773.12
434.953	769.12
435.175	755.12
435.397	766.12
435.618	730.12
435.84	715.12
436.062	734.12
436.284	717.12
436.505	717.12
436.727	682.12
436.949	710.12
437.17	686.12
437.392	677.12
437.614	702.12
437.835	661.12
438.057	667.12
438.278	655.12
438.5	680.12
438.721	659.12
438.943	694.12
439.165	677.12
439.386	667.12
439.608	718.12
439.829	723.12
440.05	710.12
440.272	748.12
440.493	725.12
440.715	727.12
440.936	737.12
441.158	721.12
441.379	740.12
441.6	819.12
441.822	788.12
442.043	778.12
442.264	769.12
442.486	777.12
442.707	778.12
442.928	782.12
443.149	769.12
443.371	777.12
443.592	802.12
443.813	772.12
444.034	789.12
444.255	809.12
444.476	844.12
444.698	864.12
444.919	904.12
445.14	962.12
445.361	881.12
445.582	827.12
445.803	765.12
446.024	771.12
446.245	769.12
446.466	756.12
446.687	746.12
446.908	725.12
447.129	728.12
447.35	710.12
447.571	711.12
447.792	680.12
448.013	667.12
448.234	666.12
448.455	664.12
448.675	666.12
448.896	653.12
449.117	653.12
449.338	669.12
449.559	676.12
449.779	637.12
450	633.12
450.221	671.12
450.442	670.12
450.662	668.12
450.883	639.12
451.104	687.12
451.324	674.12
451.545	673.12
451.766	658.12
451.986	661.12
452.207	647.12
452.428	653.12
452.648	627.12
452.869	641.12
453.089	637.12
453.31	644.12
453.53	662.12
453.751	650.12
453.971	635.12
454.192	641.12
454.412	641.12
454.633	607.12
454.853	639.12
455.073	632.12
455.294	660.12
455.514	627.12
455.734	627.12
455.955	577.12
456.175	625.12
456.395	611.12
456.616	590.12
456.836	628.12
457.056	603.12
457.276	634.12
457.497	622.12
457.717	639.12
457.937	639.12
458.157	622.12
458.377	638.12
458.598	645.12
458.818	647.12
459.038	669.12
459.258	678.12
459.478	683.12
459.698	711.12
459.918	739.12
460.138	775.12
460.358	807.12
460.578	806.12
460.798	807.12
461.018	833.12
461.238	836.12
461.458	817.12
461.678	814.12
461.898	834.12
462.118	858.12
462.338	872.12
462.558	891.12
462.777	943.12
462.997	999.12
463.217	1042.12
463.437	1083.12
463.657	991.12
463.876	980.12
464.096	938.12
464.316	918.12
464.536	972.12
464.755	909.12
464.975	874.12
465.195	847.12
465.414	839.12
465.634	771.12
465.854	729.12
466.073	700.12
466.293	715.12
466.512	708.12
466.732	673.12
466.951	692.12
467.171	705.12
467.391	702.12
467.61	709.12
467.829	709.12
468.049	671.12
468.268	674.12
468.488	691.12
468.707	676.12
468.927	671.12
469.146	679.12
469.365	686.12
469.585	696.12
469.804	689.12
470.023	703.12
470.243	711.12
470.462	717.12
470.681	705.12
470.901	725.12
471.12	711.12
471.339	712.12
471.558	699.12
471.777	700.12
471.997	673.12
472.216	670.12
472.435	645.12
472.654	647.12
472.873	644.12
473.092	658.12
473.311	647.12
473.53	661.12
473.749	645.12
473.968	663.12
474.187	641.12
474.406	647.12
474.625	672.12
474.844	678.12
475.063	661.12
475.282	649.12
475.501	660.12
475.72	661.12
475.939	656.12
476.158	694.12
476.377	673.12
476.596	683.12
476.814	677.12
477.033	683.12
477.252	695.12
477.471	720.12
477.69	707.12
477.908	728.12
478.127	760.12
478.346	785.12
478.564	789.12
478.783	801.12
479.002	804.12
479.22	830.12
479.439	813.12
479.658	808.12
479.876	808.12
480.095	803.12
480.313	859.12
480.532	858.12
480.751	854.12
480.969	814.12
481.188	795.12
481.406	762.12
481.624	755.12
481.843	727.12
482.061	729.12
482.28	749.12
482.498	726.12
482.717	735.12
482.935	731.12
483.153	761.12
483.372	751.12
483.59	776.12
483.808	772.12
484.027	770.12
484.245	780.12
484.463	765.12
484.681	797.12
484.9	793.12
485.118	787.12
485.336	773.12
485.554	784.12
485.772	788.12
485.99	764.12
486.209	790.12
486.427	797.12
486.645	784.12
486.863	794.12
487.081	809.12
487.299	791.12
487.517	753.12
487.735	761.12
487.953	774.12
488.171	821.12
488.389	761.12
488.607	763.12
488.825	767.12
489.043	771.12
489.261	770.12
489.479	808.12
489.696	787.12
489.914	769.12
490.132	780.12
490.35	761.12
490.568	812.12
490.786	803.12
491.003	787.12
491.221	801.12
491.439	806.12
491.657	812.12
491.874	820.12
492.092	826.12
492.31	841.12
492.527	822.12
492.745	838.12
492.963	827.12
493.18	834.12
493.398	832.12
493.615	813.12
493.833	813.12
494.05	856.12
494.268	838.12
494.485	841.12
494.703	837.12
494.92	820.12
495.138	831.12
495.355	844.12
495.573	842.12
495.79	875.12
496.008	860.12
496.225	869.12
496.442	873.12
496.66	904.12
496.877	884.12
497.094	899.12
497.312	906.12
497.529	903.12
497.746	949.12
497.963	961.12
498.181	1002.12
498.398	1032.12
498.615	1114.12
498.832	1199.12
499.049	1261.12
499.267	1366.12
499.484	1450.12
499.701	1587.12
499.918	1708.12
500.135	1948.12
500.352	2164.12
500.569	2206.12
500.786	2206.12
501.003	2064.12
501.22	1864.12
501.437	1660.12
