Data from NiCl2@0.0625M.TitratingCurve.Agarose3%dH2O.NegLispCup.LampEnergy10.LIBS07252019_HRD10591_18-33-40-576.txt Node
Date: Thu Jul 25 18:33:40 EDT 2019
User: cochatt
Spectrometer: HR+D1059
Trigger mode: 1
Integration Time (sec): 1.000000E-1
Scans to average: 1
Electric dark correction enabled: true
Nonlinearity correction enabled: false
Boxcar width: 0
XAxis mode: Wavelengths
Number of Pixels in Spectrum: 2048
>>>>>Begin Spectral Data<<<<<
223.165	-31.31
223.4	-31.31
223.635	-31.31
223.869	-11.31
224.104	-4.31
224.338	-7.31
224.573	-17.31
224.808	-12.31
225.042	-13.31
225.277	-5.31
225.511	-4.31
225.746	-0.31
225.98	0.69
226.215	14.69
226.449	8.69
226.683	17.69
226.918	31.69
227.152	33.69
227.387	14.69
227.621	28.69
227.856	45.69
228.09	37.69
228.324	48.69
228.559	42.69
228.793	69.69
229.027	153.69
229.262	163.69
229.496	146.69
229.73	165.69
229.964	182.69
230.199	196.69
230.433	211.69
230.667	191.69
230.901	200.69
231.136	199.69
231.37	186.69
231.604	203.69
231.838	210.69
232.072	209.69
232.306	212.69
232.541	216.69
232.775	211.69
233.009	221.69
233.243	223.69
233.477	216.69
233.711	219.69
233.945	223.69
234.179	227.69
234.413	244.69
234.647	227.69
234.881	242.69
235.115	243.69
235.349	255.69
235.583	251.69
235.817	264.69
236.051	245.69
236.285	262.69
236.519	254.69
236.753	240.69
236.987	260.69
237.221	245.69
237.455	260.69
237.689	254.69
237.922	269.69
238.156	273.69
238.39	275.69
238.624	281.69
238.858	266.69
239.091	277.69
239.325	270.69
239.559	289.69
239.793	284.69
240.027	327.69
240.26	285.69
240.494	296.69
240.728	310.69
240.961	305.69
241.195	323.69
241.429	315.69
241.662	310.69
241.896	326.69
242.13	323.69
242.363	325.69
242.597	356.69
242.83	330.69
243.064	344.69
243.298	339.69
243.531	343.69
243.765	364.69
243.998	350.69
244.232	368.69
244.465	348.69
244.699	367.69
244.932	371.69
245.166	370.69
245.399	361.69
245.633	379.69
245.866	367.69
246.099	384.69
246.333	373.69
246.566	399.69
246.8	391.69
247.033	394.69
247.266	387.69
247.5	400.69
247.733	383.69
247.966	418.69
248.2	445.69
248.433	429.69
248.666	424.69
248.899	443.69
249.133	418.69
249.366	414.69
249.599	439.69
249.832	450.69
250.066	438.69
250.299	449.69
250.532	444.69
250.765	430.69
250.998	468.69
251.231	497.69
251.465	481.69
251.698	487.69
251.931	487.69
252.164	480.69
252.397	484.69
252.63	462.69
252.863	478.69
253.096	504.69
253.329	487.69
253.562	469.69
253.795	503.69
254.028	504.69
254.261	527.69
254.494	506.69
254.727	495.69
254.96	496.69
255.193	482.69
255.426	502.69
255.659	521.69
255.892	549.69
256.124	533.69
256.357	524.69
256.59	512.69
256.823	537.69
257.056	542.69
257.289	541.69
257.521	550.69
257.754	538.69
257.987	552.69
258.22	575.69
258.452	573.69
258.685	571.69
258.918	567.69
259.151	563.69
259.383	562.69
259.616	575.69
259.849	576.69
260.081	570.69
260.314	611.69
260.547	586.69
260.779	586.69
261.012	621.69
261.244	607.69
261.477	595.69
261.71	592.69
261.942	583.69
262.175	599.69
262.407	618.69
262.64	607.69
262.872	589.69
263.105	610.69
263.337	612.69
263.57	641.69
263.802	621.69
264.035	630.69
264.267	626.69
264.499	617.69
264.732	630.69
264.964	643.69
265.197	646.69
265.429	655.69
265.661	651.69
265.894	655.69
266.126	675.69
266.358	647.69
266.591	689.69
266.823	681.69
267.055	675.69
267.287	717.69
267.52	694.69
267.752	658.69
267.984	694.69
268.216	677.69
268.448	683.69
268.681	689.69
268.913	682.69
269.145	669.69
269.377	687.69
269.609	683.69
269.841	710.69
270.073	718.69
270.306	723.69
270.538	706.69
270.77	714.69
271.002	714.69
271.234	721.69
271.466	721.69
271.698	719.69
271.93	721.69
272.162	737.69
272.394	752.69
272.626	746.69
272.858	747.69
273.09	779.69
273.322	765.69
273.553	764.69
273.785	764.69
274.017	767.69
274.249	781.69
274.481	805.69
274.713	771.69
274.945	782.69
275.176	785.69
275.408	787.69
275.64	802.69
275.872	807.69
276.104	804.69
276.335	798.69
276.567	797.69
276.799	810.69
277.031	850.69
277.262	805.69
277.494	816.69
277.726	817.69
277.957	833.69
278.189	842.69
278.421	835.69
278.652	821.69
278.884	840.69
279.115	850.69
279.347	873.69
279.579	859.69
279.81	873.69
280.042	875.69
280.273	891.69
280.505	866.69
280.736	879.69
280.968	891.69
281.199	883.69
281.431	861.69
281.662	898.69
281.894	885.69
282.125	872.69
282.356	907.69
282.588	884.69
282.819	896.69
283.051	908.69
283.282	897.69
283.513	931.69
283.745	944.69
283.976	929.69
284.207	917.69
284.439	918.69
284.67	938.69
284.901	950.69
285.132	967.69
285.364	945.69
285.595	953.69
285.826	942.69
286.057	980.69
286.288	953.69
286.52	971.69
286.751	974.69
286.982	1000.69
287.213	970.69
287.444	960.69
287.675	973.69
287.906	991.69
288.138	970.69
288.369	982.69
288.6	975.69
288.831	1017.69
289.062	997.69
289.293	992.69
289.524	1000.69
289.755	974.69
289.986	993.69
290.217	972.69
290.448	980.69
290.679	1015.69
290.91	1003.69
291.141	1021.69
291.371	1029.69
291.602	995.69
291.833	1005.69
292.064	993.69
292.295	1001.69
292.526	1026.69
292.757	981.69
292.987	983.69
293.218	995.69
293.449	1025.69
293.68	1007.69
293.91	1032.69
294.141	1011.69
294.372	1000.69
294.603	1001.69
294.833	1020.69
295.064	1053.69
295.295	1029.69
295.525	1033.69
295.756	1029.69
295.987	1038.69
296.217	1051.69
296.448	1039.69
296.679	1043.69
296.909	1057.69
297.14	1056.69
297.37	1059.69
297.601	1080.69
297.831	1097.69
298.062	1105.69
298.292	1076.69
298.523	1127.69
298.753	1120.69
298.984	1114.69
299.214	1106.69
299.445	1071.69
299.675	1088.69
299.905	1113.69
300.136	1103.69
300.366	1088.69
300.597	1114.69
300.827	1144.69
301.057	1151.69
301.288	1170.69
301.518	1136.69
301.748	1145.69
301.979	1168.69
302.209	1169.69
302.439	1188.69
302.669	1163.69
302.9	1149.69
303.13	1137.69
303.36	1149.69
303.59	1169.69
303.82	1159.69
304.051	1167.69
304.281	1161.69
304.511	1144.69
304.741	1169.69
304.971	1177.69
305.201	1154.69
305.431	1173.69
305.661	1186.69
305.891	1171.69
306.121	1113.69
306.352	1154.69
306.582	1157.69
306.812	1113.69
307.042	1151.69
307.272	1172.69
307.502	1126.69
307.731	1163.69
307.961	1170.69
308.191	1130.69
308.421	1110.69
308.651	1137.69
308.881	1145.69
309.111	1112.69
309.341	1150.69
309.571	1178.69
309.8	1153.69
310.03	1159.69
310.26	1149.69
310.49	1157.69
310.72	1166.69
310.949	1191.69
311.179	1165.69
311.409	1144.69
311.639	1173.69
311.868	1167.69
312.098	1163.69
312.328	1197.69
312.557	1220.69
312.787	1218.69
313.017	1220.69
313.246	1252.69
313.476	1227.69
313.706	1211.69
313.935	1229.69
314.165	1222.69
314.394	1258.69
314.624	1267.69
314.853	1186.69
315.083	1222.69
315.312	1268.69
315.542	1261.69
315.771	1230.69
316.001	1203.69
316.23	1211.69
316.46	1213.69
316.689	1199.69
316.919	1209.69
317.148	1239.69
317.377	1222.69
317.607	1221.69
317.836	1210.69
318.065	1205.69
318.295	1264.69
318.524	1245.69
318.753	1214.69
318.983	1210.69
319.212	1204.69
319.441	1201.69
319.67	1233.69
319.9	1208.69
320.129	1233.69
320.358	1220.69
320.587	1207.69
320.816	1235.69
321.046	1213.69
321.275	1205.69
321.504	1194.69
321.733	1207.69
321.962	1237.69
322.191	1251.69
322.42	1233.69
322.649	1226.69
322.878	1248.69
323.108	1182.69
323.337	1223.69
323.566	1287.69
323.795	1261.69
324.024	1277.69
324.253	1309.69
324.482	1284.69
324.71	1289.69
324.939	1289.69
325.168	1310.69
325.397	1315.69
325.626	1315.69
325.855	1310.69
326.084	1305.69
326.313	1356.69
326.542	1314.69
326.77	1355.69
326.999	1319.69
327.228	1334.69
327.457	1329.69
327.686	1335.69
327.914	1308.69
328.143	1342.69
328.372	1347.69
328.6	1287.69
328.829	1341.69
329.058	1374.69
329.287	1369.69
329.515	1374.69
329.744	1387.69
329.972	1370.69
330.201	1366.69
330.43	1379.69
330.658	1386.69
330.887	1393.69
331.115	1407.69
331.344	1423.69
331.572	1457.69
331.801	1473.69
332.03	1450.69
332.258	1471.69
332.486	1519.69
332.715	1567.69
332.943	1608.69
333.172	1645.69
333.4	1676.69
333.629	1725.69
333.857	1773.69
334.085	1760.69
334.314	1722.69
334.542	1678.69
334.771	1749.69
334.999	1707.69
335.227	1681.69
335.455	1701.69
335.684	1657.69
335.912	1673.69
336.14	1650.69
336.369	1610.69
336.597	1649.69
336.825	1619.69
337.053	1591.69
337.281	1590.69
337.51	1562.69
337.738	1602.69
337.966	1511.69
338.194	1518.69
338.422	1457.69
338.65	1491.69
338.878	1462.69
339.106	1467.69
339.334	1514.69
339.562	1464.69
339.79	1445.69
340.018	1413.69
340.246	1413.69
340.474	1384.69
340.702	1407.69
340.93	1409.69
341.158	1413.69
341.386	1413.69
341.614	1399.69
341.842	1435.69
342.07	1363.69
342.298	1412.69
342.526	1391.69
342.754	1394.69
342.981	1429.69
343.209	1453.69
343.437	1490.69
343.665	1562.69
343.893	1606.69
344.12	1664.69
344.348	1615.69
344.576	1577.69
344.804	1569.69
345.031	1459.69
345.259	1418.69
345.487	1419.69
345.714	1417.69
345.942	1402.69
346.17	1397.69
346.397	1385.69
346.625	1405.69
346.853	1349.69
347.08	1357.69
347.308	1323.69
347.535	1355.69
347.763	1346.69
347.99	1368.69
348.218	1379.69
348.445	1321.69
348.673	1342.69
348.9	1343.69
349.128	1376.69
349.355	1299.69
349.583	1341.69
349.81	1321.69
350.037	1338.69
350.265	1319.69
350.492	1290.69
350.72	1297.69
350.947	1321.69
351.174	1299.69
351.402	1309.69
351.629	1319.69
351.856	1304.69
352.083	1293.69
352.311	1276.69
352.538	1306.69
352.765	1322.69
352.992	1283.69
353.22	1295.69
353.447	1299.69
353.674	1279.69
353.901	1253.69
354.128	1267.69
354.355	1281.69
354.583	1304.69
354.81	1296.69
355.037	1294.69
355.264	1280.69
355.491	1304.69
355.718	1294.69
355.945	1308.69
356.172	1320.69
356.399	1280.69
356.626	1348.69
356.853	1295.69
357.08	1303.69
357.307	1316.69
357.534	1314.69
357.761	1323.69
357.988	1346.69
358.215	1313.69
358.441	1330.69
358.668	1323.69
358.895	1339.69
359.122	1290.69
359.349	1295.69
359.576	1301.69
359.802	1321.69
360.029	1295.69
360.256	1266.69
360.483	1291.69
360.709	1301.69
360.936	1316.69
361.163	1313.69
361.39	1265.69
361.616	1345.69
361.843	1303.69
362.07	1321.69
362.296	1325.69
362.523	1295.69
362.749	1336.69
362.976	1293.69
363.203	1299.69
363.429	1282.69
363.656	1329.69
363.882	1312.69
364.109	1309.69
364.335	1317.69
364.562	1291.69
364.788	1298.69
365.015	1337.69
365.241	1299.69
365.468	1293.69
365.694	1340.69
365.92	1304.69
366.147	1313.69
366.373	1317.69
366.599	1307.69
366.826	1324.69
367.052	1333.69
367.278	1316.69
367.505	1327.69
367.731	1325.69
367.957	1325.69
368.184	1323.69
368.41	1346.69
368.636	1335.69
368.862	1310.69
369.089	1347.69
369.315	1354.69
369.541	1324.69
369.767	1370.69
369.993	1401.69
370.219	1368.69
370.445	1377.69
370.672	1382.69
370.898	1377.69
371.124	1373.69
371.35	1444.69
371.576	1441.69
371.802	1415.69
372.028	1404.69
372.254	1417.69
372.48	1444.69
372.706	1496.69
372.932	1470.69
373.158	1466.69
373.384	1459.69
373.61	1444.69
373.835	1454.69
374.061	1442.69
374.287	1467.69
374.513	1434.69
374.739	1484.69
374.965	1545.69
375.191	1585.69
375.416	1547.69
375.642	1465.69
375.868	1490.69
376.094	1459.69
376.319	1439.69
376.545	1441.69
376.771	1452.69
376.997	1449.69
377.222	1415.69
377.448	1406.69
377.674	1423.69
377.899	1428.69
378.125	1395.69
378.35	1403.69
378.576	1397.69
378.802	1400.69
379.027	1427.69
379.253	1411.69
379.478	1405.69
379.704	1413.69
379.929	1368.69
380.155	1379.69
380.38	1414.69
380.606	1401.69
380.831	1414.69
381.057	1400.69
381.282	1412.69
381.507	1364.69
381.733	1456.69
381.958	1465.69
382.184	1422.69
382.409	1462.69
382.634	1502.69
382.86	1520.69
383.085	1515.69
383.31	1534.69
383.535	1581.69
383.761	1567.69
383.986	1554.69
384.211	1608.69
384.436	1633.69
384.662	1657.69
384.887	1675.69
385.112	1639.69
385.337	1666.69
385.562	1705.69
385.787	1677.69
386.013	1700.69
386.238	1700.69
386.463	1716.69
386.688	1746.69
386.913	1689.69
387.138	1684.69
387.363	1675.69
387.588	1672.69
387.813	1696.69
388.038	1694.69
388.263	1725.69
388.488	1714.69
388.713	1732.69
388.938	1707.69
389.163	1694.69
389.387	1699.69
389.612	1635.69
389.837	1662.69
390.062	1643.69
390.287	1663.69
390.512	1685.69
390.736	1695.69
390.961	1775.69
391.186	1739.69
391.411	1802.69
391.636	1806.69
391.86	1870.69
392.085	1923.69
392.31	1875.69
392.534	1872.69
392.759	1863.69
392.984	1825.69
393.208	1826.69
393.433	1888.69
393.658	1928.69
393.882	1821.69
394.107	1785.69
394.331	1803.69
394.556	1812.69
394.78	1806.69
395.005	1811.69
395.229	1860.69
395.454	1888.69
395.678	1885.69
395.903	1859.69
396.127	1890.69
396.352	1844.69
396.576	1822.69
396.801	1822.69
397.025	1887.69
397.249	1895.69
397.474	1952.69
397.698	1946.69
397.922	1919.69
398.147	1928.69
398.371	1975.69
398.595	2029.69
398.82	2071.69
399.044	2246.69
399.268	2389.69
399.492	2694.69
399.717	2933.69
399.941	2951.69
400.165	2717.69
400.389	2544.69
400.613	2386.69
400.837	2264.69
401.062	2145.69
401.286	2116.69
401.51	2116.69
401.734	2104.69
401.958	2121.69
402.182	2116.69
402.406	2161.69
402.63	2143.69
402.854	2169.69
403.078	2230.69
403.302	2270.69
403.526	2291.69
403.75	2326.69
403.974	2312.69
404.198	2311.69
404.422	2342.69
404.645	2320.69
404.869	2297.69
405.093	2293.69
405.317	2302.69
405.541	2296.69
405.765	2255.69
405.988	2257.69
406.212	2317.69
406.436	2306.69
406.66	2365.69
406.883	2425.69
407.107	2485.69
407.331	2606.69
407.555	2663.69
407.778	2700.69
408.002	2619.69
408.226	2504.69
408.449	2522.69
408.673	2424.69
408.896	2429.69
409.12	2342.69
409.344	2385.69
409.567	2330.69
409.791	2321.69
410.014	2310.69
410.238	2315.69
410.461	2323.69
410.685	2288.69
410.908	2249.69
411.132	2225.69
411.355	2214.69
411.578	2174.69
411.802	2188.69
412.025	2218.69
412.249	2197.69
412.472	2210.69
412.695	2128.69
412.919	2149.69
413.142	2143.69
413.365	2118.69
413.589	2113.69
413.812	2122.69
414.035	2103.69
414.258	2105.69
414.482	2109.69
414.705	2153.69
414.928	2119.69
415.151	2140.69
415.374	2082.69
415.597	2121.69
415.821	2051.69
416.044	2025.69
416.267	2009.69
416.49	2033.69
416.713	2031.69
416.936	2074.69
417.159	2027.69
417.382	1962.69
417.605	1999.69
417.828	2018.69
418.051	2054.69
418.274	2051.69
418.497	2032.69
418.72	2078.69
418.943	2069.69
419.166	2186.69
419.389	2382.69
419.611	2260.69
419.834	2222.69
420.057	2158.69
420.28	2058.69
420.503	2011.69
420.726	2010.69
420.948	2039.69
421.171	2038.69
421.394	2021.69
421.617	1985.69
421.839	2007.69
422.062	2074.69
422.285	2001.69
422.507	2061.69
422.73	2054.69
422.953	2043.69
423.175	2064.69
423.398	2099.69
423.621	2081.69
423.843	2135.69
424.066	2128.69
424.288	2107.69
424.511	2111.69
424.733	2061.69
424.956	2038.69
425.178	2051.69
425.401	2015.69
425.623	2033.69
425.846	1997.69
426.068	1972.69
426.291	1952.69
426.513	1944.69
426.735	1948.69
426.958	1984.69
427.18	1912.69
427.402	1909.69
427.625	1904.69
427.847	1885.69
428.069	1855.69
428.292	1891.69
428.514	1874.69
428.736	1843.69
428.958	1850.69
429.181	1829.69
429.403	1819.69
429.625	1779.69
429.847	1793.69
430.069	1799.69
430.292	1827.69
430.514	1810.69
430.736	1834.69
430.958	1865.69
431.18	1809.69
431.402	1834.69
431.624	1856.69
431.846	1878.69
432.068	1846.69
432.29	1893.69
432.512	1834.69
432.734	1856.69
432.956	1848.69
433.178	1875.69
433.4	1876.69
433.622	1886.69
433.844	1927.69
434.066	1913.69
434.287	1957.69
434.509	1967.69
434.731	2041.69
434.953	2045.69
435.175	2017.69
435.397	2041.69
435.618	1953.69
435.84	1925.69
436.062	1903.69
436.284	1895.69
436.505	1861.69
436.727	1870.69
436.949	1874.69
437.17	1860.69
437.392	1839.69
437.614	1806.69
437.835	1748.69
438.057	1736.69
438.278	1758.69
438.5	1785.69
438.721	1693.69
438.943	1760.69
439.165	1779.69
439.386	1778.69
439.608	1799.69
439.829	1795.69
440.05	1807.69
440.272	1830.69
440.493	1810.69
440.715	1892.69
440.936	1877.69
441.158	1875.69
441.379	1942.69
441.6	2003.69
441.822	2017.69
442.043	1994.69
442.264	1988.69
442.486	1935.69
442.707	1992.69
442.928	1939.69
443.149	1958.69
443.371	1912.69
443.592	1984.69
443.813	2030.69
444.034	2034.69
444.255	2080.69
444.476	2130.69
444.698	2256.69
444.919	2275.69
445.14	2367.69
445.361	2183.69
445.582	2087.69
445.803	1968.69
446.024	1927.69
446.245	1910.69
446.466	1876.69
446.687	1832.69
446.908	1813.69
447.129	1727.69
447.35	1773.69
447.571	1735.69
447.792	1707.69
448.013	1682.69
448.234	1663.69
448.455	1667.69
448.675	1667.69
448.896	1631.69
449.117	1639.69
449.338	1642.69
449.559	1626.69
449.779	1617.69
450	1609.69
450.221	1652.69
450.442	1612.69
450.662	1638.69
450.883	1661.69
451.104	1657.69
451.324	1668.69
451.545	1649.69
451.766	1674.69
451.986	1642.69
452.207	1630.69
452.428	1593.69
452.648	1632.69
452.869	1594.69
453.089	1557.69
453.31	1591.69
453.53	1553.69
453.751	1591.69
453.971	1584.69
454.192	1577.69
454.412	1550.69
454.633	1586.69
454.853	1557.69
455.073	1558.69
455.294	1566.69
455.514	1494.69
455.734	1569.69
455.955	1496.69
456.175	1510.69
456.395	1513.69
456.616	1524.69
456.836	1531.69
457.056	1541.69
457.276	1547.69
457.497	1558.69
457.717	1564.69
457.937	1576.69
458.157	1569.69
458.377	1606.69
458.598	1616.69
458.818	1676.69
459.038	1693.69
459.258	1785.69
459.478	1833.69
459.698	1879.69
459.918	1875.69
460.138	1899.69
460.358	2017.69
460.578	2061.69
460.798	2085.69
461.018	2111.69
461.238	2045.69
461.458	2090.69
461.678	2030.69
461.898	2093.69
462.118	2136.69
462.338	2238.69
462.558	2278.69
462.777	2337.69
462.997	2481.69
463.217	2642.69
463.437	2680.69
463.657	2501.69
463.876	2419.69
464.096	2418.69
464.316	2363.69
464.536	2398.69
464.755	2295.69
464.975	2252.69
465.195	2164.69
465.414	2077.69
465.634	1923.69
465.854	1923.69
466.073	1858.69
466.293	1839.69
466.512	1789.69
466.732	1771.69
466.951	1766.69
467.171	1744.69
467.391	1776.69
467.61	1722.69
467.829	1739.69
468.049	1677.69
468.268	1693.69
468.488	1658.69
468.707	1658.69
468.927	1671.69
469.146	1693.69
469.365	1653.69
469.585	1679.69
469.804	1745.69
470.023	1777.69
470.243	1728.69
470.462	1769.69
470.681	1754.69
470.901	1757.69
471.12	1740.69
471.339	1741.69
471.558	1712.69
471.777	1721.69
471.997	1697.69
472.216	1692.69
472.435	1677.69
472.654	1661.69
472.873	1639.69
473.092	1657.69
473.311	1653.69
473.53	1668.69
473.749	1606.69
473.968	1606.69
474.187	1615.69
474.406	1635.69
474.625	1652.69
474.844	1641.69
475.063	1677.69
475.282	1675.69
475.501	1678.69
475.72	1673.69
475.939	1686.69
476.158	1730.69
476.377	1740.69
476.596	1715.69
476.814	1800.69
477.033	1769.69
477.252	1831.69
477.471	1822.69
477.69	1873.69
477.908	1913.69
478.127	1948.69
478.346	1990.69
478.564	2000.69
478.783	2024.69
479.002	2029.69
479.22	2074.69
479.439	2071.69
479.658	2072.69
479.876	2086.69
480.095	2127.69
480.313	2182.69
480.532	2224.69
480.751	2212.69
480.969	2129.69
481.188	2114.69
481.406	2116.69
481.624	2053.69
481.843	1986.69
482.061	1994.69
482.28	2003.69
482.498	2011.69
482.717	1991.69
482.935	2037.69
483.153	2021.69
483.372	2047.69
483.59	2076.69
483.808	2029.69
484.027	2077.69
484.245	2122.69
484.463	2120.69
484.681	2113.69
484.9	2157.69
485.118	2203.69
485.336	2215.69
485.554	2193.69
485.772	2271.69
485.99	2245.69
486.209	2231.69
486.427	2230.69
486.645	2208.69
486.863	2192.69
487.081	2203.69
487.299	2210.69
487.517	2204.69
487.735	2161.69
487.953	2166.69
488.171	2160.69
488.389	2143.69
488.607	2154.69
488.825	2138.69
489.043	2135.69
489.261	2132.69
489.479	2099.69
