Data from NiCl2@0.5M.TitratingCurve.Agarose3%dH2O.NegLispCup.LampEnergy10.LIBS07252019_HRD10591_18-19-41-571.txt Node
Date: Thu Jul 25 18:19:41 EDT 2019
User: cochatt
Spectrometer: HR+D1059
Trigger mode: 1
Integration Time (sec): 1.000000E-1
Scans to average: 1
Electric dark correction enabled: true
Nonlinearity correction enabled: false
Boxcar width: 0
XAxis mode: Wavelengths
Number of Pixels in Spectrum: 2048
>>>>>Begin Spectral Data<<<<<
223.165	-20.88
223.4	-20.88
223.635	-20.88
223.869	-18.88
224.104	-30.88
224.338	-11.88
224.573	-1.88
224.808	-14.88
225.042	-1.88
225.277	6.12
225.511	-5.88
225.746	-0.88
225.98	1.12
226.215	11.12
226.449	17.12
226.683	9.12
226.918	24.12
227.152	39.12
227.387	36.12
227.621	35.12
227.856	33.12
228.09	39.12
228.324	49.12
228.559	46.12
228.793	55.12
229.027	108.12
229.262	110.12
229.496	124.12
229.73	105.12
229.964	131.12
230.199	120.12
230.433	130.12
230.667	117.12
230.901	148.12
231.136	122.12
231.37	133.12
231.604	142.12
231.838	156.12
232.072	162.12
232.306	148.12
232.541	154.12
232.775	154.12
233.009	144.12
233.243	140.12
233.477	145.12
233.711	149.12
233.945	159.12
234.179	138.12
234.413	157.12
234.647	145.12
234.881	148.12
235.115	150.12
235.349	156.12
235.583	156.12
235.817	138.12
236.051	138.12
236.285	151.12
236.519	154.12
236.753	175.12
236.987	174.12
237.221	160.12
237.455	165.12
237.689	163.12
237.922	176.12
238.156	167.12
238.39	164.12
238.624	159.12
238.858	176.12
239.091	182.12
239.325	178.12
239.559	181.12
239.793	189.12
240.027	188.12
240.26	186.12
240.494	181.12
240.728	187.12
240.961	174.12
241.195	191.12
241.429	164.12
241.662	184.12
241.896	194.12
242.13	220.12
242.363	194.12
242.597	187.12
242.83	206.12
243.064	216.12
243.298	202.12
243.531	201.12
243.765	198.12
243.998	214.12
244.232	231.12
244.465	210.12
244.699	208.12
244.932	211.12
245.166	226.12
245.399	229.12
245.633	222.12
245.866	214.12
246.099	219.12
246.333	222.12
246.566	238.12
246.8	218.12
247.033	226.12
247.266	231.12
247.5	221.12
247.733	231.12
247.966	217.12
248.2	233.12
248.433	233.12
248.666	228.12
248.899	244.12
249.133	240.12
249.366	225.12
249.599	244.12
249.832	241.12
250.066	259.12
250.299	241.12
250.532	254.12
250.765	254.12
250.998	264.12
251.231	274.12
251.465	272.12
251.698	271.12
251.931	272.12
252.164	266.12
252.397	273.12
252.63	269.12
252.863	273.12
253.096	269.12
253.329	273.12
253.562	286.12
253.795	291.12
254.028	278.12
254.261	299.12
254.494	284.12
254.727	309.12
254.96	256.12
255.193	276.12
255.426	285.12
255.659	296.12
255.892	302.12
256.124	299.12
256.357	308.12
256.59	307.12
256.823	296.12
257.056	294.12
257.289	310.12
257.521	304.12
257.754	282.12
257.987	297.12
258.22	293.12
258.452	310.12
258.685	304.12
258.918	326.12
259.151	319.12
259.383	312.12
259.616	313.12
259.849	311.12
260.081	314.12
260.314	318.12
260.547	334.12
260.779	329.12
261.012	317.12
261.244	337.12
261.477	339.12
261.71	349.12
261.942	325.12
262.175	311.12
262.407	319.12
262.64	333.12
262.872	344.12
263.105	357.12
263.337	326.12
263.57	337.12
263.802	320.12
264.035	348.12
264.267	361.12
264.499	355.12
264.732	334.12
264.964	364.12
265.197	350.12
265.429	346.12
265.661	349.12
265.894	374.12
266.126	368.12
266.358	375.12
266.591	377.12
266.823	372.12
267.055	375.12
267.287	388.12
267.52	368.12
267.752	370.12
267.984	377.12
268.216	395.12
268.448	384.12
268.681	372.12
268.913	398.12
269.145	375.12
269.377	393.12
269.609	384.12
269.841	381.12
270.073	372.12
270.306	388.12
270.538	406.12
270.77	390.12
271.002	386.12
271.234	401.12
271.466	393.12
271.698	396.12
271.93	374.12
272.162	396.12
272.394	391.12
272.626	394.12
272.858	410.12
273.09	394.12
273.322	424.12
273.553	415.12
273.785	412.12
274.017	426.12
274.249	413.12
274.481	400.12
274.713	404.12
274.945	419.12
275.176	425.12
275.408	440.12
275.64	407.12
275.872	413.12
276.104	422.12
276.335	437.12
276.567	465.12
276.799	420.12
277.031	438.12
277.262	432.12
277.494	433.12
277.726	463.12
277.957	437.12
278.189	453.12
278.421	455.12
278.652	467.12
278.884	452.12
279.115	469.12
279.347	469.12
279.579	461.12
279.81	457.12
280.042	463.12
280.273	470.12
280.505	481.12
280.736	468.12
280.968	488.12
281.199	467.12
281.431	480.12
281.662	494.12
281.894	502.12
282.125	480.12
282.356	506.12
282.588	474.12
282.819	491.12
283.051	469.12
283.282	477.12
283.513	501.12
283.745	485.12
283.976	466.12
284.207	501.12
284.439	490.12
284.67	500.12
284.901	484.12
285.132	508.12
285.364	488.12
285.595	508.12
285.826	502.12
286.057	522.12
286.288	509.12
286.52	510.12
286.751	515.12
286.982	527.12
287.213	530.12
287.444	518.12
287.675	516.12
287.906	511.12
288.138	522.12
288.369	529.12
288.6	534.12
288.831	547.12
289.062	532.12
289.293	529.12
289.524	538.12
289.755	505.12
289.986	553.12
290.217	545.12
290.448	534.12
290.679	534.12
290.91	519.12
291.141	539.12
291.371	575.12
291.602	564.12
291.833	551.12
292.064	554.12
292.295	550.12
292.526	561.12
292.757	540.12
292.987	550.12
293.218	548.12
293.449	555.12
293.68	546.12
293.91	545.12
294.141	545.12
294.372	543.12
294.603	552.12
294.833	553.12
295.064	550.12
295.295	564.12
295.525	565.12
295.756	565.12
295.987	565.12
296.217	550.12
296.448	562.12
296.679	576.12
296.909	582.12
297.14	572.12
297.37	593.12
297.601	593.12
297.831	596.12
298.062	615.12
298.292	606.12
298.523	596.12
298.753	608.12
298.984	593.12
299.214	607.12
299.445	605.12
299.675	616.12
299.905	623.12
300.136	596.12
300.366	630.12
300.597	628.12
300.827	629.12
301.057	644.12
301.288	626.12
301.518	641.12
301.748	638.12
301.979	655.12
302.209	658.12
302.439	651.12
302.669	617.12
302.9	645.12
303.13	633.12
303.36	637.12
303.59	629.12
303.82	646.12
304.051	634.12
304.281	665.12
304.511	620.12
304.741	632.12
304.971	649.12
305.201	614.12
305.431	646.12
305.661	667.12
305.891	657.12
306.121	671.12
306.352	644.12
306.582	632.12
306.812	631.12
307.042	615.12
307.272	620.12
307.502	641.12
307.731	605.12
307.961	586.12
308.191	624.12
308.421	615.12
308.651	617.12
308.881	629.12
309.111	607.12
309.341	617.12
309.571	627.12
309.8	617.12
310.03	640.12
310.26	642.12
310.49	657.12
310.72	640.12
310.949	617.12
311.179	628.12
311.409	626.12
311.639	614.12
311.868	632.12
312.098	630.12
312.328	653.12
312.557	678.12
312.787	659.12
313.017	664.12
313.246	680.12
313.476	680.12
313.706	703.12
313.935	676.12
314.165	648.12
314.394	649.12
314.624	648.12
314.853	645.12
315.083	664.12
315.312	683.12
315.542	681.12
315.771	688.12
316.001	670.12
316.23	682.12
316.46	658.12
316.689	666.12
316.919	657.12
317.148	670.12
317.377	690.12
317.607	680.12
317.836	649.12
318.065	657.12
318.295	638.12
318.524	648.12
318.753	646.12
318.983	656.12
319.212	665.12
319.441	662.12
319.67	664.12
319.9	660.12
320.129	697.12
320.358	679.12
320.587	676.12
320.816	676.12
321.046	674.12
321.275	695.12
321.504	689.12
321.733	689.12
321.962	689.12
322.191	681.12
322.42	688.12
322.649	697.12
322.878	684.12
323.108	668.12
323.337	697.12
323.566	684.12
323.795	714.12
324.024	702.12
324.253	705.12
324.482	710.12
324.71	691.12
324.939	684.12
325.168	716.12
325.397	736.12
325.626	753.12
325.855	723.12
326.084	720.12
326.313	728.12
326.542	733.12
326.77	730.12
326.999	725.12
327.228	726.12
327.457	726.12
327.686	756.12
327.914	722.12
328.143	749.12
328.372	750.12
328.6	714.12
328.829	729.12
329.058	750.12
329.287	703.12
329.515	720.12
329.744	720.12
329.972	742.12
330.201	755.12
330.43	731.12
330.658	750.12
330.887	753.12
331.115	750.12
331.344	746.12
331.572	776.12
331.801	788.12
332.03	786.12
332.258	808.12
332.486	820.12
332.715	822.12
332.943	838.12
333.172	880.12
333.4	898.12
333.629	885.12
333.857	901.12
334.085	911.12
334.314	905.12
334.542	902.12
334.771	920.12
334.999	921.12
335.227	907.12
335.455	944.12
335.684	893.12
335.912	912.12
336.14	876.12
336.369	897.12
336.597	915.12
336.825	902.12
337.053	911.12
337.281	903.12
337.51	887.12
337.738	859.12
337.966	827.12
338.194	865.12
338.422	877.12
338.65	809.12
338.878	793.12
339.106	779.12
339.334	838.12
339.562	826.12
339.79	817.12
340.018	791.12
340.246	772.12
340.474	742.12
340.702	757.12
340.93	770.12
341.158	791.12
341.386	817.12
341.614	837.12
341.842	802.12
342.07	753.12
342.298	793.12
342.526	773.12
342.754	798.12
342.981	779.12
343.209	748.12
343.437	840.12
343.665	844.12
343.893	875.12
344.12	902.12
344.348	873.12
344.576	866.12
344.804	849.12
345.031	840.12
345.259	800.12
345.487	796.12
345.714	777.12
345.942	799.12
346.17	832.12
346.397	789.12
346.625	783.12
346.853	751.12
347.08	749.12
347.308	741.12
347.535	729.12
347.763	769.12
347.99	732.12
348.218	758.12
348.445	731.12
348.673	746.12
348.9	743.12
349.128	715.12
349.355	753.12
349.583	778.12
349.81	724.12
350.037	714.12
350.265	725.12
350.492	719.12
350.72	709.12
350.947	732.12
351.174	730.12
351.402	743.12
351.629	749.12
351.856	788.12
352.083	728.12
352.311	738.12
352.538	755.12
352.765	740.12
352.992	711.12
353.22	690.12
353.447	696.12
353.674	713.12
353.901	714.12
354.128	708.12
354.355	708.12
354.583	696.12
354.81	700.12
355.037	699.12
355.264	676.12
355.491	709.12
355.718	705.12
355.945	686.12
356.172	697.12
356.399	730.12
356.626	738.12
356.853	714.12
357.08	728.12
357.307	722.12
357.534	706.12
357.761	721.12
357.988	681.12
358.215	661.12
358.441	697.12
358.668	696.12
358.895	700.12
359.122	705.12
359.349	702.12
359.576	689.12
359.802	694.12
360.029	731.12
360.256	709.12
360.483	708.12
360.709	696.12
360.936	705.12
361.163	709.12
361.39	702.12
361.616	709.12
361.843	702.12
362.07	766.12
362.296	750.12
362.523	715.12
362.749	714.12
362.976	679.12
363.203	682.12
363.429	685.12
363.656	686.12
363.882	680.12
364.109	700.12
364.335	678.12
364.562	690.12
364.788	704.12
365.015	711.12
365.241	693.12
365.468	696.12
365.694	700.12
365.92	670.12
366.147	677.12
366.373	691.12
366.599	666.12
366.826	686.12
367.052	696.12
367.278	705.12
367.505	692.12
367.731	702.12
367.957	688.12
368.184	700.12
368.41	697.12
368.636	718.12
368.862	695.12
369.089	692.12
369.315	701.12
369.541	712.12
369.767	721.12
369.993	726.12
370.219	710.12
370.445	722.12
370.672	751.12
370.898	731.12
371.124	724.12
371.35	737.12
371.576	734.12
371.802	738.12
372.028	731.12
372.254	723.12
372.48	772.12
372.706	735.12
372.932	753.12
373.158	762.12
373.384	743.12
373.61	749.12
373.835	750.12
374.061	737.12
374.287	749.12
374.513	765.12
374.739	790.12
374.965	804.12
375.191	820.12
375.416	801.12
375.642	786.12
375.868	787.12
376.094	751.12
376.319	746.12
376.545	744.12
376.771	753.12
376.997	755.12
377.222	754.12
377.448	737.12
377.674	735.12
377.899	756.12
378.125	721.12
378.35	735.12
378.576	752.12
378.802	706.12
379.027	713.12
379.253	722.12
379.478	735.12
379.704	714.12
379.929	706.12
380.155	736.12
380.38	726.12
380.606	727.12
380.831	757.12
381.057	750.12
381.282	712.12
381.507	726.12
381.733	740.12
381.958	737.12
382.184	749.12
382.409	762.12
382.634	769.12
382.86	766.12
383.085	736.12
383.31	750.12
383.535	756.12
383.761	773.12
383.986	797.12
384.211	804.12
384.436	818.12
384.662	799.12
384.887	844.12
385.112	827.12
385.337	852.12
385.562	861.12
385.787	833.12
386.013	883.12
386.238	881.12
386.463	869.12
386.688	861.12
386.913	830.12
387.138	847.12
387.363	859.12
387.588	841.12
387.813	849.12
388.038	862.12
388.263	849.12
388.488	864.12
388.713	855.12
388.938	863.12
389.163	843.12
389.387	881.12
389.612	847.12
389.837	861.12
390.062	839.12
390.287	889.12
390.512	831.12
390.736	889.12
390.961	884.12
391.186	878.12
391.411	905.12
391.636	881.12
391.86	929.12
392.085	927.12
392.31	945.12
392.534	950.12
392.759	899.12
392.984	894.12
393.208	888.12
393.433	905.12
393.658	905.12
393.882	901.12
394.107	913.12
394.331	907.12
394.556	938.12
394.78	929.12
395.005	939.12
395.229	928.12
395.454	971.12
395.678	937.12
395.903	921.12
396.127	972.12
396.352	924.12
396.576	948.12
396.801	931.12
397.025	932.12
397.249	973.12
397.474	970.12
397.698	972.12
397.922	990.12
398.147	999.12
398.371	1031.12
398.595	1005.12
398.82	1060.12
399.044	1134.12
399.268	1212.12
399.492	1284.12
399.717	1381.12
399.941	1416.12
400.165	1347.12
400.389	1286.12
400.613	1200.12
400.837	1159.12
401.062	1125.12
401.286	1083.12
401.51	1087.12
401.734	1083.12
401.958	1068.12
402.182	1101.12
402.406	1088.12
402.63	1094.12
402.854	1108.12
403.078	1107.12
403.302	1111.12
403.526	1129.12
403.75	1112.12
403.974	1168.12
404.198	1133.12
404.422	1150.12
404.645	1102.12
404.869	1128.12
405.093	1146.12
405.317	1121.12
405.541	1136.12
405.765	1166.12
405.988	1133.12
406.212	1140.12
406.436	1153.12
406.66	1180.12
406.883	1184.12
407.107	1246.12
407.331	1293.12
407.555	1310.12
407.778	1317.12
408.002	1286.12
408.226	1301.12
408.449	1283.12
408.673	1230.12
408.896	1245.12
409.12	1221.12
409.344	1223.12
409.567	1244.12
409.791	1206.12
410.014	1196.12
410.238	1190.12
410.461	1190.12
410.685	1152.12
410.908	1127.12
411.132	1155.12
411.355	1087.12
411.578	1100.12
411.802	1146.12
412.025	1132.12
412.249	1130.12
412.472	1125.12
412.695	1119.12
412.919	1098.12
413.142	1123.12
413.365	1080.12
413.589	1098.12
413.812	1100.12
414.035	1061.12
414.258	1125.12
414.482	1107.12
414.705	1119.12
414.928	1114.12
415.151	1116.12
415.374	1072.12
415.597	1090.12
415.821	1068.12
416.044	1093.12
416.267	1058.12
416.49	1055.12
416.713	1068.12
416.936	1061.12
417.159	1070.12
417.382	1044.12
417.605	1053.12
417.828	1032.12
418.051	1071.12
418.274	1050.12
418.497	1050.12
418.72	1111.12
418.943	1078.12
419.166	1150.12
419.389	1220.12
419.611	1217.12
419.834	1148.12
420.057	1134.12
420.28	1100.12
420.503	1046.12
420.726	1033.12
420.948	1038.12
421.171	1046.12
421.394	1037.12
421.617	1059.12
421.839	1054.12
422.062	1043.12
422.285	1056.12
422.507	1075.12
422.73	1078.12
422.953	1105.12
423.175	1105.12
423.398	1109.12
423.621	1053.12
423.843	1088.12
424.066	1096.12
424.288	1115.12
424.511	1095.12
424.733	1082.12
424.956	1049.12
425.178	1076.12
425.401	1076.12
425.623	1080.12
425.846	1053.12
426.068	1059.12
426.291	1045.12
426.513	1030.12
426.735	1033.12
426.958	1056.12
427.18	1017.12
427.402	1034.12
427.625	1016.12
427.847	997.12
428.069	1001.12
428.292	1017.12
428.514	1006.12
428.736	969.12
428.958	994.12
429.181	977.12
429.403	979.12
429.625	963.12
429.847	972.12
430.069	996.12
430.292	995.12
430.514	982.12
430.736	1008.12
430.958	989.12
431.18	1004.12
431.402	997.12
431.624	986.12
431.846	1004.12
432.068	1009.12
432.29	990.12
432.512	978.12
432.734	1016.12
432.956	982.12
433.178	1004.12
433.4	1014.12
433.622	1006.12
433.844	1030.12
434.066	1046.12
434.287	1047.12
434.509	1068.12
434.731	1064.12
434.953	1103.12
435.175	1096.12
435.397	1082.12
435.618	1073.12
435.84	1028.12
436.062	1032.12
436.284	1025.12
436.505	996.12
436.727	1023.12
436.949	1047.12
437.17	988.12
437.392	989.12
437.614	986.12
437.835	974.12
438.057	958.12
438.278	963.12
438.5	957.12
438.721	980.12
438.943	962.12
439.165	972.12
439.386	970.12
439.608	1002.12
439.829	1008.12
440.05	1032.12
440.272	1005.12
440.493	996.12
440.715	1053.12
440.936	1043.12
441.158	1066.12
441.379	1060.12
441.6	1113.12
441.822	1107.12
442.043	1095.12
442.264	1081.12
442.486	1083.12
442.707	1070.12
442.928	1088.12
443.149	1124.12
443.371	1112.12
443.592	1112.12
443.813	1115.12
444.034	1102.12
444.255	1145.12
444.476	1168.12
444.698	1204.12
444.919	1234.12
445.14	1294.12
445.361	1215.12
445.582	1153.12
445.803	1102.12
446.024	1065.12
446.245	1050.12
446.466	1080.12
446.687	1021.12
446.908	1025.12
447.129	1021.12
447.35	994.12
447.571	961.12
447.792	954.12
448.013	981.12
448.234	962.12
448.455	969.12
448.675	942.12
448.896	968.12
449.117	930.12
449.338	940.12
449.559	917.12
449.779	943.12
450	916.12
450.221	903.12
450.442	958.12
450.662	952.12
450.883	935.12
451.104	948.12
451.324	960.12
451.545	918.12
451.766	952.12
451.986	925.12
452.207	948.12
452.428	945.12
452.648	936.12
452.869	925.12
453.089	890.12
453.31	914.12
453.53	934.12
453.751	898.12
453.971	907.12
454.192	893.12
454.412	889.12
454.633	896.12
454.853	904.12
455.073	890.12
455.294	914.12
455.514	874.12
455.734	892.12
455.955	895.12
456.175	874.12
456.395	864.12
456.616	879.12
456.836	871.12
457.056	866.12
457.276	879.12
457.497	924.12
457.717	919.12
457.937	894.12
458.157	918.12
458.377	910.12
458.598	933.12
458.818	951.12
459.038	955.12
459.258	987.12
459.478	1037.12
459.698	1062.12
459.918	1087.12
460.138	1125.12
460.358	1148.12
460.578	1142.12
460.798	1140.12
461.018	1181.12
461.238	1162.12
461.458	1196.12
461.678	1162.12
461.898	1184.12
462.118	1184.12
462.338	1226.12
462.558	1236.12
462.777	1299.12
462.997	1359.12
463.217	1420.12
463.437	1439.12
463.657	1395.12
463.876	1329.12
464.096	1358.12
464.316	1305.12
464.536	1293.12
464.755	1304.12
464.975	1232.12
465.195	1194.12
465.414	1183.12
465.634	1093.12
465.854	1084.12
466.073	1069.12
466.293	1027.12
466.512	1034.12
466.732	990.12
466.951	989.12
467.171	980.12
467.391	1012.12
467.61	969.12
467.829	966.12
468.049	977.12
468.268	934.12
468.488	965.12
468.707	935.12
468.927	975.12
469.146	948.12
469.365	969.12
469.585	950.12
469.804	965.12
470.023	980.12
470.243	1008.12
470.462	1005.12
470.681	1015.12
470.901	1026.12
471.12	988.12
471.339	974.12
471.558	994.12
471.777	993.12
471.997	989.12
472.216	944.12
472.435	932.12
472.654	940.12
472.873	946.12
473.092	963.12
473.311	937.12
473.53	952.12
473.749	948.12
473.968	945.12
474.187	930.12
474.406	934.12
474.625	959.12
474.844	951.12
475.063	965.12
475.282	967.12
475.501	1001.12
475.72	963.12
475.939	957.12
476.158	963.12
476.377	959.12
476.596	992.12
476.814	1000.12
477.033	1039.12
477.252	1033.12
477.471	1045.12
477.69	1050.12
477.908	1062.12
478.127	1064.12
478.346	1113.12
478.564	1129.12
478.783	1134.12
479.002	1161.12
479.22	1179.12
479.439	1171.12
479.658	1166.12
479.876	1177.12
480.095	1159.12
480.313	1167.12
480.532	1205.12
480.751	1172.12
480.969	1169.12
481.188	1134.12
481.406	1153.12
481.624	1155.12
481.843	1098.12
482.061	1089.12
482.28	1102.12
482.498	1098.12
482.717	1095.12
482.935	1094.12
483.153	1128.12
483.372	1123.12
483.59	1141.12
483.808	1115.12
484.027	1096.12
484.245	1108.12
484.463	1110.12
484.681	1130.12
484.9	1158.12
485.118	1151.12
485.336	1135.12
485.554	1135.12
485.772	1168.12
485.99	1149.12
486.209	1125.12
486.427	1181.12
486.645	1145.12
486.863	1160.12
487.081	1164.12
487.299	1132.12
487.517	1140.12
487.735	1178.12
487.953	1177.12
488.171	1178.12
488.389	1168.12
488.607	1146.12
488.825	1109.12
489.043	1124.12
489.261	1147.12
489.479	1136.12
489.696	1144.12
489.914	1100.12
490.132	1139.12
490.35	1177.12
490.568	1147.12
490.786	1173.12
491.003	1185.12
491.221	1170.12
491.439	1158.12
491.657	1172.12
491.874	1189.12
492.092	1196.12
492.31	1214.12
492.527	1180.12
492.745	1172.12
492.963	1185.12
493.18	1204.12
493.398	1225.12
493.615	1224.12
493.833	1217.12
494.05	1222.12
494.268	1208.12
494.485	1217.12
494.703	1222.12
494.92	1232.12
495.138	1251.12
495.355	1258.12
495.573	1289.12
495.79	1245.12
496.008	1249.12
496.225	1280.12
496.442	1310.12
496.66	1294.12
496.877	1301.12
497.094	1343.12
497.312	1358.12
