Data from NiCl2@0.0625M.TitratingCurve.Agarose3%dH2O.NegLispCup.LampEnergy10.LIBS07252019_HRD10591_18-34-38-577.txt Node
Date: Thu Jul 25 18:34:38 EDT 2019
User: cochatt
Spectrometer: HR+D1059
Trigger mode: 1
Integration Time (sec): 1.000000E-1
Scans to average: 1
Electric dark correction enabled: true
Nonlinearity correction enabled: false
Boxcar width: 0
XAxis mode: Wavelengths
Number of Pixels in Spectrum: 2048
>>>>>Begin Spectral Data<<<<<
223.165	-10.56
223.4	-10.56
223.635	-10.56
223.869	-25.56
224.104	-19.56
224.338	-0.56
224.573	-15.56
224.808	-14.56
225.042	-12.56
225.277	0.44
225.511	-4.56
225.746	-4.56
225.98	9.44
226.215	11.44
226.449	23.44
226.683	27.44
226.918	11.44
227.152	24.44
227.387	23.44
227.621	23.44
227.856	34.44
228.09	51.44
228.324	53.44
228.559	56.44
228.793	76.44
229.027	103.44
229.262	145.44
229.496	153.44
229.73	156.44
229.964	162.44
230.199	165.44
230.433	155.44
230.667	149.44
230.901	165.44
231.136	151.44
231.37	172.44
231.604	155.44
231.838	167.44
232.072	184.44
232.306	166.44
232.541	190.44
232.775	173.44
233.009	191.44
233.243	176.44
233.477	182.44
233.711	189.44
233.945	193.44
234.179	196.44
234.413	192.44
234.647	207.44
234.881	204.44
235.115	196.44
235.349	206.44
235.583	200.44
235.817	190.44
236.051	217.44
236.285	206.44
236.519	196.44
236.753	195.44
236.987	219.44
237.221	224.44
237.455	211.44
237.689	205.44
237.922	200.44
238.156	205.44
238.39	213.44
238.624	223.44
238.858	224.44
239.091	228.44
239.325	232.44
239.559	216.44
239.793	232.44
240.027	242.44
240.26	242.44
240.494	241.44
240.728	251.44
240.961	256.44
241.195	258.44
241.429	263.44
241.662	268.44
241.896	253.44
242.13	261.44
242.363	252.44
242.597	270.44
242.83	267.44
243.064	273.44
243.298	278.44
243.531	291.44
243.765	287.44
243.998	312.44
244.232	294.44
244.465	288.44
244.699	299.44
244.932	293.44
245.166	290.44
245.399	305.44
245.633	291.44
245.866	319.44
246.099	305.44
246.333	302.44
246.566	326.44
246.8	295.44
247.033	301.44
247.266	307.44
247.5	305.44
247.733	314.44
247.966	321.44
248.2	323.44
248.433	360.44
248.666	348.44
248.899	329.44
249.133	344.44
249.366	345.44
249.599	346.44
249.832	351.44
250.066	353.44
250.299	372.44
250.532	378.44
250.765	335.44
250.998	364.44
251.231	340.44
251.465	376.44
251.698	372.44
251.931	374.44
252.164	384.44
252.397	382.44
252.63	396.44
252.863	418.44
253.096	392.44
253.329	399.44
253.562	387.44
253.795	383.44
254.028	389.44
254.261	408.44
254.494	419.44
254.727	404.44
254.96	399.44
255.193	429.44
255.426	405.44
255.659	414.44
255.892	417.44
256.124	438.44
256.357	433.44
256.59	431.44
256.823	415.44
257.056	439.44
257.289	435.44
257.521	422.44
257.754	433.44
257.987	420.44
258.22	423.44
258.452	435.44
258.685	432.44
258.918	441.44
259.151	437.44
259.383	455.44
259.616	453.44
259.849	471.44
260.081	470.44
260.314	468.44
260.547	471.44
260.779	458.44
261.012	480.44
261.244	473.44
261.477	485.44
261.71	475.44
261.942	476.44
262.175	473.44
262.407	495.44
262.64	473.44
262.872	465.44
263.105	503.44
263.337	498.44
263.57	489.44
263.802	501.44
264.035	508.44
264.267	505.44
264.499	519.44
264.732	509.44
264.964	526.44
265.197	513.44
265.429	536.44
265.661	501.44
265.894	522.44
266.126	518.44
266.358	536.44
266.591	518.44
266.823	557.44
267.055	529.44
267.287	535.44
267.52	565.44
267.752	525.44
267.984	529.44
268.216	554.44
268.448	541.44
268.681	555.44
268.913	559.44
269.145	577.44
269.377	547.44
269.609	570.44
269.841	561.44
270.073	563.44
270.306	577.44
270.538	571.44
270.77	588.44
271.002	559.44
271.234	569.44
271.466	551.44
271.698	564.44
271.93	574.44
272.162	573.44
272.394	583.44
272.626	584.44
272.858	592.44
273.09	600.44
273.322	610.44
273.553	606.44
273.785	586.44
274.017	599.44
274.249	592.44
274.481	597.44
274.713	616.44
274.945	626.44
275.176	639.44
275.408	631.44
275.64	643.44
275.872	664.44
276.104	639.44
276.335	629.44
276.567	631.44
276.799	640.44
277.031	648.44
277.262	678.44
277.494	643.44
277.726	653.44
277.957	651.44
278.189	659.44
278.421	652.44
278.652	657.44
278.884	646.44
279.115	671.44
279.347	676.44
279.579	675.44
279.81	673.44
280.042	675.44
280.273	686.44
280.505	683.44
280.736	680.44
280.968	683.44
281.199	704.44
281.431	703.44
281.662	737.44
281.894	718.44
282.125	709.44
282.356	716.44
282.588	689.44
282.819	687.44
283.051	701.44
283.282	709.44
283.513	722.44
283.745	730.44
283.976	721.44
284.207	722.44
284.439	727.44
284.67	732.44
284.901	743.44
285.132	749.44
285.364	736.44
285.595	744.44
285.826	737.44
286.057	742.44
286.288	751.44
286.52	742.44
286.751	767.44
286.982	761.44
287.213	732.44
287.444	759.44
287.675	733.44
287.906	765.44
288.138	790.44
288.369	771.44
288.6	779.44
288.831	772.44
289.062	791.44
289.293	800.44
289.524	791.44
289.755	758.44
289.986	797.44
290.217	787.44
290.448	780.44
290.679	799.44
290.91	805.44
291.141	784.44
291.371	816.44
291.602	821.44
291.833	766.44
292.064	787.44
292.295	818.44
292.526	794.44
292.757	778.44
292.987	787.44
293.218	769.44
293.449	779.44
293.68	806.44
293.91	789.44
294.141	795.44
294.372	754.44
294.603	783.44
294.833	804.44
295.064	828.44
295.295	818.44
295.525	820.44
295.756	816.44
295.987	840.44
296.217	823.44
296.448	819.44
296.679	827.44
296.909	816.44
297.14	846.44
297.37	849.44
297.601	866.44
297.831	842.44
298.062	832.44
298.292	854.44
298.523	870.44
298.753	869.44
298.984	851.44
299.214	861.44
299.445	872.44
299.675	869.44
299.905	868.44
300.136	865.44
300.366	835.44
300.597	878.44
300.827	889.44
301.057	868.44
301.288	911.44
301.518	889.44
301.748	897.44
301.979	915.44
302.209	905.44
302.439	912.44
302.669	897.44
302.9	885.44
303.13	900.44
303.36	889.44
303.59	900.44
303.82	919.44
304.051	937.44
304.281	903.44
304.511	895.44
304.741	914.44
304.971	915.44
305.201	909.44
305.431	919.44
305.661	896.44
305.891	885.44
306.121	905.44
306.352	902.44
306.582	904.44
306.812	892.44
307.042	883.44
307.272	901.44
307.502	893.44
307.731	895.44
307.961	908.44
308.191	894.44
308.421	872.44
308.651	890.44
308.881	879.44
309.111	896.44
309.341	903.44
309.571	909.44
309.8	909.44
310.03	910.44
310.26	884.44
310.49	887.44
310.72	913.44
310.949	919.44
311.179	885.44
311.409	897.44
311.639	930.44
311.868	929.44
312.098	928.44
312.328	930.44
312.557	933.44
312.787	921.44
313.017	935.44
313.246	963.44
313.476	903.44
313.706	975.44
313.935	981.44
314.165	936.44
314.394	963.44
314.624	955.44
314.853	968.44
315.083	943.44
315.312	966.44
315.542	977.44
315.771	981.44
316.001	963.44
316.23	943.44
316.46	980.44
316.689	982.44
316.919	977.44
317.148	979.44
317.377	958.44
317.607	949.44
317.836	934.44
318.065	934.44
318.295	960.44
318.524	958.44
318.753	957.44
318.983	948.44
319.212	946.44
319.441	946.44
319.67	982.44
319.9	969.44
320.129	965.44
320.358	919.44
320.587	976.44
320.816	978.44
321.046	966.44
321.275	959.44
321.504	992.44
321.733	953.44
321.962	984.44
322.191	994.44
322.42	967.44
322.649	980.44
322.878	976.44
323.108	943.44
323.337	991.44
323.566	991.44
323.795	991.44
324.024	970.44
324.253	1003.44
324.482	959.44
324.71	977.44
324.939	1003.44
325.168	999.44
325.397	993.44
325.626	1032.44
325.855	1049.44
326.084	1026.44
326.313	1080.44
326.542	1023.44
326.77	1025.44
326.999	1029.44
327.228	1021.44
327.457	1011.44
327.686	1025.44
327.914	1062.44
328.143	1063.44
328.372	1043.44
328.6	1049.44
328.829	1047.44
329.058	1024.44
329.287	1032.44
329.515	1041.44
329.744	1048.44
329.972	1087.44
330.201	1046.44
330.43	1108.44
330.658	1091.44
330.887	1083.44
331.115	1068.44
331.344	1089.44
331.572	1129.44
331.801	1111.44
332.03	1141.44
332.258	1165.44
332.486	1165.44
332.715	1186.44
332.943	1223.44
333.172	1241.44
333.4	1300.44
333.629	1324.44
333.857	1344.44
334.085	1369.44
334.314	1329.44
334.542	1323.44
334.771	1317.44
334.999	1304.44
335.227	1296.44
335.455	1300.44
335.684	1264.44
335.912	1301.44
336.14	1279.44
336.369	1261.44
336.597	1286.44
336.825	1254.44
337.053	1229.44
337.281	1235.44
337.51	1171.44
337.738	1181.44
337.966	1161.44
338.194	1190.44
338.422	1145.44
338.65	1136.44
338.878	1165.44
339.106	1158.44
339.334	1175.44
339.562	1145.44
339.79	1132.44
340.018	1117.44
340.246	1073.44
340.474	1113.44
340.702	1123.44
340.93	1084.44
341.158	1094.44
341.386	1124.44
341.614	1100.44
341.842	1075.44
342.07	1073.44
342.298	1097.44
342.526	1078.44
342.754	1117.44
342.981	1093.44
343.209	1131.44
343.437	1144.44
343.665	1206.44
343.893	1256.44
344.12	1298.44
344.348	1252.44
344.576	1225.44
344.804	1183.44
345.031	1141.44
345.259	1117.44
345.487	1125.44
345.714	1097.44
345.942	1075.44
346.17	1089.44
346.397	1083.44
346.625	1042.44
346.853	1041.44
347.08	1035.44
347.308	1074.44
347.535	1021.44
347.763	1051.44
347.99	1037.44
348.218	1051.44
348.445	1059.44
348.673	1013.44
348.9	1017.44
349.128	1048.44
349.355	1040.44
349.583	1042.44
349.81	1014.44
350.037	990.44
350.265	1033.44
350.492	1037.44
350.72	1023.44
350.947	1032.44
351.174	1043.44
351.402	1043.44
351.629	1030.44
351.856	1009.44
352.083	1020.44
352.311	1045.44
352.538	1022.44
352.765	1006.44
352.992	989.44
353.22	1002.44
353.447	1024.44
353.674	1031.44
353.901	1025.44
354.128	1003.44
354.355	986.44
354.583	1027.44
354.81	982.44
355.037	999.44
355.264	1000.44
355.491	1010.44
355.718	1029.44
355.945	1013.44
356.172	1035.44
356.399	1006.44
356.626	1007.44
356.853	1006.44
357.08	1024.44
357.307	1023.44
357.534	1025.44
357.761	998.44
357.988	1041.44
358.215	985.44
358.441	999.44
358.668	1006.44
358.895	1038.44
359.122	1020.44
359.349	1056.44
359.576	1005.44
359.802	1003.44
360.029	1016.44
360.256	1041.44
360.483	1002.44
360.709	1019.44
360.936	1009.44
361.163	1014.44
361.39	1007.44
361.616	1023.44
361.843	1018.44
362.07	1029.44
362.296	1012.44
362.523	1022.44
362.749	1030.44
362.976	1024.44
363.203	1021.44
363.429	999.44
363.656	1015.44
363.882	1027.44
364.109	999.44
364.335	1009.44
364.562	996.44
364.788	1019.44
365.015	1014.44
365.241	1035.44
365.468	1015.44
365.694	1001.44
365.92	1044.44
366.147	1039.44
366.373	1014.44
366.599	1048.44
366.826	1012.44
367.052	1005.44
367.278	1038.44
367.505	1027.44
367.731	1015.44
367.957	1014.44
368.184	1023.44
368.41	1029.44
368.636	1060.44
368.862	1039.44
369.089	1058.44
369.315	1054.44
369.541	1069.44
369.767	1069.44
369.993	1053.44
370.219	1060.44
370.445	1055.44
370.672	1085.44
370.898	1082.44
371.124	1128.44
371.35	1110.44
371.576	1109.44
371.802	1103.44
372.028	1100.44
372.254	1126.44
372.48	1116.44
372.706	1141.44
372.932	1147.44
373.158	1149.44
373.384	1132.44
373.61	1129.44
373.835	1110.44
374.061	1110.44
374.287	1133.44
374.513	1133.44
374.739	1179.44
374.965	1183.44
375.191	1220.44
375.416	1188.44
375.642	1152.44
375.868	1179.44
376.094	1133.44
376.319	1158.44
376.545	1124.44
376.771	1133.44
376.997	1137.44
377.222	1088.44
377.448	1086.44
377.674	1092.44
377.899	1101.44
378.125	1116.44
378.35	1067.44
378.576	1081.44
378.802	1089.44
379.027	1091.44
379.253	1149.44
379.478	1102.44
379.704	1086.44
379.929	1102.44
380.155	1114.44
380.38	1058.44
380.606	1069.44
380.831	1085.44
381.057	1096.44
381.282	1077.44
381.507	1112.44
381.733	1104.44
381.958	1132.44
382.184	1123.44
382.409	1120.44
382.634	1120.44
382.86	1169.44
383.085	1135.44
383.31	1168.44
383.535	1164.44
383.761	1209.44
383.986	1228.44
384.211	1211.44
384.436	1261.44
384.662	1244.44
384.887	1269.44
385.112	1279.44
385.337	1297.44
385.562	1312.44
385.787	1296.44
386.013	1291.44
386.238	1298.44
386.463	1296.44
386.688	1301.44
386.913	1285.44
387.138	1278.44
387.363	1339.44
387.588	1290.44
387.813	1280.44
388.038	1268.44
388.263	1309.44
388.488	1314.44
388.713	1304.44
388.938	1298.44
389.163	1279.44
389.387	1301.44
389.612	1276.44
389.837	1285.44
390.062	1305.44
390.287	1306.44
390.512	1320.44
390.736	1345.44
390.961	1325.44
391.186	1370.44
391.411	1343.44
391.636	1415.44
391.86	1454.44
392.085	1446.44
392.31	1452.44
392.534	1403.44
392.759	1395.44
392.984	1360.44
393.208	1343.44
393.433	1340.44
393.658	1360.44
393.882	1353.44
394.107	1394.44
394.331	1360.44
394.556	1378.44
394.78	1397.44
395.005	1405.44
395.229	1395.44
395.454	1445.44
395.678	1447.44
395.903	1455.44
396.127	1441.44
396.352	1422.44
396.576	1383.44
396.801	1396.44
397.025	1389.44
397.249	1454.44
397.474	1477.44
397.698	1442.44
397.922	1485.44
398.147	1491.44
398.371	1492.44
398.595	1545.44
398.82	1651.44
399.044	1693.44
399.268	1845.44
399.492	2001.44
399.717	2223.44
399.941	2238.44
400.165	2056.44
400.389	1933.44
400.613	1785.44
400.837	1721.44
401.062	1679.44
401.286	1623.44
401.51	1669.44
401.734	1622.44
401.958	1625.44
402.182	1628.44
402.406	1617.44
402.63	1647.44
402.854	1663.44
403.078	1660.44
403.302	1707.44
403.526	1737.44
403.75	1743.44
403.974	1786.44
404.198	1734.44
404.422	1759.44
404.645	1762.44
404.869	1733.44
405.093	1755.44
405.317	1737.44
405.541	1759.44
405.765	1744.44
405.988	1753.44
406.212	1766.44
406.436	1740.44
406.66	1805.44
406.883	1767.44
407.107	1924.44
407.331	1971.44
407.555	2011.44
407.778	2008.44
408.002	1956.44
408.226	1907.44
408.449	1911.44
408.673	1853.44
408.896	1826.44
409.12	1789.44
409.344	1792.44
409.567	1807.44
409.791	1851.44
410.014	1773.44
410.238	1768.44
410.461	1755.44
410.685	1774.44
410.908	1754.44
411.132	1715.44
411.355	1680.44
411.578	1707.44
411.802	1664.44
412.025	1683.44
412.249	1697.44
412.472	1729.44
412.695	1672.44
412.919	1680.44
413.142	1656.44
413.365	1635.44
413.589	1611.44
413.812	1648.44
414.035	1636.44
414.258	1616.44
414.482	1603.44
414.705	1635.44
414.928	1611.44
415.151	1660.44
415.374	1620.44
415.597	1602.44
415.821	1556.44
416.044	1529.44
416.267	1543.44
416.49	1573.44
416.713	1542.44
416.936	1547.44
417.159	1569.44
417.382	1573.44
417.605	1544.44
417.828	1532.44
418.051	1576.44
418.274	1576.44
418.497	1541.44
418.72	1599.44
418.943	1592.44
419.166	1663.44
419.389	1801.44
419.611	1748.44
419.834	1682.44
420.057	1639.44
420.28	1598.44
420.503	1554.44
420.726	1539.44
420.948	1552.44
421.171	1575.44
421.394	1582.44
421.617	1566.44
421.839	1555.44
422.062	1564.44
422.285	1545.44
422.507	1558.44
422.73	1594.44
422.953	1577.44
423.175	1627.44
423.398	1611.44
423.621	1567.44
423.843	1630.44
424.066	1591.44
424.288	1600.44
424.511	1586.44
424.733	1553.44
424.956	1595.44
425.178	1562.44
425.401	1565.44
425.623	1571.44
425.846	1540.44
426.068	1558.44
426.291	1522.44
426.513	1479.44
426.735	1515.44
426.958	1483.44
427.18	1444.44
427.402	1487.44
427.625	1428.44
427.847	1400.44
428.069	1460.44
428.292	1432.44
428.514	1421.44
428.736	1431.44
428.958	1443.44
429.181	1400.44
429.403	1369.44
429.625	1393.44
429.847	1409.44
430.069	1387.44
430.292	1392.44
430.514	1368.44
430.736	1417.44
430.958	1397.44
431.18	1397.44
431.402	1412.44
431.624	1406.44
431.846	1432.44
432.068	1432.44
432.29	1460.44
432.512	1421.44
432.734	1466.44
432.956	1436.44
433.178	1465.44
433.4	1437.44
433.622	1437.44
433.844	1504.44
434.066	1485.44
434.287	1491.44
434.509	1508.44
434.731	1530.44
434.953	1562.44
435.175	1596.44
435.397	1581.44
435.618	1500.44
435.84	1518.44
436.062	1473.44
436.284	1436.44
436.505	1422.44
436.727	1412.44
436.949	1455.44
437.17	1411.44
437.392	1416.44
437.614	1389.44
437.835	1372.44
438.057	1344.44
438.278	1356.44
438.5	1329.44
438.721	1364.44
438.943	1376.44
439.165	1359.44
439.386	1347.44
439.608	1409.44
439.829	1382.44
440.05	1425.44
440.272	1429.44
440.493	1384.44
440.715	1424.44
440.936	1427.44
441.158	1473.44
441.379	1497.44
441.6	1533.44
441.822	1537.44
442.043	1546.44
442.264	1503.44
442.486	1518.44
442.707	1474.44
442.928	1508.44
443.149	1529.44
443.371	1507.44
443.592	1516.44
443.813	1516.44
444.034	1568.44
444.255	1586.44
444.476	1643.44
444.698	1719.44
444.919	1756.44
445.14	1857.44
445.361	1713.44
445.582	1610.44
445.803	1542.44
446.024	1492.44
446.245	1467.44
446.466	1459.44
446.687	1406.44
446.908	1401.44
447.129	1360.44
447.35	1356.44
447.571	1370.44
447.792	1349.44
448.013	1343.44
448.234	1289.44
448.455	1309.44
448.675	1295.44
448.896	1304.44
449.117	1261.44
449.338	1277.44
449.559	1271.44
449.779	1250.44
450	1252.44
450.221	1247.44
450.442	1266.44
450.662	1255.44
450.883	1283.44
451.104	1267.44
451.324	1251.44
451.545	1259.44
451.766	1255.44
451.986	1266.44
452.207	1269.44
452.428	1233.44
452.648	1251.44
452.869	1230.44
453.089	1236.44
453.31	1224.44
453.53	1207.44
453.751	1231.44
453.971	1213.44
454.192	1227.44
454.412	1215.44
454.633	1213.44
454.853	1233.44
455.073	1210.44
455.294	1179.44
455.514	1185.44
455.734	1187.44
455.955	1162.44
456.175	1153.44
456.395	1184.44
456.616	1159.44
456.836	1194.44
457.056	1204.44
457.276	1181.44
457.497	1225.44
457.717	1179.44
457.937	1184.44
458.157	1225.44
458.377	1211.44
458.598	1241.44
458.818	1308.44
459.038	1339.44
459.258	1360.44
459.478	1377.44
459.698	1405.44
459.918	1443.44
460.138	1499.44
460.358	1543.44
460.578	1606.44
460.798	1598.44
461.018	1642.44
461.238	1580.44
461.458	1601.44
461.678	1569.44
461.898	1592.44
462.118	1629.44
462.338	1725.44
462.558	1736.44
462.777	1843.44
462.997	1877.44
463.217	2034.44
463.437	2003.44
463.657	1893.44
463.876	1860.44
464.096	1824.44
464.316	1798.44
464.536	1783.44
464.755	1763.44
464.975	1717.44
465.195	1667.44
465.414	1590.44
465.634	1479.44
465.854	1435.44
466.073	1436.44
466.293	1376.44
466.512	1369.44
466.732	1349.44
466.951	1357.44
467.171	1337.44
467.391	1351.44
467.61	1353.44
467.829	1299.44
468.049	1318.44
468.268	1311.44
468.488	1267.44
468.707	1269.44
468.927	1278.44
469.146	1308.44
469.365	1286.44
469.585	1281.44
469.804	1324.44
470.023	1388.44
470.243	1377.44
470.462	1358.44
470.681	1364.44
470.901	1392.44
471.12	1360.44
471.339	1351.44
471.558	1306.44
471.777	1327.44
471.997	1302.44
472.216	1313.44
472.435	1332.44
472.654	1273.44
472.873	1259.44
473.092	1287.44
473.311	1292.44
473.53	1272.44
473.749	1261.44
473.968	1277.44
474.187	1266.44
474.406	1257.44
474.625	1299.44
474.844	1303.44
475.063	1267.44
475.282	1268.44
475.501	1262.44
475.72	1280.44
475.939	1293.44
476.158	1334.44
476.377	1331.44
476.596	1373.44
476.814	1332.44
477.033	1383.44
477.252	1407.44
477.471	1392.44
477.69	1452.44
477.908	1446.44
478.127	1520.44
478.346	1519.44
478.564	1493.44
478.783	1548.44
479.002	1597.44
479.22	1571.44
479.439	1556.44
479.658	1588.44
479.876	1628.44
480.095	1624.44
480.313	1665.44
480.532	1692.44
480.751	1657.44
480.969	1623.44
481.188	1616.44
481.406	1609.44
481.624	1551.44
481.843	1553.44
482.061	1571.44
482.28	1569.44
482.498	1551.44
482.717	1536.44
482.935	1556.44
483.153	1520.44
483.372	1564.44
483.59	1581.44
483.808	1586.44
484.027	1603.44
484.245	1572.44
484.463	1636.44
484.681	1651.44
484.9	1671.44
485.118	1680.44
485.336	1659.44
485.554	1677.44
485.772	1711.44
485.99	1688.44
486.209	1701.44
486.427	1686.44
486.645	1668.44
486.863	1684.44
487.081	1639.44
487.299	1664.44
487.517	1641.44
487.735	1678.44
487.953	1733.44
488.171	1682.44
488.389	1631.44
488.607	1649.44
488.825	1584.44
489.043	1608.44
489.261	1610.44
489.479	1629.44
489.696	1607.44
489.914	1585.44
490.132	1616.44
490.35	1638.44
490.568	1601.44
490.786	1624.44
491.003	1583.44
491.221	1597.44
491.439	1582.44
