Data from NiCl2@0.0625M.TitratingCurve.Agarose3%dH2O.NegLispCup.LampEnergy10.LIBS07252019_HRD10591_18-35-07-577.txt Node
Date: Thu Jul 25 18:35:07 EDT 2019
User: cochatt
Spectrometer: HR+D1059
Trigger mode: 1
Integration Time (sec): 1.000000E-1
Scans to average: 1
Electric dark correction enabled: true
Nonlinearity correction enabled: false
Boxcar width: 0
XAxis mode: Wavelengths
Number of Pixels in Spectrum: 2048
>>>>>Begin Spectral Data<<<<<
223.165	-25.94
223.4	-25.94
223.635	-25.94
223.869	-18.94
224.104	-16.94
224.338	-10.94
224.573	-10.94
224.808	-20.94
225.042	-6.94
225.277	6.06
225.511	-0.94
225.746	-4.94
225.98	15.06
226.215	11.06
226.449	7.06
226.683	19.06
226.918	20.06
227.152	39.06
227.387	48.06
227.621	41.06
227.856	43.06
228.09	39.06
228.324	50.06
228.559	44.06
228.793	87.06
229.027	133.06
229.262	138.06
229.496	148.06
229.73	159.06
229.964	165.06
230.199	163.06
230.433	171.06
230.667	164.06
230.901	177.06
231.136	194.06
231.37	183.06
231.604	183.06
231.838	197.06
232.072	185.06
232.306	198.06
232.541	190.06
232.775	195.06
233.009	203.06
233.243	192.06
233.477	190.06
233.711	201.06
233.945	214.06
234.179	192.06
234.413	205.06
234.647	191.06
234.881	195.06
235.115	211.06
235.349	218.06
235.583	191.06
235.817	218.06
236.051	218.06
236.285	215.06
236.519	220.06
236.753	219.06
236.987	216.06
237.221	218.06
237.455	214.06
237.689	219.06
237.922	246.06
238.156	230.06
238.39	228.06
238.624	239.06
238.858	225.06
239.091	237.06
239.325	240.06
239.559	260.06
239.793	251.06
240.027	255.06
240.26	229.06
240.494	249.06
240.728	268.06
240.961	249.06
241.195	256.06
241.429	267.06
241.662	282.06
241.896	286.06
242.13	293.06
242.363	280.06
242.597	283.06
242.83	294.06
243.064	274.06
243.298	314.06
243.531	301.06
243.765	292.06
243.998	290.06
244.232	318.06
244.465	329.06
244.699	310.06
244.932	320.06
245.166	339.06
245.399	332.06
245.633	336.06
245.866	323.06
246.099	339.06
246.333	333.06
246.566	336.06
246.8	319.06
247.033	349.06
247.266	334.06
247.5	334.06
247.733	336.06
247.966	338.06
248.2	350.06
248.433	352.06
248.666	354.06
248.899	366.06
249.133	351.06
249.366	378.06
249.599	358.06
249.832	349.06
250.066	360.06
250.299	366.06
250.532	378.06
250.765	361.06
250.998	404.06
251.231	396.06
251.465	394.06
251.698	392.06
251.931	396.06
252.164	411.06
252.397	390.06
252.63	399.06
252.863	410.06
253.096	413.06
253.329	431.06
253.562	414.06
253.795	430.06
254.028	440.06
254.261	440.06
254.494	435.06
254.727	408.06
254.96	436.06
255.193	442.06
255.426	438.06
255.659	412.06
255.892	448.06
256.124	433.06
256.357	454.06
256.59	444.06
256.823	443.06
257.056	456.06
257.289	445.06
257.521	484.06
257.754	442.06
257.987	475.06
258.22	470.06
258.452	462.06
258.685	474.06
258.918	459.06
259.151	467.06
259.383	479.06
259.616	469.06
259.849	484.06
260.081	482.06
260.314	483.06
260.547	503.06
260.779	498.06
261.012	493.06
261.244	487.06
261.477	494.06
261.71	512.06
261.942	528.06
262.175	490.06
262.407	520.06
262.64	523.06
262.872	523.06
263.105	530.06
263.337	543.06
263.57	530.06
263.802	543.06
264.035	521.06
264.267	534.06
264.499	526.06
264.732	563.06
264.964	552.06
265.197	564.06
265.429	557.06
265.661	554.06
265.894	553.06
266.126	544.06
266.358	554.06
266.591	585.06
266.823	560.06
267.055	559.06
267.287	573.06
267.52	549.06
267.752	572.06
267.984	556.06
268.216	571.06
268.448	583.06
268.681	580.06
268.913	578.06
269.145	579.06
269.377	594.06
269.609	569.06
269.841	579.06
270.073	568.06
270.306	582.06
270.538	595.06
270.77	606.06
271.002	630.06
271.234	603.06
271.466	632.06
271.698	590.06
271.93	612.06
272.162	638.06
272.394	637.06
272.626	619.06
272.858	638.06
273.09	630.06
273.322	618.06
273.553	626.06
273.785	634.06
274.017	638.06
274.249	672.06
274.481	642.06
274.713	640.06
274.945	640.06
275.176	649.06
275.408	655.06
275.64	661.06
275.872	663.06
276.104	694.06
276.335	687.06
276.567	662.06
276.799	679.06
277.031	692.06
277.262	686.06
277.494	680.06
277.726	675.06
277.957	708.06
278.189	683.06
278.421	695.06
278.652	701.06
278.884	699.06
279.115	697.06
279.347	715.06
279.579	693.06
279.81	734.06
280.042	716.06
280.273	718.06
280.505	706.06
280.736	735.06
280.968	728.06
281.199	720.06
281.431	759.06
281.662	735.06
281.894	755.06
282.125	730.06
282.356	764.06
282.588	763.06
282.819	723.06
283.051	737.06
283.282	760.06
283.513	759.06
283.745	768.06
283.976	766.06
284.207	768.06
284.439	756.06
284.67	794.06
284.901	779.06
285.132	797.06
285.364	774.06
285.595	791.06
285.826	794.06
286.057	788.06
286.288	782.06
286.52	802.06
286.751	825.06
286.982	810.06
287.213	807.06
287.444	800.06
287.675	792.06
287.906	811.06
288.138	817.06
288.369	827.06
288.6	827.06
288.831	788.06
289.062	819.06
289.293	806.06
289.524	829.06
289.755	821.06
289.986	844.06
290.217	843.06
290.448	838.06
290.679	830.06
290.91	837.06
291.141	823.06
291.371	847.06
291.602	856.06
291.833	848.06
292.064	831.06
292.295	820.06
292.526	836.06
292.757	828.06
292.987	842.06
293.218	844.06
293.449	844.06
293.68	832.06
293.91	848.06
294.141	856.06
294.372	839.06
294.603	858.06
294.833	859.06
295.064	859.06
295.295	868.06
295.525	856.06
295.756	860.06
295.987	848.06
296.217	857.06
296.448	871.06
296.679	871.06
296.909	844.06
297.14	881.06
297.37	875.06
297.601	874.06
297.831	878.06
298.062	892.06
298.292	890.06
298.523	910.06
298.753	927.06
298.984	892.06
299.214	899.06
299.445	878.06
299.675	900.06
299.905	898.06
300.136	887.06
300.366	908.06
300.597	891.06
300.827	948.06
301.057	935.06
301.288	940.06
301.518	962.06
301.748	962.06
301.979	973.06
302.209	975.06
302.439	982.06
302.669	947.06
302.9	944.06
303.13	950.06
303.36	962.06
303.59	960.06
303.82	946.06
304.051	948.06
304.281	956.06
304.511	963.06
304.741	919.06
304.971	954.06
305.201	958.06
305.431	955.06
305.661	931.06
305.891	954.06
306.121	948.06
306.352	965.06
306.582	936.06
306.812	949.06
307.042	948.06
307.272	946.06
307.502	952.06
307.731	957.06
307.961	919.06
308.191	921.06
308.421	942.06
308.651	939.06
308.881	931.06
309.111	944.06
309.341	941.06
309.571	949.06
309.8	968.06
310.03	959.06
310.26	940.06
310.49	957.06
310.72	973.06
310.949	962.06
311.179	963.06
311.409	955.06
311.639	979.06
311.868	975.06
312.098	971.06
312.328	1020.06
312.557	992.06
312.787	996.06
313.017	994.06
313.246	1026.06
313.476	1007.06
313.706	1009.06
313.935	1016.06
314.165	1012.06
314.394	995.06
314.624	1042.06
314.853	1029.06
315.083	1022.06
315.312	1034.06
315.542	1048.06
315.771	1028.06
316.001	1004.06
316.23	1017.06
316.46	1007.06
316.689	1038.06
316.919	1024.06
317.148	1031.06
317.377	982.06
317.607	1018.06
317.836	999.06
318.065	1010.06
318.295	991.06
318.524	994.06
318.753	984.06
318.983	1045.06
319.212	999.06
319.441	1054.06
319.67	987.06
319.9	1028.06
320.129	1016.06
320.358	990.06
320.587	1008.06
320.816	1040.06
321.046	1021.06
321.275	1040.06
321.504	1034.06
321.733	1033.06
321.962	1050.06
322.191	1043.06
322.42	1036.06
322.649	1037.06
322.878	1029.06
323.108	1049.06
323.337	1059.06
323.566	1069.06
323.795	1084.06
324.024	1074.06
324.253	1066.06
324.482	1051.06
324.71	1062.06
324.939	1049.06
325.168	1035.06
325.397	1079.06
325.626	1077.06
325.855	1070.06
326.084	1103.06
326.313	1111.06
326.542	1084.06
326.77	1088.06
326.999	1108.06
327.228	1058.06
327.457	1071.06
327.686	1066.06
327.914	1094.06
328.143	1118.06
328.372	1091.06
328.6	1120.06
328.829	1098.06
329.058	1115.06
329.287	1109.06
329.515	1092.06
329.744	1127.06
329.972	1109.06
330.201	1119.06
330.43	1133.06
330.658	1126.06
330.887	1133.06
331.115	1150.06
331.344	1180.06
331.572	1188.06
331.801	1184.06
332.03	1182.06
332.258	1175.06
332.486	1273.06
332.715	1254.06
332.943	1288.06
333.172	1342.06
333.4	1342.06
333.629	1396.06
333.857	1423.06
334.085	1407.06
334.314	1399.06
334.542	1396.06
334.771	1390.06
334.999	1348.06
335.227	1371.06
335.455	1368.06
335.684	1359.06
335.912	1346.06
336.14	1330.06
336.369	1331.06
336.597	1360.06
336.825	1357.06
337.053	1364.06
337.281	1300.06
337.51	1264.06
337.738	1260.06
337.966	1215.06
338.194	1236.06
338.422	1199.06
338.65	1210.06
338.878	1223.06
339.106	1194.06
339.334	1211.06
339.562	1194.06
339.79	1174.06
340.018	1132.06
340.246	1156.06
340.474	1165.06
340.702	1159.06
340.93	1165.06
341.158	1152.06
341.386	1157.06
341.614	1185.06
341.842	1163.06
342.07	1134.06
342.298	1144.06
342.526	1146.06
342.754	1168.06
342.981	1147.06
343.209	1178.06
343.437	1213.06
343.665	1276.06
343.893	1350.06
344.12	1364.06
344.348	1307.06
344.576	1310.06
344.804	1230.06
345.031	1181.06
345.259	1194.06
345.487	1180.06
345.714	1166.06
345.942	1156.06
346.17	1152.06
346.397	1110.06
346.625	1130.06
346.853	1110.06
347.08	1117.06
347.308	1102.06
347.535	1125.06
347.763	1088.06
347.99	1150.06
348.218	1125.06
348.445	1092.06
348.673	1104.06
348.9	1108.06
349.128	1128.06
349.355	1088.06
349.583	1089.06
349.81	1108.06
350.037	1110.06
350.265	1098.06
350.492	1085.06
350.72	1067.06
350.947	1056.06
351.174	1086.06
351.402	1058.06
351.629	1069.06
351.856	1065.06
352.083	1059.06
352.311	1072.06
352.538	1060.06
352.765	1079.06
352.992	1059.06
353.22	1078.06
353.447	1050.06
353.674	1079.06
353.901	1068.06
354.128	1054.06
354.355	1078.06
354.583	1065.06
354.81	1093.06
355.037	1066.06
355.264	1094.06
355.491	1069.06
355.718	1065.06
355.945	1055.06
356.172	1050.06
356.399	1048.06
356.626	1086.06
356.853	1099.06
357.08	1060.06
357.307	1062.06
357.534	1045.06
357.761	1067.06
357.988	1072.06
358.215	1078.06
358.441	1069.06
358.668	1076.06
358.895	1072.06
359.122	1084.06
359.349	1087.06
359.576	1065.06
359.802	1067.06
360.029	1055.06
360.256	1075.06
360.483	1050.06
360.709	1064.06
360.936	1071.06
361.163	1096.06
361.39	1109.06
361.616	1082.06
361.843	1079.06
362.07	1110.06
362.296	1081.06
362.523	1086.06
362.749	1106.06
362.976	1060.06
363.203	1078.06
363.429	1080.06
363.656	1092.06
363.882	1070.06
364.109	1114.06
364.335	1080.06
364.562	1068.06
364.788	1068.06
365.015	1066.06
365.241	1088.06
365.468	1059.06
365.694	1085.06
365.92	1062.06
366.147	1085.06
366.373	1066.06
366.599	1075.06
366.826	1100.06
367.052	1068.06
367.278	1094.06
367.505	1088.06
367.731	1114.06
367.957	1096.06
368.184	1065.06
368.41	1089.06
368.636	1109.06
368.862	1116.06
369.089	1107.06
369.315	1128.06
369.541	1112.06
369.767	1142.06
369.993	1129.06
370.219	1152.06
370.445	1146.06
370.672	1135.06
370.898	1134.06
371.124	1143.06
371.35	1172.06
371.576	1158.06
371.802	1164.06
372.028	1167.06
372.254	1174.06
372.48	1170.06
372.706	1206.06
372.932	1206.06
373.158	1221.06
373.384	1183.06
373.61	1208.06
373.835	1172.06
374.061	1169.06
374.287	1183.06
374.513	1194.06
374.739	1224.06
374.965	1256.06
375.191	1304.06
375.416	1260.06
375.642	1243.06
375.868	1255.06
376.094	1234.06
376.319	1190.06
376.545	1174.06
376.771	1170.06
376.997	1177.06
377.222	1161.06
377.448	1178.06
377.674	1155.06
377.899	1167.06
378.125	1157.06
378.35	1139.06
378.576	1158.06
378.802	1140.06
379.027	1157.06
379.253	1162.06
379.478	1136.06
379.704	1154.06
379.929	1156.06
380.155	1143.06
380.38	1157.06
380.606	1148.06
380.831	1172.06
381.057	1174.06
381.282	1167.06
381.507	1167.06
381.733	1204.06
381.958	1176.06
382.184	1166.06
382.409	1198.06
382.634	1197.06
382.86	1206.06
383.085	1194.06
383.31	1214.06
383.535	1267.06
383.761	1266.06
383.986	1299.06
384.211	1298.06
384.436	1287.06
384.662	1346.06
384.887	1330.06
385.112	1354.06
385.337	1370.06
385.562	1365.06
385.787	1370.06
386.013	1407.06
386.238	1400.06
386.463	1404.06
386.688	1401.06
386.913	1373.06
387.138	1370.06
387.363	1404.06
387.588	1386.06
387.813	1365.06
388.038	1386.06
388.263	1375.06
388.488	1383.06
388.713	1375.06
388.938	1397.06
389.163	1350.06
389.387	1387.06
389.612	1391.06
389.837	1343.06
390.062	1364.06
390.287	1375.06
390.512	1360.06
390.736	1360.06
390.961	1395.06
391.186	1387.06
391.411	1453.06
391.636	1482.06
391.86	1487.06
392.085	1535.06
392.31	1548.06
392.534	1484.06
392.759	1498.06
392.984	1462.06
393.208	1466.06
393.433	1454.06
393.658	1428.06
393.882	1439.06
394.107	1464.06
394.331	1431.06
394.556	1443.06
394.78	1499.06
395.005	1495.06
395.229	1527.06
395.454	1533.06
395.678	1552.06
395.903	1555.06
396.127	1518.06
396.352	1492.06
396.576	1493.06
396.801	1495.06
397.025	1536.06
397.249	1546.06
397.474	1544.06
397.698	1554.06
397.922	1555.06
398.147	1573.06
398.371	1615.06
398.595	1628.06
398.82	1722.06
399.044	1838.06
399.268	1900.06
399.492	2125.06
399.717	2314.06
399.941	2354.06
400.165	2166.06
400.389	2047.06
400.613	1916.06
400.837	1820.06
401.062	1853.06
401.286	1767.06
401.51	1764.06
401.734	1702.06
401.958	1680.06
402.182	1717.06
402.406	1773.06
402.63	1763.06
402.854	1744.06
403.078	1778.06
403.302	1783.06
403.526	1813.06
403.75	1815.06
403.974	1897.06
404.198	1878.06
404.422	1875.06
404.645	1876.06
404.869	1815.06
405.093	1847.06
405.317	1812.06
405.541	1872.06
405.765	1861.06
405.988	1836.06
406.212	1884.06
406.436	1861.06
406.66	1879.06
406.883	1884.06
407.107	2010.06
407.331	2079.06
407.555	2144.06
407.778	2152.06
408.002	2074.06
408.226	2088.06
408.449	2070.06
408.673	1973.06
408.896	1936.06
409.12	1913.06
409.344	1949.06
409.567	1921.06
409.791	1979.06
410.014	1870.06
410.238	1874.06
410.461	1878.06
410.685	1889.06
410.908	1835.06
411.132	1823.06
411.355	1768.06
411.578	1764.06
411.802	1746.06
412.025	1772.06
412.249	1824.06
412.472	1808.06
412.695	1757.06
412.919	1778.06
413.142	1733.06
413.365	1741.06
413.589	1748.06
413.812	1738.06
414.035	1683.06
414.258	1708.06
414.482	1749.06
414.705	1760.06
414.928	1756.06
415.151	1739.06
415.374	1707.06
415.597	1673.06
415.821	1637.06
416.044	1701.06
416.267	1616.06
416.49	1640.06
416.713	1614.06
416.936	1664.06
417.159	1659.06
417.382	1635.06
417.605	1631.06
417.828	1651.06
418.051	1667.06
418.274	1667.06
418.497	1650.06
418.72	1694.06
418.943	1698.06
419.166	1775.06
419.389	1894.06
419.611	1872.06
419.834	1818.06
420.057	1742.06
420.28	1689.06
420.503	1618.06
420.726	1600.06
420.948	1622.06
421.171	1639.06
421.394	1662.06
421.617	1662.06
421.839	1622.06
422.062	1665.06
422.285	1610.06
422.507	1694.06
422.73	1654.06
422.953	1663.06
423.175	1671.06
423.398	1692.06
423.621	1662.06
423.843	1696.06
424.066	1756.06
424.288	1669.06
424.511	1681.06
424.733	1684.06
424.956	1646.06
425.178	1645.06
425.401	1634.06
425.623	1658.06
425.846	1604.06
426.068	1581.06
426.291	1614.06
426.513	1598.06
426.735	1543.06
426.958	1576.06
427.18	1574.06
427.402	1527.06
427.625	1524.06
427.847	1547.06
428.069	1550.06
428.292	1544.06
428.514	1517.06
428.736	1511.06
428.958	1526.06
429.181	1496.06
429.403	1473.06
429.625	1494.06
429.847	1435.06
430.069	1476.06
430.292	1491.06
430.514	1467.06
430.736	1501.06
430.958	1509.06
431.18	1513.06
431.402	1505.06
431.624	1513.06
431.846	1519.06
432.068	1518.06
432.29	1545.06
432.512	1504.06
432.734	1537.06
432.956	1490.06
433.178	1578.06
433.4	1558.06
433.622	1553.06
433.844	1582.06
434.066	1529.06
434.287	1599.06
434.509	1586.06
434.731	1651.06
434.953	1647.06
435.175	1664.06
435.397	1675.06
435.618	1586.06
435.84	1576.06
436.062	1557.06
436.284	1542.06
436.505	1526.06
436.727	1539.06
436.949	1534.06
437.17	1500.06
437.392	1502.06
437.614	1483.06
437.835	1419.06
438.057	1446.06
438.278	1417.06
438.5	1383.06
438.721	1441.06
438.943	1438.06
439.165	1476.06
439.386	1462.06
439.608	1480.06
439.829	1477.06
440.05	1475.06
440.272	1497.06
440.493	1478.06
440.715	1499.06
440.936	1510.06
441.158	1533.06
441.379	1575.06
441.6	1630.06
441.822	1650.06
442.043	1615.06
442.264	1599.06
442.486	1595.06
442.707	1611.06
442.928	1635.06
443.149	1590.06
443.371	1626.06
443.592	1606.06
443.813	1654.06
444.034	1642.06
444.255	1696.06
444.476	1733.06
444.698	1790.06
444.919	1822.06
445.14	1939.06
445.361	1767.06
445.582	1701.06
445.803	1621.06
446.024	1563.06
446.245	1539.06
446.466	1492.06
446.687	1466.06
446.908	1488.06
447.129	1459.06
447.35	1452.06
447.571	1418.06
447.792	1399.06
448.013	1421.06
448.234	1365.06
448.455	1370.06
448.675	1355.06
448.896	1359.06
449.117	1350.06
449.338	1358.06
449.559	1342.06
449.779	1335.06
450	1322.06
450.221	1366.06
450.442	1383.06
450.662	1336.06
450.883	1346.06
451.104	1368.06
451.324	1348.06
451.545	1346.06
451.766	1362.06
451.986	1332.06
452.207	1330.06
452.428	1335.06
452.648	1341.06
452.869	1303.06
453.089	1260.06
453.31	1336.06
453.53	1284.06
453.751	1286.06
453.971	1325.06
454.192	1313.06
454.412	1278.06
454.633	1255.06
454.853	1263.06
455.073	1282.06
455.294	1240.06
455.514	1267.06
455.734	1255.06
455.955	1270.06
456.175	1267.06
456.395	1283.06
456.616	1230.06
456.836	1241.06
457.056	1243.06
457.276	1250.06
457.497	1266.06
457.717	1284.06
457.937	1284.06
458.157	1301.06
458.377	1323.06
458.598	1371.06
458.818	1385.06
459.038	1404.06
459.258	1454.06
459.478	1441.06
459.698	1508.06
459.918	1539.06
460.138	1576.06
460.358	1650.06
460.578	1615.06
460.798	1679.06
461.018	1698.06
461.238	1670.06
461.458	1682.06
461.678	1699.06
461.898	1705.06
462.118	1704.06
462.338	1788.06
462.558	1832.06
462.777	1896.06
462.997	1961.06
463.217	2129.06
463.437	2098.06
463.657	2037.06
463.876	1954.06
464.096	1950.06
464.316	1919.06
464.536	1901.06
464.755	1875.06
464.975	1827.06
465.195	1754.06
465.414	1706.06
465.634	1581.06
465.854	1507.06
466.073	1502.06
466.293	1466.06
466.512	1420.06
466.732	1428.06
466.951	1437.06
467.171	1406.06
467.391	1427.06
467.61	1418.06
467.829	1383.06
468.049	1359.06
468.268	1375.06
468.488	1375.06
468.707	1369.06
468.927	1385.06
469.146	1370.06
469.365	1366.06
469.585	1380.06
469.804	1425.06
470.023	1466.06
470.243	1434.06
470.462	1441.06
470.681	1465.06
470.901	1465.06
471.12	1433.06
471.339	1380.06
471.558	1398.06
471.777	1410.06
471.997	1373.06
472.216	1375.06
472.435	1373.06
472.654	1359.06
472.873	1326.06
473.092	1334.06
473.311	1348.06
473.53	1338.06
473.749	1316.06
473.968	1335.06
474.187	1333.06
474.406	1316.06
474.625	1364.06
474.844	1341.06
475.063	1330.06
475.282	1369.06
475.501	1336.06
475.72	1388.06
475.939	1450.06
476.158	1398.06
476.377	1451.06
476.596	1410.06
476.814	1427.06
477.033	1444.06
477.252	1450.06
477.471	1498.06
477.69	1488.06
477.908	1578.06
478.127	1573.06
478.346	1626.06
478.564	1643.06
478.783	1653.06
479.002	1663.06
479.22	1696.06
479.439	1669.06
479.658	1684.06
479.876	1714.06
480.095	1730.06
480.313	1803.06
480.532	1814.06
480.751	1795.06
480.969	1763.06
481.188	1724.06
481.406	1720.06
481.624	1648.06
481.843	1631.06
482.061	1644.06
482.28	1634.06
482.498	1604.06
482.717	1627.06
482.935	1651.06
483.153	1663.06
483.372	1670.06
483.59	1663.06
483.808	1668.06
484.027	1710.06
484.245	1706.06
484.463	1781.06
484.681	1765.06
484.9	1743.06
485.118	1782.06
485.336	1750.06
485.554	1803.06
485.772	1827.06
485.99	1798.06
486.209	1793.06
486.427	1827.06
486.645	1798.06
486.863	1812.06
487.081	1773.06
487.299	1800.06
487.517	1770.06
487.735	1783.06
487.953	1776.06
488.171	1809.06
488.389	1794.06
488.607	1725.06
488.825	1733.06
489.043	1677.06
489.261	1693.06
489.479	1727.06
489.696	1728.06
489.914	1702.06
490.132	1686.06
490.35	1728.06
490.568	1711.06
490.786	1738.06
