Data from NiCl2@0.0625M.TitratingCurve.Agarose3%dH2O.NegLispCup.LampEnergy10.LIBS07252019_HRD10591_18-32-47-576.txt Node
Date: Thu Jul 25 18:32:47 EDT 2019
User: cochatt
Spectrometer: HR+D1059
Trigger mode: 1
Integration Time (sec): 1.000000E-1
Scans to average: 1
Electric dark correction enabled: true
Nonlinearity correction enabled: false
Boxcar width: 0
XAxis mode: Wavelengths
Number of Pixels in Spectrum: 2048
>>>>>Begin Spectral Data<<<<<
223.165	-26.94
223.4	-26.94
223.635	-26.94
223.869	-1.94
224.104	-9.94
224.338	-11.94
224.573	-18.94
224.808	-24.94
225.042	-6.94
225.277	-0.94
225.511	-11.94
225.746	10.06
225.98	3.06
226.215	5.06
226.449	21.06
226.683	20.06
226.918	35.06
227.152	20.06
227.387	28.06
227.621	44.06
227.856	45.06
228.09	32.06
228.324	46.06
228.559	61.06
228.793	87.06
229.027	146.06
229.262	166.06
229.496	178.06
229.73	179.06
229.964	186.06
230.199	192.06
230.433	165.06
230.667	195.06
230.901	205.06
231.136	187.06
231.37	201.06
231.604	197.06
231.838	206.06
232.072	214.06
232.306	216.06
232.541	217.06
232.775	214.06
233.009	220.06
233.243	208.06
233.477	228.06
233.711	224.06
233.945	217.06
234.179	239.06
234.413	229.06
234.647	247.06
234.881	232.06
235.115	243.06
235.349	251.06
235.583	227.06
235.817	232.06
236.051	242.06
236.285	258.06
236.519	233.06
236.753	253.06
236.987	262.06
237.221	237.06
237.455	264.06
237.689	263.06
237.922	250.06
238.156	269.06
238.39	257.06
238.624	282.06
238.858	283.06
239.091	277.06
239.325	292.06
239.559	294.06
239.793	299.06
240.027	308.06
240.26	306.06
240.494	313.06
240.728	291.06
240.961	312.06
241.195	314.06
241.429	324.06
241.662	328.06
241.896	318.06
242.13	338.06
242.363	334.06
242.597	333.06
242.83	355.06
243.064	344.06
243.298	345.06
243.531	349.06
243.765	351.06
243.998	336.06
244.232	352.06
244.465	354.06
244.699	346.06
244.932	371.06
245.166	361.06
245.399	377.06
245.633	379.06
245.866	371.06
246.099	369.06
246.333	386.06
246.566	371.06
246.8	384.06
247.033	362.06
247.266	376.06
247.5	406.06
247.733	402.06
247.966	408.06
248.2	442.06
248.433	448.06
248.666	420.06
248.899	438.06
249.133	434.06
249.366	430.06
249.599	450.06
249.832	452.06
250.066	422.06
250.299	427.06
250.532	427.06
250.765	428.06
250.998	437.06
251.231	442.06
251.465	461.06
251.698	462.06
251.931	465.06
252.164	482.06
252.397	484.06
252.63	471.06
252.863	477.06
253.096	474.06
253.329	488.06
253.562	509.06
253.795	510.06
254.028	507.06
254.261	516.06
254.494	492.06
254.727	503.06
254.96	507.06
255.193	511.06
255.426	513.06
255.659	505.06
255.892	518.06
256.124	520.06
256.357	518.06
256.59	513.06
256.823	531.06
257.056	532.06
257.289	553.06
257.521	545.06
257.754	552.06
257.987	533.06
258.22	542.06
258.452	554.06
258.685	549.06
258.918	572.06
259.151	558.06
259.383	554.06
259.616	565.06
259.849	576.06
260.081	612.06
260.314	628.06
260.547	596.06
260.779	562.06
261.012	597.06
261.244	607.06
261.477	644.06
261.71	598.06
261.942	603.06
262.175	608.06
262.407	602.06
262.64	610.06
262.872	635.06
263.105	616.06
263.337	638.06
263.57	631.06
263.802	618.06
264.035	619.06
264.267	613.06
264.499	628.06
264.732	611.06
264.964	624.06
265.197	635.06
265.429	617.06
265.661	628.06
265.894	624.06
266.126	612.06
266.358	655.06
266.591	628.06
266.823	667.06
267.055	646.06
267.287	658.06
267.52	637.06
267.752	676.06
267.984	653.06
268.216	659.06
268.448	660.06
268.681	692.06
268.913	681.06
269.145	652.06
269.377	664.06
269.609	674.06
269.841	676.06
270.073	685.06
270.306	672.06
270.538	670.06
270.77	654.06
271.002	708.06
271.234	704.06
271.466	709.06
271.698	708.06
271.93	696.06
272.162	708.06
272.394	727.06
272.626	729.06
272.858	700.06
273.09	732.06
273.322	734.06
273.553	737.06
273.785	755.06
274.017	780.06
274.249	774.06
274.481	801.06
274.713	787.06
274.945	823.06
275.176	840.06
275.408	819.06
275.64	813.06
275.872	829.06
276.104	781.06
276.335	765.06
276.567	765.06
276.799	785.06
277.031	791.06
277.262	792.06
277.494	787.06
277.726	791.06
277.957	808.06
278.189	792.06
278.421	793.06
278.652	811.06
278.884	838.06
279.115	811.06
279.347	828.06
279.579	812.06
279.81	858.06
280.042	851.06
280.273	834.06
280.505	844.06
280.736	852.06
280.968	846.06
281.199	834.06
281.431	844.06
281.662	861.06
281.894	885.06
282.125	857.06
282.356	859.06
282.588	899.06
282.819	887.06
283.051	869.06
283.282	859.06
283.513	856.06
283.745	891.06
283.976	901.06
284.207	886.06
284.439	868.06
284.67	851.06
284.901	918.06
285.132	930.06
285.364	887.06
285.595	908.06
285.826	908.06
286.057	921.06
286.288	916.06
286.52	925.06
286.751	917.06
286.982	932.06
287.213	932.06
287.444	947.06
287.675	957.06
287.906	944.06
288.138	939.06
288.369	944.06
288.6	936.06
288.831	928.06
289.062	913.06
289.293	947.06
289.524	939.06
289.755	948.06
289.986	962.06
290.217	944.06
290.448	939.06
290.679	964.06
290.91	940.06
291.141	957.06
291.371	958.06
291.602	969.06
291.833	964.06
292.064	957.06
292.295	976.06
292.526	975.06
292.757	983.06
292.987	951.06
293.218	947.06
293.449	989.06
293.68	971.06
293.91	972.06
294.141	960.06
294.372	997.06
294.603	988.06
294.833	981.06
295.064	1003.06
295.295	1020.06
295.525	980.06
295.756	1004.06
295.987	975.06
296.217	1014.06
296.448	1027.06
296.679	1017.06
296.909	1027.06
297.14	1015.06
297.37	1026.06
297.601	1037.06
297.831	1014.06
298.062	1033.06
298.292	1053.06
298.523	1061.06
298.753	1080.06
298.984	1052.06
299.214	1042.06
299.445	1056.06
299.675	1048.06
299.905	1074.06
300.136	1062.06
300.366	1060.06
300.597	1046.06
300.827	1089.06
301.057	1094.06
301.288	1068.06
301.518	1113.06
301.748	1128.06
301.979	1133.06
302.209	1138.06
302.439	1146.06
302.669	1131.06
302.9	1130.06
303.13	1084.06
303.36	1130.06
303.59	1114.06
303.82	1099.06
304.051	1137.06
304.281	1142.06
304.511	1111.06
304.741	1097.06
304.971	1118.06
305.201	1118.06
305.431	1122.06
305.661	1097.06
305.891	1095.06
306.121	1108.06
306.352	1115.06
306.582	1085.06
306.812	1082.06
307.042	1106.06
307.272	1087.06
307.502	1070.06
307.731	1064.06
307.961	1080.06
308.191	1058.06
308.421	1106.06
308.651	1092.06
308.881	1084.06
309.111	1091.06
309.341	1083.06
309.571	1114.06
309.8	1089.06
310.03	1110.06
310.26	1090.06
310.49	1123.06
310.72	1102.06
310.949	1141.06
311.179	1102.06
311.409	1099.06
311.639	1108.06
311.868	1122.06
312.098	1138.06
312.328	1150.06
312.557	1147.06
312.787	1133.06
313.017	1170.06
313.246	1177.06
313.476	1155.06
313.706	1156.06
313.935	1186.06
314.165	1192.06
314.394	1186.06
314.624	1181.06
314.853	1164.06
315.083	1194.06
315.312	1203.06
315.542	1188.06
315.771	1187.06
316.001	1184.06
316.23	1191.06
316.46	1148.06
316.689	1178.06
316.919	1155.06
317.148	1150.06
317.377	1151.06
317.607	1178.06
317.836	1161.06
318.065	1187.06
318.295	1218.06
318.524	1214.06
318.753	1164.06
318.983	1192.06
319.212	1160.06
319.441	1180.06
319.67	1186.06
319.9	1174.06
320.129	1152.06
320.358	1173.06
320.587	1170.06
320.816	1205.06
321.046	1160.06
321.275	1187.06
321.504	1184.06
321.733	1179.06
321.962	1196.06
322.191	1174.06
322.42	1222.06
322.649	1200.06
322.878	1220.06
323.108	1190.06
323.337	1214.06
323.566	1223.06
323.795	1241.06
324.024	1224.06
324.253	1197.06
324.482	1218.06
324.71	1205.06
324.939	1233.06
325.168	1228.06
325.397	1230.06
325.626	1228.06
325.855	1274.06
326.084	1264.06
326.313	1249.06
326.542	1302.06
326.77	1268.06
326.999	1275.06
327.228	1258.06
327.457	1250.06
327.686	1266.06
327.914	1281.06
328.143	1230.06
328.372	1272.06
328.6	1271.06
328.829	1278.06
329.058	1295.06
329.287	1271.06
329.515	1275.06
329.744	1275.06
329.972	1282.06
330.201	1310.06
330.43	1301.06
330.658	1314.06
330.887	1321.06
331.115	1348.06
331.344	1304.06
331.572	1349.06
331.801	1370.06
332.03	1378.06
332.258	1403.06
332.486	1432.06
332.715	1475.06
332.943	1512.06
333.172	1537.06
333.4	1602.06
333.629	1679.06
333.857	1648.06
334.085	1673.06
334.314	1636.06
334.542	1637.06
334.771	1633.06
334.999	1589.06
335.227	1644.06
335.455	1592.06
335.684	1568.06
335.912	1547.06
336.14	1520.06
336.369	1557.06
336.597	1561.06
336.825	1522.06
337.053	1499.06
337.281	1506.06
337.51	1483.06
337.738	1472.06
337.966	1462.06
338.194	1441.06
338.422	1401.06
338.65	1397.06
338.878	1403.06
339.106	1387.06
339.334	1394.06
339.562	1396.06
339.79	1385.06
340.018	1352.06
340.246	1348.06
340.474	1365.06
340.702	1338.06
340.93	1355.06
341.158	1347.06
341.386	1334.06
341.614	1377.06
341.842	1379.06
342.07	1312.06
342.298	1320.06
342.526	1342.06
342.754	1312.06
342.981	1343.06
343.209	1353.06
343.437	1434.06
343.665	1471.06
343.893	1541.06
344.12	1563.06
344.348	1579.06
344.576	1481.06
344.804	1452.06
345.031	1399.06
345.259	1378.06
345.487	1338.06
345.714	1332.06
345.942	1325.06
346.17	1338.06
346.397	1296.06
346.625	1280.06
346.853	1311.06
347.08	1291.06
347.308	1257.06
347.535	1268.06
347.763	1306.06
347.99	1298.06
348.218	1292.06
348.445	1281.06
348.673	1266.06
348.9	1277.06
349.128	1254.06
349.355	1285.06
349.583	1248.06
349.81	1272.06
350.037	1259.06
350.265	1264.06
350.492	1264.06
350.72	1248.06
350.947	1239.06
351.174	1253.06
351.402	1245.06
351.629	1242.06
351.856	1229.06
352.083	1216.06
352.311	1216.06
352.538	1244.06
352.765	1279.06
352.992	1246.06
353.22	1220.06
353.447	1221.06
353.674	1205.06
353.901	1228.06
354.128	1260.06
354.355	1240.06
354.583	1234.06
354.81	1274.06
355.037	1239.06
355.264	1235.06
355.491	1252.06
355.718	1252.06
355.945	1234.06
356.172	1240.06
356.399	1245.06
356.626	1291.06
356.853	1300.06
357.08	1276.06
357.307	1289.06
357.534	1268.06
357.761	1255.06
357.988	1278.06
358.215	1293.06
358.441	1280.06
358.668	1229.06
358.895	1227.06
359.122	1239.06
359.349	1235.06
359.576	1267.06
359.802	1258.06
360.029	1238.06
360.256	1263.06
360.483	1249.06
360.709	1262.06
360.936	1260.06
361.163	1244.06
361.39	1259.06
361.616	1243.06
361.843	1251.06
362.07	1268.06
362.296	1266.06
362.523	1256.06
362.749	1249.06
362.976	1243.06
363.203	1250.06
363.429	1270.06
363.656	1243.06
363.882	1255.06
364.109	1242.06
364.335	1255.06
364.562	1286.06
364.788	1234.06
365.015	1289.06
365.241	1256.06
365.468	1250.06
365.694	1243.06
365.92	1265.06
366.147	1255.06
366.373	1231.06
366.599	1242.06
366.826	1265.06
367.052	1230.06
367.278	1297.06
367.505	1252.06
367.731	1256.06
367.957	1240.06
368.184	1288.06
368.41	1251.06
368.636	1264.06
368.862	1309.06
369.089	1278.06
369.315	1281.06
369.541	1282.06
369.767	1304.06
369.993	1296.06
370.219	1282.06
370.445	1312.06
370.672	1323.06
370.898	1336.06
371.124	1328.06
371.35	1349.06
371.576	1368.06
371.802	1360.06
372.028	1358.06
372.254	1415.06
372.48	1404.06
372.706	1382.06
372.932	1402.06
373.158	1384.06
373.384	1394.06
373.61	1450.06
373.835	1444.06
374.061	1375.06
374.287	1385.06
374.513	1405.06
374.739	1463.06
374.965	1468.06
375.191	1514.06
375.416	1476.06
375.642	1456.06
375.868	1445.06
376.094	1420.06
376.319	1380.06
376.545	1396.06
376.771	1390.06
376.997	1346.06
377.222	1333.06
377.448	1346.06
377.674	1357.06
377.899	1362.06
378.125	1336.06
378.35	1337.06
378.576	1374.06
378.802	1318.06
379.027	1368.06
379.253	1350.06
379.478	1362.06
379.704	1350.06
379.929	1363.06
380.155	1368.06
380.38	1350.06
380.606	1338.06
380.831	1325.06
381.057	1350.06
381.282	1367.06
381.507	1362.06
381.733	1399.06
381.958	1408.06
382.184	1415.06
382.409	1435.06
382.634	1412.06
382.86	1431.06
383.085	1448.06
383.31	1446.06
383.535	1490.06
383.761	1499.06
383.986	1462.06
384.211	1485.06
384.436	1548.06
384.662	1524.06
384.887	1570.06
385.112	1576.06
385.337	1620.06
385.562	1643.06
385.787	1602.06
386.013	1661.06
386.238	1641.06
386.463	1610.06
386.688	1634.06
386.913	1610.06
387.138	1631.06
387.363	1632.06
387.588	1588.06
387.813	1618.06
388.038	1602.06
388.263	1607.06
388.488	1635.06
388.713	1626.06
388.938	1633.06
389.163	1571.06
389.387	1573.06
389.612	1596.06
389.837	1600.06
390.062	1582.06
390.287	1595.06
390.512	1591.06
390.736	1622.06
390.961	1627.06
391.186	1607.06
391.411	1674.06
391.636	1715.06
391.86	1749.06
392.085	1789.06
392.31	1767.06
392.534	1712.06
392.759	1707.06
392.984	1720.06
393.208	1772.06
393.433	1943.06
393.658	1968.06
393.882	1755.06
394.107	1706.06
394.331	1729.06
394.556	1689.06
394.78	1713.06
395.005	1744.06
395.229	1723.06
395.454	1748.06
395.678	1779.06
395.903	1753.06
396.127	1808.06
396.352	1781.06
396.576	1759.06
396.801	1784.06
397.025	1918.06
397.249	1843.06
397.474	1856.06
397.698	1791.06
397.922	1817.06
398.147	1844.06
398.371	1843.06
398.595	1931.06
398.82	1998.06
399.044	2108.06
399.268	2274.06
399.492	2499.06
399.717	2775.06
399.941	2784.06
400.165	2556.06
400.389	2385.06
400.613	2249.06
400.837	2155.06
401.062	2081.06
401.286	2055.06
401.51	2004.06
401.734	1964.06
401.958	1977.06
402.182	1991.06
402.406	2024.06
402.63	2035.06
402.854	2068.06
403.078	2069.06
403.302	2141.06
403.526	2137.06
403.75	2166.06
403.974	2171.06
404.198	2181.06
404.422	2209.06
404.645	2197.06
404.869	2156.06
405.093	2228.06
405.317	2168.06
405.541	2156.06
405.765	2142.06
405.988	2154.06
406.212	2176.06
406.436	2174.06
406.66	2240.06
406.883	2239.06
407.107	2354.06
407.331	2482.06
407.555	2500.06
407.778	2499.06
408.002	2418.06
408.226	2400.06
408.449	2372.06
408.673	2312.06
408.896	2257.06
409.12	2208.06
409.344	2209.06
409.567	2214.06
409.791	2220.06
410.014	2183.06
410.238	2163.06
410.461	2173.06
410.685	2148.06
410.908	2132.06
411.132	2117.06
411.355	2071.06
411.578	2086.06
411.802	2073.06
412.025	2063.06
412.249	2104.06
412.472	2133.06
412.695	2066.06
412.919	2024.06
413.142	2030.06
413.365	2014.06
413.589	2048.06
413.812	1988.06
414.035	1987.06
414.258	1957.06
414.482	1968.06
414.705	2052.06
414.928	2031.06
415.151	1966.06
415.374	1994.06
415.597	1979.06
415.821	1974.06
416.044	1958.06
416.267	1907.06
416.49	1923.06
416.713	1958.06
416.936	1949.06
417.159	1901.06
417.382	1856.06
417.605	1909.06
417.828	1898.06
418.051	1942.06
418.274	1956.06
418.497	1927.06
418.72	1971.06
418.943	1908.06
419.166	2053.06
419.389	2179.06
419.611	2135.06
419.834	2118.06
420.057	2055.06
420.28	1997.06
420.503	1916.06
420.726	1920.06
420.948	1901.06
421.171	1899.06
421.394	1923.06
421.617	1910.06
421.839	1950.06
422.062	1914.06
422.285	1913.06
422.507	1957.06
422.73	2008.06
422.953	1987.06
423.175	1998.06
423.398	1952.06
423.621	1974.06
423.843	2007.06
424.066	1981.06
424.288	1953.06
424.511	1934.06
424.733	1917.06
424.956	1943.06
425.178	1920.06
425.401	1935.06
425.623	1924.06
425.846	1897.06
426.068	1875.06
426.291	1877.06
426.513	1845.06
426.735	1817.06
426.958	1829.06
427.18	1776.06
427.402	1825.06
427.625	1819.06
427.847	1773.06
428.069	1774.06
428.292	1762.06
428.514	1746.06
428.736	1749.06
428.958	1812.06
429.181	1714.06
429.403	1719.06
429.625	1741.06
429.847	1693.06
430.069	1715.06
430.292	1720.06
430.514	1682.06
430.736	1758.06
430.958	1758.06
431.18	1768.06
431.402	1714.06
431.624	1731.06
431.846	1760.06
432.068	1769.06
432.29	1803.06
432.512	1747.06
432.734	1758.06
432.956	1744.06
433.178	1762.06
433.4	1757.06
433.622	1737.06
433.844	1797.06
434.066	1817.06
434.287	1850.06
434.509	1848.06
434.731	1918.06
434.953	1910.06
435.175	1955.06
435.397	1873.06
435.618	1840.06
435.84	1830.06
436.062	1761.06
436.284	1766.06
436.505	1720.06
436.727	1756.06
436.949	1754.06
437.17	1744.06
437.392	1723.06
437.614	1723.06
437.835	1688.06
438.057	1661.06
438.278	1652.06
438.5	1688.06
438.721	1692.06
438.943	1703.06
439.165	1689.06
439.386	1661.06
439.608	1722.06
439.829	1723.06
440.05	1690.06
440.272	1720.06
440.493	1730.06
440.715	1807.06
440.936	1780.06
441.158	1793.06
441.379	1836.06
441.6	1898.06
441.822	1912.06
442.043	1878.06
442.264	1878.06
442.486	1850.06
442.707	1863.06
442.928	1885.06
443.149	1866.06
443.371	1905.06
443.592	1926.06
443.813	1899.06
444.034	1911.06
444.255	1944.06
444.476	2062.06
444.698	2132.06
444.919	2187.06
445.14	2237.06
445.361	2061.06
445.582	1968.06
445.803	1885.06
446.024	1816.06
446.245	1800.06
446.466	1762.06
446.687	1754.06
446.908	1734.06
447.129	1651.06
447.35	1653.06
447.571	1664.06
447.792	1609.06
448.013	1609.06
448.234	1575.06
448.455	1594.06
448.675	1587.06
448.896	1580.06
449.117	1558.06
449.338	1575.06
449.559	1538.06
449.779	1538.06
450	1538.06
450.221	1529.06
450.442	1540.06
450.662	1525.06
450.883	1600.06
451.104	1613.06
451.324	1573.06
451.545	1540.06
451.766	1584.06
451.986	1518.06
452.207	1552.06
452.428	1522.06
452.648	1562.06
452.869	1547.06
453.089	1490.06
453.31	1510.06
453.53	1442.06
453.751	1497.06
453.971	1485.06
454.192	1469.06
454.412	1477.06
454.633	1473.06
454.853	1484.06
455.073	1477.06
455.294	1477.06
455.514	1467.06
455.734	1452.06
455.955	1451.06
456.175	1459.06
456.395	1442.06
456.616	1454.06
456.836	1466.06
457.056	1530.06
457.276	1458.06
457.497	1472.06
457.717	1482.06
457.937	1500.06
458.157	1512.06
458.377	1540.06
458.598	1575.06
458.818	1601.06
459.038	1644.06
459.258	1648.06
459.478	1731.06
459.698	1743.06
459.918	1784.06
460.138	1858.06
460.358	1944.06
460.578	1926.06
460.798	1973.06
461.018	1979.06
461.238	1941.06
461.458	1980.06
461.678	1953.06
461.898	2009.06
462.118	2005.06
462.338	2082.06
462.558	2153.06
462.777	2238.06
462.997	2412.06
463.217	2488.06
463.437	2492.06
463.657	2371.06
463.876	2297.06
464.096	2308.06
464.316	2246.06
464.536	2246.06
464.755	2177.06
464.975	2110.06
465.195	1985.06
465.414	1929.06
465.634	1806.06
465.854	1793.06
466.073	1758.06
466.293	1718.06
466.512	1687.06
466.732	1655.06
466.951	1675.06
467.171	1637.06
467.391	1682.06
467.61	1627.06
467.829	1635.06
468.049	1652.06
468.268	1592.06
468.488	1607.06
468.707	1587.06
468.927	1595.06
469.146	1606.06
469.365	1584.06
469.585	1624.06
469.804	1685.06
470.023	1632.06
470.243	1680.06
470.462	1680.06
470.681	1671.06
470.901	1668.06
471.12	1629.06
471.339	1633.06
471.558	1613.06
471.777	1628.06
471.997	1653.06
472.216	1577.06
472.435	1613.06
472.654	1556.06
472.873	1552.06
473.092	1574.06
473.311	1592.06
473.53	1565.06
473.749	1559.06
473.968	1547.06
474.187	1579.06
474.406	1565.06
474.625	1582.06
474.844	1580.06
475.063	1596.06
475.282	1580.06
475.501	1579.06
475.72	1637.06
475.939	1606.06
476.158	1630.06
476.377	1636.06
476.596	1672.06
476.814	1728.06
477.033	1699.06
477.252	1678.06
477.471	1732.06
477.69	1767.06
477.908	1812.06
478.127	1851.06
478.346	1874.06
478.564	1925.06
478.783	1907.06
479.002	1968.06
479.22	1984.06
479.439	2019.06
479.658	1966.06
479.876	1975.06
480.095	1993.06
480.313	2071.06
480.532	2104.06
480.751	2084.06
480.969	2048.06
481.188	1980.06
481.406	1962.06
481.624	1950.06
481.843	1891.06
482.061	1891.06
482.28	1869.06
482.498	1924.06
482.717	1836.06
482.935	1934.06
483.153	1853.06
483.372	1853.06
483.59	1870.06
483.808	1912.06
484.027	1912.06
484.245	1892.06
484.463	1960.06
484.681	1962.06
484.9	1972.06
485.118	1946.06
485.336	2003.06
485.554	1992.06
485.772	2056.06
485.99	2023.06
486.209	2020.06
486.427	1981.06
486.645	1970.06
486.863	2025.06
487.081	1990.06
487.299	2014.06
487.517	1992.06
487.735	1960.06
487.953	1938.06
488.171	2012.06
488.389	2005.06
488.607	1984.06
488.825	1922.06
489.043	1957.06
489.261	1970.06
489.479	1988.06
489.696	1957.06
