Data from NiCl2@0.5M.TitratingCurve.Agarose3%dH2O.NegLispCup.LampEnergy10.LIBS07252019_HRD10591_18-20-40-571.txt Node
Date: Thu Jul 25 18:20:40 EDT 2019
User: cochatt
Spectrometer: HR+D1059
Trigger mode: 1
Integration Time (sec): 1.000000E-1
Scans to average: 1
Electric dark correction enabled: true
Nonlinearity correction enabled: false
Boxcar width: 0
XAxis mode: Wavelengths
Number of Pixels in Spectrum: 2048
>>>>>Begin Spectral Data<<<<<
223.165	-30.44
223.4	-30.44
223.635	-30.44
223.869	-20.44
224.104	-28.44
224.338	-6.44
224.573	-11.44
224.808	-12.44
225.042	-16.44
225.277	9.56
225.511	4.56
225.746	-3.44
225.98	20.56
226.215	2.56
226.449	16.56
226.683	23.56
226.918	16.56
227.152	35.56
227.387	30.56
227.621	34.56
227.856	38.56
228.09	36.56
228.324	44.56
228.559	50.56
228.793	70.56
229.027	87.56
229.262	112.56
229.496	95.56
229.73	98.56
229.964	105.56
230.199	121.56
230.433	115.56
230.667	110.56
230.901	122.56
231.136	120.56
231.37	129.56
231.604	120.56
231.838	126.56
232.072	122.56
232.306	136.56
232.541	136.56
232.775	118.56
233.009	133.56
233.243	130.56
233.477	140.56
233.711	114.56
233.945	122.56
234.179	119.56
234.413	142.56
234.647	126.56
234.881	116.56
235.115	124.56
235.349	119.56
235.583	126.56
235.817	125.56
236.051	132.56
236.285	131.56
236.519	134.56
236.753	137.56
236.987	132.56
237.221	130.56
237.455	148.56
237.689	125.56
237.922	150.56
238.156	142.56
238.39	135.56
238.624	118.56
238.858	130.56
239.091	149.56
239.325	147.56
239.559	148.56
239.793	147.56
240.027	151.56
240.26	163.56
240.494	146.56
240.728	143.56
240.961	145.56
241.195	145.56
241.429	167.56
241.662	142.56
241.896	150.56
242.13	169.56
242.363	161.56
242.597	148.56
242.83	169.56
243.064	164.56
243.298	163.56
243.531	155.56
243.765	171.56
243.998	184.56
244.232	168.56
244.465	151.56
244.699	165.56
244.932	163.56
245.166	174.56
245.399	168.56
245.633	187.56
245.866	190.56
246.099	177.56
246.333	176.56
246.566	175.56
246.8	174.56
247.033	167.56
247.266	178.56
247.5	188.56
247.733	193.56
247.966	196.56
248.2	202.56
248.433	195.56
248.666	182.56
248.899	166.56
249.133	201.56
249.366	190.56
249.599	201.56
249.832	198.56
250.066	205.56
250.299	201.56
250.532	210.56
250.765	203.56
250.998	205.56
251.231	210.56
251.465	222.56
251.698	222.56
251.931	198.56
252.164	202.56
252.397	210.56
252.63	220.56
252.863	216.56
253.096	210.56
253.329	218.56
253.562	202.56
253.795	219.56
254.028	235.56
254.261	228.56
254.494	218.56
254.727	221.56
254.96	212.56
255.193	225.56
255.426	223.56
255.659	224.56
255.892	245.56
256.124	221.56
256.357	235.56
256.59	238.56
256.823	212.56
257.056	224.56
257.289	242.56
257.521	240.56
257.754	231.56
257.987	245.56
258.22	246.56
258.452	230.56
258.685	230.56
258.918	235.56
259.151	249.56
259.383	243.56
259.616	239.56
259.849	260.56
260.081	250.56
260.314	258.56
260.547	247.56
260.779	256.56
261.012	261.56
261.244	266.56
261.477	252.56
261.71	258.56
261.942	253.56
262.175	261.56
262.407	260.56
262.64	263.56
262.872	262.56
263.105	273.56
263.337	272.56
263.57	259.56
263.802	264.56
264.035	278.56
264.267	286.56
264.499	268.56
264.732	268.56
264.964	284.56
265.197	277.56
265.429	292.56
265.661	292.56
265.894	279.56
266.126	266.56
266.358	283.56
266.591	283.56
266.823	293.56
267.055	305.56
267.287	293.56
267.52	288.56
267.752	294.56
267.984	294.56
268.216	299.56
268.448	291.56
268.681	299.56
268.913	297.56
269.145	296.56
269.377	300.56
269.609	298.56
269.841	313.56
270.073	283.56
270.306	282.56
270.538	301.56
270.77	316.56
271.002	315.56
271.234	307.56
271.466	299.56
271.698	295.56
271.93	297.56
272.162	317.56
272.394	322.56
272.626	321.56
272.858	315.56
273.09	312.56
273.322	330.56
273.553	328.56
273.785	306.56
274.017	313.56
274.249	319.56
274.481	329.56
274.713	305.56
274.945	318.56
275.176	320.56
275.408	338.56
275.64	338.56
275.872	339.56
276.104	340.56
276.335	327.56
276.567	339.56
276.799	331.56
277.031	338.56
277.262	339.56
277.494	345.56
277.726	354.56
277.957	341.56
278.189	342.56
278.421	345.56
278.652	350.56
278.884	334.56
279.115	347.56
279.347	357.56
279.579	351.56
279.81	346.56
280.042	324.56
280.273	359.56
280.505	359.56
280.736	368.56
280.968	370.56
281.199	397.56
281.431	371.56
281.662	360.56
281.894	378.56
282.125	371.56
282.356	373.56
282.588	371.56
282.819	361.56
283.051	364.56
283.282	348.56
283.513	376.56
283.745	367.56
283.976	388.56
284.207	394.56
284.439	391.56
284.67	395.56
284.901	392.56
285.132	375.56
285.364	388.56
285.595	372.56
285.826	380.56
286.057	390.56
286.288	391.56
286.52	390.56
286.751	401.56
286.982	404.56
287.213	404.56
287.444	396.56
287.675	410.56
287.906	408.56
288.138	393.56
288.369	409.56
288.6	398.56
288.831	408.56
289.062	396.56
289.293	400.56
289.524	416.56
289.755	408.56
289.986	410.56
290.217	415.56
290.448	421.56
290.679	414.56
290.91	426.56
291.141	434.56
291.371	424.56
291.602	440.56
291.833	418.56
292.064	412.56
292.295	439.56
292.526	422.56
292.757	425.56
292.987	393.56
293.218	420.56
293.449	434.56
293.68	440.56
293.91	426.56
294.141	413.56
294.372	426.56
294.603	425.56
294.833	418.56
295.064	442.56
295.295	426.56
295.525	417.56
295.756	430.56
295.987	424.56
296.217	415.56
296.448	433.56
296.679	437.56
296.909	433.56
297.14	434.56
297.37	458.56
297.601	457.56
297.831	446.56
298.062	454.56
298.292	447.56
298.523	465.56
298.753	478.56
298.984	467.56
299.214	466.56
299.445	452.56
299.675	459.56
299.905	454.56
300.136	467.56
300.366	484.56
300.597	482.56
300.827	487.56
301.057	474.56
301.288	460.56
301.518	530.56
301.748	474.56
301.979	479.56
302.209	482.56
302.439	455.56
302.669	477.56
302.9	480.56
303.13	456.56
303.36	470.56
303.59	498.56
303.82	473.56
304.051	484.56
304.281	487.56
304.511	474.56
304.741	479.56
304.971	477.56
305.201	507.56
305.431	491.56
305.661	488.56
305.891	476.56
306.121	487.56
306.352	457.56
306.582	483.56
306.812	486.56
307.042	474.56
307.272	480.56
307.502	466.56
307.731	467.56
307.961	458.56
308.191	465.56
308.421	472.56
308.651	473.56
308.881	476.56
309.111	457.56
309.341	464.56
309.571	475.56
309.8	489.56
310.03	464.56
310.26	503.56
310.49	487.56
310.72	492.56
310.949	471.56
311.179	475.56
311.409	509.56
311.639	488.56
311.868	496.56
312.098	496.56
312.328	491.56
312.557	494.56
312.787	487.56
313.017	503.56
313.246	507.56
313.476	501.56
313.706	498.56
313.935	500.56
314.165	495.56
314.394	544.56
314.624	506.56
314.853	513.56
315.083	516.56
315.312	526.56
315.542	498.56
315.771	512.56
316.001	508.56
316.23	511.56
316.46	485.56
316.689	503.56
316.919	489.56
317.148	514.56
317.377	485.56
317.607	494.56
317.836	497.56
318.065	503.56
318.295	483.56
318.524	487.56
318.753	499.56
318.983	543.56
319.212	502.56
319.441	498.56
319.67	514.56
319.9	508.56
320.129	497.56
320.358	499.56
320.587	488.56
320.816	500.56
321.046	502.56
321.275	517.56
321.504	501.56
321.733	520.56
321.962	515.56
322.191	535.56
322.42	528.56
322.649	498.56
322.878	518.56
323.108	510.56
323.337	512.56
323.566	529.56
323.795	552.56
324.024	537.56
324.253	528.56
324.482	524.56
324.71	530.56
324.939	568.56
325.168	555.56
325.397	538.56
325.626	513.56
325.855	514.56
326.084	560.56
326.313	542.56
326.542	546.56
326.77	570.56
326.999	562.56
327.228	544.56
327.457	547.56
327.686	548.56
327.914	567.56
328.143	543.56
328.372	565.56
328.6	542.56
328.829	543.56
329.058	556.56
329.287	543.56
329.515	552.56
329.744	558.56
329.972	571.56
330.201	579.56
330.43	559.56
330.658	549.56
330.887	570.56
331.115	579.56
331.344	587.56
331.572	578.56
331.801	593.56
332.03	604.56
332.258	628.56
332.486	628.56
332.715	647.56
332.943	658.56
333.172	684.56
333.4	684.56
333.629	727.56
333.857	723.56
334.085	713.56
334.314	724.56
334.542	676.56
334.771	686.56
334.999	675.56
335.227	673.56
335.455	684.56
335.684	672.56
335.912	671.56
336.14	663.56
336.369	663.56
336.597	680.56
336.825	669.56
337.053	655.56
337.281	681.56
337.51	653.56
337.738	642.56
337.966	602.56
338.194	587.56
338.422	580.56
338.65	599.56
338.878	602.56
339.106	592.56
339.334	613.56
339.562	604.56
339.79	583.56
340.018	574.56
340.246	575.56
340.474	569.56
340.702	564.56
340.93	573.56
341.158	582.56
341.386	591.56
341.614	605.56
341.842	610.56
342.07	555.56
342.298	572.56
342.526	592.56
342.754	579.56
342.981	588.56
343.209	599.56
343.437	612.56
343.665	633.56
343.893	685.56
344.12	677.56
344.348	674.56
344.576	648.56
344.804	615.56
345.031	618.56
345.259	599.56
345.487	583.56
345.714	570.56
345.942	595.56
346.17	591.56
346.397	578.56
346.625	552.56
346.853	570.56
347.08	560.56
347.308	564.56
347.535	560.56
347.763	559.56
347.99	556.56
348.218	572.56
348.445	566.56
348.673	563.56
348.9	549.56
349.128	555.56
349.355	571.56
349.583	564.56
349.81	541.56
350.037	536.56
350.265	559.56
350.492	553.56
350.72	540.56
350.947	538.56
351.174	503.56
351.402	548.56
351.629	552.56
351.856	558.56
352.083	564.56
352.311	554.56
352.538	568.56
352.765	556.56
352.992	533.56
353.22	526.56
353.447	527.56
353.674	518.56
353.901	538.56
354.128	517.56
354.355	532.56
354.583	513.56
354.81	528.56
355.037	530.56
355.264	543.56
355.491	541.56
355.718	520.56
355.945	544.56
356.172	513.56
356.399	552.56
356.626	554.56
356.853	531.56
357.08	544.56
357.307	540.56
357.534	532.56
357.761	530.56
357.988	543.56
358.215	542.56
358.441	527.56
358.668	514.56
358.895	525.56
359.122	532.56
359.349	525.56
359.576	528.56
359.802	557.56
360.029	539.56
360.256	532.56
360.483	540.56
360.709	525.56
360.936	556.56
361.163	528.56
361.39	522.56
361.616	552.56
361.843	536.56
362.07	546.56
362.296	567.56
362.523	560.56
362.749	529.56
362.976	526.56
363.203	515.56
363.429	511.56
363.656	532.56
363.882	524.56
364.109	535.56
364.335	531.56
364.562	539.56
364.788	528.56
365.015	531.56
365.241	522.56
365.468	528.56
365.694	521.56
365.92	532.56
366.147	517.56
366.373	536.56
366.599	525.56
366.826	514.56
367.052	549.56
367.278	532.56
367.505	547.56
367.731	516.56
367.957	524.56
368.184	519.56
368.41	538.56
368.636	551.56
368.862	542.56
369.089	552.56
369.315	553.56
369.541	548.56
369.767	542.56
369.993	549.56
370.219	543.56
370.445	537.56
370.672	532.56
370.898	575.56
371.124	567.56
371.35	559.56
371.576	567.56
371.802	580.56
372.028	565.56
372.254	555.56
372.48	582.56
372.706	590.56
372.932	565.56
373.158	565.56
373.384	564.56
373.61	555.56
373.835	574.56
374.061	558.56
374.287	579.56
374.513	590.56
374.739	613.56
374.965	616.56
375.191	621.56
375.416	624.56
375.642	612.56
375.868	638.56
376.094	575.56
376.319	574.56
376.545	586.56
376.771	576.56
376.997	594.56
377.222	552.56
377.448	549.56
377.674	564.56
377.899	550.56
378.125	569.56
378.35	550.56
378.576	575.56
378.802	558.56
379.027	594.56
379.253	561.56
379.478	563.56
379.704	550.56
379.929	581.56
380.155	546.56
380.38	544.56
380.606	568.56
380.831	564.56
381.057	550.56
381.282	560.56
381.507	547.56
381.733	552.56
381.958	574.56
382.184	585.56
382.409	595.56
382.634	568.56
382.86	596.56
383.085	606.56
383.31	571.56
383.535	598.56
383.761	605.56
383.986	612.56
384.211	631.56
384.436	594.56
384.662	632.56
384.887	665.56
385.112	648.56
385.337	661.56
385.562	675.56
385.787	682.56
386.013	704.56
386.238	679.56
386.463	655.56
386.688	665.56
386.913	639.56
387.138	667.56
387.363	656.56
387.588	682.56
387.813	661.56
388.038	682.56
388.263	683.56
388.488	673.56
388.713	642.56
388.938	632.56
389.163	638.56
389.387	640.56
389.612	648.56
389.837	677.56
390.062	667.56
390.287	637.56
390.512	651.56
390.736	652.56
390.961	682.56
391.186	684.56
391.411	691.56
391.636	718.56
391.86	717.56
392.085	730.56
392.31	737.56
392.534	714.56
392.759	713.56
392.984	706.56
393.208	706.56
393.433	690.56
393.658	723.56
393.882	692.56
394.107	702.56
394.331	715.56
394.556	690.56
394.78	718.56
395.005	724.56
395.229	708.56
395.454	715.56
395.678	732.56
395.903	713.56
396.127	746.56
396.352	722.56
396.576	707.56
396.801	723.56
397.025	700.56
397.249	733.56
397.474	742.56
397.698	724.56
397.922	719.56
398.147	747.56
398.371	757.56
398.595	777.56
398.82	817.56
399.044	866.56
399.268	936.56
399.492	1072.56
399.717	1153.56
399.941	1172.56
400.165	1078.56
400.389	971.56
400.613	930.56
400.837	860.56
401.062	861.56
401.286	847.56
401.51	855.56
401.734	828.56
401.958	868.56
402.182	861.56
402.406	857.56
402.63	895.56
402.854	876.56
403.078	894.56
403.302	896.56
403.526	912.56
403.75	902.56
403.974	897.56
404.198	894.56
404.422	932.56
404.645	908.56
404.869	931.56
405.093	927.56
405.317	920.56
405.541	894.56
405.765	913.56
405.988	897.56
406.212	921.56
406.436	917.56
406.66	923.56
406.883	955.56
407.107	982.56
407.331	1026.56
407.555	1079.56
407.778	1057.56
408.002	1030.56
408.226	1004.56
408.449	1010.56
408.673	979.56
408.896	944.56
409.12	963.56
409.344	962.56
409.567	965.56
409.791	929.56
410.014	934.56
410.238	922.56
410.461	927.56
410.685	896.56
410.908	876.56
411.132	894.56
411.355	888.56
411.578	873.56
411.802	832.56
412.025	886.56
412.249	916.56
412.472	904.56
412.695	860.56
412.919	835.56
413.142	852.56
413.365	834.56
413.589	841.56
413.812	845.56
414.035	844.56
414.258	850.56
414.482	837.56
414.705	845.56
414.928	850.56
415.151	823.56
415.374	863.56
415.597	841.56
415.821	822.56
416.044	821.56
416.267	823.56
416.49	834.56
416.713	842.56
416.936	809.56
417.159	803.56
417.382	820.56
417.605	835.56
417.828	816.56
418.051	818.56
418.274	845.56
418.497	842.56
418.72	851.56
418.943	869.56
419.166	936.56
419.389	976.56
419.611	928.56
419.834	912.56
420.057	897.56
420.28	850.56
420.503	825.56
420.726	838.56
420.948	836.56
421.171	858.56
421.394	875.56
421.617	838.56
421.839	845.56
422.062	849.56
422.285	831.56
422.507	816.56
422.73	838.56
422.953	858.56
423.175	849.56
423.398	843.56
423.621	866.56
423.843	886.56
424.066	881.56
424.288	855.56
424.511	878.56
424.733	872.56
424.956	854.56
425.178	840.56
425.401	849.56
425.623	842.56
425.846	807.56
426.068	843.56
426.291	793.56
426.513	812.56
426.735	803.56
426.958	783.56
427.18	788.56
427.402	792.56
427.625	770.56
427.847	778.56
428.069	766.56
428.292	769.56
428.514	762.56
428.736	737.56
428.958	746.56
429.181	751.56
429.403	752.56
429.625	748.56
429.847	752.56
430.069	745.56
430.292	776.56
430.514	708.56
430.736	715.56
430.958	747.56
431.18	741.56
431.402	770.56
431.624	770.56
431.846	784.56
432.068	778.56
432.29	798.56
432.512	775.56
432.734	770.56
432.956	743.56
433.178	794.56
433.4	768.56
433.622	784.56
433.844	779.56
434.066	803.56
434.287	797.56
434.509	823.56
434.731	811.56
434.953	849.56
435.175	837.56
435.397	858.56
435.618	797.56
435.84	774.56
436.062	780.56
436.284	761.56
436.505	757.56
436.727	742.56
436.949	777.56
437.17	768.56
437.392	758.56
437.614	727.56
437.835	743.56
438.057	761.56
438.278	729.56
438.5	731.56
438.721	733.56
438.943	753.56
439.165	716.56
439.386	745.56
439.608	770.56
439.829	765.56
440.05	784.56
440.272	774.56
440.493	785.56
440.715	774.56
440.936	795.56
441.158	822.56
441.379	816.56
441.6	844.56
441.822	848.56
442.043	887.56
442.264	849.56
442.486	834.56
442.707	865.56
442.928	851.56
443.149	822.56
443.371	835.56
443.592	865.56
443.813	845.56
444.034	873.56
444.255	894.56
444.476	915.56
444.698	994.56
444.919	1010.56
445.14	1036.56
445.361	965.56
445.582	894.56
445.803	802.56
446.024	835.56
446.245	834.56
446.466	817.56
446.687	816.56
446.908	779.56
447.129	786.56
447.35	766.56
447.571	753.56
447.792	728.56
448.013	740.56
448.234	751.56
448.455	711.56
448.675	746.56
448.896	743.56
449.117	731.56
449.338	686.56
449.559	705.56
449.779	697.56
450	724.56
450.221	709.56
450.442	704.56
450.662	714.56
450.883	732.56
451.104	738.56
451.324	740.56
451.545	727.56
451.766	720.56
451.986	726.56
452.207	712.56
452.428	723.56
452.648	715.56
452.869	698.56
453.089	702.56
453.31	714.56
453.53	704.56
453.751	671.56
453.971	696.56
454.192	692.56
454.412	699.56
454.633	683.56
454.853	685.56
455.073	683.56
455.294	702.56
455.514	694.56
455.734	673.56
455.955	672.56
456.175	669.56
456.395	642.56
456.616	664.56
456.836	668.56
457.056	670.56
457.276	656.56
457.497	674.56
457.717	666.56
457.937	678.56
458.157	696.56
458.377	688.56
458.598	724.56
458.818	730.56
459.038	728.56
459.258	749.56
459.478	785.56
459.698	795.56
459.918	815.56
460.138	856.56
460.358	873.56
460.578	895.56
460.798	894.56
461.018	933.56
461.238	894.56
461.458	893.56
461.678	881.56
461.898	929.56
462.118	902.56
462.338	979.56
462.558	976.56
462.777	1025.56
462.997	1095.56
463.217	1158.56
463.437	1170.56
463.657	1119.56
463.876	1042.56
464.096	1060.56
464.316	1038.56
464.536	1050.56
464.755	1006.56
464.975	992.56
465.195	946.56
465.414	903.56
465.634	856.56
465.854	816.56
466.073	824.56
466.293	784.56
466.512	776.56
466.732	747.56
466.951	766.56
467.171	774.56
467.391	743.56
467.61	777.56
467.829	738.56
468.049	751.56
468.268	731.56
468.488	713.56
468.707	741.56
468.927	734.56
469.146	703.56
469.365	750.56
469.585	751.56
469.804	762.56
470.023	760.56
470.243	757.56
470.462	767.56
470.681	783.56
470.901	763.56
471.12	776.56
471.339	768.56
471.558	752.56
471.777	741.56
471.997	746.56
472.216	732.56
472.435	686.56
472.654	683.56
472.873	708.56
473.092	713.56
473.311	696.56
473.53	697.56
473.749	696.56
473.968	714.56
474.187	714.56
474.406	683.56
474.625	721.56
474.844	752.56
475.063	702.56
475.282	732.56
475.501	720.56
475.72	708.56
475.939	724.56
476.158	717.56
476.377	740.56
476.596	720.56
476.814	768.56
477.033	744.56
477.252	758.56
477.471	775.56
477.69	824.56
477.908	810.56
478.127	826.56
478.346	842.56
478.564	842.56
478.783	880.56
479.002	884.56
479.22	868.56
479.439	910.56
479.658	873.56
479.876	888.56
480.095	880.56
480.313	938.56
480.532	937.56
480.751	917.56
480.969	864.56
481.188	858.56
481.406	860.56
481.624	840.56
481.843	826.56
482.061	832.56
482.28	807.56
482.498	818.56
482.717	795.56
482.935	823.56
483.153	803.56
483.372	832.56
483.59	827.56
483.808	825.56
484.027	815.56
484.245	825.56
484.463	848.56
484.681	855.56
484.9	863.56
485.118	837.56
485.336	838.56
485.554	846.56
485.772	856.56
485.99	837.56
486.209	845.56
486.427	866.56
486.645	868.56
486.863	880.56
487.081	852.56
487.299	856.56
487.517	832.56
487.735	843.56
487.953	884.56
488.171	862.56
488.389	862.56
488.607	836.56
488.825	858.56
489.043	842.56
489.261	840.56
489.479	834.56
489.696	843.56
489.914	869.56
490.132	867.56
490.35	841.56
490.568	878.56
490.786	864.56
491.003	873.56
491.221	878.56
491.439	860.56
491.657	879.56
491.874	910.56
492.092	850.56
492.31	909.56
492.527	894.56
492.745	890.56
492.963	879.56
493.18	884.56
493.398	865.56
493.615	891.56
493.833	904.56
494.05	895.56
494.268	914.56
494.485	933.56
494.703	918.56
494.92	903.56
495.138	930.56
495.355	878.56
495.573	899.56
495.79	928.56
496.008	923.56
496.225	918.56
496.442	934.56
496.66	989.56
496.877	958.56
497.094	965.56
497.312	975.56
497.529	1010.56
497.746	1028.56
497.963	1055.56
498.181	1093.56
498.398	1131.56
498.615	1188.56
498.832	1279.56
499.049	1351.56
499.267	1471.56
499.484	1572.56
499.701	1767.56
499.918	1916.56
500.135	2174.56
500.352	2428.56
500.569	2438.56
500.786	2416.56
501.003	2309.56
501.22	2122.56
