Data from NiCl2@0.125M.TitratingCurve.Agarose3%dH2O.NegLispCup.LampEnergy10.LIBS07252019_HRD10591_18-29-22-574.txt Node
Date: Thu Jul 25 18:29:22 EDT 2019
User: cochatt
Spectrometer: HR+D1059
Trigger mode: 1
Integration Time (sec): 1.000000E-1
Scans to average: 1
Electric dark correction enabled: true
Nonlinearity correction enabled: false
Boxcar width: 0
XAxis mode: Wavelengths
Number of Pixels in Spectrum: 2048
>>>>>Begin Spectral Data<<<<<
223.165	-15.75
223.4	-15.75
223.635	-15.75
223.869	-21.75
224.104	-20.75
224.338	-19.75
224.573	-11.75
224.808	-23.75
225.042	-12.75
225.277	-6.75
225.511	7.25
225.746	2.25
225.98	15.25
226.215	17.25
226.449	15.25
226.683	8.25
226.918	32.25
227.152	35.25
227.387	36.25
227.621	55.25
227.856	50.25
228.09	43.25
228.324	40.25
228.559	66.25
228.793	69.25
229.027	116.25
229.262	119.25
229.496	117.25
229.73	119.25
229.964	124.25
230.199	140.25
230.433	135.25
230.667	142.25
230.901	138.25
231.136	139.25
231.37	149.25
231.604	143.25
231.838	144.25
232.072	150.25
232.306	152.25
232.541	165.25
232.775	154.25
233.009	158.25
233.243	145.25
233.477	146.25
233.711	156.25
233.945	165.25
234.179	163.25
234.413	173.25
234.647	144.25
234.881	155.25
235.115	169.25
235.349	160.25
235.583	159.25
235.817	152.25
236.051	169.25
236.285	169.25
236.519	165.25
236.753	166.25
236.987	184.25
237.221	163.25
237.455	168.25
237.689	157.25
237.922	180.25
238.156	190.25
238.39	185.25
238.624	164.25
238.858	194.25
239.091	176.25
239.325	176.25
239.559	187.25
239.793	181.25
240.027	186.25
240.26	198.25
240.494	178.25
240.728	183.25
240.961	188.25
241.195	201.25
241.429	193.25
241.662	202.25
241.896	180.25
242.13	199.25
242.363	205.25
242.597	210.25
242.83	223.25
243.064	197.25
243.298	231.25
243.531	193.25
243.765	228.25
243.998	241.25
244.232	195.25
244.465	210.25
244.699	230.25
244.932	236.25
245.166	235.25
245.399	228.25
245.633	232.25
245.866	223.25
246.099	218.25
246.333	222.25
246.566	228.25
246.8	249.25
247.033	250.25
247.266	245.25
247.5	247.25
247.733	230.25
247.966	243.25
248.2	236.25
248.433	257.25
248.666	242.25
248.899	241.25
249.133	254.25
249.366	251.25
249.599	264.25
249.832	277.25
250.066	256.25
250.299	289.25
250.532	261.25
250.765	277.25
250.998	295.25
251.231	292.25
251.465	277.25
251.698	298.25
251.931	277.25
252.164	293.25
252.397	268.25
252.63	299.25
252.863	281.25
253.096	302.25
253.329	291.25
253.562	320.25
253.795	296.25
254.028	282.25
254.261	300.25
254.494	301.25
254.727	296.25
254.96	293.25
255.193	311.25
255.426	309.25
255.659	306.25
255.892	298.25
256.124	323.25
256.357	297.25
256.59	280.25
256.823	314.25
257.056	328.25
257.289	305.25
257.521	317.25
257.754	326.25
257.987	315.25
258.22	309.25
258.452	315.25
258.685	316.25
258.918	342.25
259.151	317.25
259.383	338.25
259.616	332.25
259.849	352.25
260.081	342.25
260.314	325.25
260.547	332.25
260.779	333.25
261.012	340.25
261.244	347.25
261.477	326.25
261.71	336.25
261.942	332.25
262.175	346.25
262.407	342.25
262.64	340.25
262.872	350.25
263.105	351.25
263.337	355.25
263.57	349.25
263.802	351.25
264.035	374.25
264.267	356.25
264.499	367.25
264.732	367.25
264.964	364.25
265.197	376.25
265.429	382.25
265.661	373.25
265.894	381.25
266.126	379.25
266.358	379.25
266.591	381.25
266.823	389.25
267.055	382.25
267.287	383.25
267.52	369.25
267.752	386.25
267.984	398.25
268.216	381.25
268.448	401.25
268.681	393.25
268.913	370.25
269.145	405.25
269.377	398.25
269.609	406.25
269.841	390.25
270.073	395.25
270.306	395.25
270.538	393.25
270.77	409.25
271.002	401.25
271.234	382.25
271.466	396.25
271.698	400.25
271.93	422.25
272.162	416.25
272.394	403.25
272.626	401.25
272.858	417.25
273.09	420.25
273.322	420.25
273.553	418.25
273.785	416.25
274.017	421.25
274.249	423.25
274.481	417.25
274.713	410.25
274.945	428.25
275.176	434.25
275.408	438.25
275.64	438.25
275.872	422.25
276.104	430.25
276.335	457.25
276.567	450.25
276.799	428.25
277.031	426.25
277.262	472.25
277.494	449.25
277.726	460.25
277.957	451.25
278.189	462.25
278.421	456.25
278.652	469.25
278.884	463.25
279.115	451.25
279.347	447.25
279.579	457.25
279.81	457.25
280.042	473.25
280.273	472.25
280.505	469.25
280.736	474.25
280.968	494.25
281.199	498.25
281.431	480.25
281.662	490.25
281.894	476.25
282.125	488.25
282.356	501.25
282.588	518.25
282.819	480.25
283.051	490.25
283.282	505.25
283.513	500.25
283.745	490.25
283.976	498.25
284.207	488.25
284.439	512.25
284.67	503.25
284.901	497.25
285.132	492.25
285.364	491.25
285.595	503.25
285.826	520.25
286.057	505.25
286.288	502.25
286.52	513.25
286.751	524.25
286.982	532.25
287.213	536.25
287.444	541.25
287.675	524.25
287.906	512.25
288.138	539.25
288.369	555.25
288.6	538.25
288.831	521.25
289.062	531.25
289.293	553.25
289.524	536.25
289.755	544.25
289.986	533.25
290.217	555.25
290.448	565.25
290.679	557.25
290.91	542.25
291.141	537.25
291.371	552.25
291.602	563.25
291.833	554.25
292.064	564.25
292.295	583.25
292.526	563.25
292.757	550.25
292.987	541.25
293.218	551.25
293.449	553.25
293.68	564.25
293.91	571.25
294.141	569.25
294.372	576.25
294.603	555.25
294.833	564.25
295.064	579.25
295.295	589.25
295.525	570.25
295.756	562.25
295.987	553.25
296.217	594.25
296.448	563.25
296.679	593.25
296.909	560.25
297.14	603.25
297.37	607.25
297.601	598.25
297.831	619.25
298.062	615.25
298.292	639.25
298.523	652.25
298.753	621.25
298.984	601.25
299.214	592.25
299.445	602.25
299.675	618.25
299.905	610.25
300.136	603.25
300.366	619.25
300.597	596.25
300.827	628.25
301.057	654.25
301.288	657.25
301.518	626.25
301.748	642.25
301.979	638.25
302.209	639.25
302.439	632.25
302.669	601.25
302.9	620.25
303.13	634.25
303.36	621.25
303.59	603.25
303.82	610.25
304.051	617.25
304.281	621.25
304.511	619.25
304.741	624.25
304.971	631.25
305.201	616.25
305.431	619.25
305.661	620.25
305.891	629.25
306.121	635.25
306.352	594.25
306.582	570.25
306.812	587.25
307.042	614.25
307.272	593.25
307.502	602.25
307.731	618.25
307.961	616.25
308.191	596.25
308.421	612.25
308.651	605.25
308.881	600.25
309.111	601.25
309.341	586.25
309.571	590.25
309.8	610.25
310.03	584.25
310.26	598.25
310.49	624.25
310.72	611.25
310.949	572.25
311.179	641.25
311.409	602.25
311.639	620.25
311.868	619.25
312.098	638.25
312.328	617.25
312.557	616.25
312.787	645.25
313.017	640.25
313.246	640.25
313.476	650.25
313.706	626.25
313.935	631.25
314.165	665.25
314.394	655.25
314.624	645.25
314.853	633.25
315.083	651.25
315.312	636.25
315.542	669.25
315.771	652.25
316.001	651.25
316.23	642.25
316.46	617.25
316.689	624.25
316.919	646.25
317.148	639.25
317.377	617.25
317.607	624.25
317.836	640.25
318.065	623.25
318.295	620.25
318.524	654.25
318.753	629.25
318.983	627.25
319.212	617.25
319.441	628.25
319.67	621.25
319.9	634.25
320.129	637.25
320.358	633.25
320.587	627.25
320.816	640.25
321.046	647.25
321.275	632.25
321.504	629.25
321.733	624.25
321.962	630.25
322.191	621.25
322.42	636.25
322.649	657.25
322.878	637.25
323.108	652.25
323.337	646.25
323.566	642.25
323.795	645.25
324.024	662.25
324.253	648.25
324.482	631.25
324.71	652.25
324.939	664.25
325.168	663.25
325.397	644.25
325.626	661.25
325.855	671.25
326.084	701.25
326.313	698.25
326.542	705.25
326.77	723.25
326.999	690.25
327.228	684.25
327.457	678.25
327.686	700.25
327.914	686.25
328.143	701.25
328.372	693.25
328.6	695.25
328.829	697.25
329.058	671.25
329.287	704.25
329.515	707.25
329.744	728.25
329.972	709.25
330.201	704.25
330.43	699.25
330.658	691.25
330.887	702.25
331.115	694.25
331.344	731.25
331.572	718.25
331.801	742.25
332.03	769.25
332.258	789.25
332.486	796.25
332.715	819.25
332.943	843.25
333.172	894.25
333.4	933.25
333.629	989.25
333.857	996.25
334.085	936.25
334.314	941.25
334.542	881.25
334.771	860.25
334.999	873.25
335.227	878.25
335.455	881.25
335.684	868.25
335.912	872.25
336.14	848.25
336.369	837.25
336.597	843.25
336.825	824.25
337.053	818.25
337.281	813.25
337.51	801.25
337.738	762.25
337.966	793.25
338.194	776.25
338.422	714.25
338.65	737.25
338.878	766.25
339.106	760.25
339.334	745.25
339.562	754.25
339.79	727.25
340.018	722.25
340.246	696.25
340.474	718.25
340.702	708.25
340.93	705.25
341.158	742.25
341.386	726.25
341.614	737.25
341.842	716.25
342.07	716.25
342.298	699.25
342.526	705.25
342.754	705.25
342.981	685.25
343.209	746.25
343.437	783.25
343.665	814.25
343.893	895.25
344.12	917.25
344.348	868.25
344.576	831.25
344.804	755.25
345.031	731.25
345.259	728.25
345.487	741.25
345.714	716.25
345.942	713.25
346.17	704.25
346.397	714.25
346.625	703.25
346.853	685.25
347.08	705.25
347.308	702.25
347.535	707.25
347.763	725.25
347.99	714.25
348.218	725.25
348.445	740.25
348.673	718.25
348.9	714.25
349.128	667.25
349.355	694.25
349.583	694.25
349.81	664.25
350.037	705.25
350.265	680.25
350.492	658.25
350.72	690.25
350.947	652.25
351.174	650.25
351.402	667.25
351.629	650.25
351.856	663.25
352.083	665.25
352.311	663.25
352.538	677.25
352.765	650.25
352.992	651.25
353.22	644.25
353.447	651.25
353.674	634.25
353.901	656.25
354.128	660.25
354.355	666.25
354.583	674.25
354.81	662.25
355.037	665.25
355.264	663.25
355.491	680.25
355.718	661.25
355.945	662.25
356.172	663.25
356.399	678.25
356.626	646.25
356.853	693.25
357.08	676.25
357.307	664.25
357.534	666.25
357.761	683.25
357.988	700.25
358.215	645.25
358.441	678.25
358.668	680.25
358.895	651.25
359.122	688.25
359.349	694.25
359.576	668.25
359.802	680.25
360.029	671.25
360.256	678.25
360.483	643.25
360.709	657.25
360.936	660.25
361.163	696.25
361.39	657.25
361.616	672.25
361.843	674.25
362.07	659.25
362.296	650.25
362.523	662.25
362.749	672.25
362.976	645.25
363.203	668.25
363.429	681.25
363.656	678.25
363.882	684.25
364.109	674.25
364.335	632.25
364.562	660.25
364.788	655.25
365.015	660.25
365.241	657.25
365.468	652.25
365.694	690.25
365.92	657.25
366.147	674.25
366.373	652.25
366.599	651.25
366.826	665.25
367.052	654.25
367.278	650.25
367.505	670.25
367.731	679.25
367.957	685.25
368.184	685.25
368.41	685.25
368.636	686.25
368.862	677.25
369.089	673.25
369.315	674.25
369.541	688.25
369.767	685.25
369.993	696.25
370.219	677.25
370.445	692.25
370.672	722.25
370.898	699.25
371.124	701.25
371.35	746.25
371.576	753.25
371.802	708.25
372.028	711.25
372.254	734.25
372.48	715.25
372.706	740.25
372.932	734.25
373.158	769.25
373.384	756.25
373.61	710.25
373.835	725.25
374.061	721.25
374.287	711.25
374.513	748.25
374.739	754.25
374.965	796.25
375.191	821.25
375.416	805.25
375.642	787.25
375.868	772.25
376.094	768.25
376.319	739.25
376.545	766.25
376.771	728.25
376.997	743.25
377.222	728.25
377.448	741.25
377.674	730.25
377.899	729.25
378.125	732.25
378.35	710.25
378.576	707.25
378.802	708.25
379.027	725.25
379.253	730.25
379.478	726.25
379.704	716.25
379.929	718.25
380.155	717.25
380.38	713.25
380.606	718.25
380.831	712.25
381.057	722.25
381.282	697.25
381.507	722.25
381.733	726.25
381.958	732.25
382.184	746.25
382.409	719.25
382.634	744.25
382.86	762.25
383.085	766.25
383.31	790.25
383.535	820.25
383.761	813.25
383.986	844.25
384.211	811.25
384.436	842.25
384.662	860.25
384.887	908.25
385.112	858.25
385.337	900.25
385.562	883.25
385.787	897.25
386.013	891.25
386.238	891.25
386.463	913.25
386.688	914.25
386.913	852.25
387.138	842.25
387.363	893.25
387.588	852.25
387.813	859.25
388.038	844.25
388.263	856.25
388.488	882.25
388.713	890.25
388.938	837.25
389.163	835.25
389.387	849.25
389.612	817.25
389.837	818.25
390.062	828.25
390.287	861.25
390.512	868.25
390.736	840.25
390.961	874.25
391.186	898.25
391.411	916.25
391.636	973.25
391.86	979.25
392.085	1003.25
392.31	998.25
392.534	988.25
392.759	954.25
392.984	914.25
393.208	941.25
393.433	900.25
393.658	935.25
393.882	934.25
394.107	933.25
394.331	918.25
394.556	900.25
394.78	952.25
395.005	958.25
395.229	964.25
395.454	958.25
395.678	964.25
395.903	983.25
396.127	991.25
396.352	938.25
396.576	928.25
396.801	922.25
397.025	961.25
397.249	942.25
397.474	962.25
397.698	974.25
397.922	984.25
398.147	956.25
398.371	1001.25
398.595	1028.25
398.82	1055.25
399.044	1141.25
399.268	1304.25
399.492	1490.25
399.717	1739.25
399.941	1774.25
400.165	1533.25
400.389	1372.25
400.613	1237.25
400.837	1145.25
401.062	1108.25
401.286	1110.25
401.51	1091.25
401.734	1104.25
401.958	1108.25
402.182	1127.25
402.406	1140.25
402.63	1145.25
402.854	1190.25
403.078	1232.25
403.302	1252.25
403.526	1252.25
403.75	1288.25
403.974	1323.25
404.198	1336.25
404.422	1328.25
404.645	1332.25
404.869	1299.25
405.093	1251.25
405.317	1241.25
405.541	1251.25
405.765	1244.25
405.988	1190.25
406.212	1195.25
406.436	1205.25
406.66	1239.25
406.883	1249.25
407.107	1372.25
407.331	1421.25
407.555	1472.25
407.778	1468.25
408.002	1413.25
408.226	1351.25
408.449	1323.25
408.673	1264.25
408.896	1255.25
409.12	1239.25
409.344	1264.25
409.567	1270.25
409.791	1304.25
410.014	1284.25
410.238	1234.25
410.461	1272.25
410.685	1222.25
410.908	1204.25
411.132	1189.25
411.355	1134.25
411.578	1147.25
411.802	1109.25
412.025	1158.25
412.249	1194.25
412.472	1183.25
412.695	1161.25
412.919	1086.25
413.142	1094.25
413.365	1115.25
413.589	1128.25
413.812	1085.25
414.035	1108.25
414.258	1099.25
414.482	1106.25
414.705	1132.25
414.928	1137.25
415.151	1119.25
415.374	1112.25
415.597	1082.25
415.821	1092.25
416.044	1081.25
416.267	1115.25
416.49	1060.25
416.713	1086.25
416.936	1083.25
417.159	1126.25
417.382	1076.25
417.605	1092.25
417.828	1102.25
418.051	1101.25
418.274	1091.25
418.497	1084.25
418.72	1143.25
418.943	1133.25
419.166	1204.25
419.389	1299.25
419.611	1250.25
419.834	1178.25
420.057	1112.25
420.28	1114.25
420.503	1112.25
420.726	1097.25
420.948	1120.25
421.171	1078.25
421.394	1126.25
421.617	1079.25
421.839	1107.25
422.062	1111.25
422.285	1096.25
422.507	1128.25
422.73	1145.25
422.953	1146.25
423.175	1173.25
423.398	1206.25
423.621	1164.25
423.843	1172.25
424.066	1180.25
424.288	1177.25
424.511	1200.25
424.733	1162.25
424.956	1141.25
425.178	1144.25
425.401	1103.25
425.623	1121.25
425.846	1086.25
426.068	1080.25
426.291	1072.25
426.513	1041.25
426.735	1033.25
426.958	1030.25
427.18	994.25
427.402	980.25
427.625	987.25
427.847	986.25
428.069	988.25
428.292	1022.25
428.514	993.25
428.736	956.25
428.958	957.25
429.181	937.25
429.403	931.25
429.625	952.25
429.847	962.25
430.069	944.25
430.292	947.25
430.514	950.25
430.736	967.25
430.958	981.25
431.18	939.25
431.402	953.25
431.624	962.25
431.846	984.25
432.068	974.25
432.29	995.25
432.512	952.25
432.734	988.25
432.956	974.25
433.178	983.25
433.4	973.25
433.622	1036.25
433.844	1027.25
434.066	996.25
434.287	995.25
434.509	1059.25
434.731	1086.25
434.953	1126.25
435.175	1149.25
435.397	1125.25
435.618	1044.25
435.84	1030.25
436.062	978.25
436.284	973.25
436.505	974.25
436.727	1010.25
436.949	990.25
437.17	983.25
437.392	956.25
437.614	969.25
437.835	969.25
438.057	957.25
438.278	931.25
438.5	967.25
438.721	961.25
438.943	960.25
439.165	949.25
439.386	978.25
439.608	988.25
439.829	989.25
440.05	978.25
440.272	1009.25
440.493	989.25
440.715	985.25
440.936	1043.25
441.158	1035.25
441.379	1059.25
441.6	1146.25
441.822	1138.25
442.043	1124.25
442.264	1131.25
442.486	1084.25
442.707	1090.25
442.928	1102.25
443.149	1124.25
443.371	1085.25
443.592	1106.25
443.813	1129.25
444.034	1144.25
444.255	1150.25
444.476	1233.25
444.698	1325.25
444.919	1376.25
445.14	1466.25
445.361	1258.25
445.582	1167.25
445.803	1109.25
446.024	1059.25
446.245	1035.25
446.466	1046.25
446.687	1023.25
446.908	1013.25
447.129	981.25
447.35	976.25
447.571	971.25
447.792	947.25
448.013	950.25
448.234	930.25
448.455	930.25
448.675	909.25
448.896	877.25
449.117	903.25
449.338	888.25
449.559	892.25
449.779	890.25
450	900.25
450.221	903.25
450.442	904.25
450.662	905.25
450.883	952.25
451.104	957.25
451.324	936.25
451.545	954.25
451.766	931.25
451.986	919.25
452.207	938.25
452.428	938.25
452.648	933.25
452.869	907.25
453.089	912.25
453.31	912.25
453.53	908.25
453.751	902.25
453.971	870.25
454.192	891.25
454.412	886.25
454.633	869.25
454.853	852.25
455.073	881.25
455.294	886.25
455.514	883.25
455.734	868.25
455.955	837.25
456.175	861.25
456.395	865.25
456.616	847.25
456.836	853.25
457.056	831.25
457.276	819.25
457.497	844.25
457.717	838.25
457.937	844.25
458.157	854.25
458.377	859.25
458.598	875.25
458.818	901.25
459.038	935.25
459.258	976.25
459.478	993.25
459.698	1043.25
459.918	1027.25
460.138	1086.25
460.358	1150.25
460.578	1160.25
460.798	1163.25
461.018	1217.25
461.238	1152.25
461.458	1134.25
461.678	1174.25
461.898	1200.25
462.118	1160.25
462.338	1264.25
462.558	1305.25
462.777	1336.25
462.997	1472.25
463.217	1628.25
463.437	1666.25
463.657	1524.25
463.876	1390.25
464.096	1351.25
464.316	1414.25
464.536	1418.25
464.755	1376.25
464.975	1254.25
465.195	1211.25
465.414	1166.25
465.634	1076.25
465.854	1046.25
466.073	1037.25
466.293	1000.25
466.512	967.25
466.732	961.25
466.951	970.25
467.171	940.25
467.391	937.25
467.61	934.25
467.829	933.25
468.049	922.25
468.268	900.25
468.488	900.25
468.707	902.25
468.927	917.25
469.146	913.25
469.365	921.25
469.585	932.25
469.804	920.25
470.023	963.25
470.243	995.25
470.462	1001.25
470.681	1010.25
470.901	989.25
471.12	964.25
471.339	985.25
471.558	938.25
471.777	902.25
471.997	912.25
472.216	896.25
472.435	893.25
472.654	904.25
472.873	881.25
473.092	893.25
473.311	867.25
473.53	867.25
473.749	860.25
473.968	840.25
474.187	856.25
474.406	852.25
474.625	893.25
474.844	884.25
475.063	875.25
475.282	867.25
475.501	898.25
475.72	920.25
475.939	891.25
476.158	907.25
476.377	929.25
476.596	904.25
476.814	940.25
477.033	935.25
477.252	953.25
477.471	952.25
477.69	956.25
477.908	1030.25
478.127	1051.25
478.346	1084.25
478.564	1059.25
478.783	1073.25
479.002	1103.25
479.22	1134.25
479.439	1114.25
479.658	1112.25
479.876	1118.25
480.095	1121.25
480.313	1154.25
480.532	1181.25
480.751	1212.25
480.969	1152.25
481.188	1089.25
481.406	1059.25
481.624	1021.25
481.843	1039.25
482.061	999.25
482.28	1000.25
482.498	990.25
482.717	985.25
482.935	972.25
483.153	996.25
483.372	977.25
483.59	1011.25
483.808	1003.25
484.027	997.25
484.245	1022.25
484.463	1011.25
484.681	1013.25
484.9	1028.25
485.118	1042.25
485.336	1036.25
485.554	1036.25
485.772	1068.25
485.99	1067.25
486.209	1088.25
486.427	1065.25
486.645	1059.25
486.863	1055.25
487.081	1072.25
487.299	1050.25
487.517	1034.25
487.735	1042.25
487.953	1063.25
488.171	1054.25
488.389	1012.25
488.607	1000.25
488.825	1043.25
489.043	1026.25
489.261	1008.25
489.479	1041.25
489.696	1033.25
489.914	1021.25
490.132	1045.25
490.35	1043.25
490.568	1029.25
490.786	1049.25
491.003	1045.25
491.221	1039.25
491.439	1087.25
491.657	1076.25
491.874	1066.25
492.092	1052.25
492.31	1037.25
492.527	1066.25
492.745	1076.25
492.963	1081.25
493.18	1069.25
493.398	1067.25
493.615	1086.25
493.833	1078.25
494.05	1105.25
494.268	1096.25
494.485	1101.25
494.703	1120.25
494.92	1124.25
495.138	1131.25
495.355	1066.25
495.573	1132.25
495.79	1142.25
496.008	1122.25
496.225	1141.25
496.442	1122.25
496.66	1144.25
496.877	1146.25
497.094	1152.25
497.312	1167.25
497.529	1203.25
497.746	1219.25
