Data from NiCl2@0.125M.TitratingCurve.Agarose3%dH2O.NegLispCup.LampEnergy10.LIBS07252019_HRD10591_18-28-44-575.txt Node
Date: Thu Jul 25 18:28:44 EDT 2019
User: cochatt
Spectrometer: HR+D1059
Trigger mode: 1
Integration Time (sec): 1.000000E-1
Scans to average: 1
Electric dark correction enabled: true
Nonlinearity correction enabled: false
Boxcar width: 0
XAxis mode: Wavelengths
Number of Pixels in Spectrum: 2048
>>>>>Begin Spectral Data<<<<<
223.165	-14.88
223.4	-14.88
223.635	-14.88
223.869	-15.88
224.104	-25.88
224.338	-11.88
224.573	-32.88
224.808	-26.88
225.042	2.12
225.277	-11.88
225.511	0.12
225.746	-4.88
225.98	10.12
226.215	17.12
226.449	19.12
226.683	20.12
226.918	29.12
227.152	47.12
227.387	42.12
227.621	28.12
227.856	45.12
228.09	62.12
228.324	54.12
228.559	54.12
228.793	69.12
229.027	95.12
229.262	108.12
229.496	116.12
229.73	104.12
229.964	131.12
230.199	128.12
230.433	105.12
230.667	119.12
230.901	127.12
231.136	130.12
231.37	132.12
231.604	152.12
231.838	143.12
232.072	139.12
232.306	144.12
232.541	140.12
232.775	138.12
233.009	136.12
233.243	151.12
233.477	137.12
233.711	145.12
233.945	156.12
234.179	140.12
234.413	155.12
234.647	167.12
234.881	148.12
235.115	151.12
235.349	154.12
235.583	151.12
235.817	128.12
236.051	134.12
236.285	149.12
236.519	153.12
236.753	171.12
236.987	150.12
237.221	148.12
237.455	152.12
237.689	155.12
237.922	172.12
238.156	164.12
238.39	156.12
238.624	179.12
238.858	156.12
239.091	161.12
239.325	160.12
239.559	166.12
239.793	165.12
240.027	170.12
240.26	166.12
240.494	173.12
240.728	180.12
240.961	184.12
241.195	182.12
241.429	177.12
241.662	175.12
241.896	170.12
242.13	181.12
242.363	177.12
242.597	180.12
242.83	197.12
243.064	182.12
243.298	198.12
243.531	189.12
243.765	196.12
243.998	198.12
244.232	192.12
244.465	212.12
244.699	194.12
244.932	184.12
245.166	200.12
245.399	195.12
245.633	205.12
245.866	198.12
246.099	204.12
246.333	221.12
246.566	205.12
246.8	208.12
247.033	210.12
247.266	205.12
247.5	218.12
247.733	214.12
247.966	217.12
248.2	203.12
248.433	230.12
248.666	217.12
248.899	218.12
249.133	224.12
249.366	225.12
249.599	240.12
249.832	224.12
250.066	235.12
250.299	231.12
250.532	253.12
250.765	233.12
250.998	259.12
251.231	239.12
251.465	253.12
251.698	248.12
251.931	263.12
252.164	251.12
252.397	251.12
252.63	260.12
252.863	221.12
253.096	247.12
253.329	265.12
253.562	252.12
253.795	255.12
254.028	264.12
254.261	258.12
254.494	261.12
254.727	262.12
254.96	265.12
255.193	264.12
255.426	273.12
255.659	252.12
255.892	281.12
256.124	263.12
256.357	278.12
256.59	289.12
256.823	269.12
257.056	267.12
257.289	289.12
257.521	290.12
257.754	295.12
257.987	304.12
258.22	290.12
258.452	315.12
258.685	301.12
258.918	283.12
259.151	288.12
259.383	294.12
259.616	300.12
259.849	289.12
260.081	288.12
260.314	299.12
260.547	319.12
260.779	295.12
261.012	294.12
261.244	296.12
261.477	322.12
261.71	298.12
261.942	315.12
262.175	311.12
262.407	299.12
262.64	317.12
262.872	313.12
263.105	306.12
263.337	320.12
263.57	326.12
263.802	348.12
264.035	329.12
264.267	324.12
264.499	321.12
264.732	316.12
264.964	333.12
265.197	336.12
265.429	338.12
265.661	319.12
265.894	343.12
266.126	347.12
266.358	319.12
266.591	341.12
266.823	336.12
267.055	334.12
267.287	358.12
267.52	360.12
267.752	353.12
267.984	344.12
268.216	351.12
268.448	357.12
268.681	359.12
268.913	353.12
269.145	359.12
269.377	349.12
269.609	357.12
269.841	348.12
270.073	369.12
270.306	383.12
270.538	356.12
270.77	348.12
271.002	364.12
271.234	346.12
271.466	362.12
271.698	372.12
271.93	354.12
272.162	339.12
272.394	384.12
272.626	384.12
272.858	379.12
273.09	373.12
273.322	374.12
273.553	364.12
273.785	393.12
274.017	372.12
274.249	377.12
274.481	377.12
274.713	378.12
274.945	385.12
275.176	387.12
275.408	389.12
275.64	410.12
275.872	407.12
276.104	406.12
276.335	414.12
276.567	409.12
276.799	403.12
277.031	402.12
277.262	404.12
277.494	419.12
277.726	412.12
277.957	410.12
278.189	418.12
278.421	404.12
278.652	388.12
278.884	420.12
279.115	418.12
279.347	416.12
279.579	416.12
279.81	401.12
280.042	420.12
280.273	423.12
280.505	442.12
280.736	439.12
280.968	442.12
281.199	426.12
281.431	432.12
281.662	433.12
281.894	436.12
282.125	400.12
282.356	455.12
282.588	442.12
282.819	445.12
283.051	428.12
283.282	433.12
283.513	440.12
283.745	453.12
283.976	466.12
284.207	462.12
284.439	469.12
284.67	468.12
284.901	448.12
285.132	437.12
285.364	447.12
285.595	453.12
285.826	485.12
286.057	458.12
286.288	455.12
286.52	478.12
286.751	492.12
286.982	477.12
287.213	476.12
287.444	469.12
287.675	475.12
287.906	488.12
288.138	477.12
288.369	500.12
288.6	471.12
288.831	480.12
289.062	490.12
289.293	467.12
289.524	467.12
289.755	477.12
289.986	467.12
290.217	475.12
290.448	485.12
290.679	486.12
290.91	528.12
291.141	473.12
291.371	505.12
291.602	500.12
291.833	480.12
292.064	505.12
292.295	485.12
292.526	483.12
292.757	491.12
292.987	497.12
293.218	501.12
293.449	508.12
293.68	520.12
293.91	505.12
294.141	496.12
294.372	479.12
294.603	515.12
294.833	510.12
295.064	480.12
295.295	498.12
295.525	491.12
295.756	523.12
295.987	521.12
296.217	515.12
296.448	511.12
296.679	525.12
296.909	516.12
297.14	519.12
297.37	535.12
297.601	549.12
297.831	550.12
298.062	528.12
298.292	533.12
298.523	530.12
298.753	548.12
298.984	529.12
299.214	558.12
299.445	538.12
299.675	570.12
299.905	529.12
300.136	541.12
300.366	541.12
300.597	547.12
300.827	560.12
301.057	568.12
301.288	587.12
301.518	595.12
301.748	571.12
301.979	608.12
302.209	578.12
302.439	586.12
302.669	565.12
302.9	568.12
303.13	564.12
303.36	584.12
303.59	556.12
303.82	550.12
304.051	560.12
304.281	553.12
304.511	555.12
304.741	569.12
304.971	577.12
305.201	556.12
305.431	556.12
305.661	557.12
305.891	555.12
306.121	578.12
306.352	570.12
306.582	563.12
306.812	572.12
307.042	562.12
307.272	590.12
307.502	541.12
307.731	542.12
307.961	552.12
308.191	547.12
308.421	529.12
308.651	541.12
308.881	539.12
309.111	556.12
309.341	531.12
309.571	549.12
309.8	543.12
310.03	543.12
310.26	551.12
310.49	550.12
310.72	548.12
310.949	549.12
311.179	577.12
311.409	580.12
311.639	576.12
311.868	566.12
312.098	568.12
312.328	570.12
312.557	587.12
312.787	577.12
313.017	600.12
313.246	572.12
313.476	570.12
313.706	576.12
313.935	604.12
314.165	609.12
314.394	589.12
314.624	585.12
314.853	593.12
315.083	588.12
315.312	599.12
315.542	600.12
315.771	587.12
316.001	575.12
316.23	585.12
316.46	560.12
316.689	571.12
316.919	581.12
317.148	581.12
317.377	597.12
317.607	580.12
317.836	593.12
318.065	587.12
318.295	577.12
318.524	586.12
318.753	588.12
318.983	568.12
319.212	581.12
319.441	584.12
319.67	564.12
319.9	569.12
320.129	598.12
320.358	577.12
320.587	605.12
320.816	564.12
321.046	581.12
321.275	596.12
321.504	600.12
321.733	568.12
321.962	605.12
322.191	594.12
322.42	583.12
322.649	599.12
322.878	593.12
323.108	608.12
323.337	601.12
323.566	585.12
323.795	602.12
324.024	612.12
324.253	601.12
324.482	601.12
324.71	607.12
324.939	620.12
325.168	630.12
325.397	628.12
325.626	615.12
325.855	625.12
326.084	641.12
326.313	640.12
326.542	627.12
326.77	633.12
326.999	655.12
327.228	644.12
327.457	659.12
327.686	618.12
327.914	616.12
328.143	668.12
328.372	651.12
328.6	631.12
328.829	624.12
329.058	656.12
329.287	634.12
329.515	650.12
329.744	659.12
329.972	659.12
330.201	665.12
330.43	652.12
330.658	647.12
330.887	666.12
331.115	637.12
331.344	679.12
331.572	669.12
331.801	697.12
332.03	714.12
332.258	723.12
332.486	746.12
332.715	736.12
332.943	786.12
333.172	836.12
333.4	863.12
333.629	886.12
333.857	885.12
334.085	850.12
334.314	863.12
334.542	813.12
334.771	822.12
334.999	817.12
335.227	794.12
335.455	805.12
335.684	791.12
335.912	800.12
336.14	765.12
336.369	780.12
336.597	772.12
336.825	765.12
337.053	770.12
337.281	747.12
337.51	739.12
337.738	739.12
337.966	692.12
338.194	696.12
338.422	698.12
338.65	719.12
338.878	679.12
339.106	713.12
339.334	708.12
339.562	680.12
339.79	679.12
340.018	677.12
340.246	667.12
340.474	669.12
340.702	658.12
340.93	652.12
341.158	666.12
341.386	665.12
341.614	675.12
341.842	679.12
342.07	661.12
342.298	692.12
342.526	666.12
342.754	680.12
342.981	659.12
343.209	673.12
343.437	717.12
343.665	754.12
343.893	835.12
344.12	858.12
344.348	810.12
344.576	771.12
344.804	736.12
345.031	703.12
345.259	678.12
345.487	687.12
345.714	670.12
345.942	640.12
346.17	674.12
346.397	671.12
346.625	654.12
346.853	650.12
347.08	661.12
347.308	663.12
347.535	641.12
347.763	646.12
347.99	671.12
348.218	650.12
348.445	625.12
348.673	630.12
348.9	645.12
349.128	611.12
349.355	627.12
349.583	627.12
349.81	604.12
350.037	629.12
350.265	631.12
350.492	619.12
350.72	622.12
350.947	631.12
351.174	602.12
351.402	636.12
351.629	641.12
351.856	617.12
352.083	616.12
352.311	615.12
352.538	633.12
352.765	626.12
352.992	622.12
353.22	621.12
353.447	634.12
353.674	615.12
353.901	619.12
354.128	629.12
354.355	623.12
354.583	606.12
354.81	643.12
355.037	618.12
355.264	626.12
355.491	605.12
355.718	632.12
355.945	642.12
356.172	650.12
356.399	646.12
356.626	624.12
356.853	634.12
357.08	636.12
357.307	622.12
357.534	612.12
357.761	652.12
357.988	620.12
358.215	630.12
358.441	610.12
358.668	624.12
358.895	622.12
359.122	617.12
359.349	623.12
359.576	615.12
359.802	631.12
360.029	613.12
360.256	629.12
360.483	615.12
360.709	643.12
360.936	644.12
361.163	609.12
361.39	615.12
361.616	611.12
361.843	626.12
362.07	629.12
362.296	610.12
362.523	631.12
362.749	639.12
362.976	624.12
363.203	618.12
363.429	611.12
363.656	610.12
363.882	637.12
364.109	643.12
364.335	619.12
364.562	634.12
364.788	629.12
365.015	619.12
365.241	627.12
365.468	605.12
365.694	609.12
365.92	613.12
366.147	615.12
366.373	616.12
366.599	635.12
366.826	632.12
367.052	625.12
367.278	626.12
367.505	648.12
367.731	606.12
367.957	629.12
368.184	637.12
368.41	617.12
368.636	623.12
368.862	625.12
369.089	653.12
369.315	654.12
369.541	633.12
369.767	643.12
369.993	663.12
370.219	648.12
370.445	674.12
370.672	669.12
370.898	653.12
371.124	675.12
371.35	667.12
371.576	678.12
371.802	689.12
372.028	665.12
372.254	659.12
372.48	696.12
372.706	694.12
372.932	720.12
373.158	691.12
373.384	687.12
373.61	677.12
373.835	671.12
374.061	664.12
374.287	714.12
374.513	682.12
374.739	720.12
374.965	742.12
375.191	753.12
375.416	763.12
375.642	724.12
375.868	739.12
376.094	712.12
376.319	699.12
376.545	707.12
376.771	704.12
376.997	681.12
377.222	697.12
377.448	709.12
377.674	697.12
377.899	714.12
378.125	680.12
378.35	663.12
378.576	651.12
378.802	680.12
379.027	688.12
379.253	688.12
379.478	692.12
379.704	700.12
379.929	659.12
380.155	680.12
380.38	685.12
380.606	663.12
380.831	671.12
381.057	689.12
381.282	679.12
381.507	673.12
381.733	681.12
381.958	672.12
382.184	690.12
382.409	711.12
382.634	725.12
382.86	682.12
383.085	725.12
383.31	731.12
383.535	737.12
383.761	740.12
383.986	768.12
384.211	788.12
384.436	783.12
384.662	820.12
384.887	833.12
385.112	803.12
385.337	810.12
385.562	819.12
385.787	834.12
386.013	852.12
386.238	839.12
386.463	828.12
386.688	837.12
386.913	827.12
387.138	828.12
387.363	844.12
387.588	803.12
387.813	803.12
388.038	788.12
388.263	792.12
388.488	837.12
388.713	835.12
388.938	809.12
389.163	812.12
389.387	808.12
389.612	780.12
389.837	810.12
390.062	803.12
390.287	812.12
390.512	817.12
390.736	827.12
390.961	813.12
391.186	849.12
391.411	879.12
391.636	866.12
391.86	927.12
392.085	920.12
392.31	904.12
392.534	889.12
392.759	882.12
392.984	865.12
393.208	876.12
393.433	858.12
393.658	895.12
393.882	872.12
394.107	884.12
394.331	861.12
394.556	887.12
394.78	888.12
395.005	913.12
395.229	910.12
395.454	892.12
395.678	935.12
395.903	947.12
396.127	913.12
396.352	874.12
396.576	869.12
396.801	851.12
397.025	851.12
397.249	876.12
397.474	939.12
397.698	889.12
397.922	938.12
398.147	957.12
398.371	926.12
398.595	948.12
398.82	1027.12
399.044	1095.12
399.268	1200.12
399.492	1412.12
399.717	1595.12
399.941	1583.12
400.165	1385.12
400.389	1246.12
400.613	1169.12
400.837	1077.12
401.062	1032.12
401.286	1077.12
401.51	1037.12
401.734	1000.12
401.958	1050.12
402.182	1076.12
402.406	1064.12
402.63	1095.12
402.854	1088.12
403.078	1127.12
403.302	1163.12
403.526	1177.12
403.75	1175.12
403.974	1201.12
404.198	1211.12
404.422	1246.12
404.645	1220.12
404.869	1151.12
405.093	1175.12
405.317	1151.12
405.541	1154.12
405.765	1144.12
405.988	1132.12
406.212	1132.12
406.436	1144.12
406.66	1179.12
406.883	1180.12
407.107	1250.12
407.331	1289.12
407.555	1351.12
407.778	1338.12
408.002	1299.12
408.226	1312.12
408.449	1258.12
408.673	1207.12
408.896	1187.12
409.12	1151.12
409.344	1182.12
409.567	1147.12
409.791	1210.12
410.014	1187.12
410.238	1151.12
410.461	1154.12
410.685	1143.12
410.908	1110.12
411.132	1115.12
411.355	1057.12
411.578	1067.12
411.802	1049.12
412.025	1060.12
412.249	1103.12
412.472	1084.12
412.695	1071.12
412.919	1025.12
413.142	1002.12
413.365	1015.12
413.589	1045.12
413.812	1022.12
414.035	1037.12
414.258	1050.12
414.482	1017.12
414.705	1049.12
414.928	1077.12
415.151	1053.12
415.374	1047.12
415.597	1025.12
415.821	1014.12
416.044	1021.12
416.267	1023.12
416.49	974.12
416.713	1013.12
416.936	1052.12
417.159	1030.12
417.382	1012.12
417.605	984.12
417.828	1004.12
418.051	1018.12
418.274	1046.12
418.497	1048.12
418.72	1056.12
418.943	1049.12
419.166	1105.12
419.389	1189.12
419.611	1183.12
419.834	1086.12
420.057	1080.12
420.28	1049.12
420.503	1007.12
420.726	1006.12
420.948	1037.12
421.171	1023.12
421.394	1042.12
421.617	997.12
421.839	1011.12
422.062	1052.12
422.285	1027.12
422.507	1069.12
422.73	1044.12
422.953	1064.12
423.175	1059.12
423.398	1090.12
423.621	1083.12
423.843	1123.12
424.066	1103.12
424.288	1082.12
424.511	1063.12
424.733	1049.12
424.956	1027.12
425.178	1058.12
425.401	1016.12
425.623	1052.12
425.846	971.12
426.068	1011.12
426.291	1004.12
426.513	985.12
426.735	954.12
426.958	947.12
427.18	955.12
427.402	944.12
427.625	937.12
427.847	919.12
428.069	911.12
428.292	932.12
428.514	903.12
428.736	899.12
428.958	903.12
429.181	885.12
429.403	891.12
429.625	890.12
429.847	866.12
430.069	850.12
430.292	894.12
430.514	855.12
430.736	870.12
430.958	867.12
431.18	873.12
431.402	890.12
431.624	889.12
431.846	896.12
432.068	916.12
432.29	917.12
432.512	909.12
432.734	915.12
432.956	883.12
433.178	907.12
433.4	925.12
433.622	935.12
433.844	924.12
434.066	935.12
434.287	921.12
434.509	955.12
434.731	1014.12
434.953	1007.12
435.175	1055.12
435.397	1013.12
435.618	985.12
435.84	945.12
436.062	944.12
436.284	920.12
436.505	891.12
436.727	922.12
436.949	951.12
437.17	897.12
437.392	898.12
437.614	871.12
437.835	865.12
438.057	874.12
438.278	856.12
438.5	879.12
438.721	879.12
438.943	875.12
439.165	889.12
439.386	891.12
439.608	897.12
439.829	899.12
440.05	903.12
440.272	907.12
440.493	940.12
440.715	931.12
440.936	937.12
441.158	959.12
441.379	994.12
441.6	1042.12
441.822	1056.12
442.043	1042.12
442.264	1001.12
442.486	1021.12
442.707	1034.12
442.928	999.12
443.149	1024.12
443.371	986.12
443.592	1017.12
443.813	1027.12
444.034	1023.12
444.255	1067.12
444.476	1110.12
444.698	1220.12
444.919	1246.12
445.14	1348.12
445.361	1203.12
445.582	1085.12
445.803	1007.12
446.024	988.12
446.245	972.12
446.466	955.12
446.687	924.12
446.908	910.12
447.129	919.12
447.35	887.12
447.571	874.12
447.792	853.12
448.013	865.12
448.234	872.12
448.455	874.12
448.675	828.12
448.896	823.12
449.117	852.12
449.338	848.12
449.559	832.12
449.779	829.12
450	830.12
450.221	819.12
450.442	835.12
450.662	859.12
450.883	852.12
451.104	860.12
451.324	839.12
451.545	843.12
451.766	865.12
451.986	869.12
452.207	828.12
452.428	835.12
452.648	797.12
452.869	805.12
453.089	850.12
453.31	804.12
453.53	818.12
453.751	814.12
453.971	825.12
454.192	799.12
454.412	785.12
454.633	809.12
454.853	804.12
455.073	792.12
455.294	784.12
455.514	797.12
455.734	784.12
455.955	781.12
456.175	769.12
456.395	771.12
456.616	781.12
456.836	769.12
457.056	745.12
457.276	789.12
457.497	801.12
457.717	791.12
457.937	792.12
458.157	808.12
458.377	798.12
458.598	830.12
458.818	835.12
459.038	866.12
459.258	895.12
459.478	938.12
459.698	931.12
459.918	976.12
460.138	1016.12
460.358	1071.12
460.578	1079.12
460.798	1065.12
461.018	1106.12
461.238	1074.12
461.458	1056.12
461.678	1089.12
461.898	1089.12
462.118	1096.12
462.338	1148.12
462.558	1159.12
462.777	1233.12
462.997	1329.12
463.217	1474.12
463.437	1479.12
463.657	1367.12
463.876	1270.12
464.096	1290.12
464.316	1305.12
464.536	1281.12
464.755	1209.12
464.975	1180.12
465.195	1131.12
465.414	1060.12
465.634	1023.12
465.854	976.12
466.073	933.12
466.293	907.12
466.512	916.12
466.732	906.12
466.951	889.12
467.171	867.12
467.391	887.12
467.61	885.12
467.829	854.12
468.049	871.12
468.268	860.12
468.488	831.12
468.707	864.12
468.927	850.12
469.146	845.12
469.365	840.12
469.585	864.12
469.804	880.12
470.023	873.12
470.243	901.12
470.462	925.12
470.681	927.12
470.901	904.12
471.12	923.12
471.339	901.12
471.558	855.12
471.777	863.12
471.997	855.12
472.216	832.12
472.435	796.12
472.654	835.12
472.873	802.12
473.092	839.12
473.311	823.12
473.53	825.12
473.749	802.12
473.968	807.12
474.187	841.12
474.406	811.12
474.625	815.12
474.844	826.12
475.063	818.12
475.282	813.12
475.501	825.12
475.72	813.12
475.939	845.12
476.158	845.12
476.377	861.12
476.596	842.12
476.814	876.12
477.033	858.12
477.252	879.12
477.471	883.12
477.69	904.12
477.908	927.12
478.127	963.12
478.346	997.12
478.564	1009.12
478.783	1035.12
479.002	1033.12
479.22	1012.12
479.439	1026.12
479.658	999.12
479.876	991.12
480.095	1020.12
480.313	1083.12
480.532	1110.12
480.751	1102.12
480.969	1048.12
481.188	996.12
481.406	961.12
481.624	927.12
481.843	934.12
482.061	943.12
482.28	906.12
482.498	907.12
482.717	925.12
482.935	892.12
483.153	924.12
483.372	940.12
483.59	940.12
483.808	940.12
484.027	944.12
484.245	945.12
484.463	935.12
484.681	945.12
484.9	950.12
485.118	987.12
485.336	974.12
485.554	964.12
485.772	972.12
485.99	978.12
486.209	1010.12
486.427	983.12
486.645	997.12
486.863	978.12
487.081	973.12
487.299	1008.12
487.517	952.12
487.735	986.12
487.953	983.12
488.171	992.12
488.389	977.12
488.607	935.12
488.825	939.12
489.043	922.12
489.261	953.12
489.479	974.12
489.696	970.12
489.914	970.12
490.132	964.12
490.35	994.12
490.568	971.12
490.786	968.12
491.003	977.12
491.221	960.12
491.439	972.12
491.657	965.12
491.874	989.12
492.092	987.12
492.31	983.12
492.527	980.12
492.745	987.12
492.963	985.12
493.18	1048.12
493.398	1007.12
493.615	1023.12
493.833	1013.12
494.05	979.12
494.268	1047.12
494.485	1023.12
494.703	1013.12
494.92	1032.12
495.138	1060.12
495.355	1035.12
495.573	1034.12
495.79	1020.12
496.008	1066.12
496.225	1050.12
496.442	1050.12
496.66	1053.12
496.877	1093.12
497.094	1112.12
497.312	1106.12
497.529	1128.12
497.746	1145.12
497.963	1210.12
498.181	1257.12
498.398	1273.12
498.615	1365.12
498.832	1472.12
