Data from NiCl2@0.125M.TitratingCurve.Agarose3%dH2O.NegLispCup.LampEnergy10.LIBS07252019_HRD10591_18-29-01-575.txt Node
Date: Thu Jul 25 18:29:01 EDT 2019
User: cochatt
Spectrometer: HR+D1059
Trigger mode: 1
Integration Time (sec): 1.000000E-1
Scans to average: 1
Electric dark correction enabled: true
Nonlinearity correction enabled: false
Boxcar width: 0
XAxis mode: Wavelengths
Number of Pixels in Spectrum: 2048
>>>>>Begin Spectral Data<<<<<
223.165	-13.44
223.4	-13.44
223.635	-13.44
223.869	-20.44
224.104	-19.44
224.338	8.56
224.573	-22.44
224.808	-12.44
225.042	-0.44
225.277	-2.44
225.511	-2.44
225.746	-11.44
225.98	13.56
226.215	8.56
226.449	14.56
226.683	21.56
226.918	24.56
227.152	13.56
227.387	26.56
227.621	38.56
227.856	44.56
228.09	47.56
228.324	59.56
228.559	62.56
228.793	67.56
229.027	131.56
229.262	131.56
229.496	134.56
229.73	151.56
229.964	147.56
230.199	134.56
230.433	133.56
230.667	139.56
230.901	123.56
231.136	146.56
231.37	138.56
231.604	151.56
231.838	151.56
232.072	168.56
232.306	160.56
232.541	168.56
232.775	147.56
233.009	160.56
233.243	155.56
233.477	184.56
233.711	172.56
233.945	178.56
234.179	157.56
234.413	169.56
234.647	158.56
234.881	167.56
235.115	180.56
235.349	166.56
235.583	182.56
235.817	173.56
236.051	179.56
236.285	165.56
236.519	178.56
236.753	181.56
236.987	176.56
237.221	179.56
237.455	188.56
237.689	191.56
237.922	183.56
238.156	197.56
238.39	195.56
238.624	202.56
238.858	204.56
239.091	204.56
239.325	188.56
239.559	210.56
239.793	199.56
240.027	193.56
240.26	203.56
240.494	227.56
240.728	204.56
240.961	221.56
241.195	217.56
241.429	214.56
241.662	200.56
241.896	223.56
242.13	214.56
242.363	228.56
242.597	226.56
242.83	237.56
243.064	242.56
243.298	239.56
243.531	227.56
243.765	233.56
243.998	239.56
244.232	239.56
244.465	256.56
244.699	258.56
244.932	255.56
245.166	246.56
245.399	258.56
245.633	246.56
245.866	276.56
246.099	265.56
246.333	267.56
246.566	257.56
246.8	268.56
247.033	273.56
247.266	271.56
247.5	262.56
247.733	275.56
247.966	277.56
248.2	286.56
248.433	280.56
248.666	305.56
248.899	298.56
249.133	289.56
249.366	274.56
249.599	303.56
249.832	292.56
250.066	283.56
250.299	299.56
250.532	295.56
250.765	304.56
250.998	322.56
251.231	300.56
251.465	296.56
251.698	324.56
251.931	307.56
252.164	319.56
252.397	313.56
252.63	314.56
252.863	324.56
253.096	340.56
253.329	336.56
253.562	337.56
253.795	344.56
254.028	337.56
254.261	325.56
254.494	354.56
254.727	338.56
254.96	342.56
255.193	336.56
255.426	333.56
255.659	323.56
255.892	333.56
256.124	332.56
256.357	349.56
256.59	343.56
256.823	355.56
257.056	354.56
257.289	362.56
257.521	346.56
257.754	338.56
257.987	369.56
258.22	363.56
258.452	364.56
258.685	389.56
258.918	372.56
259.151	359.56
259.383	366.56
259.616	371.56
259.849	403.56
260.081	387.56
260.314	374.56
260.547	380.56
260.779	389.56
261.012	372.56
261.244	404.56
261.477	408.56
261.71	412.56
261.942	388.56
262.175	405.56
262.407	376.56
262.64	424.56
262.872	408.56
263.105	400.56
263.337	411.56
263.57	400.56
263.802	392.56
264.035	418.56
264.267	411.56
264.499	403.56
264.732	412.56
264.964	436.56
265.197	407.56
265.429	429.56
265.661	409.56
265.894	433.56
266.126	434.56
266.358	443.56
266.591	447.56
266.823	415.56
267.055	424.56
267.287	422.56
267.52	458.56
267.752	437.56
267.984	423.56
268.216	449.56
268.448	442.56
268.681	439.56
268.913	433.56
269.145	444.56
269.377	476.56
269.609	453.56
269.841	446.56
270.073	467.56
270.306	453.56
270.538	458.56
270.77	448.56
271.002	451.56
271.234	450.56
271.466	453.56
271.698	461.56
271.93	459.56
272.162	455.56
272.394	489.56
272.626	494.56
272.858	483.56
273.09	482.56
273.322	488.56
273.553	492.56
273.785	480.56
274.017	495.56
274.249	495.56
274.481	479.56
274.713	484.56
274.945	491.56
275.176	506.56
275.408	515.56
275.64	505.56
275.872	499.56
276.104	519.56
276.335	502.56
276.567	514.56
276.799	498.56
277.031	530.56
277.262	501.56
277.494	530.56
277.726	535.56
277.957	519.56
278.189	531.56
278.421	510.56
278.652	516.56
278.884	516.56
279.115	523.56
279.347	500.56
279.579	511.56
279.81	542.56
280.042	569.56
280.273	529.56
280.505	570.56
280.736	535.56
280.968	569.56
281.199	573.56
281.431	574.56
281.662	545.56
281.894	571.56
282.125	555.56
282.356	567.56
282.588	580.56
282.819	568.56
283.051	553.56
283.282	574.56
283.513	571.56
283.745	576.56
283.976	581.56
284.207	575.56
284.439	575.56
284.67	568.56
284.901	583.56
285.132	577.56
285.364	628.56
285.595	609.56
285.826	586.56
286.057	610.56
286.288	622.56
286.52	623.56
286.751	612.56
286.982	620.56
287.213	629.56
287.444	601.56
287.675	627.56
287.906	619.56
288.138	633.56
288.369	618.56
288.6	629.56
288.831	648.56
289.062	628.56
289.293	623.56
289.524	646.56
289.755	616.56
289.986	625.56
290.217	633.56
290.448	661.56
290.679	672.56
290.91	643.56
291.141	642.56
291.371	627.56
291.602	661.56
291.833	639.56
292.064	627.56
292.295	643.56
292.526	644.56
292.757	668.56
292.987	632.56
293.218	668.56
293.449	657.56
293.68	648.56
293.91	619.56
294.141	649.56
294.372	660.56
294.603	648.56
294.833	650.56
295.064	661.56
295.295	659.56
295.525	650.56
295.756	663.56
295.987	649.56
296.217	675.56
296.448	643.56
296.679	659.56
296.909	682.56
297.14	679.56
297.37	695.56
297.601	690.56
297.831	706.56
298.062	707.56
298.292	724.56
298.523	751.56
298.753	747.56
298.984	715.56
299.214	716.56
299.445	711.56
299.675	684.56
299.905	709.56
300.136	703.56
300.366	721.56
300.597	712.56
300.827	719.56
301.057	735.56
301.288	753.56
301.518	719.56
301.748	752.56
301.979	744.56
302.209	754.56
302.439	771.56
302.669	738.56
302.9	736.56
303.13	724.56
303.36	741.56
303.59	721.56
303.82	709.56
304.051	715.56
304.281	740.56
304.511	723.56
304.741	715.56
304.971	719.56
305.201	736.56
305.431	716.56
305.661	692.56
305.891	712.56
306.121	729.56
306.352	724.56
306.582	689.56
306.812	697.56
307.042	735.56
307.272	723.56
307.502	719.56
307.731	721.56
307.961	701.56
308.191	687.56
308.421	713.56
308.651	709.56
308.881	699.56
309.111	721.56
309.341	709.56
309.571	727.56
309.8	712.56
310.03	712.56
310.26	712.56
310.49	711.56
310.72	724.56
310.949	723.56
311.179	702.56
311.409	735.56
311.639	742.56
311.868	736.56
312.098	726.56
312.328	747.56
312.557	753.56
312.787	749.56
313.017	757.56
313.246	755.56
313.476	774.56
313.706	753.56
313.935	773.56
314.165	779.56
314.394	778.56
314.624	794.56
314.853	755.56
315.083	743.56
315.312	766.56
315.542	753.56
315.771	768.56
316.001	761.56
316.23	751.56
316.46	721.56
316.689	730.56
316.919	743.56
317.148	758.56
317.377	751.56
317.607	735.56
317.836	747.56
318.065	750.56
318.295	736.56
318.524	739.56
318.753	741.56
318.983	738.56
319.212	723.56
319.441	759.56
319.67	770.56
319.9	730.56
320.129	740.56
320.358	733.56
320.587	744.56
320.816	747.56
321.046	758.56
321.275	771.56
321.504	743.56
321.733	767.56
321.962	785.56
322.191	732.56
322.42	767.56
322.649	767.56
322.878	776.56
323.108	748.56
323.337	796.56
323.566	780.56
323.795	741.56
324.024	797.56
324.253	794.56
324.482	780.56
324.71	789.56
324.939	804.56
325.168	812.56
325.397	810.56
325.626	785.56
325.855	836.56
326.084	823.56
326.313	817.56
326.542	846.56
326.77	834.56
326.999	828.56
327.228	825.56
327.457	813.56
327.686	802.56
327.914	837.56
328.143	852.56
328.372	849.56
328.6	810.56
328.829	819.56
329.058	805.56
329.287	805.56
329.515	821.56
329.744	829.56
329.972	856.56
330.201	808.56
330.43	830.56
330.658	844.56
330.887	843.56
331.115	850.56
331.344	841.56
331.572	871.56
331.801	889.56
332.03	880.56
332.258	948.56
332.486	953.56
332.715	984.56
332.943	1027.56
333.172	1073.56
333.4	1100.56
333.629	1137.56
333.857	1171.56
334.085	1095.56
334.314	1110.56
334.542	1065.56
334.771	1076.56
334.999	1052.56
335.227	1018.56
335.455	1000.56
335.684	1016.56
335.912	988.56
336.14	994.56
336.369	999.56
336.597	996.56
336.825	1012.56
337.053	994.56
337.281	1002.56
337.51	968.56
337.738	950.56
337.966	917.56
338.194	913.56
338.422	900.56
338.65	899.56
338.878	883.56
339.106	898.56
339.334	884.56
339.562	893.56
339.79	867.56
340.018	827.56
340.246	867.56
340.474	845.56
340.702	858.56
340.93	889.56
341.158	870.56
341.386	857.56
341.614	840.56
341.842	869.56
342.07	849.56
342.298	869.56
342.526	864.56
342.754	844.56
342.981	868.56
343.209	875.56
343.437	930.56
343.665	961.56
343.893	1036.56
344.12	1092.56
344.348	1067.56
344.576	968.56
344.804	948.56
345.031	918.56
345.259	891.56
345.487	857.56
345.714	869.56
345.942	833.56
346.17	851.56
346.397	824.56
346.625	816.56
346.853	856.56
347.08	825.56
347.308	852.56
347.535	860.56
347.763	871.56
347.99	860.56
348.218	831.56
348.445	863.56
348.673	835.56
348.9	815.56
349.128	823.56
349.355	822.56
349.583	802.56
349.81	804.56
350.037	822.56
350.265	815.56
350.492	813.56
350.72	802.56
350.947	781.56
351.174	795.56
351.402	801.56
351.629	805.56
351.856	816.56
352.083	796.56
352.311	762.56
352.538	795.56
352.765	793.56
352.992	784.56
353.22	748.56
353.447	793.56
353.674	791.56
353.901	795.56
354.128	807.56
354.355	790.56
354.583	815.56
354.81	775.56
355.037	782.56
355.264	802.56
355.491	804.56
355.718	797.56
355.945	811.56
356.172	800.56
356.399	792.56
356.626	828.56
356.853	823.56
357.08	779.56
357.307	811.56
357.534	806.56
357.761	803.56
357.988	782.56
358.215	773.56
358.441	789.56
358.668	809.56
358.895	800.56
359.122	783.56
359.349	819.56
359.576	800.56
359.802	806.56
360.029	785.56
360.256	788.56
360.483	794.56
360.709	799.56
360.936	803.56
361.163	807.56
361.39	801.56
361.616	779.56
361.843	786.56
362.07	786.56
362.296	808.56
362.523	775.56
362.749	789.56
362.976	802.56
363.203	799.56
363.429	787.56
363.656	800.56
363.882	831.56
364.109	812.56
364.335	801.56
364.562	831.56
364.788	802.56
365.015	782.56
365.241	781.56
365.468	809.56
365.694	809.56
365.92	807.56
366.147	791.56
366.373	801.56
366.599	793.56
366.826	780.56
367.052	817.56
367.278	801.56
367.505	799.56
367.731	819.56
367.957	791.56
368.184	791.56
368.41	811.56
368.636	817.56
368.862	812.56
369.089	833.56
369.315	819.56
369.541	835.56
369.767	828.56
369.993	833.56
370.219	815.56
370.445	824.56
370.672	850.56
370.898	818.56
371.124	841.56
371.35	854.56
371.576	887.56
371.802	885.56
372.028	861.56
372.254	869.56
372.48	863.56
372.706	894.56
372.932	897.56
373.158	899.56
373.384	880.56
373.61	883.56
373.835	873.56
374.061	886.56
374.287	876.56
374.513	919.56
374.739	927.56
374.965	944.56
375.191	968.56
375.416	966.56
375.642	924.56
375.868	931.56
376.094	921.56
376.319	879.56
376.545	895.56
376.771	854.56
376.997	858.56
377.222	887.56
377.448	884.56
377.674	864.56
377.899	851.56
378.125	877.56
378.35	861.56
378.576	851.56
378.802	843.56
379.027	862.56
379.253	855.56
379.478	845.56
379.704	866.56
379.929	857.56
380.155	849.56
380.38	842.56
380.606	844.56
380.831	881.56
381.057	853.56
381.282	843.56
381.507	877.56
381.733	903.56
381.958	883.56
382.184	891.56
382.409	927.56
382.634	892.56
382.86	890.56
383.085	927.56
383.31	927.56
383.535	971.56
383.761	955.56
383.986	975.56
384.211	1013.56
384.436	1033.56
384.662	1058.56
384.887	1071.56
385.112	1063.56
385.337	1050.56
385.562	1045.56
385.787	1059.56
386.013	1051.56
386.238	1068.56
386.463	1086.56
386.688	1065.56
386.913	1031.56
387.138	1038.56
387.363	1021.56
387.588	1044.56
387.813	1028.56
388.038	1007.56
388.263	995.56
388.488	1028.56
388.713	1050.56
388.938	1018.56
389.163	993.56
389.387	1013.56
389.612	1020.56
389.837	995.56
390.062	1007.56
390.287	1027.56
390.512	1008.56
390.736	1045.56
390.961	1047.56
391.186	1068.56
391.411	1124.56
391.636	1124.56
391.86	1177.56
392.085	1193.56
392.31	1196.56
392.534	1152.56
392.759	1148.56
392.984	1120.56
393.208	1125.56
393.433	1138.56
393.658	1111.56
393.882	1113.56
394.107	1111.56
394.331	1124.56
394.556	1127.56
394.78	1134.56
395.005	1120.56
395.229	1114.56
395.454	1161.56
395.678	1207.56
395.903	1179.56
396.127	1154.56
396.352	1112.56
396.576	1087.56
396.801	1088.56
397.025	1093.56
397.249	1158.56
397.474	1163.56
397.698	1182.56
397.922	1174.56
398.147	1159.56
398.371	1195.56
398.595	1240.56
398.82	1288.56
399.044	1351.56
399.268	1516.56
399.492	1809.56
399.717	2143.56
399.941	2087.56
400.165	1812.56
400.389	1607.56
400.613	1471.56
400.837	1367.56
401.062	1357.56
401.286	1306.56
401.51	1309.56
401.734	1329.56
401.958	1344.56
402.182	1359.56
402.406	1359.56
402.63	1355.56
402.854	1432.56
403.078	1441.56
403.302	1487.56
403.526	1507.56
403.75	1564.56
403.974	1604.56
404.198	1583.56
404.422	1599.56
404.645	1563.56
404.869	1528.56
405.093	1507.56
405.317	1489.56
405.541	1459.56
405.765	1446.56
405.988	1416.56
406.212	1468.56
406.436	1408.56
406.66	1494.56
406.883	1489.56
407.107	1589.56
407.331	1685.56
407.555	1764.56
407.778	1767.56
408.002	1700.56
408.226	1613.56
408.449	1603.56
408.673	1525.56
408.896	1510.56
409.12	1510.56
409.344	1529.56
409.567	1551.56
409.791	1567.56
410.014	1517.56
410.238	1496.56
410.461	1467.56
410.685	1495.56
410.908	1414.56
411.132	1401.56
411.355	1368.56
411.578	1351.56
411.802	1328.56
412.025	1370.56
412.249	1409.56
412.472	1391.56
412.695	1352.56
412.919	1375.56
413.142	1319.56
413.365	1308.56
413.589	1313.56
413.812	1309.56
414.035	1310.56
414.258	1283.56
414.482	1310.56
414.705	1344.56
414.928	1378.56
415.151	1344.56
415.374	1331.56
415.597	1309.56
415.821	1267.56
416.044	1302.56
416.267	1259.56
416.49	1283.56
416.713	1281.56
416.936	1315.56
417.159	1291.56
417.382	1280.56
417.605	1308.56
417.828	1268.56
418.051	1293.56
418.274	1329.56
418.497	1322.56
418.72	1337.56
418.943	1347.56
419.166	1437.56
419.389	1545.56
419.611	1470.56
419.834	1479.56
420.057	1403.56
420.28	1342.56
420.503	1311.56
420.726	1283.56
420.948	1281.56
421.171	1308.56
421.394	1322.56
421.617	1306.56
421.839	1304.56
422.062	1298.56
422.285	1279.56
422.507	1337.56
422.73	1379.56
422.953	1335.56
423.175	1387.56
423.398	1389.56
423.621	1398.56
423.843	1404.56
424.066	1415.56
424.288	1411.56
424.511	1357.56
424.733	1405.56
424.956	1339.56
425.178	1320.56
425.401	1334.56
425.623	1321.56
425.846	1252.56
426.068	1263.56
426.291	1246.56
426.513	1208.56
426.735	1215.56
426.958	1250.56
427.18	1162.56
427.402	1179.56
427.625	1180.56
427.847	1167.56
428.069	1194.56
428.292	1167.56
428.514	1141.56
428.736	1129.56
428.958	1149.56
429.181	1142.56
429.403	1129.56
429.625	1145.56
429.847	1079.56
430.069	1098.56
430.292	1109.56
430.514	1140.56
430.736	1104.56
430.958	1135.56
431.18	1106.56
431.402	1135.56
431.624	1145.56
431.846	1174.56
432.068	1187.56
432.29	1211.56
432.512	1161.56
432.734	1187.56
432.956	1151.56
433.178	1199.56
433.4	1141.56
433.622	1162.56
433.844	1171.56
434.066	1178.56
434.287	1177.56
434.509	1219.56
434.731	1243.56
434.953	1314.56
435.175	1327.56
435.397	1317.56
435.618	1218.56
435.84	1201.56
436.062	1165.56
436.284	1165.56
436.505	1170.56
436.727	1162.56
436.949	1160.56
437.17	1155.56
437.392	1156.56
437.614	1131.56
437.835	1113.56
438.057	1103.56
438.278	1082.56
438.5	1104.56
438.721	1120.56
438.943	1121.56
439.165	1132.56
439.386	1141.56
439.608	1159.56
439.829	1149.56
440.05	1180.56
440.272	1148.56
440.493	1167.56
440.715	1203.56
440.936	1223.56
441.158	1211.56
441.379	1254.56
441.6	1320.56
441.822	1321.56
442.043	1346.56
442.264	1296.56
442.486	1254.56
442.707	1329.56
442.928	1292.56
443.149	1301.56
443.371	1283.56
443.592	1321.56
443.813	1291.56
444.034	1329.56
444.255	1337.56
444.476	1435.56
444.698	1533.56
444.919	1596.56
445.14	1696.56
445.361	1489.56
445.582	1375.56
445.803	1283.56
446.024	1193.56
446.245	1205.56
446.466	1195.56
446.687	1187.56
446.908	1173.56
447.129	1114.56
447.35	1122.56
447.571	1101.56
447.792	1108.56
448.013	1103.56
448.234	1084.56
448.455	1109.56
448.675	1058.56
448.896	1097.56
449.117	1043.56
449.338	1064.56
449.559	1049.56
449.779	1069.56
450	1037.56
450.221	1053.56
450.442	1057.56
450.662	1095.56
450.883	1071.56
451.104	1127.56
451.324	1097.56
451.545	1066.56
451.766	1081.56
451.986	1086.56
452.207	1069.56
452.428	1071.56
452.648	1045.56
452.869	1044.56
453.089	1025.56
453.31	1041.56
453.53	1050.56
453.751	1008.56
453.971	1014.56
454.192	1041.56
454.412	1007.56
454.633	1005.56
454.853	978.56
455.073	995.56
455.294	1009.56
455.514	959.56
455.734	981.56
455.955	966.56
456.175	1007.56
456.395	982.56
456.616	991.56
456.836	988.56
457.056	979.56
457.276	991.56
457.497	997.56
457.717	992.56
457.937	1004.56
458.157	1011.56
458.377	1029.56
458.598	1044.56
458.818	1042.56
459.038	1063.56
459.258	1151.56
459.478	1176.56
459.698	1197.56
459.918	1232.56
460.138	1325.56
460.358	1360.56
460.578	1375.56
460.798	1389.56
461.018	1395.56
461.238	1354.56
461.458	1344.56
461.678	1357.56
461.898	1394.56
462.118	1400.56
462.338	1449.56
462.558	1512.56
462.777	1524.56
462.997	1669.56
463.217	1867.56
463.437	1887.56
463.657	1745.56
463.876	1604.56
464.096	1643.56
464.316	1633.56
464.536	1669.56
464.755	1501.56
464.975	1500.56
465.195	1414.56
465.414	1329.56
465.634	1250.56
465.854	1219.56
466.073	1163.56
466.293	1157.56
466.512	1166.56
466.732	1095.56
466.951	1130.56
467.171	1145.56
467.391	1110.56
467.61	1140.56
467.829	1108.56
468.049	1072.56
468.268	1064.56
468.488	1068.56
468.707	1050.56
468.927	1048.56
469.146	1079.56
469.365	1086.56
469.585	1094.56
469.804	1112.56
470.023	1127.56
470.243	1105.56
470.462	1135.56
470.681	1173.56
470.901	1154.56
471.12	1141.56
471.339	1089.56
471.558	1051.56
471.777	1089.56
471.997	1047.56
472.216	1062.56
472.435	1036.56
472.654	984.56
472.873	993.56
473.092	1041.56
473.311	1014.56
473.53	990.56
473.749	1010.56
473.968	1020.56
474.187	1014.56
474.406	1014.56
474.625	1016.56
474.844	1021.56
475.063	1013.56
475.282	1029.56
475.501	1049.56
475.72	991.56
475.939	1029.56
476.158	1067.56
476.377	1078.56
476.596	1048.56
476.814	1061.56
477.033	1073.56
477.252	1077.56
477.471	1130.56
477.69	1149.56
477.908	1179.56
478.127	1193.56
478.346	1233.56
478.564	1227.56
478.783	1245.56
479.002	1308.56
479.22	1290.56
479.439	1301.56
479.658	1251.56
479.876	1247.56
480.095	1293.56
480.313	1359.56
480.532	1397.56
480.751	1403.56
480.969	1347.56
481.188	1261.56
481.406	1236.56
481.624	1188.56
481.843	1167.56
482.061	1160.56
482.28	1157.56
482.498	1168.56
482.717	1155.56
482.935	1181.56
483.153	1146.56
483.372	1164.56
483.59	1148.56
483.808	1155.56
484.027	1156.56
484.245	1193.56
484.463	1180.56
484.681	1210.56
484.9	1174.56
485.118	1215.56
485.336	1220.56
485.554	1196.56
485.772	1225.56
485.99	1220.56
486.209	1220.56
486.427	1249.56
486.645	1244.56
486.863	1238.56
487.081	1201.56
487.299	1229.56
487.517	1231.56
487.735	1213.56
487.953	1199.56
488.171	1194.56
488.389	1172.56
488.607	1224.56
488.825	1164.56
489.043	1195.56
489.261	1187.56
489.479	1215.56
489.696	1189.56
489.914	1203.56
490.132	1227.56
490.35	1210.56
490.568	1225.56
490.786	1205.56
491.003	1192.56
491.221	1225.56
491.439	1189.56
491.657	1234.56
491.874	1216.56
492.092	1187.56
492.31	1227.56
492.527	1245.56
492.745	1228.56
492.963	1233.56
493.18	1245.56
493.398	1255.56
493.615	1292.56
493.833	1271.56
494.05	1255.56
494.268	1292.56
494.485	1275.56
494.703	1317.56
