Data from NiCl2@0.5M.TitratingCurve.Agarose3%dH2O.NegLispCup.LampEnergy10.LIBS07252019_HRD10591_18-20-47-571.txt Node
Date: Thu Jul 25 18:20:47 EDT 2019
User: cochatt
Spectrometer: HR+D1059
Trigger mode: 1
Integration Time (sec): 1.000000E-1
Scans to average: 1
Electric dark correction enabled: true
Nonlinearity correction enabled: false
Boxcar width: 0
XAxis mode: Wavelengths
Number of Pixels in Spectrum: 2048
>>>>>Begin Spectral Data<<<<<
223.165	-24.12
223.4	-24.12
223.635	-24.12
223.869	-9.12
224.104	-13.12
224.338	-33.12
224.573	-24.12
224.808	-22.12
225.042	-9.12
225.277	2.88
225.511	9.88
225.746	-12.12
225.98	16.88
226.215	20.88
226.449	-3.12
226.683	22.88
226.918	30.88
227.152	45.88
227.387	36.88
227.621	48.88
227.856	41.88
228.09	41.88
228.324	48.88
228.559	68.88
228.793	57.88
229.027	87.88
229.262	92.88
229.496	104.88
229.73	120.88
229.964	107.88
230.199	105.88
230.433	117.88
230.667	124.88
230.901	120.88
231.136	119.88
231.37	116.88
231.604	126.88
231.838	132.88
232.072	141.88
232.306	131.88
232.541	117.88
232.775	116.88
233.009	121.88
233.243	129.88
233.477	124.88
233.711	127.88
233.945	128.88
234.179	120.88
234.413	133.88
234.647	124.88
234.881	128.88
235.115	149.88
235.349	129.88
235.583	132.88
235.817	131.88
236.051	131.88
236.285	140.88
236.519	144.88
236.753	140.88
236.987	129.88
237.221	142.88
237.455	118.88
237.689	136.88
237.922	128.88
238.156	135.88
238.39	132.88
238.624	138.88
238.858	140.88
239.091	151.88
239.325	152.88
239.559	162.88
239.793	149.88
240.027	166.88
240.26	154.88
240.494	152.88
240.728	144.88
240.961	152.88
241.195	147.88
241.429	150.88
241.662	155.88
241.896	161.88
242.13	149.88
242.363	174.88
242.597	153.88
242.83	173.88
243.064	177.88
243.298	169.88
243.531	161.88
243.765	179.88
243.998	184.88
244.232	164.88
244.465	169.88
244.699	168.88
244.932	186.88
245.166	192.88
245.399	187.88
245.633	161.88
245.866	176.88
246.099	165.88
246.333	183.88
246.566	171.88
246.8	185.88
247.033	177.88
247.266	172.88
247.5	182.88
247.733	186.88
247.966	185.88
248.2	183.88
248.433	203.88
248.666	198.88
248.899	197.88
249.133	195.88
249.366	196.88
249.599	195.88
249.832	187.88
250.066	192.88
250.299	204.88
250.532	181.88
250.765	198.88
250.998	206.88
251.231	197.88
251.465	196.88
251.698	212.88
251.931	215.88
252.164	220.88
252.397	196.88
252.63	224.88
252.863	212.88
253.096	216.88
253.329	225.88
253.562	198.88
253.795	207.88
254.028	238.88
254.261	231.88
254.494	227.88
254.727	211.88
254.96	224.88
255.193	232.88
255.426	234.88
255.659	223.88
255.892	234.88
256.124	226.88
256.357	238.88
256.59	225.88
256.823	226.88
257.056	245.88
257.289	234.88
257.521	237.88
257.754	247.88
257.987	225.88
258.22	233.88
258.452	242.88
258.685	221.88
258.918	232.88
259.151	252.88
259.383	268.88
259.616	234.88
259.849	247.88
260.081	239.88
260.314	256.88
260.547	250.88
260.779	251.88
261.012	260.88
261.244	261.88
261.477	258.88
261.71	266.88
261.942	246.88
262.175	242.88
262.407	273.88
262.64	257.88
262.872	259.88
263.105	282.88
263.337	264.88
263.57	245.88
263.802	277.88
264.035	271.88
264.267	263.88
264.499	262.88
264.732	262.88
264.964	278.88
265.197	278.88
265.429	280.88
265.661	277.88
265.894	268.88
266.126	284.88
266.358	288.88
266.591	272.88
266.823	294.88
267.055	288.88
267.287	272.88
267.52	286.88
267.752	277.88
267.984	291.88
268.216	276.88
268.448	286.88
268.681	298.88
268.913	301.88
269.145	290.88
269.377	280.88
269.609	299.88
269.841	293.88
270.073	299.88
270.306	308.88
270.538	286.88
270.77	287.88
271.002	313.88
271.234	295.88
271.466	298.88
271.698	306.88
271.93	308.88
272.162	303.88
272.394	310.88
272.626	299.88
272.858	318.88
273.09	306.88
273.322	318.88
273.553	310.88
273.785	303.88
274.017	323.88
274.249	319.88
274.481	315.88
274.713	308.88
274.945	335.88
275.176	328.88
275.408	321.88
275.64	323.88
275.872	335.88
276.104	335.88
276.335	335.88
276.567	322.88
276.799	324.88
277.031	328.88
277.262	338.88
277.494	339.88
277.726	346.88
277.957	358.88
278.189	336.88
278.421	342.88
278.652	350.88
278.884	331.88
279.115	343.88
279.347	359.88
279.579	327.88
279.81	345.88
280.042	380.88
280.273	360.88
280.505	363.88
280.736	354.88
280.968	345.88
281.199	360.88
281.431	354.88
281.662	370.88
281.894	356.88
282.125	370.88
282.356	372.88
282.588	361.88
282.819	372.88
283.051	355.88
283.282	382.88
283.513	378.88
283.745	378.88
283.976	371.88
284.207	383.88
284.439	371.88
284.67	376.88
284.901	376.88
285.132	354.88
285.364	374.88
285.595	376.88
285.826	385.88
286.057	392.88
286.288	378.88
286.52	390.88
286.751	381.88
286.982	413.88
287.213	400.88
287.444	407.88
287.675	389.88
287.906	396.88
288.138	388.88
288.369	418.88
288.6	378.88
288.831	407.88
289.062	394.88
289.293	390.88
289.524	397.88
289.755	406.88
289.986	395.88
290.217	403.88
290.448	399.88
290.679	408.88
290.91	378.88
291.141	400.88
291.371	404.88
291.602	409.88
291.833	425.88
292.064	411.88
292.295	396.88
292.526	404.88
292.757	419.88
292.987	400.88
293.218	410.88
293.449	424.88
293.68	412.88
293.91	414.88
294.141	409.88
294.372	417.88
294.603	423.88
294.833	412.88
295.064	422.88
295.295	417.88
295.525	433.88
295.756	432.88
295.987	405.88
296.217	446.88
296.448	422.88
296.679	432.88
296.909	418.88
297.14	449.88
297.37	431.88
297.601	457.88
297.831	425.88
298.062	467.88
298.292	454.88
298.523	467.88
298.753	459.88
298.984	438.88
299.214	462.88
299.445	453.88
299.675	444.88
299.905	457.88
300.136	452.88
300.366	472.88
300.597	477.88
300.827	474.88
301.057	459.88
301.288	474.88
301.518	465.88
301.748	476.88
301.979	463.88
302.209	464.88
302.439	480.88
302.669	467.88
302.9	460.88
303.13	478.88
303.36	457.88
303.59	479.88
303.82	496.88
304.051	481.88
304.281	481.88
304.511	468.88
304.741	487.88
304.971	488.88
305.201	479.88
305.431	479.88
305.661	471.88
305.891	489.88
306.121	451.88
306.352	480.88
306.582	466.88
306.812	457.88
307.042	469.88
307.272	455.88
307.502	454.88
307.731	467.88
307.961	467.88
308.191	489.88
308.421	463.88
308.651	492.88
308.881	485.88
309.111	481.88
309.341	451.88
309.571	455.88
309.8	478.88
310.03	483.88
310.26	495.88
310.49	491.88
310.72	489.88
310.949	481.88
311.179	482.88
311.409	474.88
311.639	480.88
311.868	473.88
312.098	501.88
312.328	488.88
312.557	475.88
312.787	481.88
313.017	514.88
313.246	517.88
313.476	499.88
313.706	495.88
313.935	493.88
314.165	489.88
314.394	502.88
314.624	486.88
314.853	506.88
315.083	511.88
315.312	502.88
315.542	509.88
315.771	491.88
316.001	495.88
316.23	500.88
316.46	484.88
316.689	508.88
316.919	517.88
317.148	502.88
317.377	488.88
317.607	486.88
317.836	476.88
318.065	480.88
318.295	499.88
318.524	499.88
318.753	504.88
318.983	498.88
319.212	481.88
319.441	475.88
319.67	494.88
319.9	500.88
320.129	518.88
320.358	475.88
320.587	510.88
320.816	509.88
321.046	513.88
321.275	492.88
321.504	522.88
321.733	515.88
321.962	530.88
322.191	514.88
322.42	501.88
322.649	501.88
322.878	520.88
323.108	500.88
323.337	524.88
323.566	524.88
323.795	536.88
324.024	518.88
324.253	522.88
324.482	530.88
324.71	535.88
324.939	538.88
325.168	537.88
325.397	536.88
325.626	548.88
325.855	539.88
326.084	532.88
326.313	547.88
326.542	546.88
326.77	581.88
326.999	561.88
327.228	531.88
327.457	532.88
327.686	543.88
327.914	525.88
328.143	577.88
328.372	537.88
328.6	532.88
328.829	535.88
329.058	543.88
329.287	537.88
329.515	542.88
329.744	526.88
329.972	559.88
330.201	566.88
330.43	569.88
330.658	545.88
330.887	578.88
331.115	566.88
331.344	571.88
331.572	564.88
331.801	566.88
332.03	593.88
332.258	614.88
332.486	594.88
332.715	637.88
332.943	638.88
333.172	652.88
333.4	651.88
333.629	681.88
333.857	665.88
334.085	698.88
334.314	680.88
334.542	681.88
334.771	679.88
334.999	684.88
335.227	674.88
335.455	678.88
335.684	663.88
335.912	640.88
336.14	667.88
336.369	669.88
336.597	658.88
336.825	645.88
337.053	658.88
337.281	649.88
337.51	638.88
337.738	616.88
337.966	600.88
338.194	619.88
338.422	624.88
338.65	599.88
338.878	584.88
339.106	590.88
339.334	602.88
339.562	587.88
339.79	575.88
340.018	592.88
340.246	556.88
340.474	586.88
340.702	584.88
340.93	582.88
341.158	556.88
341.386	585.88
341.614	577.88
341.842	595.88
342.07	580.88
342.298	573.88
342.526	614.88
342.754	572.88
342.981	558.88
343.209	582.88
343.437	616.88
343.665	615.88
343.893	655.88
344.12	659.88
344.348	659.88
344.576	635.88
344.804	643.88
345.031	611.88
345.259	612.88
345.487	580.88
345.714	590.88
345.942	580.88
346.17	591.88
346.397	587.88
346.625	558.88
346.853	570.88
347.08	548.88
347.308	555.88
347.535	568.88
347.763	548.88
347.99	538.88
348.218	558.88
348.445	560.88
348.673	558.88
348.9	550.88
349.128	530.88
349.355	550.88
349.583	589.88
349.81	545.88
350.037	555.88
350.265	534.88
350.492	548.88
350.72	549.88
350.947	552.88
351.174	556.88
351.402	568.88
351.629	536.88
351.856	538.88
352.083	543.88
352.311	543.88
352.538	560.88
352.765	566.88
352.992	545.88
353.22	533.88
353.447	520.88
353.674	525.88
353.901	498.88
354.128	501.88
354.355	536.88
354.583	520.88
354.81	542.88
355.037	533.88
355.264	546.88
355.491	539.88
355.718	550.88
355.945	518.88
356.172	536.88
356.399	541.88
356.626	546.88
356.853	546.88
357.08	539.88
357.307	561.88
357.534	538.88
357.761	532.88
357.988	514.88
358.215	518.88
358.441	531.88
358.668	543.88
358.895	550.88
359.122	544.88
359.349	542.88
359.576	524.88
359.802	532.88
360.029	536.88
360.256	531.88
360.483	529.88
360.709	535.88
360.936	552.88
361.163	531.88
361.39	524.88
361.616	525.88
361.843	547.88
362.07	548.88
362.296	534.88
362.523	528.88
362.749	549.88
362.976	524.88
363.203	505.88
363.429	516.88
363.656	521.88
363.882	550.88
364.109	516.88
364.335	529.88
364.562	523.88
364.788	519.88
365.015	552.88
365.241	515.88
365.468	520.88
365.694	527.88
365.92	526.88
366.147	514.88
366.373	524.88
366.599	529.88
366.826	502.88
367.052	510.88
367.278	546.88
367.505	511.88
367.731	531.88
367.957	511.88
368.184	515.88
368.41	523.88
368.636	536.88
368.862	522.88
369.089	539.88
369.315	529.88
369.541	541.88
369.767	543.88
369.993	538.88
370.219	534.88
370.445	548.88
370.672	545.88
370.898	539.88
371.124	561.88
371.35	569.88
371.576	574.88
371.802	552.88
372.028	568.88
372.254	554.88
372.48	568.88
372.706	568.88
372.932	575.88
373.158	586.88
373.384	597.88
373.61	584.88
373.835	574.88
374.061	553.88
374.287	544.88
374.513	583.88
374.739	586.88
374.965	589.88
375.191	586.88
375.416	584.88
375.642	599.88
375.868	584.88
376.094	571.88
376.319	547.88
376.545	555.88
376.771	566.88
376.997	562.88
377.222	576.88
377.448	562.88
377.674	566.88
377.899	527.88
378.125	560.88
378.35	560.88
378.576	519.88
378.802	553.88
379.027	537.88
379.253	538.88
379.478	537.88
379.704	564.88
379.929	545.88
380.155	547.88
380.38	532.88
380.606	543.88
380.831	543.88
381.057	560.88
381.282	516.88
381.507	545.88
381.733	556.88
381.958	552.88
382.184	548.88
382.409	553.88
382.634	566.88
382.86	583.88
383.085	576.88
383.31	595.88
383.535	583.88
383.761	590.88
383.986	602.88
384.211	610.88
384.436	607.88
384.662	610.88
384.887	600.88
385.112	638.88
385.337	638.88
385.562	633.88
385.787	639.88
386.013	651.88
386.238	637.88
386.463	656.88
386.688	646.88
386.913	631.88
387.138	649.88
387.363	649.88
387.588	645.88
387.813	649.88
388.038	652.88
388.263	639.88
388.488	621.88
388.713	651.88
388.938	649.88
389.163	630.88
389.387	640.88
389.612	652.88
389.837	626.88
390.062	648.88
390.287	644.88
390.512	647.88
390.736	626.88
390.961	682.88
391.186	663.88
391.411	668.88
391.636	666.88
391.86	705.88
392.085	687.88
392.31	713.88
392.534	686.88
392.759	689.88
392.984	691.88
393.208	669.88
393.433	658.88
393.658	695.88
393.882	644.88
394.107	676.88
394.331	709.88
394.556	686.88
394.78	684.88
395.005	690.88
395.229	680.88
395.454	688.88
395.678	706.88
395.903	707.88
396.127	711.88
396.352	697.88
396.576	693.88
396.801	708.88
397.025	704.88
397.249	720.88
397.474	714.88
397.698	734.88
397.922	731.88
398.147	726.88
398.371	721.88
398.595	776.88
398.82	800.88
399.044	810.88
399.268	880.88
399.492	976.88
399.717	1034.88
399.941	1037.88
400.165	974.88
400.389	916.88
400.613	880.88
400.837	844.88
401.062	822.88
401.286	790.88
401.51	799.88
401.734	772.88
401.958	792.88
402.182	810.88
402.406	803.88
402.63	820.88
402.854	837.88
403.078	832.88
403.302	849.88
403.526	865.88
403.75	855.88
403.974	854.88
404.198	856.88
404.422	867.88
404.645	862.88
404.869	839.88
405.093	864.88
405.317	872.88
405.541	863.88
405.765	873.88
405.988	832.88
406.212	857.88
406.436	843.88
406.66	870.88
406.883	886.88
407.107	944.88
407.331	968.88
407.555	984.88
407.778	988.88
408.002	968.88
408.226	946.88
408.449	954.88
408.673	924.88
408.896	880.88
409.12	880.88
409.344	885.88
409.567	892.88
409.791	892.88
410.014	882.88
410.238	875.88
410.461	884.88
410.685	881.88
410.908	839.88
411.132	859.88
411.355	830.88
411.578	848.88
411.802	835.88
412.025	852.88
412.249	863.88
412.472	875.88
412.695	816.88
412.919	815.88
413.142	785.88
413.365	823.88
413.589	806.88
413.812	796.88
414.035	801.88
414.258	802.88
414.482	808.88
414.705	834.88
414.928	794.88
415.151	818.88
415.374	812.88
415.597	824.88
415.821	793.88
416.044	777.88
416.267	773.88
416.49	772.88
416.713	786.88
416.936	794.88
417.159	783.88
417.382	782.88
417.605	785.88
417.828	793.88
418.051	803.88
418.274	808.88
418.497	795.88
418.72	821.88
418.943	815.88
419.166	841.88
419.389	872.88
419.611	908.88
419.834	865.88
420.057	830.88
420.28	799.88
420.503	778.88
420.726	793.88
420.948	791.88
421.171	773.88
421.394	783.88
421.617	782.88
421.839	777.88
422.062	818.88
422.285	772.88
422.507	812.88
422.73	822.88
422.953	812.88
423.175	804.88
423.398	796.88
423.621	802.88
423.843	824.88
424.066	848.88
424.288	835.88
424.511	774.88
424.733	802.88
424.956	790.88
425.178	804.88
425.401	815.88
425.623	776.88
425.846	767.88
426.068	779.88
426.291	774.88
426.513	751.88
426.735	755.88
426.958	781.88
427.18	755.88
427.402	743.88
427.625	763.88
427.847	753.88
428.069	746.88
428.292	746.88
428.514	768.88
428.736	723.88
428.958	735.88
429.181	718.88
429.403	721.88
429.625	729.88
429.847	734.88
430.069	731.88
430.292	744.88
430.514	709.88
430.736	718.88
430.958	742.88
431.18	736.88
431.402	719.88
431.624	730.88
431.846	743.88
432.068	735.88
432.29	763.88
432.512	743.88
432.734	766.88
432.956	738.88
433.178	753.88
433.4	751.88
433.622	773.88
433.844	765.88
434.066	779.88
434.287	771.88
434.509	811.88
434.731	808.88
434.953	806.88
435.175	854.88
435.397	835.88
435.618	766.88
435.84	761.88
436.062	744.88
436.284	788.88
436.505	736.88
436.727	750.88
436.949	746.88
437.17	739.88
437.392	736.88
437.614	724.88
437.835	728.88
438.057	719.88
438.278	700.88
438.5	718.88
438.721	717.88
438.943	731.88
439.165	719.88
439.386	738.88
439.608	762.88
439.829	755.88
440.05	741.88
440.272	768.88
440.493	756.88
440.715	776.88
440.936	800.88
441.158	793.88
441.379	790.88
441.6	821.88
441.822	830.88
442.043	808.88
442.264	837.88
442.486	809.88
442.707	783.88
442.928	834.88
443.149	834.88
443.371	805.88
443.592	819.88
443.813	825.88
444.034	831.88
444.255	848.88
444.476	882.88
444.698	892.88
444.919	967.88
445.14	1026.88
445.361	919.88
445.582	867.88
445.803	820.88
446.024	810.88
446.245	783.88
446.466	820.88
446.687	763.88
446.908	778.88
447.129	764.88
447.35	754.88
447.571	735.88
447.792	728.88
448.013	727.88
448.234	702.88
448.455	711.88
448.675	711.88
448.896	702.88
449.117	700.88
449.338	682.88
449.559	710.88
449.779	700.88
450	695.88
450.221	700.88
450.442	672.88
450.662	710.88
450.883	710.88
451.104	726.88
451.324	711.88
451.545	707.88
451.766	710.88
451.986	710.88
452.207	695.88
452.428	680.88
452.648	717.88
452.869	683.88
453.089	684.88
453.31	690.88
453.53	706.88
453.751	699.88
453.971	679.88
454.192	682.88
454.412	660.88
454.633	683.88
454.853	665.88
455.073	666.88
455.294	657.88
455.514	667.88
455.734	679.88
455.955	645.88
456.175	644.88
456.395	645.88
456.616	651.88
456.836	673.88
457.056	658.88
457.276	656.88
457.497	691.88
457.717	698.88
457.937	658.88
458.157	682.88
458.377	676.88
458.598	697.88
458.818	700.88
459.038	734.88
459.258	724.88
459.478	761.88
459.698	772.88
459.918	784.88
460.138	810.88
460.358	828.88
460.578	851.88
460.798	881.88
461.018	875.88
461.238	878.88
461.458	827.88
461.678	874.88
461.898	875.88
462.118	880.88
462.338	922.88
462.558	933.88
462.777	983.88
462.997	1039.88
463.217	1053.88
463.437	1072.88
463.657	1027.88
463.876	986.88
464.096	999.88
464.316	956.88
464.536	990.88
464.755	958.88
464.975	915.88
465.195	889.88
465.414	847.88
465.634	804.88
465.854	806.88
466.073	788.88
466.293	754.88
466.512	775.88
466.732	757.88
466.951	723.88
467.171	714.88
467.391	743.88
467.61	727.88
467.829	713.88
468.049	713.88
468.268	722.88
468.488	708.88
468.707	713.88
468.927	706.88
469.146	720.88
469.365	742.88
469.585	730.88
469.804	748.88
470.023	736.88
470.243	743.88
470.462	753.88
470.681	766.88
470.901	747.88
471.12	740.88
471.339	731.88
471.558	737.88
471.777	753.88
471.997	735.88
472.216	734.88
472.435	713.88
472.654	712.88
472.873	724.88
473.092	689.88
473.311	721.88
473.53	713.88
473.749	720.88
473.968	716.88
474.187	690.88
474.406	685.88
474.625	713.88
474.844	688.88
475.063	694.88
475.282	727.88
475.501	719.88
475.72	716.88
475.939	723.88
476.158	728.88
476.377	732.88
476.596	751.88
476.814	719.88
477.033	726.88
477.252	731.88
477.471	763.88
477.69	777.88
477.908	818.88
478.127	824.88
478.346	827.88
478.564	835.88
478.783	864.88
479.002	879.88
479.22	878.88
479.439	863.88
479.658	867.88
479.876	873.88
480.095	876.88
480.313	871.88
480.532	886.88
480.751	888.88
480.969	864.88
481.188	834.88
481.406	867.88
481.624	849.88
481.843	810.88
482.061	807.88
482.28	805.88
482.498	807.88
482.717	798.88
482.935	809.88
483.153	833.88
483.372	844.88
483.59	825.88
483.808	834.88
484.027	816.88
484.245	826.88
484.463	823.88
484.681	843.88
484.9	833.88
485.118	863.88
485.336	842.88
485.554	836.88
485.772	841.88
485.99	837.88
486.209	884.88
486.427	828.88
486.645	839.88
486.863	851.88
487.081	878.88
487.299	859.88
487.517	861.88
487.735	840.88
487.953	876.88
488.171	860.88
488.389	855.88
488.607	855.88
488.825	831.88
489.043	846.88
489.261	864.88
489.479	834.88
489.696	850.88
489.914	831.88
490.132	835.88
490.35	838.88
490.568	865.88
490.786	871.88
491.003	871.88
491.221	867.88
491.439	881.88
491.657	880.88
491.874	894.88
492.092	909.88
492.31	889.88
492.527	908.88
492.745	872.88
492.963	864.88
493.18	904.88
493.398	897.88
493.615	901.88
493.833	923.88
494.05	916.88
494.268	901.88
494.485	885.88
494.703	878.88
494.92	912.88
495.138	941.88
495.355	931.88
495.573	900.88
495.79	955.88
496.008	933.88
496.225	914.88
496.442	970.88
496.66	959.88
496.877	994.88
497.094	1006.88
497.312	994.88
497.529	1004.88
497.746	1033.88
497.963	1064.88
498.181	1081.88
498.398	1159.88
498.615	1188.88
498.832	1251.88
499.049	1287.88
499.267	1421.88
499.484	1527.88
499.701	1597.88
499.918	1755.88
500.135	1940.88
500.352	2081.88
500.569	2190.88
500.786	2127.88
501.003	2002.88
501.22	1921.88
