Data from NiCl2@0.25M.TitratingCurve.Agarose3%dH2O.NegLispCup.LampEnergy10.LIBS07252019_HRD10591_18-26-16-573.txt Node
Date: Thu Jul 25 18:26:16 EDT 2019
User: cochatt
Spectrometer: HR+D1059
Trigger mode: 1
Integration Time (sec): 1.000000E-1
Scans to average: 1
Electric dark correction enabled: true
Nonlinearity correction enabled: false
Boxcar width: 0
XAxis mode: Wavelengths
Number of Pixels in Spectrum: 2048
>>>>>Begin Spectral Data<<<<<
223.165	-11.81
223.4	-11.81
223.635	-11.81
223.869	-12.81
224.104	-30.81
224.338	-7.81
224.573	-21.81
224.808	-5.81
225.042	-11.81
225.277	6.19
225.511	-10.81
225.746	0.19
225.98	-5.81
226.215	12.19
226.449	7.19
226.683	38.19
226.918	20.19
227.152	35.19
227.387	35.19
227.621	19.19
227.856	47.19
228.09	52.19
228.324	45.19
228.559	57.19
228.793	76.19
229.027	113.19
229.262	109.19
229.496	124.19
229.73	132.19
229.964	141.19
230.199	157.19
230.433	153.19
230.667	157.19
230.901	157.19
231.136	158.19
231.37	157.19
231.604	153.19
231.838	178.19
232.072	161.19
232.306	178.19
232.541	156.19
232.775	163.19
233.009	160.19
233.243	160.19
233.477	168.19
233.711	174.19
233.945	179.19
234.179	177.19
234.413	176.19
234.647	167.19
234.881	175.19
235.115	188.19
235.349	192.19
235.583	182.19
235.817	164.19
236.051	162.19
236.285	173.19
236.519	178.19
236.753	182.19
236.987	180.19
237.221	188.19
237.455	188.19
237.689	179.19
237.922	182.19
238.156	200.19
238.39	203.19
238.624	193.19
238.858	184.19
239.091	212.19
239.325	206.19
239.559	213.19
239.793	215.19
240.027	217.19
240.26	217.19
240.494	213.19
240.728	208.19
240.961	198.19
241.195	211.19
241.429	221.19
241.662	224.19
241.896	204.19
242.13	234.19
242.363	245.19
242.597	240.19
242.83	256.19
243.064	233.19
243.298	246.19
243.531	246.19
243.765	243.19
243.998	251.19
244.232	263.19
244.465	242.19
244.699	269.19
244.932	261.19
245.166	262.19
245.399	270.19
245.633	272.19
245.866	260.19
246.099	275.19
246.333	264.19
246.566	282.19
246.8	285.19
247.033	297.19
247.266	268.19
247.5	284.19
247.733	272.19
247.966	302.19
248.2	275.19
248.433	283.19
248.666	284.19
248.899	296.19
249.133	285.19
249.366	308.19
249.599	309.19
249.832	300.19
250.066	301.19
250.299	313.19
250.532	314.19
250.765	327.19
250.998	325.19
251.231	324.19
251.465	336.19
251.698	322.19
251.931	335.19
252.164	326.19
252.397	333.19
252.63	349.19
252.863	343.19
253.096	341.19
253.329	347.19
253.562	338.19
253.795	336.19
254.028	349.19
254.261	338.19
254.494	374.19
254.727	358.19
254.96	366.19
255.193	357.19
255.426	342.19
255.659	338.19
255.892	356.19
256.124	357.19
256.357	350.19
256.59	363.19
256.823	372.19
257.056	375.19
257.289	340.19
257.521	386.19
257.754	376.19
257.987	378.19
258.22	371.19
258.452	380.19
258.685	381.19
258.918	379.19
259.151	377.19
259.383	374.19
259.616	379.19
259.849	409.19
260.081	393.19
260.314	396.19
260.547	392.19
260.779	398.19
261.012	407.19
261.244	402.19
261.477	427.19
261.71	406.19
261.942	405.19
262.175	378.19
262.407	396.19
262.64	390.19
262.872	405.19
263.105	424.19
263.337	445.19
263.57	424.19
263.802	413.19
264.035	428.19
264.267	430.19
264.499	447.19
264.732	441.19
264.964	431.19
265.197	425.19
265.429	446.19
265.661	438.19
265.894	443.19
266.126	453.19
266.358	459.19
266.591	438.19
266.823	475.19
267.055	455.19
267.287	444.19
267.52	444.19
267.752	453.19
267.984	458.19
268.216	453.19
268.448	449.19
268.681	466.19
268.913	468.19
269.145	465.19
269.377	456.19
269.609	462.19
269.841	472.19
270.073	467.19
270.306	475.19
270.538	469.19
270.77	477.19
271.002	465.19
271.234	502.19
271.466	476.19
271.698	485.19
271.93	490.19
272.162	502.19
272.394	483.19
272.626	501.19
272.858	486.19
273.09	493.19
273.322	513.19
273.553	491.19
273.785	493.19
274.017	497.19
274.249	527.19
274.481	522.19
274.713	496.19
274.945	514.19
275.176	511.19
275.408	523.19
275.64	524.19
275.872	513.19
276.104	533.19
276.335	529.19
276.567	540.19
276.799	517.19
277.031	541.19
277.262	535.19
277.494	532.19
277.726	554.19
277.957	538.19
278.189	548.19
278.421	547.19
278.652	532.19
278.884	564.19
279.115	541.19
279.347	570.19
279.579	555.19
279.81	583.19
280.042	561.19
280.273	575.19
280.505	554.19
280.736	584.19
280.968	579.19
281.199	588.19
281.431	594.19
281.662	578.19
281.894	594.19
282.125	597.19
282.356	617.19
282.588	617.19
282.819	605.19
283.051	607.19
283.282	588.19
283.513	576.19
283.745	614.19
283.976	616.19
284.207	621.19
284.439	625.19
284.67	582.19
284.901	609.19
285.132	631.19
285.364	633.19
285.595	610.19
285.826	626.19
286.057	633.19
286.288	627.19
286.52	647.19
286.751	660.19
286.982	636.19
287.213	638.19
287.444	634.19
287.675	664.19
287.906	641.19
288.138	650.19
288.369	644.19
288.6	677.19
288.831	629.19
289.062	662.19
289.293	645.19
289.524	671.19
289.755	651.19
289.986	661.19
290.217	654.19
290.448	636.19
290.679	658.19
290.91	659.19
291.141	670.19
291.371	675.19
291.602	708.19
291.833	667.19
292.064	664.19
292.295	672.19
292.526	683.19
292.757	669.19
292.987	676.19
293.218	680.19
293.449	678.19
293.68	653.19
293.91	668.19
294.141	676.19
294.372	652.19
294.603	680.19
294.833	707.19
295.064	666.19
295.295	706.19
295.525	672.19
295.756	692.19
295.987	670.19
296.217	708.19
296.448	690.19
296.679	699.19
296.909	684.19
297.14	707.19
297.37	730.19
297.601	720.19
297.831	704.19
298.062	712.19
298.292	720.19
298.523	735.19
298.753	719.19
298.984	754.19
299.214	716.19
299.445	704.19
299.675	720.19
299.905	723.19
300.136	750.19
300.366	734.19
300.597	762.19
300.827	748.19
301.057	772.19
301.288	786.19
301.518	749.19
301.748	781.19
301.979	772.19
302.209	782.19
302.439	765.19
302.669	788.19
302.9	750.19
303.13	734.19
303.36	765.19
303.59	747.19
303.82	757.19
304.051	772.19
304.281	760.19
304.511	749.19
304.741	764.19
304.971	770.19
305.201	735.19
305.431	760.19
305.661	740.19
305.891	771.19
306.121	741.19
306.352	756.19
306.582	728.19
306.812	721.19
307.042	750.19
307.272	747.19
307.502	754.19
307.731	753.19
307.961	750.19
308.191	747.19
308.421	744.19
308.651	733.19
308.881	710.19
309.111	752.19
309.341	758.19
309.571	754.19
309.8	745.19
310.03	768.19
310.26	745.19
310.49	725.19
310.72	747.19
310.949	737.19
311.179	759.19
311.409	759.19
311.639	762.19
311.868	743.19
312.098	753.19
312.328	783.19
312.557	765.19
312.787	778.19
313.017	778.19
313.246	784.19
313.476	765.19
313.706	800.19
313.935	810.19
314.165	805.19
314.394	804.19
314.624	791.19
314.853	803.19
315.083	815.19
315.312	789.19
315.542	805.19
315.771	808.19
316.001	795.19
316.23	800.19
316.46	778.19
316.689	787.19
316.919	781.19
317.148	800.19
317.377	774.19
317.607	771.19
317.836	772.19
318.065	781.19
318.295	788.19
318.524	786.19
318.753	780.19
318.983	772.19
319.212	792.19
319.441	788.19
319.67	769.19
319.9	776.19
320.129	783.19
320.358	781.19
320.587	779.19
320.816	783.19
321.046	797.19
321.275	785.19
321.504	781.19
321.733	781.19
321.962	798.19
322.191	777.19
322.42	806.19
322.649	793.19
322.878	776.19
323.108	796.19
323.337	827.19
323.566	816.19
323.795	813.19
324.024	817.19
324.253	838.19
324.482	800.19
324.71	808.19
324.939	816.19
325.168	809.19
325.397	832.19
325.626	826.19
325.855	844.19
326.084	841.19
326.313	826.19
326.542	853.19
326.77	861.19
326.999	840.19
327.228	861.19
327.457	850.19
327.686	840.19
327.914	849.19
328.143	861.19
328.372	855.19
328.6	847.19
328.829	855.19
329.058	855.19
329.287	839.19
329.515	861.19
329.744	901.19
329.972	875.19
330.201	866.19
330.43	868.19
330.658	906.19
330.887	896.19
331.115	905.19
331.344	908.19
331.572	942.19
331.801	923.19
332.03	945.19
332.258	929.19
332.486	967.19
332.715	1012.19
332.943	1053.19
333.172	1060.19
333.4	1106.19
333.629	1151.19
333.857	1144.19
334.085	1149.19
334.314	1174.19
334.542	1154.19
334.771	1151.19
334.999	1089.19
335.227	1124.19
335.455	1124.19
335.684	1096.19
335.912	1058.19
336.14	1044.19
336.369	1043.19
336.597	1042.19
336.825	1019.19
337.053	1030.19
337.281	1022.19
337.51	981.19
337.738	959.19
337.966	968.19
338.194	974.19
338.422	940.19
338.65	926.19
338.878	937.19
339.106	949.19
339.334	932.19
339.562	918.19
339.79	931.19
340.018	889.19
340.246	897.19
340.474	893.19
340.702	918.19
340.93	914.19
341.158	918.19
341.386	939.19
341.614	909.19
341.842	893.19
342.07	892.19
342.298	885.19
342.526	899.19
342.754	901.19
342.981	897.19
343.209	922.19
343.437	944.19
343.665	999.19
343.893	1047.19
344.12	1113.19
344.348	1081.19
344.576	1046.19
344.804	992.19
345.031	979.19
345.259	954.19
345.487	917.19
345.714	912.19
345.942	898.19
346.17	911.19
346.397	893.19
346.625	889.19
346.853	858.19
347.08	852.19
347.308	888.19
347.535	886.19
347.763	886.19
347.99	884.19
348.218	872.19
348.445	860.19
348.673	846.19
348.9	888.19
349.128	869.19
349.355	857.19
349.583	850.19
349.81	840.19
350.037	850.19
350.265	858.19
350.492	838.19
350.72	858.19
350.947	820.19
351.174	823.19
351.402	829.19
351.629	811.19
351.856	823.19
352.083	810.19
352.311	805.19
352.538	827.19
352.765	838.19
352.992	849.19
353.22	821.19
353.447	805.19
353.674	791.19
353.901	830.19
354.128	856.19
354.355	825.19
354.583	830.19
354.81	825.19
355.037	824.19
355.264	828.19
355.491	828.19
355.718	833.19
355.945	860.19
356.172	838.19
356.399	841.19
356.626	842.19
356.853	828.19
357.08	826.19
357.307	846.19
357.534	819.19
357.761	844.19
357.988	838.19
358.215	831.19
358.441	848.19
358.668	818.19
358.895	822.19
359.122	847.19
359.349	820.19
359.576	832.19
359.802	835.19
360.029	846.19
360.256	850.19
360.483	826.19
360.709	833.19
360.936	842.19
361.163	839.19
361.39	841.19
361.616	830.19
361.843	825.19
362.07	848.19
362.296	832.19
362.523	828.19
362.749	851.19
362.976	827.19
363.203	818.19
363.429	807.19
363.656	810.19
363.882	827.19
364.109	850.19
364.335	806.19
364.562	825.19
364.788	856.19
365.015	834.19
365.241	835.19
365.468	821.19
365.694	812.19
365.92	809.19
366.147	816.19
366.373	821.19
366.599	808.19
366.826	822.19
367.052	824.19
367.278	828.19
367.505	830.19
367.731	829.19
367.957	836.19
368.184	836.19
368.41	833.19
368.636	844.19
368.862	861.19
369.089	850.19
369.315	840.19
369.541	866.19
369.767	860.19
369.993	878.19
370.219	854.19
370.445	877.19
370.672	871.19
370.898	872.19
371.124	892.19
371.35	907.19
371.576	934.19
371.802	901.19
372.028	912.19
372.254	923.19
372.48	910.19
372.706	936.19
372.932	948.19
373.158	943.19
373.384	938.19
373.61	924.19
373.835	925.19
374.061	896.19
374.287	921.19
374.513	952.19
374.739	956.19
374.965	966.19
375.191	1012.19
375.416	1005.19
375.642	984.19
375.868	957.19
376.094	944.19
376.319	934.19
376.545	909.19
376.771	924.19
376.997	897.19
377.222	938.19
377.448	908.19
377.674	910.19
377.899	891.19
378.125	912.19
378.35	898.19
378.576	868.19
378.802	894.19
379.027	900.19
379.253	932.19
379.478	898.19
379.704	922.19
379.929	899.19
380.155	924.19
380.38	889.19
380.606	916.19
380.831	913.19
381.057	898.19
381.282	914.19
381.507	892.19
381.733	916.19
381.958	930.19
382.184	928.19
382.409	931.19
382.634	916.19
382.86	937.19
383.085	938.19
383.31	989.19
383.535	963.19
383.761	1000.19
383.986	999.19
384.211	1017.19
384.436	1053.19
384.662	1064.19
384.887	1080.19
385.112	1059.19
385.337	1118.19
385.562	1109.19
385.787	1091.19
386.013	1118.19
386.238	1108.19
386.463	1069.19
386.688	1118.19
386.913	1084.19
387.138	1108.19
387.363	1112.19
387.588	1092.19
387.813	1096.19
388.038	1125.19
388.263	1094.19
388.488	1107.19
388.713	1083.19
388.938	1097.19
389.163	1090.19
389.387	1114.19
389.612	1086.19
389.837	1093.19
390.062	1078.19
390.287	1086.19
390.512	1091.19
390.736	1096.19
390.961	1109.19
391.186	1124.19
391.411	1170.19
391.636	1184.19
391.86	1226.19
392.085	1275.19
392.31	1221.19
392.534	1222.19
392.759	1201.19
392.984	1184.19
393.208	1184.19
393.433	1141.19
393.658	1180.19
393.882	1156.19
394.107	1198.19
394.331	1169.19
394.556	1195.19
394.78	1172.19
395.005	1172.19
395.229	1209.19
395.454	1223.19
395.678	1238.19
395.903	1258.19
396.127	1250.19
396.352	1224.19
396.576	1194.19
396.801	1212.19
397.025	1251.19
397.249	1213.19
397.474	1257.19
397.698	1267.19
397.922	1273.19
398.147	1255.19
398.371	1359.19
398.595	1370.19
398.82	1371.19
399.044	1499.19
399.268	1598.19
399.492	1858.19
399.717	2056.19
399.941	2101.19
400.165	1947.19
400.389	1788.19
400.613	1644.19
400.837	1522.19
401.062	1486.19
401.286	1466.19
401.51	1413.19
401.734	1426.19
401.958	1416.19
402.182	1476.19
402.406	1434.19
402.63	1460.19
402.854	1528.19
403.078	1500.19
403.302	1520.19
403.526	1557.19
403.75	1561.19
403.974	1572.19
404.198	1565.19
404.422	1611.19
404.645	1551.19
404.869	1569.19
405.093	1594.19
405.317	1541.19
405.541	1552.19
405.765	1560.19
405.988	1537.19
406.212	1568.19
406.436	1509.19
406.66	1572.19
406.883	1588.19
407.107	1670.19
407.331	1782.19
407.555	1840.19
407.778	1838.19
408.002	1784.19
408.226	1744.19
408.449	1709.19
408.673	1637.19
408.896	1589.19
409.12	1562.19
409.344	1604.19
409.567	1572.19
409.791	1576.19
410.014	1599.19
410.238	1548.19
410.461	1560.19
410.685	1500.19
410.908	1490.19
411.132	1498.19
411.355	1406.19
411.578	1438.19
411.802	1459.19
412.025	1485.19
412.249	1479.19
412.472	1477.19
412.695	1458.19
412.919	1404.19
413.142	1400.19
413.365	1427.19
413.589	1438.19
413.812	1365.19
414.035	1389.19
414.258	1376.19
414.482	1375.19
414.705	1429.19
414.928	1380.19
415.151	1410.19
415.374	1401.19
415.597	1363.19
415.821	1358.19
416.044	1371.19
416.267	1348.19
416.49	1358.19
416.713	1366.19
416.936	1352.19
417.159	1381.19
417.382	1361.19
417.605	1339.19
417.828	1379.19
418.051	1375.19
418.274	1378.19
418.497	1348.19
418.72	1405.19
418.943	1394.19
419.166	1490.19
419.389	1598.19
419.611	1593.19
419.834	1497.19
420.057	1430.19
420.28	1378.19
420.503	1368.19
420.726	1356.19
420.948	1362.19
421.171	1350.19
421.394	1387.19
421.617	1377.19
421.839	1378.19
422.062	1374.19
422.285	1377.19
422.507	1392.19
422.73	1398.19
422.953	1369.19
423.175	1404.19
423.398	1414.19
423.621	1429.19
423.843	1404.19
424.066	1408.19
424.288	1457.19
424.511	1421.19
424.733	1429.19
424.956	1389.19
425.178	1375.19
425.401	1405.19
425.623	1354.19
425.846	1309.19
426.068	1349.19
426.291	1360.19
426.513	1316.19
426.735	1284.19
426.958	1318.19
427.18	1257.19
427.402	1266.19
427.625	1264.19
427.847	1284.19
428.069	1189.19
428.292	1265.19
428.514	1227.19
428.736	1200.19
428.958	1199.19
429.181	1203.19
429.403	1201.19
429.625	1218.19
429.847	1200.19
430.069	1184.19
430.292	1179.19
430.514	1171.19
430.736	1182.19
430.958	1189.19
431.18	1241.19
431.402	1193.19
431.624	1203.19
431.846	1227.19
432.068	1251.19
432.29	1235.19
432.512	1216.19
432.734	1215.19
432.956	1189.19
433.178	1233.19
433.4	1218.19
433.622	1211.19
433.844	1227.19
434.066	1240.19
434.287	1271.19
434.509	1264.19
434.731	1290.19
434.953	1373.19
435.175	1380.19
435.397	1352.19
435.618	1298.19
435.84	1248.19
436.062	1234.19
436.284	1215.19
436.505	1228.19
436.727	1244.19
436.949	1240.19
437.17	1188.19
437.392	1169.19
437.614	1186.19
437.835	1189.19
438.057	1180.19
438.278	1160.19
438.5	1137.19
438.721	1158.19
438.943	1151.19
439.165	1155.19
439.386	1158.19
439.608	1205.19
439.829	1174.19
440.05	1225.19
440.272	1220.19
440.493	1203.19
440.715	1188.19
440.936	1231.19
441.158	1250.19
441.379	1349.19
441.6	1330.19
441.822	1384.19
442.043	1373.19
442.264	1320.19
442.486	1310.19
442.707	1302.19
442.928	1284.19
443.149	1314.19
443.371	1318.19
443.592	1348.19
443.813	1402.19
444.034	1376.19
444.255	1406.19
444.476	1507.19
444.698	1533.19
444.919	1610.19
445.14	1655.19
445.361	1529.19
445.582	1436.19
445.803	1345.19
446.024	1272.19
446.245	1292.19
446.466	1251.19
446.687	1222.19
446.908	1259.19
447.129	1190.19
447.35	1143.19
447.571	1150.19
447.792	1164.19
448.013	1156.19
448.234	1132.19
448.455	1117.19
448.675	1108.19
448.896	1138.19
449.117	1086.19
449.338	1121.19
449.559	1105.19
449.779	1082.19
450	1078.19
450.221	1094.19
450.442	1141.19
450.662	1108.19
450.883	1121.19
451.104	1134.19
451.324	1122.19
451.545	1127.19
451.766	1108.19
451.986	1102.19
452.207	1100.19
452.428	1092.19
452.648	1112.19
452.869	1072.19
453.089	1075.19
453.31	1072.19
453.53	1053.19
453.751	1062.19
453.971	1049.19
454.192	1060.19
454.412	1049.19
454.633	1056.19
454.853	1074.19
455.073	1035.19
455.294	1051.19
455.514	1018.19
455.734	1025.19
455.955	1024.19
456.175	1015.19
456.395	1019.19
456.616	1018.19
456.836	1038.19
457.056	1017.19
457.276	1053.19
457.497	1069.19
457.717	1027.19
457.937	1028.19
458.157	1062.19
458.377	1096.19
458.598	1100.19
458.818	1152.19
459.038	1181.19
459.258	1170.19
459.478	1264.19
459.698	1253.19
459.918	1288.19
460.138	1300.19
460.358	1382.19
460.578	1418.19
460.798	1454.19
461.018	1433.19
461.238	1438.19
461.458	1443.19
461.678	1470.19
461.898	1434.19
462.118	1481.19
462.338	1580.19
462.558	1601.19
462.777	1664.19
462.997	1796.19
463.217	1886.19
463.437	1915.19
463.657	1787.19
463.876	1712.19
464.096	1736.19
464.316	1683.19
464.536	1694.19
464.755	1641.19
464.975	1624.19
465.195	1519.19
465.414	1413.19
465.634	1346.19
465.854	1282.19
466.073	1271.19
466.293	1231.19
466.512	1206.19
466.732	1162.19
466.951	1166.19
467.171	1159.19
467.391	1184.19
467.61	1162.19
467.829	1158.19
468.049	1123.19
468.268	1139.19
468.488	1112.19
468.707	1094.19
468.927	1148.19
469.146	1126.19
469.365	1122.19
469.585	1152.19
469.804	1168.19
470.023	1206.19
470.243	1185.19
470.462	1204.19
470.681	1223.19
470.901	1241.19
471.12	1173.19
471.339	1148.19
471.558	1139.19
471.777	1140.19
471.997	1129.19
472.216	1109.19
472.435	1097.19
472.654	1125.19
472.873	1098.19
473.092	1097.19
473.311	1065.19
473.53	1120.19
473.749	1090.19
473.968	1082.19
474.187	1081.19
474.406	1103.19
474.625	1084.19
474.844	1093.19
475.063	1070.19
475.282	1090.19
475.501	1110.19
475.72	1135.19
475.939	1145.19
476.158	1129.19
476.377	1132.19
476.596	1146.19
476.814	1148.19
477.033	1193.19
477.252	1209.19
477.471	1210.19
477.69	1212.19
477.908	1253.19
478.127	1295.19
478.346	1272.19
478.564	1343.19
478.783	1330.19
479.002	1365.19
479.22	1389.19
479.439	1340.19
479.658	1380.19
479.876	1398.19
480.095	1390.19
480.313	1450.19
480.532	1480.19
480.751	1483.19
480.969	1413.19
481.188	1361.19
481.406	1336.19
481.624	1300.19
481.843	1301.19
482.061	1271.19
482.28	1254.19
482.498	1260.19
482.717	1256.19
482.935	1266.19
483.153	1243.19
483.372	1285.19
483.59	1293.19
483.808	1254.19
484.027	1275.19
484.245	1270.19
484.463	1266.19
484.681	1295.19
484.9	1291.19
485.118	1280.19
485.336	1329.19
485.554	1299.19
485.772	1325.19
485.99	1342.19
486.209	1346.19
486.427	1337.19
486.645	1309.19
486.863	1353.19
487.081	1338.19
487.299	1351.19
487.517	1315.19
487.735	1327.19
487.953	1332.19
488.171	1332.19
488.389	1306.19
488.607	1306.19
488.825	1292.19
489.043	1313.19
489.261	1291.19
489.479	1285.19
489.696	1345.19
489.914	1294.19
490.132	1330.19
490.35	1326.19
490.568	1316.19
490.786	1313.19
491.003	1334.19
491.221	1330.19
491.439	1344.19
491.657	1304.19
491.874	1318.19
492.092	1347.19
492.31	1386.19
492.527	1401.19
492.745	1366.19
492.963	1342.19
493.18	1356.19
493.398	1369.19
493.615	1372.19
493.833	1395.19
494.05	1376.19
494.268	1440.19
494.485	1399.19
