Data from NiCl2@0.25M.TitratingCurve.Agarose3%dH2O.NegLispCup.LampEnergy10.LIBS07252019_HRD10591_18-23-48-572.txt Node
Date: Thu Jul 25 18:23:48 EDT 2019
User: cochatt
Spectrometer: HR+D1059
Trigger mode: 1
Integration Time (sec): 1.000000E-1
Scans to average: 1
Electric dark correction enabled: true
Nonlinearity correction enabled: false
Boxcar width: 0
XAxis mode: Wavelengths
Number of Pixels in Spectrum: 2048
>>>>>Begin Spectral Data<<<<<
223.165	-34.44
223.4	-34.44
223.635	-34.44
223.869	-24.44
224.104	-16.44
224.338	-13.44
224.573	-4.44
224.808	-16.44
225.042	-7.44
225.277	-8.44
225.511	-0.44
225.746	19.56
225.98	3.56
226.215	11.56
226.449	5.56
226.683	33.56
226.918	32.56
227.152	19.56
227.387	31.56
227.621	35.56
227.856	28.56
228.09	50.56
228.324	55.56
228.559	52.56
228.793	69.56
229.027	96.56
229.262	97.56
229.496	101.56
229.73	103.56
229.964	113.56
230.199	125.56
230.433	115.56
230.667	113.56
230.901	121.56
231.136	125.56
231.37	110.56
231.604	127.56
231.838	135.56
232.072	131.56
232.306	150.56
232.541	135.56
232.775	150.56
233.009	146.56
233.243	140.56
233.477	136.56
233.711	140.56
233.945	141.56
234.179	143.56
234.413	143.56
234.647	141.56
234.881	148.56
235.115	134.56
235.349	140.56
235.583	150.56
235.817	141.56
236.051	120.56
236.285	131.56
236.519	140.56
236.753	144.56
236.987	135.56
237.221	133.56
237.455	133.56
237.689	141.56
237.922	149.56
238.156	148.56
238.39	142.56
238.624	149.56
238.858	149.56
239.091	141.56
239.325	149.56
239.559	145.56
239.793	154.56
240.027	187.56
240.26	161.56
240.494	169.56
240.728	177.56
240.961	140.56
241.195	178.56
241.429	171.56
241.662	171.56
241.896	168.56
242.13	181.56
242.363	178.56
242.597	169.56
242.83	180.56
243.064	180.56
243.298	175.56
243.531	184.56
243.765	188.56
243.998	183.56
244.232	187.56
244.465	203.56
244.699	199.56
244.932	205.56
245.166	217.56
245.399	197.56
245.633	197.56
245.866	207.56
246.099	198.56
246.333	218.56
246.566	203.56
246.8	205.56
247.033	200.56
247.266	192.56
247.5	208.56
247.733	211.56
247.966	199.56
248.2	205.56
248.433	225.56
248.666	204.56
248.899	199.56
249.133	226.56
249.366	211.56
249.599	208.56
249.832	209.56
250.066	216.56
250.299	229.56
250.532	226.56
250.765	237.56
250.998	221.56
251.231	230.56
251.465	240.56
251.698	224.56
251.931	240.56
252.164	241.56
252.397	252.56
252.63	255.56
252.863	255.56
253.096	239.56
253.329	248.56
253.562	233.56
253.795	257.56
254.028	259.56
254.261	261.56
254.494	249.56
254.727	237.56
254.96	262.56
255.193	248.56
255.426	240.56
255.659	255.56
255.892	236.56
256.124	260.56
256.357	269.56
256.59	266.56
256.823	267.56
257.056	265.56
257.289	268.56
257.521	261.56
257.754	284.56
257.987	275.56
258.22	252.56
258.452	267.56
258.685	275.56
258.918	276.56
259.151	267.56
259.383	268.56
259.616	281.56
259.849	273.56
260.081	276.56
260.314	274.56
260.547	311.56
260.779	278.56
261.012	286.56
261.244	295.56
261.477	301.56
261.71	284.56
261.942	296.56
262.175	285.56
262.407	279.56
262.64	291.56
262.872	293.56
263.105	291.56
263.337	287.56
263.57	307.56
263.802	307.56
264.035	320.56
264.267	299.56
264.499	287.56
264.732	300.56
264.964	293.56
265.197	315.56
265.429	323.56
265.661	312.56
265.894	312.56
266.126	316.56
266.358	322.56
266.591	325.56
266.823	313.56
267.055	307.56
267.287	333.56
267.52	339.56
267.752	326.56
267.984	316.56
268.216	327.56
268.448	315.56
268.681	321.56
268.913	328.56
269.145	320.56
269.377	327.56
269.609	323.56
269.841	339.56
270.073	340.56
270.306	330.56
270.538	342.56
270.77	340.56
271.002	348.56
271.234	338.56
271.466	326.56
271.698	339.56
271.93	360.56
272.162	337.56
272.394	353.56
272.626	346.56
272.858	320.56
273.09	348.56
273.322	348.56
273.553	375.56
273.785	361.56
274.017	365.56
274.249	355.56
274.481	355.56
274.713	364.56
274.945	369.56
275.176	363.56
275.408	349.56
275.64	371.56
275.872	373.56
276.104	378.56
276.335	371.56
276.567	363.56
276.799	395.56
277.031	363.56
277.262	383.56
277.494	373.56
277.726	369.56
277.957	383.56
278.189	383.56
278.421	378.56
278.652	374.56
278.884	419.56
279.115	385.56
279.347	392.56
279.579	419.56
279.81	425.56
280.042	400.56
280.273	395.56
280.505	415.56
280.736	391.56
280.968	417.56
281.199	377.56
281.431	394.56
281.662	415.56
281.894	410.56
282.125	416.56
282.356	420.56
282.588	411.56
282.819	428.56
283.051	419.56
283.282	411.56
283.513	421.56
283.745	437.56
283.976	429.56
284.207	434.56
284.439	433.56
284.67	413.56
284.901	425.56
285.132	442.56
285.364	412.56
285.595	452.56
285.826	422.56
286.057	443.56
286.288	442.56
286.52	451.56
286.751	443.56
286.982	444.56
287.213	451.56
287.444	444.56
287.675	452.56
287.906	433.56
288.138	440.56
288.369	464.56
288.6	463.56
288.831	436.56
289.062	452.56
289.293	460.56
289.524	453.56
289.755	444.56
289.986	453.56
290.217	472.56
290.448	487.56
290.679	482.56
290.91	481.56
291.141	479.56
291.371	471.56
291.602	472.56
291.833	471.56
292.064	459.56
292.295	442.56
292.526	453.56
292.757	480.56
292.987	471.56
293.218	465.56
293.449	463.56
293.68	472.56
293.91	461.56
294.141	468.56
294.372	456.56
294.603	472.56
294.833	473.56
295.064	480.56
295.295	466.56
295.525	476.56
295.756	470.56
295.987	479.56
296.217	472.56
296.448	501.56
296.679	460.56
296.909	489.56
297.14	484.56
297.37	495.56
297.601	502.56
297.831	504.56
298.062	483.56
298.292	499.56
298.523	521.56
298.753	515.56
298.984	512.56
299.214	516.56
299.445	508.56
299.675	489.56
299.905	523.56
300.136	509.56
300.366	526.56
300.597	526.56
300.827	525.56
301.057	530.56
301.288	515.56
301.518	544.56
301.748	537.56
301.979	544.56
302.209	516.56
302.439	521.56
302.669	540.56
302.9	526.56
303.13	528.56
303.36	517.56
303.59	528.56
303.82	535.56
304.051	545.56
304.281	543.56
304.511	530.56
304.741	526.56
304.971	526.56
305.201	539.56
305.431	529.56
305.661	539.56
305.891	520.56
306.121	536.56
306.352	525.56
306.582	515.56
306.812	524.56
307.042	517.56
307.272	519.56
307.502	536.56
307.731	515.56
307.961	520.56
308.191	520.56
308.421	539.56
308.651	515.56
308.881	527.56
309.111	524.56
309.341	521.56
309.571	516.56
309.8	511.56
310.03	513.56
310.26	531.56
310.49	505.56
310.72	524.56
310.949	524.56
311.179	525.56
311.409	531.56
311.639	546.56
311.868	538.56
312.098	531.56
312.328	520.56
312.557	538.56
312.787	535.56
313.017	537.56
313.246	551.56
313.476	571.56
313.706	550.56
313.935	558.56
314.165	569.56
314.394	555.56
314.624	563.56
314.853	551.56
315.083	551.56
315.312	560.56
315.542	575.56
315.771	545.56
316.001	555.56
316.23	550.56
316.46	540.56
316.689	545.56
316.919	549.56
317.148	557.56
317.377	532.56
317.607	549.56
317.836	549.56
318.065	536.56
318.295	552.56
318.524	545.56
318.753	531.56
318.983	524.56
319.212	510.56
319.441	539.56
319.67	547.56
319.9	538.56
320.129	561.56
320.358	550.56
320.587	541.56
320.816	550.56
321.046	560.56
321.275	532.56
321.504	541.56
321.733	568.56
321.962	560.56
322.191	538.56
322.42	555.56
322.649	538.56
322.878	572.56
323.108	554.56
323.337	564.56
323.566	569.56
323.795	575.56
324.024	577.56
324.253	560.56
324.482	567.56
324.71	583.56
324.939	554.56
325.168	580.56
325.397	585.56
325.626	571.56
325.855	564.56
326.084	568.56
326.313	580.56
326.542	598.56
326.77	583.56
326.999	597.56
327.228	612.56
327.457	606.56
327.686	598.56
327.914	601.56
328.143	594.56
328.372	599.56
328.6	608.56
328.829	620.56
329.058	614.56
329.287	613.56
329.515	598.56
329.744	604.56
329.972	602.56
330.201	621.56
330.43	611.56
330.658	593.56
330.887	634.56
331.115	607.56
331.344	623.56
331.572	623.56
331.801	663.56
332.03	677.56
332.258	677.56
332.486	677.56
332.715	709.56
332.943	700.56
333.172	760.56
333.4	772.56
333.629	813.56
333.857	828.56
334.085	802.56
334.314	825.56
334.542	779.56
334.771	799.56
334.999	753.56
335.227	747.56
335.455	763.56
335.684	759.56
335.912	751.56
336.14	741.56
336.369	740.56
336.597	728.56
336.825	735.56
337.053	707.56
337.281	734.56
337.51	693.56
337.738	703.56
337.966	693.56
338.194	679.56
338.422	679.56
338.65	656.56
338.878	649.56
339.106	663.56
339.334	669.56
339.562	651.56
339.79	646.56
340.018	643.56
340.246	625.56
340.474	633.56
340.702	626.56
340.93	633.56
341.158	632.56
341.386	633.56
341.614	642.56
341.842	624.56
342.07	615.56
342.298	632.56
342.526	634.56
342.754	640.56
342.981	638.56
343.209	647.56
343.437	671.56
343.665	711.56
343.893	758.56
344.12	804.56
344.348	745.56
344.576	727.56
344.804	711.56
345.031	688.56
345.259	661.56
345.487	649.56
345.714	639.56
345.942	644.56
346.17	621.56
346.397	618.56
346.625	635.56
346.853	621.56
347.08	608.56
347.308	610.56
347.535	618.56
347.763	618.56
347.99	642.56
348.218	613.56
348.445	613.56
348.673	614.56
348.9	628.56
349.128	611.56
349.355	629.56
349.583	627.56
349.81	613.56
350.037	599.56
350.265	590.56
350.492	594.56
350.72	605.56
350.947	585.56
351.174	595.56
351.402	602.56
351.629	610.56
351.856	592.56
352.083	602.56
352.311	584.56
352.538	598.56
352.765	589.56
352.992	587.56
353.22	587.56
353.447	590.56
353.674	605.56
353.901	578.56
354.128	580.56
354.355	601.56
354.583	593.56
354.81	565.56
355.037	608.56
355.264	598.56
355.491	595.56
355.718	597.56
355.945	581.56
356.172	605.56
356.399	586.56
356.626	603.56
356.853	586.56
357.08	610.56
357.307	603.56
357.534	616.56
357.761	589.56
357.988	594.56
358.215	597.56
358.441	591.56
358.668	583.56
358.895	583.56
359.122	602.56
359.349	589.56
359.576	587.56
359.802	616.56
360.029	583.56
360.256	620.56
360.483	580.56
360.709	584.56
360.936	608.56
361.163	593.56
361.39	583.56
361.616	576.56
361.843	582.56
362.07	598.56
362.296	615.56
362.523	608.56
362.749	595.56
362.976	598.56
363.203	593.56
363.429	603.56
363.656	581.56
363.882	590.56
364.109	577.56
364.335	572.56
364.562	588.56
364.788	577.56
365.015	583.56
365.241	586.56
365.468	582.56
365.694	595.56
365.92	592.56
366.147	579.56
366.373	589.56
366.599	596.56
366.826	599.56
367.052	563.56
367.278	609.56
367.505	602.56
367.731	595.56
367.957	574.56
368.184	613.56
368.41	605.56
368.636	599.56
368.862	584.56
369.089	612.56
369.315	607.56
369.541	607.56
369.767	613.56
369.993	609.56
370.219	637.56
370.445	625.56
370.672	639.56
370.898	630.56
371.124	623.56
371.35	653.56
371.576	654.56
371.802	639.56
372.028	644.56
372.254	634.56
372.48	660.56
372.706	664.56
372.932	668.56
373.158	677.56
373.384	660.56
373.61	680.56
373.835	659.56
374.061	669.56
374.287	649.56
374.513	698.56
374.739	703.56
374.965	695.56
375.191	725.56
375.416	723.56
375.642	703.56
375.868	717.56
376.094	677.56
376.319	663.56
376.545	653.56
376.771	645.56
376.997	658.56
377.222	659.56
377.448	630.56
377.674	657.56
377.899	648.56
378.125	642.56
378.35	653.56
378.576	650.56
378.802	657.56
379.027	629.56
379.253	663.56
379.478	668.56
379.704	666.56
379.929	642.56
380.155	631.56
380.38	626.56
380.606	643.56
380.831	620.56
381.057	649.56
381.282	639.56
381.507	650.56
381.733	643.56
381.958	650.56
382.184	666.56
382.409	648.56
382.634	671.56
382.86	676.56
383.085	659.56
383.31	660.56
383.535	710.56
383.761	705.56
383.986	728.56
384.211	712.56
384.436	743.56
384.662	751.56
384.887	777.56
385.112	754.56
385.337	821.56
385.562	777.56
385.787	772.56
386.013	772.56
386.238	784.56
386.463	803.56
386.688	795.56
386.913	798.56
387.138	785.56
387.363	761.56
387.588	753.56
387.813	776.56
388.038	784.56
388.263	781.56
388.488	775.56
388.713	759.56
388.938	751.56
389.163	752.56
389.387	742.56
389.612	766.56
389.837	756.56
390.062	785.56
390.287	764.56
390.512	754.56
390.736	740.56
390.961	791.56
391.186	791.56
391.411	846.56
391.636	843.56
391.86	883.56
392.085	891.56
392.31	880.56
392.534	859.56
392.759	831.56
392.984	803.56
393.208	848.56
393.433	820.56
393.658	834.56
393.882	833.56
394.107	798.56
394.331	845.56
394.556	821.56
394.78	856.56
395.005	827.56
395.229	840.56
395.454	849.56
395.678	890.56
395.903	879.56
396.127	854.56
396.352	840.56
396.576	840.56
396.801	836.56
397.025	856.56
397.249	854.56
397.474	861.56
397.698	876.56
397.922	896.56
398.147	892.56
398.371	916.56
398.595	936.56
398.82	955.56
399.044	1035.56
399.268	1124.56
399.492	1324.56
399.717	1415.56
399.941	1433.56
400.165	1298.56
400.389	1196.56
400.613	1101.56
400.837	1031.56
401.062	992.56
401.286	979.56
401.51	989.56
401.734	964.56
401.958	987.56
402.182	1026.56
402.406	1004.56
402.63	1000.56
402.854	1038.56
403.078	1045.56
403.302	1067.56
403.526	1083.56
403.75	1091.56
403.974	1141.56
404.198	1103.56
404.422	1127.56
404.645	1123.56
404.869	1122.56
405.093	1109.56
405.317	1063.56
405.541	1067.56
405.765	1093.56
405.988	1105.56
406.212	1077.56
406.436	1066.56
406.66	1100.56
406.883	1100.56
407.107	1168.56
407.331	1230.56
407.555	1300.56
407.778	1257.56
408.002	1238.56
408.226	1203.56
408.449	1152.56
408.673	1139.56
408.896	1116.56
409.12	1104.56
409.344	1119.56
409.567	1095.56
409.791	1108.56
410.014	1125.56
410.238	1091.56
410.461	1096.56
410.685	1083.56
410.908	1023.56
411.132	1018.56
411.355	1004.56
411.578	1036.56
411.802	1040.56
412.025	1008.56
412.249	1049.56
412.472	1073.56
412.695	1039.56
412.919	991.56
413.142	1007.56
413.365	985.56
413.589	1000.56
413.812	986.56
414.035	965.56
414.258	996.56
414.482	954.56
414.705	1023.56
414.928	991.56
415.151	992.56
415.374	1000.56
415.597	980.56
415.821	961.56
416.044	941.56
416.267	935.56
416.49	948.56
416.713	959.56
416.936	977.56
417.159	983.56
417.382	961.56
417.605	927.56
417.828	983.56
418.051	962.56
418.274	993.56
418.497	972.56
418.72	1017.56
418.943	992.56
419.166	1045.56
419.389	1111.56
419.611	1109.56
419.834	1046.56
420.057	1012.56
420.28	987.56
420.503	964.56
420.726	968.56
420.948	961.56
421.171	952.56
421.394	1002.56
421.617	982.56
421.839	967.56
422.062	960.56
422.285	961.56
422.507	1008.56
422.73	981.56
422.953	983.56
423.175	1017.56
423.398	1013.56
423.621	1000.56
423.843	1007.56
424.066	1021.56
424.288	1047.56
424.511	987.56
424.733	980.56
424.956	992.56
425.178	986.56
425.401	991.56
425.623	988.56
425.846	937.56
426.068	932.56
426.291	914.56
426.513	924.56
426.735	915.56
426.958	916.56
427.18	913.56
427.402	903.56
427.625	898.56
427.847	866.56
428.069	892.56
428.292	919.56
428.514	863.56
428.736	850.56
428.958	848.56
429.181	846.56
429.403	841.56
429.625	852.56
429.847	833.56
430.069	822.56
430.292	853.56
430.514	840.56
430.736	855.56
430.958	861.56
431.18	841.56
431.402	841.56
431.624	852.56
431.846	867.56
432.068	887.56
432.29	870.56
432.512	862.56
432.734	855.56
432.956	883.56
433.178	875.56
433.4	872.56
433.622	835.56
433.844	884.56
434.066	897.56
434.287	881.56
434.509	907.56
434.731	939.56
434.953	982.56
435.175	979.56
435.397	972.56
435.618	933.56
435.84	909.56
436.062	851.56
436.284	852.56
436.505	873.56
436.727	869.56
436.949	851.56
437.17	846.56
437.392	831.56
437.614	857.56
437.835	817.56
438.057	844.56
438.278	830.56
438.5	842.56
438.721	850.56
438.943	826.56
439.165	829.56
439.386	849.56
439.608	871.56
439.829	849.56
440.05	865.56
440.272	892.56
440.493	887.56
440.715	900.56
440.936	882.56
441.158	907.56
441.379	931.56
441.6	970.56
441.822	968.56
442.043	996.56
442.264	956.56
442.486	928.56
442.707	937.56
442.928	949.56
443.149	957.56
443.371	936.56
443.592	959.56
443.813	959.56
444.034	974.56
444.255	1019.56
444.476	1055.56
444.698	1113.56
444.919	1151.56
445.14	1203.56
445.361	1093.56
445.582	1008.56
445.803	949.56
446.024	927.56
446.245	927.56
446.466	930.56
446.687	894.56
446.908	884.56
447.129	833.56
447.35	837.56
447.571	802.56
447.792	805.56
448.013	789.56
448.234	805.56
448.455	777.56
448.675	785.56
448.896	799.56
449.117	801.56
449.338	790.56
449.559	799.56
449.779	768.56
450	794.56
450.221	781.56
450.442	791.56
450.662	804.56
450.883	809.56
451.104	802.56
451.324	799.56
451.545	819.56
451.766	811.56
451.986	785.56
452.207	785.56
452.428	770.56
452.648	777.56
452.869	754.56
453.089	742.56
453.31	752.56
453.53	767.56
453.751	771.56
453.971	763.56
454.192	784.56
454.412	758.56
454.633	759.56
454.853	761.56
455.073	745.56
455.294	727.56
455.514	731.56
455.734	737.56
455.955	746.56
456.175	732.56
456.395	744.56
456.616	740.56
456.836	764.56
457.056	740.56
457.276	723.56
457.497	745.56
457.717	739.56
457.937	752.56
458.157	740.56
458.377	770.56
458.598	799.56
458.818	791.56
459.038	813.56
459.258	848.56
459.478	873.56
459.698	886.56
459.918	921.56
460.138	933.56
460.358	1008.56
460.578	1020.56
460.798	1028.56
461.018	1032.56
461.238	1029.56
461.458	1001.56
461.678	1012.56
461.898	1073.56
462.118	1079.56
462.338	1120.56
462.558	1134.56
462.777	1144.56
462.997	1242.56
463.217	1338.56
463.437	1354.56
463.657	1257.56
463.876	1206.56
464.096	1192.56
464.316	1183.56
464.536	1171.56
464.755	1140.56
464.975	1087.56
465.195	1066.56
465.414	987.56
465.634	927.56
465.854	893.56
466.073	885.56
466.293	841.56
466.512	839.56
466.732	821.56
466.951	831.56
467.171	823.56
467.391	829.56
467.61	826.56
467.829	823.56
468.049	810.56
468.268	799.56
468.488	793.56
468.707	807.56
468.927	802.56
469.146	772.56
469.365	806.56
469.585	826.56
469.804	839.56
470.023	829.56
470.243	831.56
470.462	849.56
470.681	853.56
470.901	859.56
471.12	850.56
471.339	849.56
471.558	839.56
471.777	816.56
471.997	810.56
472.216	797.56
472.435	804.56
472.654	782.56
472.873	785.56
473.092	797.56
473.311	779.56
473.53	779.56
473.749	793.56
473.968	794.56
474.187	748.56
474.406	756.56
474.625	777.56
474.844	815.56
475.063	803.56
475.282	795.56
475.501	769.56
475.72	791.56
475.939	807.56
476.158	797.56
476.377	831.56
476.596	804.56
476.814	860.56
477.033	841.56
477.252	843.56
477.471	836.56
477.69	875.56
477.908	923.56
478.127	897.56
478.346	937.56
478.564	923.56
478.783	951.56
479.002	969.56
479.22	967.56
479.439	989.56
479.658	980.56
479.876	989.56
480.095	984.56
480.313	1036.56
480.532	1073.56
480.751	1019.56
480.969	979.56
481.188	973.56
481.406	934.56
481.624	920.56
481.843	909.56
482.061	905.56
482.28	899.56
482.498	861.56
482.717	862.56
482.935	905.56
483.153	888.56
483.372	913.56
483.59	888.56
483.808	884.56
484.027	902.56
484.245	888.56
484.463	909.56
484.681	882.56
484.9	930.56
485.118	927.56
485.336	934.56
485.554	921.56
485.772	918.56
485.99	945.56
486.209	948.56
486.427	940.56
486.645	967.56
486.863	949.56
487.081	952.56
487.299	939.56
487.517	933.56
487.735	934.56
487.953	947.56
488.171	920.56
488.389	908.56
488.607	922.56
488.825	920.56
489.043	929.56
489.261	901.56
489.479	930.56
489.696	932.56
489.914	919.56
490.132	937.56
490.35	945.56
490.568	931.56
490.786	935.56
491.003	940.56
491.221	936.56
491.439	953.56
491.657	968.56
491.874	939.56
492.092	976.56
492.31	921.56
492.527	972.56
492.745	971.56
492.963	934.56
493.18	955.56
493.398	978.56
493.615	973.56
493.833	974.56
494.05	989.56
494.268	980.56
494.485	1029.56
494.703	1011.56
494.92	1027.56
495.138	1033.56
495.355	1002.56
495.573	1004.56
495.79	1038.56
496.008	1033.56
496.225	1008.56
496.442	1031.56
496.66	1047.56
496.877	1055.56
497.094	1072.56
497.312	1145.56
497.529	1147.56
497.746	1152.56
497.963	1179.56
498.181	1223.56
498.398	1290.56
498.615	1371.56
498.832	1473.56
499.049	1587.56
499.267	1673.56
499.484	1877.56
499.701	2015.56
499.918	2230.56
