Data from NiCl2@0.25M.TitratingCurve.Agarose3%dH2O.NegLispCup.LampEnergy10.LIBS07252019_HRD10591_18-24-19-573.txt Node
Date: Thu Jul 25 18:24:19 EDT 2019
User: cochatt
Spectrometer: HR+D1059
Trigger mode: 1
Integration Time (sec): 1.000000E-1
Scans to average: 1
Electric dark correction enabled: true
Nonlinearity correction enabled: false
Boxcar width: 0
XAxis mode: Wavelengths
Number of Pixels in Spectrum: 2048
>>>>>Begin Spectral Data<<<<<
223.165	-17.81
223.4	-17.81
223.635	-17.81
223.869	-13.81
224.104	-26.81
224.338	-11.81
224.573	-12.81
224.808	-17.81
225.042	-11.81
225.277	-9.81
225.511	-5.81
225.746	15.19
225.98	1.19
226.215	25.19
226.449	16.19
226.683	28.19
226.918	28.19
227.152	14.19
227.387	28.19
227.621	29.19
227.856	44.19
228.09	36.19
228.324	60.19
228.559	56.19
228.793	80.19
229.027	122.19
229.262	128.19
229.496	124.19
229.73	133.19
229.964	141.19
230.199	136.19
230.433	142.19
230.667	153.19
230.901	150.19
231.136	143.19
231.37	149.19
231.604	156.19
231.838	159.19
232.072	151.19
232.306	151.19
232.541	152.19
232.775	167.19
233.009	144.19
233.243	145.19
233.477	181.19
233.711	172.19
233.945	178.19
234.179	169.19
234.413	147.19
234.647	163.19
234.881	167.19
235.115	166.19
235.349	166.19
235.583	162.19
235.817	177.19
236.051	172.19
236.285	173.19
236.519	173.19
236.753	173.19
236.987	168.19
237.221	178.19
237.455	183.19
237.689	189.19
237.922	182.19
238.156	187.19
238.39	193.19
238.624	199.19
238.858	183.19
239.091	177.19
239.325	204.19
239.559	203.19
239.793	190.19
240.027	194.19
240.26	205.19
240.494	186.19
240.728	206.19
240.961	210.19
241.195	207.19
241.429	216.19
241.662	202.19
241.896	203.19
242.13	228.19
242.363	206.19
242.597	227.19
242.83	226.19
243.064	222.19
243.298	216.19
243.531	207.19
243.765	231.19
243.998	238.19
244.232	217.19
244.465	237.19
244.699	221.19
244.932	236.19
245.166	243.19
245.399	232.19
245.633	260.19
245.866	261.19
246.099	255.19
246.333	259.19
246.566	269.19
246.8	233.19
247.033	261.19
247.266	258.19
247.5	261.19
247.733	267.19
247.966	264.19
248.2	279.19
248.433	270.19
248.666	290.19
248.899	282.19
249.133	281.19
249.366	282.19
249.599	289.19
249.832	277.19
250.066	265.19
250.299	291.19
250.532	298.19
250.765	292.19
250.998	292.19
251.231	277.19
251.465	314.19
251.698	295.19
251.931	310.19
252.164	313.19
252.397	283.19
252.63	312.19
252.863	296.19
253.096	293.19
253.329	306.19
253.562	319.19
253.795	308.19
254.028	330.19
254.261	300.19
254.494	319.19
254.727	309.19
254.96	322.19
255.193	310.19
255.426	323.19
255.659	319.19
255.892	314.19
256.124	313.19
256.357	353.19
256.59	333.19
256.823	327.19
257.056	339.19
257.289	337.19
257.521	315.19
257.754	350.19
257.987	339.19
258.22	340.19
258.452	324.19
258.685	334.19
258.918	349.19
259.151	333.19
259.383	346.19
259.616	349.19
259.849	333.19
260.081	353.19
260.314	354.19
260.547	358.19
260.779	372.19
261.012	357.19
261.244	365.19
261.477	360.19
261.71	378.19
261.942	367.19
262.175	377.19
262.407	385.19
262.64	372.19
262.872	372.19
263.105	389.19
263.337	373.19
263.57	385.19
263.802	371.19
264.035	374.19
264.267	406.19
264.499	394.19
264.732	391.19
264.964	387.19
265.197	379.19
265.429	362.19
265.661	403.19
265.894	389.19
266.126	397.19
266.358	399.19
266.591	399.19
266.823	405.19
267.055	413.19
267.287	402.19
267.52	421.19
267.752	402.19
267.984	427.19
268.216	418.19
268.448	416.19
268.681	441.19
268.913	404.19
269.145	419.19
269.377	413.19
269.609	412.19
269.841	428.19
270.073	439.19
270.306	442.19
270.538	400.19
270.77	429.19
271.002	454.19
271.234	420.19
271.466	449.19
271.698	451.19
271.93	428.19
272.162	460.19
272.394	449.19
272.626	438.19
272.858	461.19
273.09	441.19
273.322	459.19
273.553	457.19
273.785	474.19
274.017	446.19
274.249	463.19
274.481	471.19
274.713	475.19
274.945	489.19
275.176	474.19
275.408	475.19
275.64	475.19
275.872	459.19
276.104	486.19
276.335	487.19
276.567	483.19
276.799	479.19
277.031	517.19
277.262	479.19
277.494	465.19
277.726	482.19
277.957	514.19
278.189	500.19
278.421	514.19
278.652	489.19
278.884	500.19
279.115	498.19
279.347	494.19
279.579	500.19
279.81	509.19
280.042	491.19
280.273	519.19
280.505	519.19
280.736	510.19
280.968	522.19
281.199	525.19
281.431	547.19
281.662	523.19
281.894	518.19
282.125	533.19
282.356	528.19
282.588	553.19
282.819	548.19
283.051	568.19
283.282	540.19
283.513	524.19
283.745	547.19
283.976	526.19
284.207	542.19
284.439	566.19
284.67	541.19
284.901	553.19
285.132	541.19
285.364	558.19
285.595	577.19
285.826	561.19
286.057	568.19
286.288	571.19
286.52	566.19
286.751	573.19
286.982	565.19
287.213	589.19
287.444	578.19
287.675	579.19
287.906	584.19
288.138	581.19
288.369	574.19
288.6	592.19
288.831	581.19
289.062	601.19
289.293	573.19
289.524	589.19
289.755	612.19
289.986	601.19
290.217	596.19
290.448	615.19
290.679	626.19
290.91	581.19
291.141	590.19
291.371	591.19
291.602	600.19
291.833	595.19
292.064	601.19
292.295	609.19
292.526	601.19
292.757	605.19
292.987	599.19
293.218	613.19
293.449	621.19
293.68	612.19
293.91	612.19
294.141	608.19
294.372	611.19
294.603	612.19
294.833	638.19
295.064	609.19
295.295	623.19
295.525	603.19
295.756	612.19
295.987	615.19
296.217	615.19
296.448	611.19
296.679	635.19
296.909	630.19
297.14	621.19
297.37	653.19
297.601	651.19
297.831	622.19
298.062	667.19
298.292	667.19
298.523	679.19
298.753	675.19
298.984	661.19
299.214	648.19
299.445	645.19
299.675	645.19
299.905	662.19
300.136	655.19
300.366	674.19
300.597	687.19
300.827	696.19
301.057	675.19
301.288	687.19
301.518	682.19
301.748	689.19
301.979	716.19
302.209	712.19
302.439	710.19
302.669	694.19
302.9	699.19
303.13	692.19
303.36	719.19
303.59	673.19
303.82	683.19
304.051	694.19
304.281	678.19
304.511	674.19
304.741	691.19
304.971	698.19
305.201	692.19
305.431	708.19
305.661	690.19
305.891	661.19
306.121	669.19
306.352	667.19
306.582	654.19
306.812	669.19
307.042	695.19
307.272	671.19
307.502	655.19
307.731	663.19
307.961	671.19
308.191	673.19
308.421	674.19
308.651	651.19
308.881	682.19
309.111	651.19
309.341	654.19
309.571	669.19
309.8	666.19
310.03	674.19
310.26	676.19
310.49	681.19
310.72	673.19
310.949	699.19
311.179	704.19
311.409	691.19
311.639	676.19
311.868	714.19
312.098	689.19
312.328	714.19
312.557	687.19
312.787	726.19
313.017	727.19
313.246	708.19
313.476	708.19
313.706	715.19
313.935	734.19
314.165	708.19
314.394	737.19
314.624	718.19
314.853	711.19
315.083	716.19
315.312	701.19
315.542	702.19
315.771	725.19
316.001	722.19
316.23	710.19
316.46	732.19
316.689	719.19
316.919	700.19
317.148	737.19
317.377	712.19
317.607	697.19
317.836	689.19
318.065	712.19
318.295	698.19
318.524	680.19
318.753	694.19
318.983	680.19
319.212	720.19
319.441	707.19
319.67	720.19
319.9	715.19
320.129	715.19
320.358	684.19
320.587	691.19
320.816	709.19
321.046	726.19
321.275	702.19
321.504	702.19
321.733	678.19
321.962	717.19
322.191	715.19
322.42	717.19
322.649	726.19
322.878	719.19
323.108	698.19
323.337	731.19
323.566	700.19
323.795	758.19
324.024	725.19
324.253	740.19
324.482	707.19
324.71	729.19
324.939	743.19
325.168	754.19
325.397	730.19
325.626	758.19
325.855	763.19
326.084	772.19
326.313	797.19
326.542	774.19
326.77	798.19
326.999	781.19
327.228	780.19
327.457	781.19
327.686	782.19
327.914	778.19
328.143	777.19
328.372	765.19
328.6	766.19
328.829	779.19
329.058	773.19
329.287	814.19
329.515	794.19
329.744	794.19
329.972	776.19
330.201	787.19
330.43	815.19
330.658	764.19
330.887	806.19
331.115	801.19
331.344	827.19
331.572	827.19
331.801	849.19
332.03	857.19
332.258	891.19
332.486	918.19
332.715	920.19
332.943	939.19
333.172	984.19
333.4	1007.19
333.629	1023.19
333.857	1069.19
334.085	1069.19
334.314	1058.19
334.542	1001.19
334.771	1018.19
334.999	975.19
335.227	1015.19
335.455	988.19
335.684	951.19
335.912	974.19
336.14	953.19
336.369	942.19
336.597	957.19
336.825	950.19
337.053	943.19
337.281	945.19
337.51	899.19
337.738	929.19
337.966	889.19
338.194	890.19
338.422	868.19
338.65	845.19
338.878	867.19
339.106	858.19
339.334	861.19
339.562	865.19
339.79	846.19
340.018	825.19
340.246	806.19
340.474	827.19
340.702	821.19
340.93	839.19
341.158	846.19
341.386	831.19
341.614	803.19
341.842	826.19
342.07	807.19
342.298	829.19
342.526	797.19
342.754	817.19
342.981	840.19
343.209	813.19
343.437	874.19
343.665	907.19
343.893	972.19
344.12	985.19
344.348	964.19
344.576	902.19
344.804	906.19
345.031	849.19
345.259	837.19
345.487	808.19
345.714	806.19
345.942	802.19
346.17	804.19
346.397	797.19
346.625	827.19
346.853	776.19
347.08	772.19
347.308	798.19
347.535	787.19
347.763	798.19
347.99	820.19
348.218	769.19
348.445	803.19
348.673	798.19
348.9	790.19
349.128	782.19
349.355	776.19
349.583	767.19
349.81	773.19
350.037	779.19
350.265	738.19
350.492	753.19
350.72	754.19
350.947	748.19
351.174	775.19
351.402	756.19
351.629	744.19
351.856	758.19
352.083	740.19
352.311	745.19
352.538	773.19
352.765	775.19
352.992	758.19
353.22	739.19
353.447	748.19
353.674	749.19
353.901	742.19
354.128	734.19
354.355	754.19
354.583	757.19
354.81	748.19
355.037	768.19
355.264	779.19
355.491	747.19
355.718	767.19
355.945	732.19
356.172	749.19
356.399	760.19
356.626	774.19
356.853	786.19
357.08	742.19
357.307	750.19
357.534	747.19
357.761	779.19
357.988	773.19
358.215	775.19
358.441	747.19
358.668	782.19
358.895	770.19
359.122	751.19
359.349	759.19
359.576	762.19
359.802	738.19
360.029	741.19
360.256	734.19
360.483	770.19
360.709	747.19
360.936	746.19
361.163	758.19
361.39	769.19
361.616	753.19
361.843	762.19
362.07	761.19
362.296	783.19
362.523	750.19
362.749	788.19
362.976	762.19
363.203	757.19
363.429	759.19
363.656	741.19
363.882	755.19
364.109	765.19
364.335	767.19
364.562	748.19
364.788	728.19
365.015	774.19
365.241	731.19
365.468	775.19
365.694	741.19
365.92	755.19
366.147	738.19
366.373	737.19
366.599	737.19
366.826	772.19
367.052	760.19
367.278	756.19
367.505	747.19
367.731	769.19
367.957	753.19
368.184	768.19
368.41	760.19
368.636	757.19
368.862	794.19
369.089	777.19
369.315	769.19
369.541	817.19
369.767	796.19
369.993	786.19
370.219	795.19
370.445	783.19
370.672	793.19
370.898	800.19
371.124	824.19
371.35	856.19
371.576	831.19
371.802	805.19
372.028	823.19
372.254	811.19
372.48	837.19
372.706	819.19
372.932	860.19
373.158	865.19
373.384	826.19
373.61	814.19
373.835	827.19
374.061	834.19
374.287	865.19
374.513	847.19
374.739	884.19
374.965	893.19
375.191	933.19
375.416	892.19
375.642	902.19
375.868	867.19
376.094	875.19
376.319	842.19
376.545	845.19
376.771	835.19
376.997	820.19
377.222	848.19
377.448	810.19
377.674	815.19
377.899	823.19
378.125	828.19
378.35	801.19
378.576	819.19
378.802	828.19
379.027	821.19
379.253	819.19
379.478	833.19
379.704	829.19
379.929	834.19
380.155	836.19
380.38	801.19
380.606	822.19
380.831	817.19
381.057	831.19
381.282	818.19
381.507	829.19
381.733	840.19
381.958	830.19
382.184	853.19
382.409	838.19
382.634	840.19
382.86	848.19
383.085	882.19
383.31	870.19
383.535	870.19
383.761	903.19
383.986	890.19
384.211	929.19
384.436	951.19
384.662	948.19
384.887	973.19
385.112	1001.19
385.337	997.19
385.562	983.19
385.787	994.19
386.013	993.19
386.238	1007.19
386.463	993.19
386.688	1028.19
386.913	990.19
387.138	984.19
387.363	1016.19
387.588	988.19
387.813	979.19
388.038	979.19
388.263	1002.19
388.488	986.19
388.713	987.19
388.938	994.19
389.163	988.19
389.387	990.19
389.612	985.19
389.837	962.19
390.062	964.19
390.287	992.19
390.512	948.19
390.736	996.19
390.961	998.19
391.186	1013.19
391.411	1039.19
391.636	1091.19
391.86	1087.19
392.085	1114.19
392.31	1142.19
392.534	1130.19
392.759	1122.19
392.984	1110.19
393.208	1053.19
393.433	1070.19
393.658	1094.19
393.882	1055.19
394.107	1074.19
394.331	1083.19
394.556	1051.19
394.78	1075.19
395.005	1038.19
395.229	1039.19
395.454	1106.19
395.678	1121.19
395.903	1114.19
396.127	1124.19
396.352	1114.19
396.576	1086.19
396.801	1115.19
397.025	1098.19
397.249	1110.19
397.474	1097.19
397.698	1177.19
397.922	1143.19
398.147	1172.19
398.371	1172.19
398.595	1204.19
398.82	1262.19
399.044	1347.19
399.268	1446.19
399.492	1639.19
399.717	1833.19
399.941	1857.19
400.165	1730.19
400.389	1568.19
400.613	1419.19
400.837	1369.19
401.062	1271.19
401.286	1287.19
401.51	1282.19
401.734	1297.19
401.958	1260.19
402.182	1266.19
402.406	1246.19
402.63	1300.19
402.854	1340.19
403.078	1366.19
403.302	1393.19
403.526	1405.19
403.75	1390.19
403.974	1419.19
404.198	1411.19
404.422	1443.19
404.645	1431.19
404.869	1429.19
405.093	1432.19
405.317	1391.19
405.541	1409.19
405.765	1401.19
405.988	1381.19
406.212	1391.19
406.436	1396.19
406.66	1412.19
406.883	1439.19
407.107	1533.19
407.331	1609.19
407.555	1651.19
407.778	1606.19
408.002	1593.19
408.226	1537.19
408.449	1529.19
408.673	1457.19
408.896	1453.19
409.12	1420.19
409.344	1410.19
409.567	1389.19
409.791	1428.19
410.014	1413.19
410.238	1396.19
410.461	1403.19
410.685	1370.19
410.908	1344.19
411.132	1362.19
411.355	1314.19
411.578	1313.19
411.802	1278.19
412.025	1335.19
412.249	1320.19
412.472	1358.19
412.695	1306.19
412.919	1307.19
413.142	1309.19
413.365	1266.19
413.589	1267.19
413.812	1253.19
414.035	1232.19
414.258	1285.19
414.482	1281.19
414.705	1276.19
414.928	1271.19
415.151	1265.19
415.374	1239.19
415.597	1238.19
415.821	1238.19
416.044	1241.19
416.267	1238.19
416.49	1246.19
416.713	1210.19
416.936	1242.19
417.159	1197.19
417.382	1224.19
417.605	1212.19
417.828	1224.19
418.051	1257.19
418.274	1240.19
418.497	1260.19
418.72	1288.19
418.943	1311.19
419.166	1378.19
419.389	1437.19
419.611	1426.19
419.834	1373.19
420.057	1317.19
420.28	1236.19
420.503	1193.19
420.726	1257.19
420.948	1232.19
421.171	1236.19
421.394	1234.19
421.617	1245.19
421.839	1245.19
422.062	1256.19
422.285	1198.19
422.507	1264.19
422.73	1251.19
422.953	1253.19
423.175	1266.19
423.398	1291.19
423.621	1243.19
423.843	1270.19
424.066	1282.19
424.288	1295.19
424.511	1282.19
424.733	1267.19
424.956	1267.19
425.178	1241.19
425.401	1256.19
425.623	1258.19
425.846	1223.19
426.068	1215.19
426.291	1183.19
426.513	1184.19
426.735	1142.19
426.958	1156.19
427.18	1165.19
427.402	1166.19
427.625	1155.19
427.847	1119.19
428.069	1147.19
428.292	1159.19
428.514	1115.19
428.736	1116.19
428.958	1126.19
429.181	1083.19
429.403	1084.19
429.625	1076.19
429.847	1109.19
430.069	1093.19
430.292	1069.19
430.514	1081.19
430.736	1092.19
430.958	1086.19
431.18	1089.19
431.402	1083.19
431.624	1067.19
431.846	1109.19
432.068	1139.19
432.29	1177.19
432.512	1080.19
432.734	1117.19
432.956	1103.19
433.178	1095.19
433.4	1090.19
433.622	1116.19
433.844	1133.19
434.066	1113.19
434.287	1132.19
434.509	1189.19
434.731	1199.19
434.953	1229.19
435.175	1248.19
435.397	1224.19
435.618	1201.19
435.84	1137.19
436.062	1101.19
436.284	1066.19
436.505	1125.19
436.727	1142.19
436.949	1122.19
437.17	1091.19
437.392	1076.19
437.614	1105.19
437.835	1038.19
438.057	1070.19
438.278	1042.19
438.5	1063.19
438.721	1064.19
438.943	1055.19
439.165	1065.19
439.386	1109.19
439.608	1069.19
439.829	1090.19
440.05	1100.19
440.272	1119.19
440.493	1100.19
440.715	1137.19
440.936	1146.19
441.158	1157.19
441.379	1181.19
441.6	1228.19
441.822	1211.19
442.043	1242.19
442.264	1213.19
442.486	1187.19
442.707	1200.19
442.928	1207.19
443.149	1221.19
443.371	1210.19
443.592	1221.19
443.813	1219.19
444.034	1252.19
444.255	1266.19
444.476	1333.19
444.698	1411.19
444.919	1489.19
445.14	1527.19
445.361	1398.19
445.582	1268.19
445.803	1224.19
446.024	1151.19
446.245	1133.19
446.466	1134.19
446.687	1129.19
446.908	1118.19
447.129	1079.19
447.35	1076.19
447.571	1033.19
447.792	1037.19
448.013	1086.19
448.234	1036.19
448.455	1038.19
448.675	1050.19
448.896	1002.19
449.117	1007.19
449.338	973.19
449.559	971.19
449.779	986.19
450	972.19
450.221	984.19
450.442	1025.19
450.662	985.19
450.883	1043.19
451.104	1062.19
451.324	1030.19
451.545	1014.19
451.766	1030.19
451.986	1010.19
452.207	993.19
452.428	960.19
452.648	1021.19
452.869	1009.19
453.089	977.19
453.31	1001.19
453.53	986.19
453.751	993.19
453.971	973.19
454.192	981.19
454.412	965.19
454.633	930.19
454.853	956.19
455.073	971.19
455.294	980.19
455.514	942.19
455.734	969.19
455.955	943.19
456.175	949.19
456.395	910.19
456.616	938.19
456.836	950.19
457.056	978.19
457.276	905.19
457.497	969.19
457.717	968.19
457.937	950.19
458.157	959.19
458.377	967.19
458.598	1028.19
458.818	1070.19
459.038	1055.19
459.258	1077.19
459.478	1137.19
459.698	1163.19
459.918	1181.19
460.138	1247.19
460.358	1246.19
460.578	1320.19
460.798	1303.19
461.018	1348.19
461.238	1303.19
461.458	1281.19
461.678	1332.19
461.898	1321.19
462.118	1365.19
462.338	1393.19
462.558	1431.19
462.777	1508.19
462.997	1619.19
463.217	1694.19
463.437	1697.19
463.657	1627.19
463.876	1557.19
464.096	1574.19
464.316	1515.19
464.536	1515.19
464.755	1448.19
464.975	1415.19
465.195	1359.19
465.414	1290.19
465.634	1196.19
465.854	1180.19
466.073	1154.19
466.293	1099.19
466.512	1095.19
466.732	1074.19
466.951	1092.19
467.171	1065.19
467.391	1054.19
467.61	1035.19
467.829	1027.19
468.049	1070.19
468.268	1049.19
468.488	1025.19
468.707	1023.19
468.927	1010.19
469.146	1005.19
469.365	1041.19
469.585	1016.19
469.804	1051.19
470.023	1065.19
470.243	1113.19
470.462	1118.19
470.681	1089.19
470.901	1118.19
471.12	1073.19
471.339	1040.19
471.558	1028.19
471.777	1038.19
471.997	1007.19
472.216	1025.19
472.435	1036.19
472.654	1015.19
472.873	994.19
473.092	997.19
473.311	1003.19
473.53	1012.19
473.749	978.19
473.968	986.19
474.187	984.19
474.406	958.19
474.625	982.19
474.844	994.19
475.063	991.19
475.282	1035.19
475.501	1002.19
475.72	1015.19
475.939	995.19
476.158	1036.19
476.377	1061.19
476.596	1037.19
476.814	1032.19
477.033	1073.19
477.252	1083.19
477.471	1079.19
477.69	1136.19
477.908	1144.19
478.127	1194.19
478.346	1162.19
478.564	1217.19
478.783	1209.19
479.002	1254.19
479.22	1239.19
479.439	1254.19
479.658	1245.19
479.876	1220.19
480.095	1274.19
480.313	1310.19
480.532	1349.19
480.751	1307.19
480.969	1290.19
481.188	1257.19
481.406	1171.19
481.624	1219.19
481.843	1153.19
482.061	1150.19
482.28	1173.19
482.498	1162.19
482.717	1130.19
482.935	1127.19
483.153	1145.19
483.372	1159.19
483.59	1142.19
483.808	1145.19
484.027	1119.19
484.245	1165.19
484.463	1189.19
484.681	1182.19
484.9	1173.19
485.118	1164.19
485.336	1207.19
485.554	1201.19
485.772	1229.19
485.99	1210.19
486.209	1218.19
486.427	1216.19
486.645	1211.19
486.863	1177.19
487.081	1213.19
487.299	1201.19
487.517	1162.19
487.735	1216.19
487.953	1215.19
488.171	1197.19
488.389	1192.19
488.607	1151.19
488.825	1196.19
489.043	1186.19
489.261	1204.19
489.479	1161.19
489.696	1192.19
489.914	1162.19
490.132	1203.19
490.35	1187.19
490.568	1207.19
490.786	1216.19
491.003	1241.19
491.221	1183.19
491.439	1258.19
491.657	1228.19
491.874	1213.19
492.092	1225.19
492.31	1239.19
492.527	1229.19
492.745	1229.19
492.963	1248.19
493.18	1240.19
493.398	1254.19
493.615	1243.19
493.833	1244.19
494.05	1260.19
494.268	1256.19
494.485	1302.19
494.703	1278.19
494.92	1270.19
495.138	1272.19
495.355	1278.19
495.573	1301.19
