Data from NiCl2@0.125M.TitratingCurve.Agarose3%dH2O.NegLispCup.LampEnergy10.LIBS07252019_HRD10591_18-29-47-575.txt Node
Date: Thu Jul 25 18:29:47 EDT 2019
User: cochatt
Spectrometer: HR+D1059
Trigger mode: 1
Integration Time (sec): 1.000000E-1
Scans to average: 1
Electric dark correction enabled: true
Nonlinearity correction enabled: false
Boxcar width: 0
XAxis mode: Wavelengths
Number of Pixels in Spectrum: 2048
>>>>>Begin Spectral Data<<<<<
223.165	-18.81
223.4	-18.81
223.635	-18.81
223.869	-22.81
224.104	-8.81
224.338	-23.81
224.573	-29.81
224.808	-4.81
225.042	-15.81
225.277	-6.81
225.511	5.19
225.746	9.19
225.98	10.19
226.215	0.19
226.449	14.19
226.683	13.19
226.918	32.19
227.152	47.19
227.387	49.19
227.621	46.19
227.856	35.19
228.09	39.19
228.324	57.19
228.559	65.19
228.793	57.19
229.027	114.19
229.262	127.19
229.496	133.19
229.73	141.19
229.964	125.19
230.199	133.19
230.433	143.19
230.667	158.19
230.901	142.19
231.136	142.19
231.37	156.19
231.604	154.19
231.838	147.19
232.072	154.19
232.306	179.19
232.541	154.19
232.775	183.19
233.009	158.19
233.243	152.19
233.477	148.19
233.711	159.19
233.945	170.19
234.179	168.19
234.413	161.19
234.647	157.19
234.881	160.19
235.115	159.19
235.349	150.19
235.583	165.19
235.817	164.19
236.051	178.19
236.285	175.19
236.519	153.19
236.753	173.19
236.987	175.19
237.221	170.19
237.455	173.19
237.689	185.19
237.922	185.19
238.156	191.19
238.39	161.19
238.624	193.19
238.858	177.19
239.091	188.19
239.325	199.19
239.559	209.19
239.793	193.19
240.027	188.19
240.26	195.19
240.494	194.19
240.728	193.19
240.961	180.19
241.195	206.19
241.429	207.19
241.662	216.19
241.896	205.19
242.13	203.19
242.363	207.19
242.597	208.19
242.83	205.19
243.064	193.19
243.298	211.19
243.531	211.19
243.765	226.19
243.998	234.19
244.232	217.19
244.465	229.19
244.699	223.19
244.932	218.19
245.166	253.19
245.399	243.19
245.633	230.19
245.866	223.19
246.099	241.19
246.333	268.19
246.566	232.19
246.8	251.19
247.033	265.19
247.266	253.19
247.5	253.19
247.733	266.19
247.966	249.19
248.2	253.19
248.433	265.19
248.666	272.19
248.899	250.19
249.133	267.19
249.366	281.19
249.599	271.19
249.832	278.19
250.066	262.19
250.299	291.19
250.532	272.19
250.765	273.19
250.998	283.19
251.231	270.19
251.465	291.19
251.698	274.19
251.931	290.19
252.164	303.19
252.397	315.19
252.63	300.19
252.863	313.19
253.096	303.19
253.329	294.19
253.562	287.19
253.795	306.19
254.028	332.19
254.261	337.19
254.494	320.19
254.727	305.19
254.96	311.19
255.193	298.19
255.426	328.19
255.659	326.19
255.892	317.19
256.124	309.19
256.357	329.19
256.59	323.19
256.823	321.19
257.056	342.19
257.289	325.19
257.521	336.19
257.754	320.19
257.987	344.19
258.22	336.19
258.452	343.19
258.685	333.19
258.918	330.19
259.151	346.19
259.383	338.19
259.616	331.19
259.849	350.19
260.081	354.19
260.314	353.19
260.547	347.19
260.779	353.19
261.012	348.19
261.244	351.19
261.477	334.19
261.71	337.19
261.942	347.19
262.175	352.19
262.407	362.19
262.64	364.19
262.872	360.19
263.105	350.19
263.337	362.19
263.57	371.19
263.802	350.19
264.035	385.19
264.267	363.19
264.499	363.19
264.732	370.19
264.964	402.19
265.197	399.19
265.429	387.19
265.661	391.19
265.894	381.19
266.126	386.19
266.358	388.19
266.591	378.19
266.823	408.19
267.055	388.19
267.287	424.19
267.52	400.19
267.752	392.19
267.984	403.19
268.216	399.19
268.448	416.19
268.681	393.19
268.913	430.19
269.145	403.19
269.377	388.19
269.609	403.19
269.841	423.19
270.073	433.19
270.306	419.19
270.538	430.19
270.77	426.19
271.002	431.19
271.234	416.19
271.466	427.19
271.698	415.19
271.93	414.19
272.162	416.19
272.394	409.19
272.626	422.19
272.858	433.19
273.09	412.19
273.322	455.19
273.553	443.19
273.785	448.19
274.017	449.19
274.249	429.19
274.481	447.19
274.713	448.19
274.945	460.19
275.176	458.19
275.408	470.19
275.64	451.19
275.872	434.19
276.104	451.19
276.335	459.19
276.567	447.19
276.799	473.19
277.031	456.19
277.262	448.19
277.494	466.19
277.726	443.19
277.957	475.19
278.189	476.19
278.421	451.19
278.652	462.19
278.884	483.19
279.115	463.19
279.347	462.19
279.579	477.19
279.81	487.19
280.042	476.19
280.273	488.19
280.505	507.19
280.736	485.19
280.968	469.19
281.199	502.19
281.431	490.19
281.662	491.19
281.894	504.19
282.125	491.19
282.356	526.19
282.588	515.19
282.819	501.19
283.051	519.19
283.282	514.19
283.513	517.19
283.745	538.19
283.976	513.19
284.207	515.19
284.439	525.19
284.67	537.19
284.901	555.19
285.132	555.19
285.364	531.19
285.595	521.19
285.826	542.19
286.057	544.19
286.288	519.19
286.52	556.19
286.751	526.19
286.982	548.19
287.213	562.19
287.444	549.19
287.675	567.19
287.906	576.19
288.138	552.19
288.369	549.19
288.6	540.19
288.831	553.19
289.062	559.19
289.293	538.19
289.524	552.19
289.755	553.19
289.986	586.19
290.217	565.19
290.448	557.19
290.679	575.19
290.91	595.19
291.141	600.19
291.371	556.19
291.602	574.19
291.833	569.19
292.064	574.19
292.295	571.19
292.526	563.19
292.757	575.19
292.987	607.19
293.218	567.19
293.449	586.19
293.68	607.19
293.91	575.19
294.141	592.19
294.372	606.19
294.603	605.19
294.833	597.19
295.064	585.19
295.295	583.19
295.525	591.19
295.756	570.19
295.987	578.19
296.217	613.19
296.448	595.19
296.679	607.19
296.909	608.19
297.14	605.19
297.37	619.19
297.601	610.19
297.831	632.19
298.062	626.19
298.292	649.19
298.523	651.19
298.753	663.19
298.984	632.19
299.214	640.19
299.445	638.19
299.675	637.19
299.905	623.19
300.136	646.19
300.366	647.19
300.597	651.19
300.827	656.19
301.057	677.19
301.288	652.19
301.518	657.19
301.748	681.19
301.979	656.19
302.209	678.19
302.439	649.19
302.669	667.19
302.9	635.19
303.13	626.19
303.36	663.19
303.59	637.19
303.82	627.19
304.051	635.19
304.281	647.19
304.511	660.19
304.741	649.19
304.971	639.19
305.201	627.19
305.431	645.19
305.661	647.19
305.891	660.19
306.121	635.19
306.352	630.19
306.582	617.19
306.812	605.19
307.042	631.19
307.272	641.19
307.502	638.19
307.731	619.19
307.961	620.19
308.191	609.19
308.421	621.19
308.651	630.19
308.881	620.19
309.111	614.19
309.341	633.19
309.571	614.19
309.8	640.19
310.03	635.19
310.26	635.19
310.49	622.19
310.72	647.19
310.949	615.19
311.179	642.19
311.409	650.19
311.639	658.19
311.868	640.19
312.098	619.19
312.328	657.19
312.557	658.19
312.787	634.19
313.017	653.19
313.246	662.19
313.476	655.19
313.706	703.19
313.935	675.19
314.165	654.19
314.394	665.19
314.624	701.19
314.853	667.19
315.083	663.19
315.312	686.19
315.542	648.19
315.771	669.19
316.001	669.19
316.23	664.19
316.46	684.19
316.689	641.19
316.919	644.19
317.148	665.19
317.377	653.19
317.607	658.19
317.836	643.19
318.065	669.19
318.295	656.19
318.524	649.19
318.753	667.19
318.983	652.19
319.212	653.19
319.441	667.19
319.67	649.19
319.9	629.19
320.129	637.19
320.358	661.19
320.587	654.19
320.816	671.19
321.046	654.19
321.275	670.19
321.504	685.19
321.733	675.19
321.962	660.19
322.191	666.19
322.42	667.19
322.649	654.19
322.878	666.19
323.108	682.19
323.337	697.19
323.566	665.19
323.795	686.19
324.024	687.19
324.253	659.19
324.482	695.19
324.71	686.19
324.939	667.19
325.168	670.19
325.397	694.19
325.626	684.19
325.855	661.19
326.084	718.19
326.313	713.19
326.542	724.19
326.77	702.19
326.999	711.19
327.228	697.19
327.457	712.19
327.686	739.19
327.914	715.19
328.143	717.19
328.372	722.19
328.6	723.19
328.829	727.19
329.058	714.19
329.287	726.19
329.515	729.19
329.744	721.19
329.972	711.19
330.201	719.19
330.43	733.19
330.658	736.19
330.887	734.19
331.115	748.19
331.344	777.19
331.572	745.19
331.801	798.19
332.03	785.19
332.258	810.19
332.486	855.19
332.715	866.19
332.943	889.19
333.172	939.19
333.4	989.19
333.629	1025.19
333.857	1027.19
334.085	1006.19
334.314	978.19
334.542	932.19
334.771	938.19
334.999	901.19
335.227	909.19
335.455	920.19
335.684	905.19
335.912	892.19
336.14	896.19
336.369	867.19
336.597	882.19
336.825	889.19
337.053	855.19
337.281	856.19
337.51	841.19
337.738	834.19
337.966	807.19
338.194	770.19
338.422	807.19
338.65	749.19
338.878	748.19
339.106	750.19
339.334	777.19
339.562	752.19
339.79	748.19
340.018	753.19
340.246	725.19
340.474	756.19
340.702	775.19
340.93	741.19
341.158	761.19
341.386	729.19
341.614	726.19
341.842	765.19
342.07	750.19
342.298	738.19
342.526	727.19
342.754	744.19
342.981	745.19
343.209	766.19
343.437	799.19
343.665	845.19
343.893	902.19
344.12	950.19
344.348	929.19
344.576	854.19
344.804	821.19
345.031	782.19
345.259	800.19
345.487	738.19
345.714	708.19
345.942	725.19
346.17	706.19
346.397	720.19
346.625	710.19
346.853	717.19
347.08	736.19
347.308	734.19
347.535	739.19
347.763	749.19
347.99	743.19
348.218	770.19
348.445	749.19
348.673	738.19
348.9	724.19
349.128	713.19
349.355	713.19
349.583	702.19
349.81	730.19
350.037	678.19
350.265	679.19
350.492	726.19
350.72	679.19
350.947	695.19
351.174	710.19
351.402	687.19
351.629	682.19
351.856	690.19
352.083	694.19
352.311	673.19
352.538	696.19
352.765	701.19
352.992	680.19
353.22	685.19
353.447	684.19
353.674	710.19
353.901	701.19
354.128	691.19
354.355	670.19
354.583	693.19
354.81	713.19
355.037	699.19
355.264	701.19
355.491	705.19
355.718	709.19
355.945	687.19
356.172	694.19
356.399	699.19
356.626	724.19
356.853	705.19
357.08	680.19
357.307	686.19
357.534	695.19
357.761	696.19
357.988	688.19
358.215	681.19
358.441	684.19
358.668	687.19
358.895	704.19
359.122	688.19
359.349	701.19
359.576	724.19
359.802	701.19
360.029	679.19
360.256	704.19
360.483	686.19
360.709	717.19
360.936	713.19
361.163	695.19
361.39	697.19
361.616	705.19
361.843	694.19
362.07	715.19
362.296	707.19
362.523	695.19
362.749	688.19
362.976	704.19
363.203	715.19
363.429	693.19
363.656	709.19
363.882	673.19
364.109	675.19
364.335	673.19
364.562	688.19
364.788	699.19
365.015	682.19
365.241	714.19
365.468	698.19
365.694	678.19
365.92	691.19
366.147	686.19
366.373	697.19
366.599	674.19
366.826	702.19
367.052	708.19
367.278	675.19
367.505	711.19
367.731	713.19
367.957	703.19
368.184	706.19
368.41	693.19
368.636	703.19
368.862	728.19
369.089	703.19
369.315	727.19
369.541	705.19
369.767	736.19
369.993	729.19
370.219	721.19
370.445	716.19
370.672	751.19
370.898	722.19
371.124	739.19
371.35	750.19
371.576	752.19
371.802	779.19
372.028	726.19
372.254	749.19
372.48	761.19
372.706	779.19
372.932	807.19
373.158	775.19
373.384	769.19
373.61	776.19
373.835	758.19
374.061	763.19
374.287	803.19
374.513	784.19
374.739	805.19
374.965	833.19
375.191	871.19
375.416	842.19
375.642	841.19
375.868	783.19
376.094	785.19
376.319	801.19
376.545	777.19
376.771	782.19
376.997	769.19
377.222	781.19
377.448	744.19
377.674	757.19
377.899	763.19
378.125	764.19
378.35	766.19
378.576	757.19
378.802	758.19
379.027	739.19
379.253	756.19
379.478	750.19
379.704	714.19
379.929	741.19
380.155	749.19
380.38	747.19
380.606	761.19
380.831	776.19
381.057	764.19
381.282	759.19
381.507	745.19
381.733	779.19
381.958	800.19
382.184	763.19
382.409	767.19
382.634	794.19
382.86	775.19
383.085	795.19
383.31	816.19
383.535	854.19
383.761	861.19
383.986	897.19
384.211	877.19
384.436	907.19
384.662	913.19
384.887	933.19
385.112	910.19
385.337	930.19
385.562	937.19
385.787	925.19
386.013	936.19
386.238	962.19
386.463	962.19
386.688	930.19
386.913	904.19
387.138	916.19
387.363	905.19
387.588	891.19
387.813	888.19
388.038	885.19
388.263	905.19
388.488	934.19
388.713	910.19
388.938	921.19
389.163	903.19
389.387	882.19
389.612	869.19
389.837	901.19
390.062	897.19
390.287	885.19
390.512	924.19
390.736	905.19
390.961	903.19
391.186	919.19
391.411	974.19
391.636	998.19
391.86	1038.19
392.085	1073.19
392.31	1074.19
392.534	1006.19
392.759	1003.19
392.984	970.19
393.208	974.19
393.433	971.19
393.658	985.19
393.882	940.19
394.107	997.19
394.331	989.19
394.556	1002.19
394.78	992.19
395.005	970.19
395.229	993.19
395.454	984.19
395.678	1038.19
395.903	1029.19
396.127	1042.19
396.352	981.19
396.576	955.19
396.801	931.19
397.025	933.19
397.249	961.19
397.474	989.19
397.698	1042.19
397.922	1052.19
398.147	1011.19
398.371	1037.19
398.595	1069.19
398.82	1119.19
399.044	1200.19
399.268	1335.19
399.492	1579.19
399.717	1841.19
399.941	1858.19
400.165	1599.19
400.389	1418.19
400.613	1317.19
400.837	1245.19
401.062	1181.19
401.286	1131.19
401.51	1153.19
401.734	1141.19
401.958	1165.19
402.182	1176.19
402.406	1196.19
402.63	1207.19
402.854	1250.19
403.078	1257.19
403.302	1301.19
403.526	1335.19
403.75	1349.19
403.974	1388.19
404.198	1403.19
404.422	1380.19
404.645	1393.19
404.869	1373.19
405.093	1350.19
405.317	1271.19
405.541	1317.19
405.765	1314.19
405.988	1302.19
406.212	1284.19
406.436	1283.19
406.66	1304.19
406.883	1323.19
407.107	1423.19
407.331	1487.19
407.555	1543.19
407.778	1558.19
408.002	1494.19
408.226	1443.19
408.449	1381.19
408.673	1353.19
408.896	1352.19
409.12	1316.19
409.344	1349.19
409.567	1334.19
409.791	1375.19
410.014	1323.19
410.238	1305.19
410.461	1292.19
410.685	1298.19
410.908	1251.19
411.132	1222.19
411.355	1174.19
411.578	1189.19
411.802	1184.19
412.025	1235.19
412.249	1238.19
412.472	1209.19
412.695	1174.19
412.919	1154.19
413.142	1155.19
413.365	1148.19
413.589	1163.19
413.812	1176.19
414.035	1150.19
414.258	1135.19
414.482	1176.19
414.705	1191.19
414.928	1173.19
415.151	1172.19
415.374	1182.19
415.597	1130.19
415.821	1160.19
416.044	1139.19
416.267	1147.19
416.49	1163.19
416.713	1105.19
416.936	1138.19
417.159	1131.19
417.382	1145.19
417.605	1149.19
417.828	1198.19
418.051	1150.19
418.274	1154.19
418.497	1155.19
418.72	1233.19
418.943	1196.19
419.166	1292.19
419.389	1393.19
419.611	1367.19
419.834	1253.19
420.057	1217.19
420.28	1183.19
420.503	1166.19
420.726	1149.19
420.948	1130.19
421.171	1113.19
421.394	1161.19
421.617	1161.19
421.839	1158.19
422.062	1165.19
422.285	1147.19
422.507	1157.19
422.73	1163.19
422.953	1200.19
423.175	1200.19
423.398	1253.19
423.621	1259.19
423.843	1229.19
424.066	1257.19
424.288	1266.19
424.511	1256.19
424.733	1197.19
424.956	1181.19
425.178	1199.19
425.401	1185.19
425.623	1160.19
425.846	1138.19
426.068	1138.19
426.291	1091.19
426.513	1114.19
426.735	1071.19
426.958	1106.19
427.18	1053.19
427.402	1035.19
427.625	1040.19
427.847	1043.19
428.069	1023.19
428.292	1052.19
428.514	1041.19
428.736	1023.19
428.958	1013.19
429.181	1026.19
429.403	1036.19
429.625	993.19
429.847	1009.19
430.069	984.19
430.292	1005.19
430.514	986.19
430.736	969.19
430.958	979.19
431.18	1001.19
431.402	1022.19
431.624	1021.19
431.846	1026.19
432.068	1037.19
432.29	1054.19
432.512	988.19
432.734	1070.19
432.956	1007.19
433.178	1033.19
433.4	1019.19
433.622	1061.19
433.844	1048.19
434.066	1065.19
434.287	1043.19
434.509	1093.19
434.731	1135.19
434.953	1185.19
435.175	1185.19
435.397	1146.19
435.618	1096.19
435.84	1067.19
436.062	1061.19
436.284	1057.19
436.505	1075.19
436.727	1052.19
436.949	1048.19
437.17	1043.19
437.392	1020.19
437.614	1010.19
437.835	969.19
438.057	1010.19
438.278	971.19
438.5	987.19
438.721	962.19
438.943	1030.19
439.165	980.19
439.386	1046.19
439.608	1021.19
439.829	1049.19
440.05	1053.19
440.272	1004.19
440.493	1032.19
440.715	1058.19
440.936	1076.19
441.158	1082.19
441.379	1123.19
441.6	1190.19
441.822	1210.19
442.043	1216.19
442.264	1155.19
442.486	1114.19
442.707	1159.19
442.928	1147.19
443.149	1145.19
443.371	1146.19
443.592	1129.19
443.813	1164.19
444.034	1186.19
444.255	1249.19
444.476	1303.19
444.698	1357.19
444.919	1449.19
445.14	1530.19
445.361	1364.19
445.582	1231.19
445.803	1148.19
446.024	1108.19
446.245	1090.19
446.466	1060.19
446.687	1031.19
446.908	1045.19
447.129	1026.19
447.35	996.19
447.571	993.19
447.792	976.19
448.013	966.19
448.234	950.19
448.455	987.19
448.675	941.19
448.896	969.19
449.117	929.19
449.338	963.19
449.559	957.19
449.779	938.19
450	963.19
450.221	942.19
450.442	965.19
450.662	957.19
450.883	977.19
451.104	1006.19
451.324	987.19
451.545	973.19
451.766	1011.19
451.986	976.19
452.207	961.19
452.428	943.19
452.648	967.19
452.869	949.19
453.089	952.19
453.31	956.19
453.53	934.19
453.751	944.19
453.971	933.19
454.192	930.19
454.412	907.19
454.633	894.19
454.853	899.19
455.073	901.19
455.294	901.19
455.514	876.19
455.734	925.19
455.955	870.19
456.175	867.19
456.395	892.19
456.616	862.19
456.836	919.19
457.056	899.19
457.276	861.19
457.497	892.19
457.717	890.19
457.937	894.19
458.157	917.19
458.377	913.19
458.598	927.19
458.818	981.19
459.038	981.19
459.258	1010.19
459.478	1039.19
459.698	1104.19
459.918	1112.19
460.138	1205.19
460.358	1262.19
460.578	1286.19
460.798	1233.19
461.018	1237.19
461.238	1219.19
461.458	1218.19
461.678	1223.19
461.898	1243.19
462.118	1255.19
462.338	1313.19
462.558	1362.19
462.777	1457.19
462.997	1556.19
463.217	1740.19
463.437	1731.19
463.657	1640.19
463.876	1504.19
464.096	1485.19
464.316	1504.19
464.536	1449.19
464.755	1455.19
464.975	1391.19
465.195	1291.19
465.414	1241.19
465.634	1135.19
465.854	1106.19
466.073	1056.19
466.293	1069.19
466.512	1047.19
466.732	1026.19
466.951	1022.19
467.171	1034.19
467.391	977.19
467.61	990.19
467.829	989.19
468.049	967.19
468.268	979.19
468.488	942.19
468.707	965.19
468.927	958.19
469.146	948.19
469.365	970.19
469.585	985.19
469.804	1035.19
470.023	1011.19
470.243	1036.19
470.462	1010.19
470.681	1034.19
470.901	1038.19
471.12	1011.19
471.339	993.19
471.558	964.19
471.777	959.19
471.997	944.19
472.216	949.19
472.435	961.19
472.654	953.19
472.873	939.19
473.092	939.19
473.311	921.19
473.53	926.19
473.749	935.19
473.968	902.19
474.187	923.19
474.406	912.19
474.625	900.19
474.844	930.19
475.063	911.19
475.282	942.19
475.501	925.19
475.72	961.19
475.939	959.19
476.158	950.19
476.377	955.19
476.596	975.19
476.814	990.19
477.033	987.19
477.252	987.19
477.471	1001.19
477.69	1034.19
477.908	1069.19
478.127	1113.19
478.346	1135.19
478.564	1147.19
478.783	1151.19
479.002	1179.19
479.22	1186.19
479.439	1142.19
479.658	1129.19
479.876	1149.19
480.095	1179.19
480.313	1229.19
480.532	1295.19
480.751	1287.19
480.969	1218.19
481.188	1175.19
481.406	1113.19
481.624	1063.19
481.843	1073.19
482.061	1110.19
482.28	1071.19
482.498	1054.19
482.717	1036.19
482.935	1055.19
483.153	1063.19
483.372	1064.19
483.59	1019.19
483.808	1061.19
484.027	1034.19
484.245	1055.19
484.463	1083.19
484.681	1101.19
484.9	1061.19
485.118	1082.19
485.336	1077.19
485.554	1125.19
485.772	1105.19
485.99	1133.19
486.209	1133.19
486.427	1146.19
486.645	1121.19
486.863	1129.19
487.081	1112.19
487.299	1133.19
487.517	1106.19
487.735	1095.19
487.953	1096.19
488.171	1078.19
488.389	1119.19
488.607	1095.19
488.825	1078.19
489.043	1082.19
489.261	1086.19
489.479	1082.19
489.696	1093.19
489.914	1102.19
490.132	1120.19
490.35	1099.19
490.568	1088.19
490.786	1101.19
491.003	1118.19
491.221	1105.19
491.439	1093.19
491.657	1109.19
491.874	1117.19
492.092	1126.19
492.31	1122.19
492.527	1143.19
492.745	1105.19
492.963	1138.19
493.18	1149.19
493.398	1149.19
493.615	1149.19
493.833	1139.19
494.05	1171.19
494.268	1163.19
494.485	1142.19
494.703	1170.19
494.92	1181.19
495.138	1147.19
495.355	1164.19
495.573	1158.19
495.79	1162.19
496.008	1168.19
496.225	1181.19
496.442	1174.19
496.66	1166.19
