Data from NiCl2@0.5M.TitratingCurve.Agarose3%dH2O.NegLispCup.LampEnergy10.LIBS07252019_HRD10591_18-21-24-571.txt Node
Date: Thu Jul 25 18:21:24 EDT 2019
User: cochatt
Spectrometer: HR+D1059
Trigger mode: 1
Integration Time (sec): 1.000000E-1
Scans to average: 1
Electric dark correction enabled: true
Nonlinearity correction enabled: false
Boxcar width: 0
XAxis mode: Wavelengths
Number of Pixels in Spectrum: 2048
>>>>>Begin Spectral Data<<<<<
223.165	-17.56
223.4	-17.56
223.635	-17.56
223.869	-22.56
224.104	-24.56
224.338	-24.56
224.573	-9.56
224.808	-26.56
225.042	-0.56
225.277	1.44
225.511	-5.56
225.746	1.44
225.98	15.44
226.215	1.44
226.449	15.44
226.683	30.44
226.918	30.44
227.152	35.44
227.387	50.44
227.621	31.44
227.856	38.44
228.09	39.44
228.324	48.44
228.559	60.44
228.793	60.44
229.027	98.44
229.262	106.44
229.496	103.44
229.73	118.44
229.964	113.44
230.199	125.44
230.433	133.44
230.667	124.44
230.901	134.44
231.136	123.44
231.37	124.44
231.604	121.44
231.838	122.44
232.072	141.44
232.306	127.44
232.541	145.44
232.775	148.44
233.009	136.44
233.243	128.44
233.477	128.44
233.711	134.44
233.945	134.44
234.179	143.44
234.413	146.44
234.647	134.44
234.881	128.44
235.115	140.44
235.349	124.44
235.583	133.44
235.817	141.44
236.051	141.44
236.285	141.44
236.519	161.44
236.753	141.44
236.987	147.44
237.221	147.44
237.455	145.44
237.689	136.44
237.922	145.44
238.156	165.44
238.39	158.44
238.624	140.44
238.858	160.44
239.091	146.44
239.325	153.44
239.559	159.44
239.793	149.44
240.027	152.44
240.26	163.44
240.494	157.44
240.728	165.44
240.961	162.44
241.195	147.44
241.429	163.44
241.662	169.44
241.896	181.44
242.13	159.44
242.363	170.44
242.597	171.44
242.83	180.44
243.064	192.44
243.298	185.44
243.531	181.44
243.765	180.44
243.998	169.44
244.232	190.44
244.465	189.44
244.699	188.44
244.932	193.44
245.166	194.44
245.399	187.44
245.633	192.44
245.866	181.44
246.099	193.44
246.333	192.44
246.566	192.44
246.8	214.44
247.033	194.44
247.266	194.44
247.5	204.44
247.733	195.44
247.966	210.44
248.2	201.44
248.433	221.44
248.666	213.44
248.899	227.44
249.133	217.44
249.366	226.44
249.599	206.44
249.832	209.44
250.066	217.44
250.299	213.44
250.532	221.44
250.765	215.44
250.998	229.44
251.231	231.44
251.465	231.44
251.698	248.44
251.931	230.44
252.164	259.44
252.397	243.44
252.63	219.44
252.863	226.44
253.096	258.44
253.329	246.44
253.562	229.44
253.795	236.44
254.028	236.44
254.261	257.44
254.494	239.44
254.727	250.44
254.96	227.44
255.193	245.44
255.426	263.44
255.659	251.44
255.892	265.44
256.124	239.44
256.357	242.44
256.59	280.44
256.823	268.44
257.056	284.44
257.289	275.44
257.521	273.44
257.754	253.44
257.987	259.44
258.22	285.44
258.452	270.44
258.685	258.44
258.918	271.44
259.151	278.44
259.383	268.44
259.616	286.44
259.849	274.44
260.081	294.44
260.314	283.44
260.547	279.44
260.779	286.44
261.012	273.44
261.244	283.44
261.477	278.44
261.71	287.44
261.942	288.44
262.175	285.44
262.407	289.44
262.64	292.44
262.872	281.44
263.105	280.44
263.337	310.44
263.57	293.44
263.802	302.44
264.035	305.44
264.267	315.44
264.499	290.44
264.732	300.44
264.964	309.44
265.197	311.44
265.429	319.44
265.661	326.44
265.894	324.44
266.126	321.44
266.358	320.44
266.591	306.44
266.823	333.44
267.055	316.44
267.287	325.44
267.52	313.44
267.752	320.44
267.984	328.44
268.216	331.44
268.448	329.44
268.681	317.44
268.913	334.44
269.145	333.44
269.377	326.44
269.609	314.44
269.841	315.44
270.073	338.44
270.306	351.44
270.538	338.44
270.77	327.44
271.002	327.44
271.234	353.44
271.466	336.44
271.698	344.44
271.93	342.44
272.162	347.44
272.394	359.44
272.626	353.44
272.858	338.44
273.09	359.44
273.322	363.44
273.553	345.44
273.785	355.44
274.017	358.44
274.249	355.44
274.481	364.44
274.713	346.44
274.945	375.44
275.176	353.44
275.408	362.44
275.64	359.44
275.872	358.44
276.104	363.44
276.335	374.44
276.567	375.44
276.799	347.44
277.031	385.44
277.262	373.44
277.494	364.44
277.726	364.44
277.957	383.44
278.189	391.44
278.421	386.44
278.652	378.44
278.884	395.44
279.115	382.44
279.347	399.44
279.579	394.44
279.81	382.44
280.042	386.44
280.273	407.44
280.505	399.44
280.736	408.44
280.968	385.44
281.199	419.44
281.431	434.44
281.662	412.44
281.894	408.44
282.125	420.44
282.356	435.44
282.588	413.44
282.819	412.44
283.051	431.44
283.282	399.44
283.513	423.44
283.745	413.44
283.976	426.44
284.207	438.44
284.439	428.44
284.67	423.44
284.901	428.44
285.132	437.44
285.364	417.44
285.595	437.44
285.826	419.44
286.057	426.44
286.288	446.44
286.52	430.44
286.751	433.44
286.982	447.44
287.213	426.44
287.444	449.44
287.675	433.44
287.906	439.44
288.138	449.44
288.369	461.44
288.6	478.44
288.831	448.44
289.062	453.44
289.293	447.44
289.524	461.44
289.755	424.44
289.986	463.44
290.217	461.44
290.448	462.44
290.679	470.44
290.91	457.44
291.141	430.44
291.371	465.44
291.602	473.44
291.833	462.44
292.064	459.44
292.295	482.44
292.526	458.44
292.757	472.44
292.987	461.44
293.218	459.44
293.449	458.44
293.68	466.44
293.91	463.44
294.141	451.44
294.372	458.44
294.603	474.44
294.833	505.44
295.064	487.44
295.295	488.44
295.525	450.44
295.756	473.44
295.987	466.44
296.217	479.44
296.448	460.44
296.679	462.44
296.909	494.44
297.14	467.44
297.37	481.44
297.601	517.44
297.831	486.44
298.062	497.44
298.292	510.44
298.523	537.44
298.753	523.44
298.984	495.44
299.214	501.44
299.445	511.44
299.675	498.44
299.905	488.44
300.136	517.44
300.366	519.44
300.597	532.44
300.827	541.44
301.057	541.44
301.288	549.44
301.518	531.44
301.748	540.44
301.979	554.44
302.209	533.44
302.439	546.44
302.669	501.44
302.9	533.44
303.13	527.44
303.36	543.44
303.59	514.44
303.82	545.44
304.051	523.44
304.281	550.44
304.511	533.44
304.741	550.44
304.971	532.44
305.201	541.44
305.431	539.44
305.661	532.44
305.891	537.44
306.121	561.44
306.352	533.44
306.582	535.44
306.812	521.44
307.042	543.44
307.272	515.44
307.502	512.44
307.731	524.44
307.961	532.44
308.191	527.44
308.421	528.44
308.651	527.44
308.881	519.44
309.111	536.44
309.341	517.44
309.571	511.44
309.8	535.44
310.03	554.44
310.26	537.44
310.49	549.44
310.72	523.44
310.949	562.44
311.179	540.44
311.409	542.44
311.639	536.44
311.868	527.44
312.098	546.44
312.328	540.44
312.557	549.44
312.787	556.44
313.017	548.44
313.246	581.44
313.476	571.44
313.706	575.44
313.935	551.44
314.165	570.44
314.394	573.44
314.624	566.44
314.853	582.44
315.083	597.44
315.312	572.44
315.542	557.44
315.771	570.44
316.001	574.44
316.23	562.44
316.46	565.44
316.689	565.44
316.919	575.44
317.148	570.44
317.377	536.44
317.607	547.44
317.836	573.44
318.065	545.44
318.295	563.44
318.524	542.44
318.753	571.44
318.983	564.44
319.212	553.44
319.441	533.44
319.67	560.44
319.9	564.44
320.129	567.44
320.358	574.44
320.587	580.44
320.816	549.44
321.046	566.44
321.275	578.44
321.504	573.44
321.733	569.44
321.962	563.44
322.191	585.44
322.42	588.44
322.649	596.44
322.878	578.44
323.108	571.44
323.337	590.44
323.566	593.44
323.795	567.44
324.024	594.44
324.253	574.44
324.482	589.44
324.71	580.44
324.939	599.44
325.168	593.44
325.397	603.44
325.626	579.44
325.855	591.44
326.084	594.44
326.313	602.44
326.542	635.44
326.77	631.44
326.999	620.44
327.228	603.44
327.457	589.44
327.686	610.44
327.914	621.44
328.143	620.44
328.372	597.44
328.6	609.44
328.829	621.44
329.058	614.44
329.287	606.44
329.515	631.44
329.744	604.44
329.972	613.44
330.201	626.44
330.43	614.44
330.658	625.44
330.887	621.44
331.115	654.44
331.344	637.44
331.572	659.44
331.801	673.44
332.03	682.44
332.258	695.44
332.486	711.44
332.715	718.44
332.943	730.44
333.172	772.44
333.4	827.44
333.629	772.44
333.857	787.44
334.085	795.44
334.314	782.44
334.542	782.44
334.771	805.44
334.999	783.44
335.227	766.44
335.455	761.44
335.684	761.44
335.912	745.44
336.14	751.44
336.369	764.44
336.597	741.44
336.825	736.44
337.053	734.44
337.281	738.44
337.51	732.44
337.738	707.44
337.966	699.44
338.194	679.44
338.422	679.44
338.65	675.44
338.878	679.44
339.106	691.44
339.334	703.44
339.562	676.44
339.79	637.44
340.018	643.44
340.246	647.44
340.474	638.44
340.702	629.44
340.93	635.44
341.158	634.44
341.386	663.44
341.614	689.44
341.842	651.44
342.07	647.44
342.298	639.44
342.526	658.44
342.754	656.44
342.981	633.44
343.209	652.44
343.437	695.44
343.665	718.44
343.893	772.44
344.12	770.44
344.348	757.44
344.576	730.44
344.804	721.44
345.031	700.44
345.259	671.44
345.487	684.44
345.714	677.44
345.942	663.44
346.17	691.44
346.397	636.44
346.625	653.44
346.853	639.44
347.08	637.44
347.308	638.44
347.535	632.44
347.763	644.44
347.99	602.44
348.218	633.44
348.445	645.44
348.673	621.44
348.9	615.44
349.128	620.44
349.355	606.44
349.583	627.44
349.81	610.44
350.037	593.44
350.265	618.44
350.492	609.44
350.72	603.44
350.947	616.44
351.174	635.44
351.402	594.44
351.629	617.44
351.856	615.44
352.083	611.44
352.311	617.44
352.538	620.44
352.765	611.44
352.992	608.44
353.22	601.44
353.447	591.44
353.674	593.44
353.901	575.44
354.128	586.44
354.355	596.44
354.583	580.44
354.81	609.44
355.037	611.44
355.264	606.44
355.491	618.44
355.718	612.44
355.945	606.44
356.172	614.44
356.399	604.44
356.626	637.44
356.853	625.44
357.08	599.44
357.307	638.44
357.534	588.44
357.761	604.44
357.988	597.44
358.215	590.44
358.441	599.44
358.668	589.44
358.895	590.44
359.122	573.44
359.349	600.44
359.576	594.44
359.802	623.44
360.029	610.44
360.256	575.44
360.483	590.44
360.709	593.44
360.936	621.44
361.163	583.44
361.39	610.44
361.616	586.44
361.843	620.44
362.07	627.44
362.296	590.44
362.523	583.44
362.749	582.44
362.976	615.44
363.203	600.44
363.429	571.44
363.656	587.44
363.882	599.44
364.109	595.44
364.335	582.44
364.562	598.44
364.788	585.44
365.015	593.44
365.241	590.44
365.468	599.44
365.694	603.44
365.92	596.44
366.147	566.44
366.373	593.44
366.599	607.44
366.826	589.44
367.052	580.44
367.278	607.44
367.505	587.44
367.731	614.44
367.957	591.44
368.184	597.44
368.41	577.44
368.636	610.44
368.862	595.44
369.089	612.44
369.315	608.44
369.541	614.44
369.767	607.44
369.993	634.44
370.219	599.44
370.445	588.44
370.672	645.44
370.898	631.44
371.124	635.44
371.35	645.44
371.576	630.44
371.802	634.44
372.028	650.44
372.254	661.44
372.48	641.44
372.706	670.44
372.932	659.44
373.158	662.44
373.384	641.44
373.61	631.44
373.835	639.44
374.061	647.44
374.287	664.44
374.513	678.44
374.739	680.44
374.965	698.44
375.191	695.44
375.416	695.44
375.642	673.44
375.868	663.44
376.094	647.44
376.319	659.44
376.545	663.44
376.771	635.44
376.997	653.44
377.222	649.44
377.448	645.44
377.674	659.44
377.899	630.44
378.125	622.44
378.35	615.44
378.576	642.44
378.802	605.44
379.027	617.44
379.253	649.44
379.478	610.44
379.704	622.44
379.929	622.44
380.155	615.44
380.38	614.44
380.606	621.44
380.831	622.44
381.057	653.44
381.282	635.44
381.507	631.44
381.733	667.44
381.958	650.44
382.184	654.44
382.409	654.44
382.634	650.44
382.86	667.44
383.085	683.44
383.31	661.44
383.535	678.44
383.761	694.44
383.986	721.44
384.211	697.44
384.436	744.44
384.662	722.44
384.887	744.44
385.112	718.44
385.337	741.44
385.562	748.44
385.787	746.44
386.013	748.44
386.238	730.44
386.463	760.44
386.688	753.44
386.913	743.44
387.138	739.44
387.363	766.44
387.588	738.44
387.813	722.44
388.038	738.44
388.263	749.44
388.488	753.44
388.713	741.44
388.938	736.44
389.163	745.44
389.387	765.44
389.612	728.44
389.837	736.44
390.062	749.44
390.287	764.44
390.512	725.44
390.736	745.44
390.961	743.44
391.186	780.44
391.411	781.44
391.636	819.44
391.86	838.44
392.085	810.44
392.31	829.44
392.534	803.44
392.759	842.44
392.984	805.44
393.208	791.44
393.433	793.44
393.658	791.44
393.882	809.44
394.107	791.44
394.331	797.44
394.556	813.44
394.78	821.44
395.005	813.44
395.229	816.44
395.454	799.44
395.678	853.44
395.903	831.44
396.127	837.44
396.352	810.44
396.576	797.44
396.801	794.44
397.025	833.44
397.249	838.44
397.474	843.44
397.698	830.44
397.922	842.44
398.147	867.44
398.371	872.44
398.595	909.44
398.82	913.44
399.044	987.44
399.268	1062.44
399.492	1201.44
399.717	1331.44
399.941	1311.44
400.165	1224.44
400.389	1099.44
400.613	1043.44
400.837	990.44
401.062	966.44
401.286	953.44
401.51	934.44
401.734	961.44
401.958	951.44
402.182	943.44
402.406	955.44
402.63	945.44
402.854	969.44
403.078	1016.44
403.302	1003.44
403.526	1000.44
403.75	1021.44
403.974	1017.44
404.198	1033.44
404.422	1066.44
404.645	1027.44
404.869	993.44
405.093	1020.44
405.317	1039.44
405.541	1063.44
405.765	984.44
405.988	1026.44
406.212	1027.44
406.436	1040.44
406.66	1081.44
406.883	1049.44
407.107	1119.44
407.331	1153.44
407.555	1196.44
407.778	1184.44
408.002	1167.44
408.226	1165.44
408.449	1131.44
408.673	1067.44
408.896	1053.44
409.12	1031.44
409.344	1052.44
409.567	1056.44
409.791	1065.44
410.014	1067.44
410.238	1037.44
410.461	1058.44
410.685	1047.44
410.908	999.44
411.132	1044.44
411.355	969.44
411.578	954.44
411.802	973.44
412.025	969.44
412.249	979.44
412.472	1005.44
412.695	969.44
412.919	961.44
413.142	964.44
413.365	970.44
413.589	954.44
413.812	963.44
414.035	935.44
414.258	942.44
414.482	912.44
414.705	959.44
414.928	971.44
415.151	987.44
415.374	955.44
415.597	939.44
415.821	937.44
416.044	935.44
416.267	930.44
416.49	909.44
416.713	931.44
416.936	911.44
417.159	921.44
417.382	919.44
417.605	899.44
417.828	896.44
418.051	943.44
418.274	936.44
418.497	950.44
418.72	941.44
418.943	945.44
419.166	1001.44
419.389	1060.44
419.611	1033.44
419.834	1005.44
420.057	995.44
420.28	975.44
420.503	916.44
420.726	929.44
420.948	909.44
421.171	910.44
421.394	946.44
421.617	923.44
421.839	939.44
422.062	938.44
422.285	903.44
422.507	947.44
422.73	945.44
422.953	935.44
423.175	1002.44
423.398	979.44
423.621	945.44
423.843	973.44
424.066	970.44
424.288	919.44
424.511	953.44
424.733	967.44
424.956	958.44
425.178	963.44
425.401	945.44
425.623	915.44
425.846	940.44
426.068	940.44
426.291	889.44
426.513	907.44
426.735	883.44
426.958	894.44
427.18	873.44
427.402	883.44
427.625	856.44
427.847	833.44
428.069	853.44
428.292	841.44
428.514	827.44
428.736	846.44
428.958	870.44
429.181	838.44
429.403	807.44
429.625	817.44
429.847	841.44
430.069	849.44
430.292	839.44
430.514	843.44
430.736	839.44
430.958	853.44
431.18	845.44
431.402	846.44
431.624	849.44
431.846	846.44
432.068	855.44
432.29	869.44
432.512	841.44
432.734	877.44
432.956	855.44
433.178	876.44
433.4	870.44
433.622	872.44
433.844	865.44
434.066	871.44
434.287	877.44
434.509	917.44
434.731	933.44
434.953	917.44
435.175	955.44
435.397	945.44
435.618	929.44
435.84	898.44
436.062	867.44
436.284	862.44
436.505	859.44
436.727	875.44
436.949	862.44
437.17	858.44
437.392	846.44
437.614	847.44
437.835	819.44
438.057	807.44
438.278	803.44
438.5	827.44
438.721	821.44
438.943	821.44
439.165	838.44
439.386	851.44
439.608	855.44
439.829	872.44
440.05	854.44
440.272	851.44
440.493	843.44
440.715	854.44
440.936	861.44
441.158	883.44
441.379	927.44
441.6	945.44
441.822	966.44
442.043	971.44
442.264	959.44
442.486	909.44
442.707	927.44
442.928	941.44
443.149	942.44
443.371	928.44
443.592	939.44
443.813	934.44
444.034	953.44
444.255	972.44
444.476	1033.44
444.698	1075.44
444.919	1103.44
445.14	1133.44
445.361	1079.44
445.582	962.44
445.803	924.44
446.024	908.44
446.245	920.44
446.466	918.44
446.687	876.44
446.908	872.44
447.129	850.44
447.35	844.44
447.571	866.44
447.792	809.44
448.013	851.44
448.234	808.44
448.455	797.44
448.675	813.44
448.896	815.44
449.117	768.44
449.338	797.44
449.559	805.44
449.779	790.44
450	782.44
450.221	787.44
450.442	782.44
450.662	779.44
450.883	819.44
451.104	812.44
451.324	815.44
451.545	805.44
451.766	820.44
451.986	804.44
452.207	786.44
452.428	817.44
452.648	812.44
452.869	771.44
453.089	787.44
453.31	789.44
453.53	756.44
453.751	744.44
453.971	773.44
454.192	769.44
454.412	767.44
454.633	781.44
454.853	776.44
455.073	763.44
455.294	761.44
455.514	755.44
455.734	757.44
455.955	729.44
456.175	735.44
456.395	734.44
456.616	743.44
456.836	743.44
457.056	742.44
457.276	751.44
457.497	743.44
457.717	743.44
457.937	774.44
458.157	748.44
458.377	762.44
458.598	784.44
458.818	829.44
459.038	847.44
459.258	847.44
459.478	858.44
459.698	885.44
459.918	910.44
460.138	910.44
460.358	1003.44
460.578	979.44
460.798	999.44
461.018	1025.44
461.238	1028.44
461.458	1015.44
461.678	1017.44
461.898	997.44
462.118	1034.44
462.338	1093.44
462.558	1082.44
462.777	1143.44
462.997	1205.44
463.217	1274.44
463.437	1265.44
463.657	1185.44
463.876	1157.44
464.096	1170.44
464.316	1151.44
464.536	1147.44
464.755	1116.44
464.975	1087.44
465.195	1033.44
465.414	1001.44
465.634	922.44
465.854	915.44
466.073	893.44
466.293	896.44
466.512	866.44
466.732	859.44
466.951	845.44
467.171	830.44
467.391	870.44
467.61	846.44
467.829	812.44
468.049	833.44
468.268	815.44
468.488	794.44
468.707	823.44
468.927	818.44
469.146	805.44
469.365	811.44
469.585	803.44
469.804	844.44
470.023	853.44
470.243	849.44
470.462	863.44
470.681	846.44
470.901	896.44
471.12	853.44
471.339	829.44
471.558	850.44
471.777	829.44
471.997	835.44
472.216	823.44
472.435	786.44
472.654	811.44
472.873	792.44
473.092	782.44
473.311	784.44
473.53	787.44
473.749	796.44
473.968	821.44
474.187	783.44
474.406	789.44
474.625	795.44
474.844	805.44
475.063	801.44
475.282	830.44
475.501	809.44
475.72	824.44
475.939	822.44
476.158	811.44
476.377	824.44
476.596	846.44
476.814	835.44
477.033	833.44
477.252	831.44
477.471	877.44
477.69	889.44
477.908	899.44
478.127	958.44
478.346	929.44
478.564	963.44
478.783	949.44
479.002	1003.44
479.22	981.44
479.439	960.44
479.658	990.44
479.876	981.44
480.095	989.44
480.313	999.44
480.532	1046.44
480.751	1020.44
480.969	990.44
481.188	968.44
481.406	938.44
481.624	925.44
481.843	907.44
482.061	904.44
482.28	911.44
482.498	881.44
482.717	873.44
482.935	919.44
483.153	893.44
483.372	948.44
483.59	943.44
483.808	925.44
484.027	942.44
484.245	918.44
484.463	925.44
484.681	962.44
484.9	954.44
485.118	946.44
485.336	945.44
485.554	980.44
485.772	948.44
485.99	962.44
486.209	942.44
486.427	971.44
486.645	987.44
486.863	983.44
487.081	972.44
487.299	955.44
487.517	950.44
487.735	934.44
487.953	957.44
488.171	955.44
488.389	949.44
488.607	954.44
488.825	917.44
489.043	945.44
489.261	953.44
489.479	949.44
489.696	952.44
489.914	947.44
490.132	982.44
490.35	974.44
490.568	959.44
490.786	951.44
491.003	987.44
491.221	967.44
491.439	969.44
491.657	970.44
491.874	957.44
492.092	1001.44
492.31	999.44
492.527	997.44
492.745	1023.44
492.963	996.44
493.18	1005.44
493.398	1028.44
493.615	1021.44
493.833	1038.44
494.05	1046.44
494.268	1030.44
494.485	1033.44
494.703	1020.44
494.92	1015.44
495.138	1025.44
495.355	1023.44
495.573	1011.44
495.79	1036.44
496.008	1060.44
496.225	1020.44
496.442	1057.44
496.66	1046.44
496.877	1087.44
497.094	1082.44
497.312	1117.44
497.529	1143.44
497.746	1145.44
497.963	1185.44
498.181	1231.44
498.398	1257.44
498.615	1314.44
498.832	1451.44
499.049	1514.44
499.267	1572.44
499.484	1762.44
499.701	1933.44
499.918	2090.44
500.135	2341.44
