Data from NiCl2@0.5M.TitratingCurve.Agarose3%dH2O.NegLispCup.LampEnergy10.LIBS07252019_HRD10591_18-19-56-571.txt Node
Date: Thu Jul 25 18:19:56 EDT 2019
User: cochatt
Spectrometer: HR+D1059
Trigger mode: 1
Integration Time (sec): 1.000000E-1
Scans to average: 1
Electric dark correction enabled: true
Nonlinearity correction enabled: false
Boxcar width: 0
XAxis mode: Wavelengths
Number of Pixels in Spectrum: 2048
>>>>>Begin Spectral Data<<<<<
223.165	-20.56
223.4	-20.56
223.635	-20.56
223.869	-14.56
224.104	-19.56
224.338	-21.56
224.573	-24.56
224.808	-4.56
225.042	-16.56
225.277	0.44
225.511	-0.56
225.746	7.44
225.98	5.44
226.215	10.44
226.449	23.44
226.683	22.44
226.918	17.44
227.152	35.44
227.387	37.44
227.621	28.44
227.856	39.44
228.09	45.44
228.324	39.44
228.559	54.44
228.793	68.44
229.027	93.44
229.262	104.44
229.496	109.44
229.73	99.44
229.964	103.44
230.199	103.44
230.433	117.44
230.667	104.44
230.901	104.44
231.136	110.44
231.37	110.44
231.604	120.44
231.838	120.44
232.072	127.44
232.306	118.44
232.541	127.44
232.775	139.44
233.009	117.44
233.243	122.44
233.477	109.44
233.711	139.44
233.945	122.44
234.179	139.44
234.413	138.44
234.647	123.44
234.881	126.44
235.115	137.44
235.349	137.44
235.583	147.44
235.817	129.44
236.051	131.44
236.285	153.44
236.519	140.44
236.753	125.44
236.987	123.44
237.221	123.44
237.455	134.44
237.689	137.44
237.922	129.44
238.156	142.44
238.39	131.44
238.624	133.44
238.858	131.44
239.091	133.44
239.325	154.44
239.559	151.44
239.793	151.44
240.027	155.44
240.26	137.44
240.494	149.44
240.728	137.44
240.961	144.44
241.195	152.44
241.429	151.44
241.662	144.44
241.896	150.44
242.13	139.44
242.363	161.44
242.597	156.44
242.83	171.44
243.064	155.44
243.298	149.44
243.531	160.44
243.765	161.44
243.998	167.44
244.232	151.44
244.465	174.44
244.699	155.44
244.932	165.44
245.166	170.44
245.399	163.44
245.633	161.44
245.866	174.44
246.099	171.44
246.333	159.44
246.566	167.44
246.8	178.44
247.033	169.44
247.266	177.44
247.5	183.44
247.733	197.44
247.966	172.44
248.2	182.44
248.433	181.44
248.666	199.44
248.899	189.44
249.133	187.44
249.366	202.44
249.599	187.44
249.832	192.44
250.066	195.44
250.299	185.44
250.532	195.44
250.765	203.44
250.998	201.44
251.231	214.44
251.465	218.44
251.698	197.44
251.931	181.44
252.164	204.44
252.397	211.44
252.63	207.44
252.863	207.44
253.096	214.44
253.329	205.44
253.562	219.44
253.795	213.44
254.028	205.44
254.261	226.44
254.494	222.44
254.727	216.44
254.96	214.44
255.193	206.44
255.426	229.44
255.659	222.44
255.892	215.44
256.124	193.44
256.357	230.44
256.59	216.44
256.823	220.44
257.056	218.44
257.289	220.44
257.521	236.44
257.754	215.44
257.987	237.44
258.22	231.44
258.452	226.44
258.685	251.44
258.918	251.44
259.151	229.44
259.383	257.44
259.616	241.44
259.849	242.44
260.081	234.44
260.314	243.44
260.547	233.44
260.779	249.44
261.012	245.44
261.244	234.44
261.477	239.44
261.71	247.44
261.942	245.44
262.175	248.44
262.407	247.44
262.64	244.44
262.872	254.44
263.105	242.44
263.337	255.44
263.57	242.44
263.802	264.44
264.035	262.44
264.267	271.44
264.499	259.44
264.732	264.44
264.964	260.44
265.197	264.44
265.429	267.44
265.661	283.44
265.894	279.44
266.126	265.44
266.358	248.44
266.591	260.44
266.823	259.44
267.055	270.44
267.287	269.44
267.52	263.44
267.752	274.44
267.984	274.44
268.216	263.44
268.448	279.44
268.681	282.44
268.913	283.44
269.145	276.44
269.377	285.44
269.609	261.44
269.841	289.44
270.073	274.44
270.306	276.44
270.538	282.44
270.77	276.44
271.002	287.44
271.234	277.44
271.466	294.44
271.698	282.44
271.93	282.44
272.162	286.44
272.394	311.44
272.626	305.44
272.858	317.44
273.09	298.44
273.322	301.44
273.553	293.44
273.785	285.44
274.017	301.44
274.249	300.44
274.481	297.44
274.713	323.44
274.945	294.44
275.176	305.44
275.408	317.44
275.64	305.44
275.872	308.44
276.104	310.44
276.335	332.44
276.567	296.44
276.799	313.44
277.031	320.44
277.262	313.44
277.494	313.44
277.726	306.44
277.957	310.44
278.189	328.44
278.421	324.44
278.652	318.44
278.884	341.44
279.115	339.44
279.347	319.44
279.579	333.44
279.81	338.44
280.042	355.44
280.273	340.44
280.505	355.44
280.736	339.44
280.968	336.44
281.199	348.44
281.431	347.44
281.662	335.44
281.894	354.44
282.125	354.44
282.356	342.44
282.588	361.44
282.819	346.44
283.051	348.44
283.282	337.44
283.513	354.44
283.745	356.44
283.976	344.44
284.207	342.44
284.439	369.44
284.67	367.44
284.901	358.44
285.132	351.44
285.364	353.44
285.595	357.44
285.826	377.44
286.057	385.44
286.288	367.44
286.52	369.44
286.751	374.44
286.982	378.44
287.213	385.44
287.444	384.44
287.675	373.44
287.906	386.44
288.138	376.44
288.369	398.44
288.6	382.44
288.831	388.44
289.062	373.44
289.293	373.44
289.524	381.44
289.755	405.44
289.986	404.44
290.217	369.44
290.448	397.44
290.679	405.44
290.91	403.44
291.141	396.44
291.371	377.44
291.602	386.44
291.833	383.44
292.064	400.44
292.295	393.44
292.526	405.44
292.757	391.44
292.987	390.44
293.218	394.44
293.449	389.44
293.68	398.44
293.91	403.44
294.141	409.44
294.372	397.44
294.603	402.44
294.833	408.44
295.064	414.44
295.295	398.44
295.525	398.44
295.756	385.44
295.987	394.44
296.217	416.44
296.448	403.44
296.679	425.44
296.909	403.44
297.14	406.44
297.37	405.44
297.601	409.44
297.831	414.44
298.062	423.44
298.292	429.44
298.523	436.44
298.753	455.44
298.984	429.44
299.214	431.44
299.445	450.44
299.675	439.44
299.905	431.44
300.136	452.44
300.366	431.44
300.597	430.44
300.827	424.44
301.057	437.44
301.288	449.44
301.518	469.44
301.748	438.44
301.979	459.44
302.209	455.44
302.439	436.44
302.669	440.44
302.9	453.44
303.13	470.44
303.36	468.44
303.59	462.44
303.82	430.44
304.051	458.44
304.281	441.44
304.511	439.44
304.741	469.44
304.971	452.44
305.201	468.44
305.431	447.44
305.661	469.44
305.891	452.44
306.121	451.44
306.352	473.44
306.582	453.44
306.812	419.44
307.042	438.44
307.272	468.44
307.502	446.44
307.731	466.44
307.961	460.44
308.191	464.44
308.421	463.44
308.651	425.44
308.881	463.44
309.111	446.44
309.341	446.44
309.571	435.44
309.8	468.44
310.03	455.44
310.26	446.44
310.49	476.44
310.72	445.44
310.949	465.44
311.179	453.44
311.409	447.44
311.639	453.44
311.868	454.44
312.098	459.44
312.328	443.44
312.557	465.44
312.787	473.44
313.017	477.44
313.246	464.44
313.476	485.44
313.706	479.44
313.935	484.44
314.165	479.44
314.394	492.44
314.624	481.44
314.853	478.44
315.083	500.44
315.312	489.44
315.542	469.44
315.771	490.44
316.001	456.44
316.23	461.44
316.46	461.44
316.689	477.44
316.919	482.44
317.148	474.44
317.377	467.44
317.607	473.44
317.836	478.44
318.065	482.44
318.295	494.44
318.524	479.44
318.753	477.44
318.983	475.44
319.212	462.44
319.441	459.44
319.67	467.44
319.9	463.44
320.129	467.44
320.358	456.44
320.587	475.44
320.816	463.44
321.046	499.44
321.275	491.44
321.504	469.44
321.733	476.44
321.962	483.44
322.191	494.44
322.42	500.44
322.649	486.44
322.878	504.44
323.108	469.44
323.337	502.44
323.566	475.44
323.795	504.44
324.024	485.44
324.253	479.44
324.482	491.44
324.71	488.44
324.939	489.44
325.168	519.44
325.397	499.44
325.626	485.44
325.855	516.44
326.084	526.44
326.313	544.44
326.542	518.44
326.77	534.44
326.999	530.44
327.228	523.44
327.457	514.44
327.686	525.44
327.914	545.44
328.143	530.44
328.372	518.44
328.6	512.44
328.829	506.44
329.058	513.44
329.287	517.44
329.515	521.44
329.744	509.44
329.972	506.44
330.201	543.44
330.43	535.44
330.658	524.44
330.887	535.44
331.115	563.44
331.344	562.44
331.572	556.44
331.801	577.44
332.03	591.44
332.258	592.44
332.486	606.44
332.715	576.44
332.943	614.44
333.172	647.44
333.4	643.44
333.629	659.44
333.857	674.44
334.085	681.44
334.314	646.44
334.542	658.44
334.771	639.44
334.999	622.44
335.227	633.44
335.455	635.44
335.684	626.44
335.912	621.44
336.14	615.44
336.369	632.44
336.597	637.44
336.825	618.44
337.053	630.44
337.281	609.44
337.51	597.44
337.738	599.44
337.966	594.44
338.194	568.44
338.422	552.44
338.65	563.44
338.878	575.44
339.106	571.44
339.334	587.44
339.562	570.44
339.79	553.44
340.018	542.44
340.246	556.44
340.474	535.44
340.702	561.44
340.93	543.44
341.158	535.44
341.386	549.44
341.614	546.44
341.842	547.44
342.07	545.44
342.298	549.44
342.526	537.44
342.754	547.44
342.981	548.44
343.209	561.44
343.437	577.44
343.665	620.44
343.893	641.44
344.12	669.44
344.348	649.44
344.576	610.44
344.804	587.44
345.031	571.44
345.259	555.44
345.487	571.44
345.714	546.44
345.942	556.44
346.17	540.44
346.397	551.44
346.625	533.44
346.853	521.44
347.08	506.44
347.308	500.44
347.535	528.44
347.763	530.44
347.99	515.44
348.218	520.44
348.445	531.44
348.673	513.44
348.9	525.44
349.128	530.44
349.355	548.44
349.583	532.44
349.81	517.44
350.037	509.44
350.265	508.44
350.492	495.44
350.72	519.44
350.947	492.44
351.174	503.44
351.402	499.44
351.629	502.44
351.856	523.44
352.083	513.44
352.311	512.44
352.538	530.44
352.765	499.44
352.992	490.44
353.22	485.44
353.447	483.44
353.674	494.44
353.901	501.44
354.128	499.44
354.355	498.44
354.583	512.44
354.81	510.44
355.037	511.44
355.264	517.44
355.491	489.44
355.718	508.44
355.945	499.44
356.172	493.44
356.399	517.44
356.626	502.44
356.853	502.44
357.08	498.44
357.307	507.44
357.534	490.44
357.761	497.44
357.988	485.44
358.215	502.44
358.441	501.44
358.668	506.44
358.895	486.44
359.122	488.44
359.349	481.44
359.576	502.44
359.802	513.44
360.029	503.44
360.256	486.44
360.483	491.44
360.709	493.44
360.936	510.44
361.163	505.44
361.39	493.44
361.616	481.44
361.843	490.44
362.07	505.44
362.296	510.44
362.523	488.44
362.749	513.44
362.976	500.44
363.203	484.44
363.429	499.44
363.656	501.44
363.882	496.44
364.109	499.44
364.335	519.44
364.562	479.44
364.788	482.44
365.015	475.44
365.241	495.44
365.468	487.44
365.694	475.44
365.92	494.44
366.147	476.44
366.373	490.44
366.599	467.44
366.826	488.44
367.052	480.44
367.278	498.44
367.505	485.44
367.731	497.44
367.957	473.44
368.184	499.44
368.41	490.44
368.636	497.44
368.862	503.44
369.089	480.44
369.315	511.44
369.541	519.44
369.767	524.44
369.993	493.44
370.219	476.44
370.445	514.44
370.672	526.44
370.898	535.44
371.124	527.44
371.35	523.44
371.576	528.44
371.802	509.44
372.028	533.44
372.254	531.44
372.48	524.44
372.706	536.44
372.932	531.44
373.158	522.44
373.384	525.44
373.61	554.44
373.835	535.44
374.061	547.44
374.287	517.44
374.513	527.44
374.739	552.44
374.965	536.44
375.191	568.44
375.416	573.44
375.642	582.44
375.868	565.44
376.094	537.44
376.319	551.44
376.545	520.44
376.771	523.44
376.997	526.44
377.222	509.44
377.448	531.44
377.674	540.44
377.899	521.44
378.125	521.44
378.35	526.44
378.576	519.44
378.802	524.44
379.027	512.44
379.253	509.44
379.478	510.44
379.704	498.44
379.929	514.44
380.155	502.44
380.38	504.44
380.606	515.44
380.831	528.44
381.057	531.44
381.282	535.44
381.507	527.44
381.733	527.44
381.958	520.44
382.184	535.44
382.409	535.44
382.634	535.44
382.86	553.44
383.085	545.44
383.31	531.44
383.535	542.44
383.761	575.44
383.986	566.44
384.211	571.44
384.436	572.44
384.662	603.44
384.887	595.44
385.112	594.44
385.337	599.44
385.562	599.44
385.787	626.44
386.013	626.44
386.238	602.44
386.463	609.44
386.688	603.44
386.913	599.44
387.138	597.44
387.363	579.44
387.588	597.44
387.813	584.44
388.038	605.44
388.263	571.44
388.488	599.44
388.713	607.44
388.938	586.44
389.163	593.44
389.387	590.44
389.612	590.44
389.837	598.44
390.062	607.44
390.287	606.44
390.512	597.44
390.736	604.44
390.961	636.44
391.186	615.44
391.411	617.44
391.636	661.44
391.86	635.44
392.085	655.44
392.31	652.44
392.534	639.44
392.759	652.44
392.984	647.44
393.208	625.44
393.433	625.44
393.658	642.44
393.882	631.44
394.107	619.44
394.331	653.44
394.556	641.44
394.78	669.44
395.005	655.44
395.229	651.44
395.454	652.44
395.678	691.44
395.903	676.44
396.127	634.44
396.352	632.44
396.576	651.44
396.801	635.44
397.025	633.44
397.249	662.44
397.474	650.44
397.698	686.44
397.922	653.44
398.147	670.44
398.371	701.44
398.595	711.44
398.82	732.44
399.044	769.44
399.268	847.44
399.492	962.44
399.717	1059.44
399.941	1077.44
400.165	951.44
400.389	886.44
400.613	809.44
400.837	757.44
401.062	761.44
401.286	738.44
401.51	728.44
401.734	760.44
401.958	760.44
402.182	731.44
402.406	771.44
402.63	775.44
402.854	793.44
403.078	801.44
403.302	827.44
403.526	815.44
403.75	823.44
403.974	831.44
404.198	831.44
404.422	841.44
404.645	829.44
404.869	825.44
405.093	809.44
405.317	831.44
405.541	823.44
405.765	792.44
405.988	827.44
406.212	821.44
406.436	807.44
406.66	795.44
406.883	825.44
407.107	901.44
407.331	945.44
407.555	972.44
407.778	940.44
408.002	938.44
408.226	920.44
408.449	931.44
408.673	838.44
408.896	833.44
409.12	871.44
409.344	849.44
409.567	838.44
409.791	865.44
410.014	830.44
410.238	822.44
410.461	802.44
410.685	813.44
410.908	827.44
411.132	795.44
411.355	777.44
411.578	799.44
411.802	773.44
412.025	791.44
412.249	792.44
412.472	792.44
412.695	809.44
412.919	750.44
413.142	777.44
413.365	759.44
413.589	804.44
413.812	748.44
414.035	779.44
414.258	769.44
414.482	746.44
414.705	787.44
414.928	778.44
415.151	767.44
415.374	761.44
415.597	747.44
415.821	737.44
416.044	758.44
416.267	724.44
416.49	743.44
416.713	740.44
416.936	726.44
417.159	735.44
417.382	734.44
417.605	731.44
417.828	743.44
418.051	759.44
418.274	743.44
418.497	754.44
418.72	753.44
418.943	759.44
419.166	832.44
419.389	854.44
419.611	864.44
419.834	805.44
420.057	805.44
420.28	763.44
420.503	705.44
420.726	727.44
420.948	735.44
421.171	753.44
421.394	740.44
421.617	755.44
421.839	761.44
422.062	764.44
422.285	754.44
422.507	778.44
422.73	776.44
422.953	759.44
423.175	782.44
423.398	811.44
423.621	793.44
423.843	793.44
424.066	795.44
424.288	790.44
424.511	801.44
424.733	792.44
424.956	792.44
425.178	797.44
425.401	778.44
425.623	788.44
425.846	755.44
426.068	748.44
426.291	730.44
426.513	757.44
426.735	743.44
426.958	721.44
427.18	725.44
427.402	745.44
427.625	717.44
427.847	715.44
428.069	712.44
428.292	711.44
428.514	685.44
428.736	676.44
428.958	685.44
429.181	673.44
429.403	689.44
429.625	699.44
429.847	687.44
430.069	697.44
430.292	695.44
430.514	676.44
430.736	695.44
430.958	701.44
431.18	695.44
431.402	683.44
431.624	722.44
431.846	693.44
432.068	733.44
432.29	710.44
432.512	711.44
432.734	729.44
432.956	702.44
433.178	733.44
433.4	700.44
433.622	716.44
433.844	719.44
434.066	718.44
434.287	717.44
434.509	745.44
434.731	763.44
434.953	767.44
435.175	757.44
435.397	794.44
435.618	741.44
435.84	748.44
436.062	725.44
436.284	710.44
436.505	715.44
436.727	723.44
436.949	718.44
437.17	716.44
437.392	681.44
437.614	698.44
437.835	711.44
438.057	698.44
438.278	681.44
438.5	675.44
438.721	694.44
438.943	718.44
439.165	694.44
439.386	715.44
439.608	695.44
439.829	731.44
440.05	713.44
440.272	698.44
440.493	719.44
440.715	702.44
440.936	727.44
441.158	759.44
441.379	773.44
441.6	812.44
441.822	762.44
442.043	778.44
442.264	793.44
442.486	759.44
442.707	779.44
442.928	778.44
443.149	765.44
443.371	798.44
443.592	790.44
443.813	778.44
444.034	795.44
444.255	825.44
444.476	845.44
444.698	906.44
444.919	926.44
445.14	1002.44
445.361	881.44
445.582	813.44
445.803	769.44
446.024	750.44
446.245	750.44
446.466	780.44
446.687	749.44
446.908	733.44
447.129	727.44
447.35	730.44
447.571	727.44
447.792	697.44
448.013	683.44
448.234	689.44
448.455	679.44
448.675	678.44
448.896	672.44
449.117	665.44
449.338	655.44
449.559	671.44
449.779	680.44
450	650.44
450.221	641.44
450.442	685.44
450.662	666.44
450.883	663.44
451.104	700.44
451.324	698.44
451.545	690.44
451.766	679.44
451.986	669.44
452.207	661.44
452.428	658.44
452.648	644.44
452.869	637.44
453.089	649.44
453.31	645.44
453.53	660.44
453.751	641.44
453.971	640.44
454.192	655.44
454.412	636.44
454.633	637.44
454.853	620.44
455.073	617.44
455.294	630.44
455.514	610.44
455.734	630.44
455.955	609.44
456.175	615.44
456.395	591.44
456.616	620.44
456.836	628.44
457.056	615.44
457.276	618.44
457.497	622.44
457.717	631.44
457.937	609.44
458.157	649.44
458.377	637.44
458.598	645.44
458.818	638.44
459.038	675.44
459.258	705.44
459.478	720.44
459.698	741.44
459.918	784.44
460.138	796.44
460.358	795.44
460.578	805.44
460.798	829.44
461.018	846.44
461.238	811.44
461.458	822.44
461.678	825.44
461.898	845.44
462.118	843.44
462.338	879.44
462.558	902.44
462.777	947.44
462.997	1017.44
463.217	1077.44
463.437	1098.44
463.657	998.44
463.876	975.44
464.096	943.44
464.316	949.44
464.536	953.44
464.755	937.44
464.975	905.44
465.195	860.44
465.414	789.44
465.634	747.44
465.854	751.44
466.073	737.44
466.293	735.44
466.512	708.44
466.732	705.44
466.951	701.44
467.171	701.44
467.391	726.44
467.61	693.44
467.829	695.44
468.049	706.44
468.268	670.44
468.488	677.44
468.707	670.44
468.927	685.44
469.146	682.44
469.365	661.44
469.585	679.44
469.804	680.44
470.023	706.44
470.243	730.44
470.462	727.44
470.681	745.44
470.901	737.44
471.12	741.44
471.339	703.44
471.558	707.44
471.777	713.44
471.997	721.44
472.216	705.44
472.435	666.44
472.654	672.44
472.873	666.44
473.092	667.44
473.311	661.44
473.53	678.44
473.749	677.44
473.968	664.44
474.187	653.44
474.406	663.44
474.625	697.44
474.844	670.44
475.063	683.44
475.282	651.44
475.501	664.44
475.72	697.44
475.939	693.44
476.158	687.44
476.377	711.44
476.596	675.44
476.814	705.44
477.033	737.44
477.252	724.44
477.471	737.44
477.69	749.44
477.908	759.44
478.127	787.44
478.346	790.44
478.564	805.44
478.783	844.44
479.002	815.44
479.22	830.44
479.439	835.44
479.658	826.44
479.876	840.44
480.095	834.44
480.313	847.44
480.532	866.44
480.751	859.44
480.969	867.44
481.188	803.44
481.406	799.44
481.624	802.44
481.843	774.44
482.061	756.44
482.28	797.44
482.498	762.44
482.717	742.44
482.935	779.44
483.153	787.44
483.372	797.44
483.59	814.44
483.808	777.44
484.027	798.44
484.245	803.44
484.463	798.44
484.681	806.44
484.9	780.44
485.118	790.44
485.336	802.44
485.554	778.44
485.772	838.44
485.99	785.44
486.209	831.44
486.427	813.44
486.645	807.44
486.863	825.44
487.081	835.44
487.299	815.44
487.517	830.44
487.735	833.44
487.953	840.44
488.171	859.44
488.389	810.44
488.607	787.44
488.825	805.44
489.043	777.44
489.261	791.44
489.479	781.44
489.696	819.44
489.914	809.44
490.132	807.44
490.35	802.44
490.568	830.44
490.786	838.44
491.003	827.44
491.221	837.44
491.439	841.44
491.657	852.44
491.874	842.44
492.092	836.44
492.31	830.44
492.527	877.44
492.745	835.44
492.963	879.44
493.18	858.44
493.398	854.44
493.615	859.44
493.833	852.44
494.05	867.44
494.268	867.44
494.485	870.44
494.703	874.44
494.92	875.44
495.138	886.44
495.355	859.44
495.573	891.44
495.79	877.44
496.008	888.44
496.225	876.44
496.442	897.44
496.66	901.44
496.877	900.44
497.094	905.44
497.312	911.44
497.529	956.44
497.746	944.44
497.963	1028.44
498.181	993.44
498.398	1072.44
498.615	1109.44
498.832	1190.44
499.049	1249.44
499.267	1313.44
499.484	1483.44
499.701	1573.44
499.918	1731.44
500.135	1974.44
500.352	2181.44
500.569	2202.44
500.786	2203.44
501.003	2108.44
501.22	1905.44
501.437	1713.44
