Data from NiCl2@0.125M.TitratingCurve.Agarose3%dH2O.NegLispCup.LampEnergy10.LIBS07252019_HRD10591_18-28-53-575.txt Node
Date: Thu Jul 25 18:28:53 EDT 2019
User: cochatt
Spectrometer: HR+D1059
Trigger mode: 1
Integration Time (sec): 1.000000E-1
Scans to average: 1
Electric dark correction enabled: true
Nonlinearity correction enabled: false
Boxcar width: 0
XAxis mode: Wavelengths
Number of Pixels in Spectrum: 2048
>>>>>Begin Spectral Data<<<<<
223.165	-12.31
223.4	-12.31
223.635	-12.31
223.869	-13.31
224.104	-24.31
224.338	-19.31
224.573	-14.31
224.808	-0.31
225.042	-12.31
225.277	-13.31
225.511	5.69
225.746	8.69
225.98	-1.31
226.215	3.69
226.449	11.69
226.683	31.69
226.918	21.69
227.152	27.69
227.387	49.69
227.621	38.69
227.856	31.69
228.09	36.69
228.324	49.69
228.559	45.69
228.793	63.69
229.027	97.69
229.262	105.69
229.496	126.69
229.73	129.69
229.964	132.69
230.199	141.69
230.433	128.69
230.667	137.69
230.901	144.69
231.136	142.69
231.37	133.69
231.604	148.69
231.838	147.69
232.072	145.69
232.306	147.69
232.541	155.69
232.775	158.69
233.009	149.69
233.243	145.69
233.477	142.69
233.711	156.69
233.945	156.69
234.179	153.69
234.413	135.69
234.647	140.69
234.881	160.69
235.115	159.69
235.349	165.69
235.583	130.69
235.817	152.69
236.051	145.69
236.285	150.69
236.519	170.69
236.753	171.69
236.987	172.69
237.221	162.69
237.455	180.69
237.689	183.69
237.922	188.69
238.156	169.69
238.39	166.69
238.624	157.69
238.858	184.69
239.091	159.69
239.325	185.69
239.559	183.69
239.793	181.69
240.027	186.69
240.26	203.69
240.494	194.69
240.728	169.69
240.961	193.69
241.195	191.69
241.429	194.69
241.662	199.69
241.896	206.69
242.13	200.69
242.363	204.69
242.597	194.69
242.83	189.69
243.064	205.69
243.298	205.69
243.531	211.69
243.765	218.69
243.998	217.69
244.232	216.69
244.465	210.69
244.699	216.69
244.932	228.69
245.166	221.69
245.399	234.69
245.633	243.69
245.866	239.69
246.099	227.69
246.333	224.69
246.566	233.69
246.8	253.69
247.033	234.69
247.266	233.69
247.5	239.69
247.733	239.69
247.966	253.69
248.2	246.69
248.433	239.69
248.666	240.69
248.899	248.69
249.133	257.69
249.366	259.69
249.599	253.69
249.832	264.69
250.066	261.69
250.299	258.69
250.532	267.69
250.765	263.69
250.998	285.69
251.231	269.69
251.465	265.69
251.698	258.69
251.931	261.69
252.164	283.69
252.397	292.69
252.63	290.69
252.863	284.69
253.096	267.69
253.329	281.69
253.562	285.69
253.795	278.69
254.028	286.69
254.261	272.69
254.494	283.69
254.727	303.69
254.96	285.69
255.193	307.69
255.426	313.69
255.659	286.69
255.892	307.69
256.124	303.69
256.357	291.69
256.59	300.69
256.823	296.69
257.056	321.69
257.289	307.69
257.521	317.69
257.754	310.69
257.987	328.69
258.22	320.69
258.452	327.69
258.685	320.69
258.918	324.69
259.151	306.69
259.383	319.69
259.616	318.69
259.849	304.69
260.081	325.69
260.314	337.69
260.547	320.69
260.779	314.69
261.012	338.69
261.244	333.69
261.477	328.69
261.71	326.69
261.942	333.69
262.175	331.69
262.407	346.69
262.64	330.69
262.872	336.69
263.105	351.69
263.337	359.69
263.57	340.69
263.802	332.69
264.035	360.69
264.267	360.69
264.499	343.69
264.732	367.69
264.964	355.69
265.197	371.69
265.429	359.69
265.661	373.69
265.894	381.69
266.126	374.69
266.358	383.69
266.591	377.69
266.823	383.69
267.055	383.69
267.287	388.69
267.52	363.69
267.752	373.69
267.984	378.69
268.216	381.69
268.448	370.69
268.681	388.69
268.913	379.69
269.145	389.69
269.377	379.69
269.609	392.69
269.841	394.69
270.073	393.69
270.306	378.69
270.538	368.69
270.77	397.69
271.002	394.69
271.234	398.69
271.466	384.69
271.698	374.69
271.93	412.69
272.162	403.69
272.394	375.69
272.626	392.69
272.858	376.69
273.09	405.69
273.322	404.69
273.553	402.69
273.785	408.69
274.017	406.69
274.249	399.69
274.481	433.69
274.713	429.69
274.945	418.69
275.176	438.69
275.408	425.69
275.64	419.69
275.872	437.69
276.104	413.69
276.335	413.69
276.567	440.69
276.799	432.69
277.031	432.69
277.262	422.69
277.494	452.69
277.726	439.69
277.957	441.69
278.189	432.69
278.421	416.69
278.652	439.69
278.884	439.69
279.115	465.69
279.347	453.69
279.579	444.69
279.81	439.69
280.042	457.69
280.273	468.69
280.505	439.69
280.736	467.69
280.968	474.69
281.199	489.69
281.431	479.69
281.662	473.69
281.894	462.69
282.125	467.69
282.356	455.69
282.588	481.69
282.819	471.69
283.051	485.69
283.282	493.69
283.513	498.69
283.745	493.69
283.976	517.69
284.207	499.69
284.439	502.69
284.67	480.69
284.901	501.69
285.132	499.69
285.364	499.69
285.595	501.69
285.826	499.69
286.057	511.69
286.288	495.69
286.52	515.69
286.751	520.69
286.982	517.69
287.213	501.69
287.444	529.69
287.675	531.69
287.906	522.69
288.138	502.69
288.369	538.69
288.6	549.69
288.831	533.69
289.062	523.69
289.293	528.69
289.524	565.69
289.755	536.69
289.986	533.69
290.217	551.69
290.448	537.69
290.679	539.69
290.91	562.69
291.141	554.69
291.371	550.69
291.602	552.69
291.833	525.69
292.064	545.69
292.295	561.69
292.526	551.69
292.757	526.69
292.987	555.69
293.218	545.69
293.449	557.69
293.68	540.69
293.91	559.69
294.141	557.69
294.372	553.69
294.603	558.69
294.833	543.69
295.064	549.69
295.295	555.69
295.525	556.69
295.756	571.69
295.987	561.69
296.217	579.69
296.448	573.69
296.679	559.69
296.909	560.69
297.14	572.69
297.37	575.69
297.601	575.69
297.831	567.69
298.062	586.69
298.292	605.69
298.523	628.69
298.753	608.69
298.984	604.69
299.214	585.69
299.445	606.69
299.675	593.69
299.905	607.69
300.136	613.69
300.366	602.69
300.597	608.69
300.827	613.69
301.057	628.69
301.288	623.69
301.518	635.69
301.748	616.69
301.979	619.69
302.209	625.69
302.439	609.69
302.669	623.69
302.9	606.69
303.13	623.69
303.36	612.69
303.59	609.69
303.82	618.69
304.051	623.69
304.281	598.69
304.511	601.69
304.741	600.69
304.971	620.69
305.201	601.69
305.431	618.69
305.661	589.69
305.891	571.69
306.121	602.69
306.352	626.69
306.582	620.69
306.812	593.69
307.042	612.69
307.272	586.69
307.502	583.69
307.731	579.69
307.961	573.69
308.191	600.69
308.421	585.69
308.651	586.69
308.881	593.69
309.111	621.69
309.341	589.69
309.571	587.69
309.8	619.69
310.03	596.69
310.26	580.69
310.49	583.69
310.72	594.69
310.949	575.69
311.179	627.69
311.409	612.69
311.639	600.69
311.868	618.69
312.098	617.69
312.328	601.69
312.557	632.69
312.787	618.69
313.017	607.69
313.246	633.69
313.476	661.69
313.706	641.69
313.935	645.69
314.165	637.69
314.394	625.69
314.624	629.69
314.853	631.69
315.083	643.69
315.312	633.69
315.542	628.69
315.771	627.69
316.001	632.69
316.23	633.69
316.46	633.69
316.689	611.69
316.919	609.69
317.148	616.69
317.377	608.69
317.607	613.69
317.836	636.69
318.065	615.69
318.295	629.69
318.524	633.69
318.753	595.69
318.983	616.69
319.212	605.69
319.441	603.69
319.67	633.69
319.9	631.69
320.129	616.69
320.358	615.69
320.587	606.69
320.816	618.69
321.046	607.69
321.275	644.69
321.504	616.69
321.733	620.69
321.962	646.69
322.191	618.69
322.42	628.69
322.649	643.69
322.878	612.69
323.108	627.69
323.337	627.69
323.566	638.69
323.795	646.69
324.024	653.69
324.253	638.69
324.482	639.69
324.71	647.69
324.939	639.69
325.168	635.69
325.397	653.69
325.626	650.69
325.855	653.69
326.084	671.69
326.313	699.69
326.542	681.69
326.77	684.69
326.999	695.69
327.228	674.69
327.457	673.69
327.686	664.69
327.914	701.69
328.143	690.69
328.372	678.69
328.6	689.69
328.829	689.69
329.058	678.69
329.287	679.69
329.515	673.69
329.744	672.69
329.972	674.69
330.201	677.69
330.43	671.69
330.658	692.69
330.887	670.69
331.115	722.69
331.344	719.69
331.572	696.69
331.801	738.69
332.03	735.69
332.258	758.69
332.486	776.69
332.715	818.69
332.943	839.69
333.172	873.69
333.4	906.69
333.629	948.69
333.857	927.69
334.085	945.69
334.314	928.69
334.542	891.69
334.771	895.69
334.999	862.69
335.227	823.69
335.455	832.69
335.684	868.69
335.912	842.69
336.14	799.69
336.369	828.69
336.597	791.69
336.825	823.69
337.053	840.69
337.281	831.69
337.51	797.69
337.738	789.69
337.966	764.69
338.194	730.69
338.422	748.69
338.65	741.69
338.878	712.69
339.106	738.69
339.334	721.69
339.562	720.69
339.79	693.69
340.018	703.69
340.246	703.69
340.474	717.69
340.702	743.69
340.93	701.69
341.158	725.69
341.386	711.69
341.614	716.69
341.842	711.69
342.07	706.69
342.298	715.69
342.526	718.69
342.754	717.69
342.981	702.69
343.209	717.69
343.437	735.69
343.665	801.69
343.893	865.69
344.12	895.69
344.348	848.69
344.576	798.69
344.804	769.69
345.031	761.69
345.259	755.69
345.487	729.69
345.714	727.69
345.942	695.69
346.17	690.69
346.397	714.69
346.625	681.69
346.853	688.69
347.08	690.69
347.308	695.69
347.535	699.69
347.763	724.69
347.99	705.69
348.218	742.69
348.445	720.69
348.673	694.69
348.9	681.69
349.128	699.69
349.355	694.69
349.583	688.69
349.81	678.69
350.037	684.69
350.265	678.69
350.492	669.69
350.72	658.69
350.947	678.69
351.174	695.69
351.402	645.69
351.629	657.69
351.856	668.69
352.083	645.69
352.311	651.69
352.538	656.69
352.765	653.69
352.992	667.69
353.22	657.69
353.447	658.69
353.674	654.69
353.901	641.69
354.128	649.69
354.355	657.69
354.583	657.69
354.81	658.69
355.037	659.69
355.264	665.69
355.491	654.69
355.718	656.69
355.945	655.69
356.172	671.69
356.399	656.69
356.626	675.69
356.853	679.69
357.08	646.69
357.307	661.69
357.534	657.69
357.761	660.69
357.988	668.69
358.215	665.69
358.441	671.69
358.668	646.69
358.895	668.69
359.122	639.69
359.349	644.69
359.576	630.69
359.802	659.69
360.029	658.69
360.256	679.69
360.483	651.69
360.709	666.69
360.936	648.69
361.163	665.69
361.39	665.69
361.616	674.69
361.843	674.69
362.07	659.69
362.296	653.69
362.523	665.69
362.749	650.69
362.976	633.69
363.203	643.69
363.429	637.69
363.656	653.69
363.882	670.69
364.109	659.69
364.335	658.69
364.562	666.69
364.788	676.69
365.015	659.69
365.241	637.69
365.468	649.69
365.694	676.69
365.92	652.69
366.147	663.69
366.373	641.69
366.599	656.69
366.826	639.69
367.052	644.69
367.278	674.69
367.505	673.69
367.731	663.69
367.957	669.69
368.184	686.69
368.41	699.69
368.636	689.69
368.862	694.69
369.089	672.69
369.315	679.69
369.541	674.69
369.767	689.69
369.993	671.69
370.219	663.69
370.445	677.69
370.672	691.69
370.898	699.69
371.124	723.69
371.35	727.69
371.576	725.69
371.802	746.69
372.028	708.69
372.254	730.69
372.48	729.69
372.706	751.69
372.932	727.69
373.158	740.69
373.384	729.69
373.61	725.69
373.835	700.69
374.061	694.69
374.287	739.69
374.513	745.69
374.739	745.69
374.965	780.69
375.191	797.69
375.416	796.69
375.642	771.69
375.868	776.69
376.094	769.69
376.319	735.69
376.545	724.69
376.771	709.69
376.997	709.69
377.222	695.69
377.448	717.69
377.674	730.69
377.899	723.69
378.125	702.69
378.35	714.69
378.576	700.69
378.802	713.69
379.027	716.69
379.253	701.69
379.478	700.69
379.704	720.69
379.929	712.69
380.155	705.69
380.38	711.69
380.606	723.69
380.831	715.69
381.057	733.69
381.282	697.69
381.507	736.69
381.733	693.69
381.958	714.69
382.184	763.69
382.409	748.69
382.634	754.69
382.86	755.69
383.085	765.69
383.31	758.69
383.535	793.69
383.761	799.69
383.986	796.69
384.211	829.69
384.436	860.69
384.662	843.69
384.887	867.69
385.112	867.69
385.337	858.69
385.562	894.69
385.787	844.69
386.013	895.69
386.238	867.69
386.463	888.69
386.688	886.69
386.913	849.69
387.138	832.69
387.363	876.69
387.588	877.69
387.813	833.69
388.038	841.69
388.263	864.69
388.488	848.69
388.713	858.69
388.938	859.69
389.163	847.69
389.387	853.69
389.612	829.69
389.837	843.69
390.062	839.69
390.287	852.69
390.512	837.69
390.736	844.69
390.961	863.69
391.186	872.69
391.411	892.69
391.636	954.69
391.86	947.69
392.085	955.69
392.31	991.69
392.534	945.69
392.759	927.69
392.984	917.69
393.208	927.69
393.433	897.69
393.658	899.69
393.882	895.69
394.107	924.69
394.331	911.69
394.556	897.69
394.78	914.69
395.005	950.69
395.229	930.69
395.454	935.69
395.678	952.69
395.903	968.69
396.127	964.69
396.352	927.69
396.576	893.69
396.801	901.69
397.025	889.69
397.249	909.69
397.474	956.69
397.698	941.69
397.922	939.69
398.147	939.69
398.371	967.69
398.595	972.69
398.82	1037.69
399.044	1120.69
399.268	1243.69
399.492	1440.69
399.717	1643.69
399.941	1673.69
400.165	1487.69
400.389	1331.69
400.613	1218.69
400.837	1147.69
401.062	1130.69
401.286	1093.69
401.51	1077.69
401.734	1044.69
401.958	1108.69
402.182	1113.69
402.406	1097.69
402.63	1125.69
402.854	1142.69
403.078	1161.69
403.302	1191.69
403.526	1222.69
403.75	1245.69
403.974	1237.69
404.198	1251.69
404.422	1268.69
404.645	1234.69
404.869	1266.69
405.093	1240.69
405.317	1189.69
405.541	1199.69
405.765	1210.69
405.988	1181.69
406.212	1224.69
406.436	1204.69
406.66	1219.69
406.883	1227.69
407.107	1304.69
407.331	1355.69
407.555	1407.69
407.778	1428.69
408.002	1339.69
408.226	1355.69
408.449	1294.69
408.673	1246.69
408.896	1211.69
409.12	1247.69
409.344	1252.69
409.567	1229.69
409.791	1272.69
410.014	1216.69
410.238	1240.69
410.461	1237.69
410.685	1208.69
410.908	1169.69
411.132	1165.69
411.355	1104.69
411.578	1088.69
411.802	1104.69
412.025	1109.69
412.249	1135.69
412.472	1140.69
412.695	1100.69
412.919	1041.69
413.142	1048.69
413.365	1072.69
413.589	1069.69
413.812	1049.69
414.035	1052.69
414.258	1079.69
414.482	1077.69
414.705	1070.69
414.928	1099.69
415.151	1095.69
415.374	1105.69
415.597	1066.69
415.821	1073.69
416.044	1055.69
416.267	1058.69
416.49	1055.69
416.713	1066.69
416.936	1077.69
417.159	1035.69
417.382	1048.69
417.605	1066.69
417.828	1065.69
418.051	1081.69
418.274	1090.69
418.497	1063.69
418.72	1091.69
418.943	1083.69
419.166	1179.69
419.389	1265.69
419.611	1185.69
419.834	1172.69
420.057	1121.69
420.28	1097.69
420.503	1081.69
420.726	1079.69
420.948	1079.69
421.171	1045.69
421.394	1052.69
421.617	1069.69
421.839	1064.69
422.062	1073.69
422.285	1102.69
422.507	1143.69
422.73	1097.69
422.953	1093.69
423.175	1157.69
423.398	1132.69
423.621	1157.69
423.843	1153.69
424.066	1136.69
424.288	1150.69
424.511	1123.69
424.733	1114.69
424.956	1107.69
425.178	1107.69
425.401	1070.69
425.623	1112.69
425.846	1071.69
426.068	1067.69
426.291	1036.69
426.513	999.69
426.735	1049.69
426.958	1040.69
427.18	978.69
427.402	1001.69
427.625	965.69
427.847	981.69
428.069	937.69
428.292	955.69
428.514	967.69
428.736	957.69
428.958	961.69
429.181	918.69
429.403	925.69
429.625	919.69
429.847	936.69
430.069	901.69
430.292	917.69
430.514	935.69
430.736	936.69
430.958	920.69
431.18	928.69
431.402	963.69
431.624	941.69
431.846	966.69
432.068	979.69
432.29	1001.69
432.512	923.69
432.734	980.69
432.956	939.69
433.178	987.69
433.4	984.69
433.622	941.69
433.844	980.69
434.066	978.69
434.287	987.69
434.509	992.69
434.731	1048.69
434.953	1079.69
435.175	1096.69
435.397	1111.69
435.618	1034.69
435.84	1021.69
436.062	968.69
436.284	969.69
436.505	951.69
436.727	987.69
436.949	981.69
437.17	984.69
437.392	942.69
437.614	959.69
437.835	938.69
438.057	930.69
438.278	936.69
438.5	923.69
438.721	952.69
438.943	1003.69
439.165	929.69
439.386	964.69
439.608	977.69
439.829	947.69
440.05	972.69
440.272	952.69
440.493	961.69
440.715	996.69
440.936	1014.69
441.158	983.69
441.379	1066.69
441.6	1110.69
441.822	1119.69
442.043	1113.69
442.264	1082.69
442.486	1053.69
442.707	1060.69
442.928	1047.69
443.149	1056.69
443.371	1061.69
443.592	1089.69
443.813	1106.69
444.034	1135.69
444.255	1151.69
444.476	1200.69
444.698	1277.69
444.919	1319.69
445.14	1412.69
445.361	1265.69
445.582	1163.69
445.803	1073.69
446.024	1055.69
446.245	1039.69
446.466	1020.69
446.687	1007.69
446.908	966.69
447.129	955.69
447.35	950.69
447.571	934.69
447.792	911.69
448.013	937.69
448.234	894.69
448.455	888.69
448.675	907.69
448.896	907.69
449.117	857.69
449.338	893.69
449.559	916.69
449.779	874.69
450	921.69
450.221	903.69
450.442	905.69
450.662	919.69
450.883	931.69
451.104	909.69
451.324	914.69
451.545	923.69
451.766	919.69
451.986	945.69
452.207	918.69
452.428	908.69
452.648	903.69
452.869	875.69
453.089	892.69
453.31	894.69
453.53	863.69
453.751	846.69
453.971	865.69
454.192	893.69
454.412	853.69
454.633	845.69
454.853	851.69
455.073	829.69
455.294	871.69
455.514	841.69
455.734	844.69
455.955	836.69
456.175	847.69
456.395	836.69
456.616	819.69
456.836	849.69
457.056	841.69
457.276	832.69
457.497	869.69
457.717	824.69
457.937	833.69
458.157	860.69
458.377	822.69
458.598	899.69
458.818	906.69
459.038	905.69
459.258	931.69
459.478	973.69
459.698	974.69
459.918	1047.69
460.138	1091.69
460.358	1156.69
460.578	1127.69
460.798	1151.69
461.018	1183.69
461.238	1152.69
461.458	1127.69
461.678	1133.69
461.898	1151.69
462.118	1166.69
462.338	1223.69
462.558	1277.69
462.777	1323.69
462.997	1402.69
463.217	1547.69
463.437	1600.69
463.657	1497.69
463.876	1427.69
464.096	1391.69
464.316	1368.69
464.536	1338.69
464.755	1305.69
464.975	1281.69
465.195	1216.69
465.414	1122.69
465.634	1072.69
465.854	1020.69
466.073	993.69
466.293	966.69
466.512	955.69
466.732	935.69
466.951	957.69
467.171	922.69
467.391	963.69
467.61	910.69
467.829	921.69
468.049	933.69
468.268	883.69
468.488	876.69
468.707	864.69
468.927	927.69
469.146	889.69
469.365	887.69
469.585	915.69
469.804	925.69
470.023	947.69
470.243	941.69
470.462	958.69
470.681	973.69
470.901	967.69
471.12	983.69
471.339	940.69
471.558	925.69
471.777	915.69
471.997	915.69
472.216	900.69
472.435	899.69
472.654	890.69
472.873	869.69
473.092	879.69
473.311	888.69
473.53	923.69
473.749	894.69
473.968	894.69
474.187	857.69
474.406	878.69
474.625	862.69
474.844	871.69
475.063	891.69
475.282	912.69
475.501	885.69
475.72	895.69
475.939	891.69
476.158	892.69
476.377	891.69
476.596	892.69
476.814	931.69
477.033	915.69
477.252	944.69
477.471	956.69
477.69	999.69
477.908	989.69
478.127	1045.69
478.346	1038.69
478.564	1030.69
478.783	1059.69
479.002	1099.69
479.22	1109.69
479.439	1083.69
479.658	1089.69
479.876	1101.69
480.095	1120.69
480.313	1155.69
480.532	1155.69
480.751	1144.69
480.969	1151.69
481.188	1099.69
481.406	1057.69
481.624	1029.69
481.843	1031.69
482.061	1002.69
482.28	991.69
482.498	999.69
482.717	976.69
482.935	997.69
483.153	1000.69
483.372	991.69
483.59	1018.69
483.808	999.69
484.027	1002.69
484.245	1015.69
484.463	1016.69
484.681	1002.69
484.9	1028.69
485.118	1052.69
485.336	1035.69
485.554	1053.69
485.772	1058.69
485.99	1064.69
486.209	1108.69
486.427	1093.69
486.645	1055.69
486.863	1073.69
487.081	1043.69
487.299	1064.69
487.517	1053.69
487.735	1025.69
487.953	1068.69
488.171	1048.69
488.389	1052.69
488.607	1025.69
488.825	1001.69
489.043	1029.69
489.261	1024.69
489.479	1010.69
489.696	1032.69
489.914	1042.69
490.132	1058.69
490.35	1045.69
490.568	1014.69
490.786	1033.69
491.003	1028.69
491.221	1046.69
491.439	1035.69
491.657	1061.69
491.874	1051.69
492.092	1037.69
492.31	1059.69
492.527	1085.69
492.745	1052.69
492.963	1062.69
493.18	1043.69
493.398	1077.69
493.615	1048.69
493.833	1099.69
494.05	1083.69
494.268	1119.69
494.485	1089.69
494.703	1108.69
494.92	1125.69
495.138	1096.69
495.355	1136.69
495.573	1108.69
495.79	1107.69
496.008	1126.69
496.225	1129.69
496.442	1148.69
496.66	1143.69
496.877	1149.69
497.094	1205.69
497.312	1211.69
497.529	1225.69
497.746	1247.69
497.963	1259.69
