Data from NiCl2@0.5M.TitratingCurve.Agarose3%dH2O.NegLispCup.LampEnergy10.LIBS07252019_HRD10591_18-19-31-573.txt Node
Date: Thu Jul 25 18:19:31 EDT 2019
User: cochatt
Spectrometer: HR+D1059
Trigger mode: 1
Integration Time (sec): 1.000000E-1
Scans to average: 1
Electric dark correction enabled: true
Nonlinearity correction enabled: false
Boxcar width: 0
XAxis mode: Wavelengths
Number of Pixels in Spectrum: 2048
>>>>>Begin Spectral Data<<<<<
223.165	-11.56
223.4	-11.56
223.635	-11.56
223.869	-19.56
224.104	-4.56
224.338	-12.56
224.573	-11.56
224.808	-8.56
225.042	-6.56
225.277	-6.56
225.511	0.44
225.746	4.44
225.98	5.44
226.215	13.44
226.449	2.44
226.683	0.44
226.918	23.44
227.152	31.44
227.387	46.44
227.621	31.44
227.856	52.44
228.09	44.44
228.324	68.44
228.559	47.44
228.793	66.44
229.027	87.44
229.262	104.44
229.496	108.44
229.73	97.44
229.964	131.44
230.199	128.44
230.433	126.44
230.667	115.44
230.901	133.44
231.136	117.44
231.37	139.44
231.604	116.44
231.838	136.44
232.072	148.44
232.306	134.44
232.541	144.44
232.775	128.44
233.009	138.44
233.243	132.44
233.477	140.44
233.711	126.44
233.945	135.44
234.179	132.44
234.413	143.44
234.647	139.44
234.881	140.44
235.115	141.44
235.349	148.44
235.583	144.44
235.817	135.44
236.051	136.44
236.285	142.44
236.519	145.44
236.753	162.44
236.987	142.44
237.221	138.44
237.455	157.44
237.689	147.44
237.922	148.44
238.156	149.44
238.39	160.44
238.624	153.44
238.858	143.44
239.091	166.44
239.325	151.44
239.559	155.44
239.793	174.44
240.027	158.44
240.26	172.44
240.494	158.44
240.728	150.44
240.961	174.44
241.195	164.44
241.429	178.44
241.662	177.44
241.896	187.44
242.13	169.44
242.363	176.44
242.597	182.44
242.83	188.44
243.064	182.44
243.298	188.44
243.531	177.44
243.765	182.44
243.998	187.44
244.232	188.44
244.465	187.44
244.699	199.44
244.932	190.44
245.166	189.44
245.399	202.44
245.633	201.44
245.866	200.44
246.099	211.44
246.333	194.44
246.566	194.44
246.8	188.44
247.033	209.44
247.266	212.44
247.5	204.44
247.733	215.44
247.966	214.44
248.2	216.44
248.433	214.44
248.666	210.44
248.899	212.44
249.133	219.44
249.366	215.44
249.599	230.44
249.832	242.44
250.066	227.44
250.299	240.44
250.532	219.44
250.765	228.44
250.998	227.44
251.231	216.44
251.465	243.44
251.698	222.44
251.931	228.44
252.164	230.44
252.397	240.44
252.63	234.44
252.863	232.44
253.096	241.44
253.329	242.44
253.562	242.44
253.795	230.44
254.028	260.44
254.261	232.44
254.494	235.44
254.727	253.44
254.96	234.44
255.193	246.44
255.426	261.44
255.659	269.44
255.892	275.44
256.124	265.44
256.357	245.44
256.59	261.44
256.823	256.44
257.056	264.44
257.289	257.44
257.521	272.44
257.754	260.44
257.987	257.44
258.22	278.44
258.452	259.44
258.685	285.44
258.918	288.44
259.151	292.44
259.383	293.44
259.616	280.44
259.849	293.44
260.081	304.44
260.314	276.44
260.547	260.44
260.779	286.44
261.012	268.44
261.244	301.44
261.477	308.44
261.71	281.44
261.942	286.44
262.175	288.44
262.407	297.44
262.64	286.44
262.872	298.44
263.105	305.44
263.337	312.44
263.57	319.44
263.802	293.44
264.035	299.44
264.267	324.44
264.499	307.44
264.732	310.44
264.964	310.44
265.197	332.44
265.429	312.44
265.661	302.44
265.894	313.44
266.126	321.44
266.358	339.44
266.591	352.44
266.823	323.44
267.055	317.44
267.287	320.44
267.52	334.44
267.752	329.44
267.984	326.44
268.216	344.44
268.448	346.44
268.681	344.44
268.913	320.44
269.145	324.44
269.377	337.44
269.609	312.44
269.841	346.44
270.073	338.44
270.306	337.44
270.538	339.44
270.77	352.44
271.002	359.44
271.234	338.44
271.466	345.44
271.698	339.44
271.93	344.44
272.162	356.44
272.394	357.44
272.626	346.44
272.858	364.44
273.09	352.44
273.322	358.44
273.553	352.44
273.785	369.44
274.017	356.44
274.249	376.44
274.481	358.44
274.713	362.44
274.945	369.44
275.176	360.44
275.408	372.44
275.64	372.44
275.872	386.44
276.104	394.44
276.335	372.44
276.567	358.44
276.799	376.44
277.031	392.44
277.262	372.44
277.494	401.44
277.726	390.44
277.957	385.44
278.189	378.44
278.421	384.44
278.652	408.44
278.884	390.44
279.115	392.44
279.347	386.44
279.579	371.44
279.81	403.44
280.042	384.44
280.273	397.44
280.505	402.44
280.736	415.44
280.968	408.44
281.199	391.44
281.431	403.44
281.662	421.44
281.894	416.44
282.125	405.44
282.356	420.44
282.588	428.44
282.819	425.44
283.051	441.44
283.282	410.44
283.513	436.44
283.745	440.44
283.976	427.44
284.207	424.44
284.439	428.44
284.67	434.44
284.901	436.44
285.132	448.44
285.364	408.44
285.595	431.44
285.826	441.44
286.057	442.44
286.288	449.44
286.52	450.44
286.751	443.44
286.982	447.44
287.213	434.44
287.444	447.44
287.675	453.44
287.906	485.44
288.138	451.44
288.369	454.44
288.6	456.44
288.831	445.44
289.062	459.44
289.293	458.44
289.524	476.44
289.755	485.44
289.986	468.44
290.217	473.44
290.448	459.44
290.679	454.44
290.91	486.44
291.141	484.44
291.371	466.44
291.602	479.44
291.833	458.44
292.064	472.44
292.295	477.44
292.526	476.44
292.757	472.44
292.987	472.44
293.218	485.44
293.449	475.44
293.68	492.44
293.91	447.44
294.141	474.44
294.372	473.44
294.603	469.44
294.833	514.44
295.064	481.44
295.295	491.44
295.525	476.44
295.756	499.44
295.987	485.44
296.217	513.44
296.448	498.44
296.679	494.44
296.909	487.44
297.14	487.44
297.37	506.44
297.601	512.44
297.831	520.44
298.062	512.44
298.292	513.44
298.523	548.44
298.753	532.44
298.984	501.44
299.214	539.44
299.445	526.44
299.675	504.44
299.905	517.44
300.136	522.44
300.366	527.44
300.597	556.44
300.827	529.44
301.057	542.44
301.288	556.44
301.518	544.44
301.748	551.44
301.979	547.44
302.209	550.44
302.439	542.44
302.669	547.44
302.9	535.44
303.13	527.44
303.36	548.44
303.59	549.44
303.82	545.44
304.051	546.44
304.281	554.44
304.511	546.44
304.741	546.44
304.971	538.44
305.201	565.44
305.431	555.44
305.661	529.44
305.891	538.44
306.121	569.44
306.352	549.44
306.582	536.44
306.812	530.44
307.042	547.44
307.272	540.44
307.502	540.44
307.731	533.44
307.961	547.44
308.191	546.44
308.421	521.44
308.651	532.44
308.881	542.44
309.111	558.44
309.341	560.44
309.571	538.44
309.8	543.44
310.03	539.44
310.26	567.44
310.49	573.44
310.72	550.44
310.949	518.44
311.179	557.44
311.409	548.44
311.639	551.44
311.868	543.44
312.098	557.44
312.328	564.44
312.557	558.44
312.787	584.44
313.017	593.44
313.246	598.44
313.476	605.44
313.706	590.44
313.935	587.44
314.165	579.44
314.394	582.44
314.624	590.44
314.853	596.44
315.083	584.44
315.312	598.44
315.542	574.44
315.771	586.44
316.001	579.44
316.23	573.44
316.46	573.44
316.689	595.44
316.919	584.44
317.148	584.44
317.377	573.44
317.607	564.44
317.836	552.44
318.065	576.44
318.295	577.44
318.524	587.44
318.753	591.44
318.983	584.44
319.212	556.44
319.441	606.44
319.67	580.44
319.9	562.44
320.129	566.44
320.358	578.44
320.587	570.44
320.816	576.44
321.046	582.44
321.275	574.44
321.504	600.44
321.733	586.44
321.962	593.44
322.191	595.44
322.42	603.44
322.649	596.44
322.878	593.44
323.108	588.44
323.337	609.44
323.566	589.44
323.795	583.44
324.024	601.44
324.253	586.44
324.482	609.44
324.71	599.44
324.939	598.44
325.168	612.44
325.397	635.44
325.626	634.44
325.855	636.44
326.084	648.44
326.313	640.44
326.542	634.44
326.77	634.44
326.999	620.44
327.228	628.44
327.457	640.44
327.686	637.44
327.914	635.44
328.143	652.44
328.372	641.44
328.6	633.44
328.829	640.44
329.058	626.44
329.287	642.44
329.515	630.44
329.744	664.44
329.972	642.44
330.201	616.44
330.43	656.44
330.658	652.44
330.887	668.44
331.115	655.44
331.344	651.44
331.572	678.44
331.801	695.44
332.03	708.44
332.258	709.44
332.486	721.44
332.715	737.44
332.943	732.44
333.172	790.44
333.4	801.44
333.629	826.44
333.857	810.44
334.085	797.44
334.314	797.44
334.542	815.44
334.771	779.44
334.999	763.44
335.227	774.44
335.455	772.44
335.684	773.44
335.912	760.44
336.14	776.44
336.369	760.44
336.597	777.44
336.825	761.44
337.053	746.44
337.281	760.44
337.51	736.44
337.738	722.44
337.966	698.44
338.194	711.44
338.422	693.44
338.65	701.44
338.878	708.44
339.106	704.44
339.334	700.44
339.562	708.44
339.79	693.44
340.018	658.44
340.246	642.44
340.474	651.44
340.702	678.44
340.93	650.44
341.158	669.44
341.386	670.44
341.614	705.44
341.842	709.44
342.07	674.44
342.298	658.44
342.526	649.44
342.754	679.44
342.981	662.44
343.209	696.44
343.437	702.44
343.665	732.44
343.893	775.44
344.12	809.44
344.348	762.44
344.576	731.44
344.804	700.44
345.031	697.44
345.259	680.44
345.487	664.44
345.714	667.44
345.942	665.44
346.17	694.44
346.397	674.44
346.625	672.44
346.853	639.44
347.08	665.44
347.308	666.44
347.535	649.44
347.763	653.44
347.99	637.44
348.218	653.44
348.445	649.44
348.673	647.44
348.9	613.44
349.128	638.44
349.355	655.44
349.583	640.44
349.81	621.44
350.037	617.44
350.265	631.44
350.492	638.44
350.72	613.44
350.947	626.44
351.174	623.44
351.402	627.44
351.629	647.44
351.856	614.44
352.083	630.44
352.311	645.44
352.538	626.44
352.765	647.44
352.992	604.44
353.22	610.44
353.447	621.44
353.674	616.44
353.901	621.44
354.128	623.44
354.355	616.44
354.583	609.44
354.81	628.44
355.037	628.44
355.264	597.44
355.491	600.44
355.718	612.44
355.945	597.44
356.172	625.44
356.399	608.44
356.626	605.44
356.853	639.44
357.08	634.44
357.307	593.44
357.534	599.44
357.761	603.44
357.988	621.44
358.215	614.44
358.441	613.44
358.668	619.44
358.895	616.44
359.122	613.44
359.349	607.44
359.576	629.44
359.802	599.44
360.029	609.44
360.256	637.44
360.483	584.44
360.709	605.44
360.936	627.44
361.163	605.44
361.39	628.44
361.616	626.44
361.843	626.44
362.07	648.44
362.296	621.44
362.523	609.44
362.749	612.44
362.976	619.44
363.203	577.44
363.429	619.44
363.656	633.44
363.882	605.44
364.109	611.44
364.335	603.44
364.562	586.44
364.788	593.44
365.015	612.44
365.241	575.44
365.468	623.44
365.694	585.44
365.92	615.44
366.147	597.44
366.373	613.44
366.599	588.44
366.826	599.44
367.052	604.44
367.278	602.44
367.505	603.44
367.731	626.44
367.957	604.44
368.184	589.44
368.41	621.44
368.636	582.44
368.862	599.44
369.089	602.44
369.315	590.44
369.541	638.44
369.767	620.44
369.993	613.44
370.219	610.44
370.445	608.44
370.672	632.44
370.898	632.44
371.124	642.44
371.35	652.44
371.576	644.44
371.802	675.44
372.028	643.44
372.254	642.44
372.48	643.44
372.706	667.44
372.932	645.44
373.158	653.44
373.384	658.44
373.61	648.44
373.835	634.44
374.061	652.44
374.287	651.44
374.513	663.44
374.739	676.44
374.965	692.44
375.191	709.44
375.416	726.44
375.642	660.44
375.868	676.44
376.094	662.44
376.319	632.44
376.545	654.44
376.771	648.44
376.997	630.44
377.222	631.44
377.448	642.44
377.674	640.44
377.899	649.44
378.125	614.44
378.35	613.44
378.576	625.44
378.802	601.44
379.027	621.44
379.253	650.44
379.478	632.44
379.704	603.44
379.929	637.44
380.155	643.44
380.38	618.44
380.606	611.44
380.831	627.44
381.057	614.44
381.282	635.44
381.507	628.44
381.733	625.44
381.958	630.44
382.184	649.44
382.409	634.44
382.634	644.44
382.86	637.44
383.085	659.44
383.31	680.44
383.535	672.44
383.761	670.44
383.986	688.44
384.211	699.44
384.436	697.44
384.662	713.44
384.887	736.44
385.112	703.44
385.337	737.44
385.562	745.44
385.787	745.44
386.013	776.44
386.238	744.44
386.463	743.44
386.688	755.44
386.913	711.44
387.138	725.44
387.363	747.44
387.588	707.44
387.813	713.44
388.038	721.44
388.263	723.44
388.488	718.44
388.713	729.44
388.938	726.44
389.163	715.44
389.387	729.44
389.612	719.44
389.837	717.44
390.062	710.44
390.287	717.44
390.512	726.44
390.736	708.44
390.961	721.44
391.186	730.44
391.411	760.44
391.636	794.44
391.86	804.44
392.085	831.44
392.31	808.44
392.534	794.44
392.759	790.44
392.984	780.44
393.208	800.44
393.433	770.44
393.658	777.44
393.882	754.44
394.107	809.44
394.331	796.44
394.556	794.44
394.78	780.44
395.005	799.44
395.229	776.44
395.454	816.44
395.678	811.44
395.903	806.44
396.127	796.44
396.352	787.44
396.576	746.44
396.801	775.44
397.025	762.44
397.249	776.44
397.474	822.44
397.698	817.44
397.922	818.44
398.147	830.44
398.371	839.44
398.595	878.44
398.82	892.44
399.044	956.44
399.268	1056.44
399.492	1180.44
399.717	1281.44
399.941	1284.44
400.165	1153.44
400.389	1064.44
400.613	1024.44
400.837	956.44
401.062	914.44
401.286	925.44
401.51	903.44
401.734	908.44
401.958	903.44
402.182	918.44
402.406	926.44
402.63	949.44
402.854	935.44
403.078	956.44
403.302	982.44
403.526	995.44
403.75	1004.44
403.974	1020.44
404.198	1044.44
404.422	1040.44
404.645	1010.44
404.869	1012.44
405.093	1011.44
405.317	1025.44
405.541	1018.44
405.765	988.44
405.988	981.44
406.212	965.44
406.436	996.44
406.66	1019.44
406.883	1027.44
407.107	1084.44
407.331	1130.44
407.555	1156.44
407.778	1167.44
408.002	1137.44
408.226	1102.44
408.449	1070.44
408.673	1051.44
408.896	1010.44
409.12	1046.44
409.344	1038.44
409.567	1011.44
409.791	1036.44
410.014	1018.44
410.238	1027.44
410.461	1002.44
410.685	996.44
410.908	1004.44
411.132	977.44
411.355	935.44
411.578	948.44
411.802	963.44
412.025	966.44
412.249	977.44
412.472	972.44
412.695	935.44
412.919	945.44
413.142	928.44
413.365	909.44
413.589	928.44
413.812	952.44
414.035	905.44
414.258	942.44
414.482	929.44
414.705	932.44
414.928	942.44
415.151	925.44
415.374	938.44
415.597	933.44
415.821	915.44
416.044	911.44
416.267	906.44
416.49	900.44
416.713	893.44
416.936	925.44
417.159	911.44
417.382	901.44
417.605	895.44
417.828	909.44
418.051	937.44
418.274	905.44
418.497	908.44
418.72	903.44
418.943	944.44
419.166	990.44
419.389	1069.44
419.611	1018.44
419.834	1003.44
420.057	954.44
420.28	954.44
420.503	919.44
420.726	899.44
420.948	900.44
421.171	904.44
421.394	933.44
421.617	882.44
421.839	900.44
422.062	924.44
422.285	926.44
422.507	941.44
422.73	944.44
422.953	940.44
423.175	959.44
423.398	957.44
423.621	952.44
423.843	971.44
424.066	967.44
424.288	969.44
424.511	947.44
424.733	949.44
424.956	944.44
425.178	926.44
425.401	922.44
425.623	947.44
425.846	893.44
426.068	910.44
426.291	915.44
426.513	908.44
426.735	901.44
426.958	914.44
427.18	897.44
427.402	890.44
427.625	861.44
427.847	844.44
428.069	853.44
428.292	848.44
428.514	859.44
428.736	861.44
428.958	845.44
429.181	844.44
429.403	834.44
429.625	840.44
429.847	841.44
430.069	818.44
430.292	825.44
430.514	836.44
430.736	845.44
430.958	838.44
431.18	834.44
431.402	830.44
431.624	847.44
431.846	884.44
432.068	866.44
432.29	859.44
432.512	837.44
432.734	868.44
432.956	841.44
433.178	860.44
433.4	871.44
433.622	866.44
433.844	893.44
434.066	894.44
434.287	857.44
434.509	906.44
434.731	960.44
434.953	980.44
435.175	981.44
435.397	967.44
435.618	899.44
435.84	872.44
436.062	856.44
436.284	854.44
436.505	882.44
436.727	869.44
436.949	860.44
437.17	844.44
437.392	867.44
437.614	817.44
437.835	818.44
438.057	833.44
438.278	825.44
438.5	816.44
438.721	825.44
438.943	843.44
439.165	825.44
439.386	806.44
439.608	846.44
439.829	860.44
440.05	880.44
440.272	864.44
440.493	865.44
440.715	897.44
440.936	917.44
441.158	886.44
441.379	931.44
441.6	976.44
441.822	941.44
442.043	982.44
442.264	932.44
442.486	935.44
442.707	958.44
442.928	934.44
443.149	940.44
443.371	950.44
443.592	957.44
443.813	982.44
444.034	965.44
444.255	981.44
444.476	991.44
444.698	1071.44
444.919	1117.44
445.14	1221.44
445.361	1087.44
445.582	975.44
445.803	946.44
446.024	941.44
446.245	937.44
446.466	892.44
446.687	888.44
446.908	879.44
447.129	852.44
447.35	820.44
447.571	862.44
447.792	816.44
448.013	824.44
448.234	828.44
448.455	816.44
448.675	803.44
448.896	820.44
449.117	803.44
449.338	810.44
449.559	800.44
449.779	802.44
450	792.44
450.221	811.44
450.442	822.44
450.662	810.44
450.883	813.44
451.104	823.44
451.324	841.44
451.545	810.44
451.766	824.44
451.986	820.44
452.207	805.44
452.428	806.44
452.648	814.44
452.869	795.44
453.089	792.44
453.31	786.44
453.53	785.44
453.751	786.44
453.971	771.44
454.192	774.44
454.412	752.44
454.633	787.44
454.853	760.44
455.073	738.44
455.294	768.44
455.514	770.44
455.734	757.44
455.955	783.44
456.175	778.44
456.395	779.44
456.616	765.44
456.836	770.44
457.056	772.44
457.276	755.44
457.497	774.44
457.717	767.44
457.937	767.44
458.157	773.44
458.377	810.44
458.598	807.44
458.818	803.44
459.038	819.44
459.258	870.44
459.478	851.44
459.698	883.44
459.918	889.44
460.138	963.44
460.358	1004.44
460.578	992.44
460.798	1009.44
461.018	1032.44
461.238	997.44
461.458	985.44
461.678	971.44
461.898	1008.44
462.118	1031.44
462.338	1058.44
462.558	1096.44
462.777	1150.44
462.997	1207.44
463.217	1276.44
463.437	1317.44
463.657	1220.44
463.876	1151.44
464.096	1156.44
464.316	1126.44
464.536	1135.44
464.755	1111.44
464.975	1108.44
465.195	1051.44
465.414	987.44
465.634	921.44
465.854	914.44
466.073	885.44
466.293	909.44
466.512	884.44
466.732	875.44
466.951	826.44
467.171	840.44
467.391	874.44
467.61	846.44
467.829	847.44
468.049	836.44
468.268	814.44
468.488	825.44
468.707	842.44
468.927	827.44
469.146	820.44
469.365	826.44
469.585	838.44
469.804	871.44
470.023	870.44
470.243	876.44
470.462	892.44
470.681	871.44
470.901	883.44
471.12	861.44
471.339	868.44
471.558	848.44
471.777	873.44
471.997	836.44
472.216	833.44
472.435	801.44
472.654	817.44
472.873	810.44
473.092	799.44
473.311	838.44
473.53	833.44
473.749	813.44
473.968	821.44
474.187	804.44
474.406	809.44
474.625	827.44
474.844	838.44
475.063	788.44
475.282	807.44
475.501	820.44
475.72	829.44
475.939	828.44
476.158	849.44
476.377	834.44
476.596	863.44
476.814	848.44
477.033	856.44
477.252	877.44
477.471	892.44
477.69	907.44
477.908	935.44
478.127	951.44
478.346	932.44
478.564	970.44
478.783	978.44
479.002	1008.44
479.22	1027.44
479.439	979.44
479.658	1002.44
479.876	1006.44
480.095	997.44
480.313	1057.44
480.532	1078.44
480.751	1052.44
480.969	1032.44
481.188	990.44
481.406	965.44
481.624	944.44
481.843	939.44
482.061	932.44
482.28	956.44
482.498	947.44
482.717	927.44
482.935	943.44
483.153	946.44
483.372	956.44
483.59	949.44
483.808	945.44
484.027	939.44
484.245	931.44
484.463	962.44
484.681	976.44
484.9	960.44
485.118	983.44
485.336	967.44
485.554	960.44
485.772	982.44
485.99	956.44
486.209	982.44
486.427	986.44
486.645	989.44
486.863	965.44
487.081	986.44
487.299	992.44
487.517	1001.44
487.735	989.44
487.953	988.44
488.171	1010.44
488.389	990.44
488.607	996.44
488.825	952.44
489.043	995.44
489.261	985.44
489.479	936.44
489.696	994.44
489.914	982.44
490.132	998.44
490.35	987.44
490.568	996.44
490.786	1021.44
491.003	1008.44
491.221	1020.44
491.439	993.44
491.657	1008.44
491.874	1009.44
492.092	1046.44
492.31	1037.44
492.527	1002.44
492.745	1042.44
492.963	1023.44
493.18	1048.44
493.398	1028.44
493.615	1042.44
493.833	1048.44
494.05	1045.44
494.268	1066.44
494.485	1028.44
494.703	1035.44
494.92	1046.44
495.138	1033.44
495.355	1067.44
495.573	1073.44
495.79	1046.44
496.008	1042.44
496.225	1075.44
496.442	1084.44
496.66	1086.44
496.877	1100.44
497.094	1140.44
497.312	1126.44
497.529	1145.44
497.746	1169.44
497.963	1221.44
498.181	1223.44
498.398	1300.44
498.615	1330.44
498.832	1430.44
499.049	1502.44
499.267	1638.44
499.484	1737.44
499.701	1899.44
499.918	2079.44
500.135	2308.44
