Data from NiCl2@0.125M.TitratingCurve.Agarose3%dH2O.NegLispCup.LampEnergy10.LIBS07252019_HRD10591_18-29-42-574.txt Node
Date: Thu Jul 25 18:29:42 EDT 2019
User: cochatt
Spectrometer: HR+D1059
Trigger mode: 1
Integration Time (sec): 1.000000E-1
Scans to average: 1
Electric dark correction enabled: true
Nonlinearity correction enabled: false
Boxcar width: 0
XAxis mode: Wavelengths
Number of Pixels in Spectrum: 2048
>>>>>Begin Spectral Data<<<<<
223.165	-22.88
223.4	-22.88
223.635	-22.88
223.869	-21.88
224.104	-18.88
224.338	-20.88
224.573	-6.88
224.808	-4.88
225.042	-14.88
225.277	-0.88
225.511	-0.88
225.746	5.12
225.98	6.12
226.215	11.12
226.449	15.12
226.683	37.12
226.918	14.12
227.152	24.12
227.387	23.12
227.621	32.12
227.856	41.12
228.09	52.12
228.324	53.12
228.559	61.12
228.793	77.12
229.027	111.12
229.262	123.12
229.496	122.12
229.73	108.12
229.964	131.12
230.199	123.12
230.433	138.12
230.667	140.12
230.901	138.12
231.136	140.12
231.37	157.12
231.604	138.12
231.838	154.12
232.072	165.12
232.306	139.12
232.541	141.12
232.775	148.12
233.009	157.12
233.243	156.12
233.477	152.12
233.711	148.12
233.945	163.12
234.179	176.12
234.413	153.12
234.647	168.12
234.881	137.12
235.115	156.12
235.349	153.12
235.583	148.12
235.817	166.12
236.051	159.12
236.285	170.12
236.519	146.12
236.753	166.12
236.987	159.12
237.221	170.12
237.455	175.12
237.689	158.12
237.922	153.12
238.156	165.12
238.39	178.12
238.624	160.12
238.858	188.12
239.091	164.12
239.325	166.12
239.559	174.12
239.793	182.12
240.027	188.12
240.26	190.12
240.494	187.12
240.728	195.12
240.961	191.12
241.195	186.12
241.429	185.12
241.662	202.12
241.896	193.12
242.13	189.12
242.363	202.12
242.597	191.12
242.83	194.12
243.064	205.12
243.298	206.12
243.531	207.12
243.765	225.12
243.998	223.12
244.232	212.12
244.465	219.12
244.699	236.12
244.932	227.12
245.166	221.12
245.399	206.12
245.633	220.12
245.866	225.12
246.099	228.12
246.333	235.12
246.566	229.12
246.8	223.12
247.033	232.12
247.266	233.12
247.5	245.12
247.733	237.12
247.966	258.12
248.2	239.12
248.433	241.12
248.666	244.12
248.899	247.12
249.133	246.12
249.366	258.12
249.599	260.12
249.832	273.12
250.066	247.12
250.299	260.12
250.532	271.12
250.765	265.12
250.998	270.12
251.231	260.12
251.465	278.12
251.698	274.12
251.931	257.12
252.164	268.12
252.397	266.12
252.63	278.12
252.863	294.12
253.096	284.12
253.329	268.12
253.562	260.12
253.795	282.12
254.028	268.12
254.261	290.12
254.494	304.12
254.727	277.12
254.96	290.12
255.193	292.12
255.426	307.12
255.659	290.12
255.892	301.12
256.124	293.12
256.357	307.12
256.59	303.12
256.823	306.12
257.056	300.12
257.289	303.12
257.521	299.12
257.754	292.12
257.987	306.12
258.22	310.12
258.452	311.12
258.685	322.12
258.918	308.12
259.151	312.12
259.383	313.12
259.616	311.12
259.849	313.12
260.081	334.12
260.314	311.12
260.547	308.12
260.779	317.12
261.012	328.12
261.244	326.12
261.477	336.12
261.71	324.12
261.942	332.12
262.175	320.12
262.407	361.12
262.64	319.12
262.872	348.12
263.105	340.12
263.337	354.12
263.57	350.12
263.802	327.12
264.035	338.12
264.267	360.12
264.499	348.12
264.732	374.12
264.964	357.12
265.197	382.12
265.429	350.12
265.661	363.12
265.894	359.12
266.126	341.12
266.358	346.12
266.591	363.12
266.823	362.12
267.055	362.12
267.287	361.12
267.52	361.12
267.752	379.12
267.984	363.12
268.216	369.12
268.448	386.12
268.681	386.12
268.913	372.12
269.145	388.12
269.377	365.12
269.609	385.12
269.841	396.12
270.073	412.12
270.306	388.12
270.538	391.12
270.77	377.12
271.002	402.12
271.234	388.12
271.466	375.12
271.698	391.12
271.93	384.12
272.162	411.12
272.394	408.12
272.626	395.12
272.858	412.12
273.09	412.12
273.322	402.12
273.553	382.12
273.785	386.12
274.017	403.12
274.249	416.12
274.481	392.12
274.713	427.12
274.945	416.12
275.176	424.12
275.408	414.12
275.64	425.12
275.872	432.12
276.104	419.12
276.335	418.12
276.567	415.12
276.799	432.12
277.031	439.12
277.262	422.12
277.494	446.12
277.726	430.12
277.957	444.12
278.189	446.12
278.421	434.12
278.652	442.12
278.884	456.12
279.115	449.12
279.347	445.12
279.579	453.12
279.81	450.12
280.042	436.12
280.273	466.12
280.505	463.12
280.736	448.12
280.968	467.12
281.199	468.12
281.431	441.12
281.662	456.12
281.894	467.12
282.125	463.12
282.356	458.12
282.588	494.12
282.819	464.12
283.051	488.12
283.282	498.12
283.513	490.12
283.745	493.12
283.976	488.12
284.207	472.12
284.439	502.12
284.67	479.12
284.901	490.12
285.132	484.12
285.364	498.12
285.595	520.12
285.826	505.12
286.057	505.12
286.288	511.12
286.52	510.12
286.751	514.12
286.982	492.12
287.213	487.12
287.444	515.12
287.675	512.12
287.906	528.12
288.138	516.12
288.369	536.12
288.6	543.12
288.831	524.12
289.062	527.12
289.293	540.12
289.524	536.12
289.755	516.12
289.986	536.12
290.217	532.12
290.448	534.12
290.679	534.12
290.91	538.12
291.141	527.12
291.371	507.12
291.602	544.12
291.833	520.12
292.064	528.12
292.295	545.12
292.526	534.12
292.757	550.12
292.987	529.12
293.218	540.12
293.449	554.12
293.68	542.12
293.91	550.12
294.141	536.12
294.372	538.12
294.603	537.12
294.833	542.12
295.064	546.12
295.295	557.12
295.525	564.12
295.756	567.12
295.987	544.12
296.217	560.12
296.448	525.12
296.679	560.12
296.909	555.12
297.14	587.12
297.37	580.12
297.601	575.12
297.831	584.12
298.062	597.12
298.292	602.12
298.523	616.12
298.753	615.12
298.984	585.12
299.214	594.12
299.445	600.12
299.675	581.12
299.905	602.12
300.136	600.12
300.366	607.12
300.597	599.12
300.827	598.12
301.057	613.12
301.288	629.12
301.518	608.12
301.748	626.12
301.979	622.12
302.209	628.12
302.439	632.12
302.669	610.12
302.9	604.12
303.13	581.12
303.36	595.12
303.59	589.12
303.82	588.12
304.051	596.12
304.281	597.12
304.511	603.12
304.741	612.12
304.971	615.12
305.201	602.12
305.431	596.12
305.661	610.12
305.891	583.12
306.121	615.12
306.352	592.12
306.582	589.12
306.812	564.12
307.042	577.12
307.272	571.12
307.502	581.12
307.731	574.12
307.961	576.12
308.191	571.12
308.421	581.12
308.651	581.12
308.881	586.12
309.111	616.12
309.341	580.12
309.571	582.12
309.8	606.12
310.03	587.12
310.26	591.12
310.49	589.12
310.72	587.12
310.949	607.12
311.179	612.12
311.409	619.12
311.639	609.12
311.868	627.12
312.098	572.12
312.328	612.12
312.557	615.12
312.787	613.12
313.017	601.12
313.246	622.12
313.476	629.12
313.706	623.12
313.935	663.12
314.165	657.12
314.394	642.12
314.624	638.12
314.853	605.12
315.083	638.12
315.312	638.12
315.542	634.12
315.771	613.12
316.001	622.12
316.23	634.12
316.46	630.12
316.689	616.12
316.919	619.12
317.148	628.12
317.377	604.12
317.607	624.12
317.836	619.12
318.065	617.12
318.295	620.12
318.524	619.12
318.753	611.12
318.983	613.12
319.212	599.12
319.441	610.12
319.67	626.12
319.9	634.12
320.129	612.12
320.358	606.12
320.587	596.12
320.816	612.12
321.046	610.12
321.275	638.12
321.504	626.12
321.733	631.12
321.962	644.12
322.191	644.12
322.42	615.12
322.649	637.12
322.878	637.12
323.108	611.12
323.337	630.12
323.566	628.12
323.795	668.12
324.024	634.12
324.253	635.12
324.482	623.12
324.71	648.12
324.939	659.12
325.168	650.12
325.397	635.12
325.626	646.12
325.855	656.12
326.084	650.12
326.313	690.12
326.542	696.12
326.77	695.12
326.999	662.12
327.228	668.12
327.457	647.12
327.686	648.12
327.914	676.12
328.143	675.12
328.372	697.12
328.6	670.12
328.829	675.12
329.058	667.12
329.287	659.12
329.515	676.12
329.744	692.12
329.972	692.12
330.201	690.12
330.43	699.12
330.658	698.12
330.887	692.12
331.115	700.12
331.344	708.12
331.572	698.12
331.801	726.12
332.03	733.12
332.258	754.12
332.486	752.12
332.715	774.12
332.943	817.12
333.172	838.12
333.4	874.12
333.629	920.12
333.857	924.12
334.085	909.12
334.314	896.12
334.542	894.12
334.771	863.12
334.999	849.12
335.227	838.12
335.455	854.12
335.684	857.12
335.912	853.12
336.14	824.12
336.369	821.12
336.597	823.12
336.825	814.12
337.053	822.12
337.281	791.12
337.51	798.12
337.738	754.12
337.966	768.12
338.194	750.12
338.422	749.12
338.65	720.12
338.878	740.12
339.106	735.12
339.334	718.12
339.562	720.12
339.79	718.12
340.018	682.12
340.246	692.12
340.474	707.12
340.702	695.12
340.93	720.12
341.158	709.12
341.386	702.12
341.614	714.12
341.842	719.12
342.07	680.12
342.298	683.12
342.526	696.12
342.754	698.12
342.981	696.12
343.209	718.12
343.437	747.12
343.665	783.12
343.893	837.12
344.12	865.12
344.348	848.12
344.576	810.12
344.804	770.12
345.031	740.12
345.259	722.12
345.487	750.12
345.714	706.12
345.942	712.12
346.17	720.12
346.397	723.12
346.625	705.12
346.853	693.12
347.08	690.12
347.308	672.12
347.535	723.12
347.763	713.12
347.99	714.12
348.218	735.12
348.445	704.12
348.673	694.12
348.9	711.12
349.128	708.12
349.355	674.12
349.583	694.12
349.81	703.12
350.037	679.12
350.265	663.12
350.492	675.12
350.72	671.12
350.947	644.12
351.174	672.12
351.402	654.12
351.629	652.12
351.856	661.12
352.083	650.12
352.311	648.12
352.538	655.12
352.765	659.12
352.992	686.12
353.22	639.12
353.447	666.12
353.674	652.12
353.901	615.12
354.128	646.12
354.355	653.12
354.583	649.12
354.81	665.12
355.037	667.12
355.264	652.12
355.491	670.12
355.718	653.12
355.945	675.12
356.172	656.12
356.399	655.12
356.626	673.12
356.853	666.12
357.08	681.12
357.307	649.12
357.534	657.12
357.761	658.12
357.988	680.12
358.215	668.12
358.441	663.12
358.668	639.12
358.895	662.12
359.122	678.12
359.349	656.12
359.576	662.12
359.802	664.12
360.029	655.12
360.256	645.12
360.483	649.12
360.709	671.12
360.936	648.12
361.163	648.12
361.39	646.12
361.616	643.12
361.843	656.12
362.07	654.12
362.296	649.12
362.523	670.12
362.749	633.12
362.976	645.12
363.203	649.12
363.429	644.12
363.656	650.12
363.882	685.12
364.109	670.12
364.335	677.12
364.562	651.12
364.788	668.12
365.015	666.12
365.241	667.12
365.468	672.12
365.694	662.12
365.92	656.12
366.147	653.12
366.373	665.12
366.599	659.12
366.826	672.12
367.052	667.12
367.278	679.12
367.505	649.12
367.731	671.12
367.957	652.12
368.184	651.12
368.41	656.12
368.636	677.12
368.862	672.12
369.089	667.12
369.315	682.12
369.541	671.12
369.767	686.12
369.993	706.12
370.219	667.12
370.445	692.12
370.672	715.12
370.898	719.12
371.124	729.12
371.35	696.12
371.576	719.12
371.802	726.12
372.028	738.12
372.254	717.12
372.48	732.12
372.706	730.12
372.932	769.12
373.158	724.12
373.384	760.12
373.61	735.12
373.835	713.12
374.061	712.12
374.287	717.12
374.513	767.12
374.739	756.12
374.965	784.12
375.191	830.12
375.416	812.12
375.642	772.12
375.868	750.12
376.094	742.12
376.319	742.12
376.545	706.12
376.771	718.12
376.997	718.12
377.222	722.12
377.448	758.12
377.674	744.12
377.899	731.12
378.125	718.12
378.35	724.12
378.576	713.12
378.802	720.12
379.027	713.12
379.253	709.12
379.478	728.12
379.704	726.12
379.929	709.12
380.155	722.12
380.38	711.12
380.606	727.12
380.831	706.12
381.057	737.12
381.282	727.12
381.507	731.12
381.733	759.12
381.958	737.12
382.184	747.12
382.409	736.12
382.634	740.12
382.86	764.12
383.085	808.12
383.31	790.12
383.535	782.12
383.761	789.12
383.986	794.12
384.211	838.12
384.436	844.12
384.662	865.12
384.887	891.12
385.112	857.12
385.337	882.12
385.562	886.12
385.787	870.12
386.013	893.12
386.238	884.12
386.463	877.12
386.688	856.12
386.913	876.12
387.138	865.12
387.363	861.12
387.588	848.12
387.813	853.12
388.038	847.12
388.263	870.12
388.488	852.12
388.713	886.12
388.938	854.12
389.163	861.12
389.387	855.12
389.612	845.12
389.837	838.12
390.062	847.12
390.287	858.12
390.512	877.12
390.736	861.12
390.961	890.12
391.186	886.12
391.411	927.12
391.636	920.12
391.86	957.12
392.085	977.12
392.31	990.12
392.534	965.12
392.759	932.12
392.984	928.12
393.208	933.12
393.433	891.12
393.658	904.12
393.882	906.12
394.107	903.12
394.331	916.12
394.556	916.12
394.78	930.12
395.005	921.12
395.229	938.12
395.454	932.12
395.678	971.12
395.903	985.12
396.127	952.12
396.352	909.12
396.576	888.12
396.801	889.12
397.025	922.12
397.249	932.12
397.474	925.12
397.698	957.12
397.922	967.12
398.147	966.12
398.371	1027.12
398.595	1041.12
398.82	1081.12
399.044	1113.12
399.268	1260.12
399.492	1398.12
399.717	1607.12
399.941	1673.12
400.165	1494.12
400.389	1294.12
400.613	1205.12
400.837	1110.12
401.062	1123.12
401.286	1068.12
401.51	1067.12
401.734	1092.12
401.958	1118.12
402.182	1099.12
402.406	1114.12
402.63	1150.12
402.854	1183.12
403.078	1163.12
403.302	1224.12
403.526	1251.12
403.75	1254.12
403.974	1260.12
404.198	1266.12
404.422	1300.12
404.645	1239.12
404.869	1262.12
405.093	1210.12
405.317	1200.12
405.541	1198.12
405.765	1227.12
405.988	1168.12
406.212	1209.12
406.436	1203.12
406.66	1208.12
406.883	1237.12
407.107	1340.12
407.331	1389.12
407.555	1422.12
407.778	1408.12
408.002	1375.12
408.226	1352.12
408.449	1332.12
408.673	1290.12
408.896	1262.12
409.12	1221.12
409.344	1252.12
409.567	1252.12
409.791	1282.12
410.014	1242.12
410.238	1227.12
410.461	1226.12
410.685	1255.12
410.908	1191.12
411.132	1158.12
411.355	1128.12
411.578	1141.12
411.802	1126.12
412.025	1119.12
412.249	1169.12
412.472	1142.12
412.695	1118.12
412.919	1120.12
413.142	1090.12
413.365	1083.12
413.589	1112.12
413.812	1091.12
414.035	1090.12
414.258	1085.12
414.482	1097.12
414.705	1147.12
414.928	1098.12
415.151	1097.12
415.374	1095.12
415.597	1086.12
415.821	1091.12
416.044	1067.12
416.267	1045.12
416.49	1034.12
416.713	1063.12
416.936	1086.12
417.159	1048.12
417.382	1032.12
417.605	1060.12
417.828	1078.12
418.051	1071.12
418.274	1072.12
418.497	1089.12
418.72	1114.12
418.943	1102.12
419.166	1182.12
419.389	1275.12
419.611	1218.12
419.834	1149.12
420.057	1142.12
420.28	1102.12
420.503	1066.12
420.726	1071.12
420.948	1093.12
421.171	1057.12
421.394	1060.12
421.617	1096.12
421.839	1098.12
422.062	1088.12
422.285	1081.12
422.507	1090.12
422.73	1117.12
422.953	1102.12
423.175	1139.12
423.398	1149.12
423.621	1141.12
423.843	1147.12
424.066	1143.12
424.288	1115.12
424.511	1149.12
424.733	1124.12
424.956	1116.12
425.178	1093.12
425.401	1109.12
425.623	1086.12
425.846	1038.12
426.068	1050.12
426.291	1059.12
426.513	1023.12
426.735	1017.12
426.958	1017.12
427.18	976.12
427.402	993.12
427.625	998.12
427.847	973.12
428.069	948.12
428.292	974.12
428.514	959.12
428.736	982.12
428.958	1026.12
429.181	976.12
429.403	950.12
429.625	962.12
429.847	923.12
430.069	920.12
430.292	948.12
430.514	955.12
430.736	980.12
430.958	936.12
431.18	963.12
431.402	969.12
431.624	953.12
431.846	991.12
432.068	972.12
432.29	1002.12
432.512	963.12
432.734	966.12
432.956	966.12
433.178	997.12
433.4	972.12
433.622	999.12
433.844	1008.12
434.066	986.12
434.287	1001.12
434.509	1042.12
434.731	1056.12
434.953	1102.12
435.175	1125.12
435.397	1111.12
435.618	1047.12
435.84	1019.12
436.062	1024.12
436.284	991.12
436.505	969.12
436.727	1000.12
436.949	990.12
437.17	989.12
437.392	939.12
437.614	973.12
437.835	950.12
438.057	954.12
438.278	953.12
438.5	919.12
438.721	941.12
438.943	966.12
439.165	952.12
439.386	939.12
439.608	971.12
439.829	991.12
440.05	984.12
440.272	982.12
440.493	966.12
440.715	1020.12
440.936	1040.12
441.158	1016.12
441.379	1074.12
441.6	1122.12
441.822	1110.12
442.043	1139.12
442.264	1133.12
442.486	1086.12
442.707	1069.12
442.928	1078.12
443.149	1069.12
443.371	1080.12
443.592	1115.12
443.813	1107.12
444.034	1117.12
444.255	1139.12
444.476	1234.12
444.698	1272.12
444.919	1314.12
445.14	1414.12
445.361	1282.12
445.582	1130.12
445.803	1108.12
446.024	1051.12
446.245	1042.12
446.466	1010.12
446.687	961.12
446.908	996.12
447.129	958.12
447.35	962.12
447.571	935.12
447.792	942.12
448.013	931.12
448.234	911.12
448.455	921.12
448.675	914.12
448.896	907.12
449.117	918.12
449.338	902.12
449.559	911.12
449.779	903.12
450	931.12
450.221	891.12
450.442	935.12
450.662	928.12
450.883	936.12
451.104	951.12
451.324	923.12
451.545	943.12
451.766	935.12
451.986	936.12
452.207	900.12
452.428	902.12
452.648	924.12
452.869	909.12
453.089	854.12
453.31	910.12
453.53	880.12
453.751	884.12
453.971	862.12
454.192	900.12
454.412	876.12
454.633	864.12
454.853	864.12
455.073	842.12
455.294	865.12
455.514	839.12
455.734	867.12
455.955	844.12
456.175	824.12
456.395	831.12
456.616	853.12
456.836	848.12
457.056	834.12
457.276	859.12
457.497	866.12
457.717	843.12
457.937	861.12
458.157	843.12
458.377	871.12
458.598	891.12
458.818	902.12
459.038	934.12
459.258	976.12
459.478	981.12
459.698	1042.12
459.918	1047.12
460.138	1082.12
460.358	1134.12
460.578	1151.12
460.798	1186.12
461.018	1147.12
461.238	1148.12
461.458	1148.12
461.678	1190.12
461.898	1172.12
462.118	1156.12
462.338	1238.12
462.558	1268.12
462.777	1338.12
462.997	1419.12
463.217	1536.12
463.437	1627.12
463.657	1492.12
463.876	1422.12
464.096	1388.12
464.316	1373.12
464.536	1416.12
464.755	1331.12
464.975	1273.12
465.195	1202.12
465.414	1141.12
465.634	1065.12
465.854	1026.12
466.073	1012.12
466.293	1014.12
466.512	966.12
466.732	974.12
466.951	974.12
467.171	975.12
467.391	978.12
467.61	954.12
467.829	975.12
468.049	943.12
468.268	921.12
468.488	928.12
468.707	908.12
468.927	925.12
469.146	898.12
469.365	924.12
469.585	908.12
469.804	949.12
470.023	939.12
470.243	967.12
470.462	977.12
470.681	1017.12
470.901	986.12
471.12	988.12
471.339	985.12
471.558	930.12
471.777	938.12
471.997	932.12
472.216	917.12
472.435	874.12
472.654	909.12
472.873	872.12
473.092	919.12
473.311	872.12
473.53	873.12
473.749	905.12
473.968	908.12
474.187	901.12
474.406	844.12
474.625	885.12
474.844	876.12
475.063	906.12
475.282	902.12
475.501	895.12
475.72	917.12
475.939	936.12
476.158	930.12
476.377	923.12
476.596	943.12
476.814	938.12
477.033	940.12
477.252	955.12
477.471	960.12
477.69	974.12
477.908	1018.12
478.127	1078.12
478.346	1059.12
478.564	1074.12
478.783	1092.12
479.002	1122.12
479.22	1138.12
479.439	1119.12
479.658	1090.12
479.876	1129.12
480.095	1142.12
480.313	1170.12
480.532	1214.12
480.751	1194.12
480.969	1148.12
481.188	1118.12
481.406	1084.12
481.624	1065.12
481.843	1046.12
482.061	1033.12
482.28	1067.12
482.498	1024.12
482.717	1062.12
482.935	1046.12
483.153	1034.12
483.372	1030.12
483.59	1032.12
483.808	1072.12
484.027	1032.12
484.245	1031.12
484.463	1032.12
484.681	1086.12
484.9	1062.12
485.118	1050.12
485.336	1089.12
485.554	1097.12
485.772	1110.12
485.99	1111.12
486.209	1115.12
486.427	1131.12
486.645	1120.12
486.863	1076.12
487.081	1085.12
487.299	1104.12
487.517	1109.12
487.735	1096.12
487.953	1067.12
488.171	1093.12
488.389	1038.12
488.607	1032.12
488.825	1084.12
489.043	1066.12
489.261	1076.12
489.479	1099.12
489.696	1054.12
489.914	1109.12
490.132	1075.12
490.35	1082.12
490.568	1074.12
490.786	1095.12
491.003	1088.12
491.221	1081.12
491.439	1103.12
491.657	1089.12
491.874	1088.12
492.092	1104.12
492.31	1091.12
492.527	1087.12
492.745	1104.12
492.963	1091.12
493.18	1127.12
493.398	1112.12
493.615	1122.12
493.833	1150.12
494.05	1114.12
494.268	1135.12
494.485	1123.12
494.703	1147.12
494.92	1131.12
495.138	1141.12
495.355	1123.12
495.573	1130.12
495.79	1167.12
496.008	1143.12
496.225	1138.12
496.442	1117.12
496.66	1159.12
496.877	1154.12
497.094	1183.12
497.312	1237.12
497.529	1232.12
