Data from NiCl2@0.0625M.TitratingCurve.Agarose3%dH2O.NegLispCup.LampEnergy10.LIBS07252019_HRD10591_18-33-47-576.txt Node
Date: Thu Jul 25 18:33:47 EDT 2019
User: cochatt
Spectrometer: HR+D1059
Trigger mode: 1
Integration Time (sec): 1.000000E-1
Scans to average: 1
Electric dark correction enabled: true
Nonlinearity correction enabled: false
Boxcar width: 0
XAxis mode: Wavelengths
Number of Pixels in Spectrum: 2048
>>>>>Begin Spectral Data<<<<<
223.165	-12.12
223.4	-12.12
223.635	-12.12
223.869	-6.12
224.104	-23.12
224.338	-21.12
224.573	-22.12
224.808	-20.12
225.042	0.88
225.277	-9.12
225.511	-15.12
225.746	-0.12
225.98	7.88
226.215	17.88
226.449	15.88
226.683	20.88
226.918	33.88
227.152	31.88
227.387	34.88
227.621	40.88
227.856	32.88
228.09	47.88
228.324	37.88
228.559	40.88
228.793	82.88
229.027	136.88
229.262	149.88
229.496	160.88
229.73	162.88
229.964	164.88
230.199	175.88
230.433	194.88
230.667	185.88
230.901	174.88
231.136	185.88
231.37	185.88
231.604	183.88
231.838	191.88
232.072	192.88
232.306	185.88
232.541	194.88
232.775	198.88
233.009	202.88
233.243	195.88
233.477	203.88
233.711	200.88
233.945	225.88
234.179	218.88
234.413	200.88
234.647	199.88
234.881	216.88
235.115	222.88
235.349	208.88
235.583	207.88
235.817	204.88
236.051	224.88
236.285	229.88
236.519	247.88
236.753	246.88
236.987	241.88
237.221	237.88
237.455	242.88
237.689	240.88
237.922	249.88
238.156	248.88
238.39	255.88
238.624	250.88
238.858	245.88
239.091	273.88
239.325	256.88
239.559	256.88
239.793	277.88
240.027	274.88
240.26	271.88
240.494	276.88
240.728	278.88
240.961	280.88
241.195	289.88
241.429	293.88
241.662	315.88
241.896	312.88
242.13	305.88
242.363	293.88
242.597	268.88
242.83	294.88
243.064	311.88
243.298	318.88
243.531	309.88
243.765	319.88
243.998	321.88
244.232	319.88
244.465	342.88
244.699	326.88
244.932	314.88
245.166	337.88
245.399	355.88
245.633	360.88
245.866	371.88
246.099	342.88
246.333	368.88
246.566	351.88
246.8	359.88
247.033	359.88
247.266	369.88
247.5	368.88
247.733	373.88
247.966	376.88
248.2	370.88
248.433	399.88
248.666	402.88
248.899	370.88
249.133	375.88
249.366	372.88
249.599	396.88
249.832	378.88
250.066	404.88
250.299	410.88
250.532	406.88
250.765	398.88
250.998	398.88
251.231	409.88
251.465	397.88
251.698	441.88
251.931	425.88
252.164	459.88
252.397	436.88
252.63	427.88
252.863	426.88
253.096	430.88
253.329	459.88
253.562	451.88
253.795	440.88
254.028	470.88
254.261	466.88
254.494	470.88
254.727	456.88
254.96	440.88
255.193	469.88
255.426	456.88
255.659	450.88
255.892	475.88
256.124	470.88
256.357	504.88
256.59	473.88
256.823	478.88
257.056	469.88
257.289	491.88
257.521	506.88
257.754	493.88
257.987	481.88
258.22	501.88
258.452	511.88
258.685	500.88
258.918	501.88
259.151	502.88
259.383	537.88
259.616	528.88
259.849	516.88
260.081	536.88
260.314	552.88
260.547	560.88
260.779	515.88
261.012	522.88
261.244	527.88
261.477	549.88
261.71	563.88
261.942	558.88
262.175	566.88
262.407	556.88
262.64	541.88
262.872	576.88
263.105	569.88
263.337	563.88
263.57	566.88
263.802	583.88
264.035	577.88
264.267	593.88
264.499	591.88
264.732	594.88
264.964	581.88
265.197	606.88
265.429	586.88
265.661	565.88
265.894	607.88
266.126	625.88
266.358	587.88
266.591	616.88
266.823	632.88
267.055	616.88
267.287	614.88
267.52	588.88
267.752	617.88
267.984	622.88
268.216	608.88
268.448	645.88
268.681	618.88
268.913	629.88
269.145	644.88
269.377	634.88
269.609	625.88
269.841	644.88
270.073	638.88
270.306	627.88
270.538	667.88
270.77	648.88
271.002	642.88
271.234	650.88
271.466	696.88
271.698	659.88
271.93	662.88
272.162	663.88
272.394	672.88
272.626	683.88
272.858	676.88
273.09	697.88
273.322	677.88
273.553	681.88
273.785	669.88
274.017	676.88
274.249	681.88
274.481	704.88
274.713	700.88
274.945	695.88
275.176	730.88
275.408	697.88
275.64	704.88
275.872	709.88
276.104	717.88
276.335	728.88
276.567	737.88
276.799	757.88
277.031	751.88
277.262	741.88
277.494	744.88
277.726	727.88
277.957	751.88
278.189	733.88
278.421	743.88
278.652	748.88
278.884	761.88
279.115	771.88
279.347	764.88
279.579	782.88
279.81	787.88
280.042	791.88
280.273	786.88
280.505	784.88
280.736	793.88
280.968	789.88
281.199	797.88
281.431	791.88
281.662	776.88
281.894	803.88
282.125	810.88
282.356	789.88
282.588	819.88
282.819	823.88
283.051	807.88
283.282	821.88
283.513	840.88
283.745	832.88
283.976	822.88
284.207	837.88
284.439	817.88
284.67	840.88
284.901	846.88
285.132	834.88
285.364	852.88
285.595	868.88
285.826	851.88
286.057	838.88
286.288	856.88
286.52	840.88
286.751	858.88
286.982	882.88
287.213	869.88
287.444	824.88
287.675	868.88
287.906	869.88
288.138	885.88
288.369	870.88
288.6	880.88
288.831	880.88
289.062	886.88
289.293	898.88
289.524	902.88
289.755	917.88
289.986	926.88
290.217	896.88
290.448	868.88
290.679	898.88
290.91	876.88
291.141	908.88
291.371	882.88
291.602	912.88
291.833	915.88
292.064	886.88
292.295	895.88
292.526	930.88
292.757	922.88
292.987	929.88
293.218	918.88
293.449	906.88
293.68	901.88
293.91	941.88
294.141	902.88
294.372	906.88
294.603	908.88
294.833	922.88
295.064	911.88
295.295	918.88
295.525	895.88
295.756	946.88
295.987	903.88
296.217	940.88
296.448	969.88
296.679	945.88
296.909	942.88
297.14	957.88
297.37	973.88
297.601	980.88
297.831	965.88
298.062	984.88
298.292	981.88
298.523	1014.88
298.753	987.88
298.984	982.88
299.214	984.88
299.445	986.88
299.675	989.88
299.905	1006.88
300.136	994.88
300.366	1038.88
300.597	998.88
300.827	1045.88
301.057	1009.88
301.288	1033.88
301.518	1015.88
301.748	1034.88
301.979	1040.88
302.209	1057.88
302.439	1052.88
302.669	1029.88
302.9	1040.88
303.13	1051.88
303.36	1041.88
303.59	1046.88
303.82	1029.88
304.051	1050.88
304.281	1014.88
304.511	1020.88
304.741	1041.88
304.971	1046.88
305.201	1060.88
305.431	1052.88
305.661	1082.88
305.891	1054.88
306.121	1043.88
306.352	1010.88
306.582	1009.88
306.812	1015.88
307.042	1018.88
307.272	1032.88
307.502	1048.88
307.731	1018.88
307.961	1008.88
308.191	1032.88
308.421	985.88
308.651	1010.88
308.881	1022.88
309.111	1023.88
309.341	1021.88
309.571	1053.88
309.8	1055.88
310.03	1016.88
310.26	1044.88
310.49	1033.88
310.72	997.88
310.949	1047.88
311.179	1040.88
311.409	1060.88
311.639	1047.88
311.868	1057.88
312.098	1070.88
312.328	1086.88
312.557	1064.88
312.787	1062.88
313.017	1078.88
313.246	1097.88
313.476	1111.88
313.706	1126.88
313.935	1138.88
314.165	1114.88
314.394	1112.88
314.624	1116.88
314.853	1107.88
315.083	1117.88
315.312	1133.88
315.542	1124.88
315.771	1115.88
316.001	1117.88
316.23	1085.88
316.46	1109.88
316.689	1106.88
316.919	1088.88
317.148	1129.88
317.377	1092.88
317.607	1089.88
317.836	1094.88
318.065	1096.88
318.295	1103.88
318.524	1124.88
318.753	1077.88
318.983	1079.88
319.212	1074.88
319.441	1086.88
319.67	1148.88
319.9	1107.88
320.129	1088.88
320.358	1079.88
320.587	1122.88
320.816	1120.88
321.046	1082.88
321.275	1089.88
321.504	1099.88
321.733	1113.88
321.962	1135.88
322.191	1144.88
322.42	1106.88
322.649	1123.88
322.878	1118.88
323.108	1114.88
323.337	1137.88
323.566	1138.88
323.795	1156.88
324.024	1140.88
324.253	1127.88
324.482	1156.88
324.71	1170.88
324.939	1156.88
325.168	1161.88
325.397	1169.88
325.626	1201.88
325.855	1206.88
326.084	1186.88
326.313	1253.88
326.542	1198.88
326.77	1222.88
326.999	1224.88
327.228	1207.88
327.457	1176.88
327.686	1161.88
327.914	1215.88
328.143	1206.88
328.372	1209.88
328.6	1218.88
328.829	1206.88
329.058	1235.88
329.287	1215.88
329.515	1198.88
329.744	1229.88
329.972	1238.88
330.201	1235.88
330.43	1256.88
330.658	1257.88
330.887	1249.88
331.115	1251.88
331.344	1251.88
331.572	1286.88
331.801	1258.88
332.03	1337.88
332.258	1343.88
332.486	1377.88
332.715	1364.88
332.943	1415.88
333.172	1429.88
333.4	1513.88
333.629	1524.88
333.857	1577.88
334.085	1554.88
334.314	1520.88
334.542	1529.88
334.771	1504.88
334.999	1506.88
335.227	1512.88
335.455	1483.88
335.684	1508.88
335.912	1521.88
336.14	1476.88
336.369	1455.88
336.597	1474.88
336.825	1429.88
337.053	1427.88
337.281	1431.88
337.51	1422.88
337.738	1361.88
337.966	1358.88
338.194	1374.88
338.422	1342.88
338.65	1311.88
338.878	1302.88
339.106	1312.88
339.334	1348.88
339.562	1305.88
339.79	1261.88
340.018	1271.88
340.246	1269.88
340.474	1255.88
340.702	1261.88
340.93	1276.88
341.158	1298.88
341.386	1266.88
341.614	1288.88
341.842	1268.88
342.07	1264.88
342.298	1253.88
342.526	1264.88
342.754	1289.88
342.981	1252.88
343.209	1268.88
343.437	1315.88
343.665	1370.88
343.893	1454.88
344.12	1503.88
344.348	1427.88
344.576	1385.88
344.804	1381.88
345.031	1339.88
345.259	1325.88
345.487	1274.88
345.714	1283.88
345.942	1250.88
346.17	1278.88
346.397	1248.88
346.625	1196.88
346.853	1201.88
347.08	1198.88
347.308	1225.88
347.535	1214.88
347.763	1216.88
347.99	1221.88
348.218	1209.88
348.445	1205.88
348.673	1216.88
348.9	1200.88
349.128	1197.88
349.355	1218.88
349.583	1204.88
349.81	1194.88
350.037	1190.88
350.265	1195.88
350.492	1172.88
350.72	1198.88
350.947	1180.88
351.174	1168.88
351.402	1177.88
351.629	1157.88
351.856	1170.88
352.083	1166.88
352.311	1166.88
352.538	1170.88
352.765	1166.88
352.992	1171.88
353.22	1164.88
353.447	1168.88
353.674	1168.88
353.901	1171.88
354.128	1185.88
354.355	1163.88
354.583	1136.88
354.81	1163.88
355.037	1186.88
355.264	1198.88
355.491	1164.88
355.718	1157.88
355.945	1159.88
356.172	1201.88
356.399	1173.88
356.626	1158.88
356.853	1186.88
357.08	1175.88
357.307	1172.88
357.534	1190.88
357.761	1182.88
357.988	1153.88
358.215	1160.88
358.441	1172.88
358.668	1144.88
358.895	1167.88
359.122	1211.88
359.349	1202.88
359.576	1214.88
359.802	1148.88
360.029	1165.88
360.256	1156.88
360.483	1174.88
360.709	1182.88
360.936	1163.88
361.163	1184.88
361.39	1176.88
361.616	1153.88
361.843	1173.88
362.07	1198.88
362.296	1200.88
362.523	1186.88
362.749	1186.88
362.976	1172.88
363.203	1177.88
363.429	1170.88
363.656	1176.88
363.882	1201.88
364.109	1156.88
364.335	1196.88
364.562	1177.88
364.788	1161.88
365.015	1174.88
365.241	1176.88
365.468	1161.88
365.694	1156.88
365.92	1168.88
366.147	1184.88
366.373	1186.88
366.599	1219.88
366.826	1184.88
367.052	1157.88
367.278	1177.88
367.505	1191.88
367.731	1183.88
367.957	1194.88
368.184	1193.88
368.41	1186.88
368.636	1192.88
368.862	1238.88
369.089	1204.88
369.315	1214.88
369.541	1182.88
369.767	1192.88
369.993	1225.88
370.219	1253.88
370.445	1260.88
370.672	1274.88
370.898	1246.88
371.124	1249.88
371.35	1297.88
371.576	1302.88
371.802	1286.88
372.028	1262.88
372.254	1305.88
372.48	1317.88
372.706	1311.88
372.932	1304.88
373.158	1279.88
373.384	1256.88
373.61	1271.88
373.835	1277.88
374.061	1240.88
374.287	1324.88
374.513	1339.88
374.739	1376.88
374.965	1359.88
375.191	1395.88
375.416	1386.88
375.642	1372.88
375.868	1337.88
376.094	1311.88
376.319	1345.88
376.545	1273.88
376.771	1270.88
376.997	1297.88
377.222	1284.88
377.448	1265.88
377.674	1252.88
377.899	1290.88
378.125	1266.88
378.35	1253.88
378.576	1246.88
378.802	1262.88
379.027	1262.88
379.253	1240.88
379.478	1266.88
379.704	1246.88
379.929	1245.88
380.155	1276.88
380.38	1264.88
380.606	1236.88
380.831	1252.88
381.057	1235.88
381.282	1229.88
381.507	1295.88
381.733	1316.88
381.958	1269.88
382.184	1318.88
382.409	1322.88
382.634	1317.88
382.86	1317.88
383.085	1333.88
383.31	1390.88
383.535	1364.88
383.761	1369.88
383.986	1426.88
384.211	1441.88
384.436	1427.88
384.662	1450.88
384.887	1489.88
385.112	1452.88
385.337	1483.88
385.562	1483.88
385.787	1500.88
386.013	1533.88
386.238	1505.88
386.463	1542.88
386.688	1540.88
386.913	1523.88
387.138	1473.88
387.363	1534.88
387.588	1528.88
387.813	1536.88
388.038	1535.88
388.263	1525.88
388.488	1566.88
388.713	1493.88
388.938	1505.88
389.163	1492.88
389.387	1540.88
389.612	1493.88
389.837	1494.88
390.062	1489.88
390.287	1512.88
390.512	1518.88
390.736	1484.88
390.961	1525.88
391.186	1586.88
391.411	1606.88
391.636	1597.88
391.86	1637.88
392.085	1713.88
392.31	1663.88
392.534	1641.88
392.759	1628.88
392.984	1600.88
393.208	1572.88
393.433	1601.88
393.658	1592.88
393.882	1607.88
394.107	1598.88
394.331	1601.88
394.556	1608.88
394.78	1636.88
395.005	1622.88
395.229	1614.88
395.454	1673.88
395.678	1722.88
395.903	1694.88
396.127	1686.88
396.352	1627.88
396.576	1600.88
396.801	1619.88
397.025	1622.88
397.249	1685.88
397.474	1713.88
397.698	1740.88
397.922	1706.88
398.147	1694.88
398.371	1739.88
398.595	1812.88
398.82	1885.88
399.044	1983.88
399.268	2095.88
399.492	2342.88
399.717	2550.88
399.941	2556.88
400.165	2370.88
400.389	2253.88
400.613	2056.88
400.837	2042.88
401.062	1935.88
401.286	1911.88
401.51	1922.88
401.734	1844.88
401.958	1940.88
402.182	1897.88
402.406	1906.88
402.63	1957.88
402.854	1924.88
403.078	1968.88
403.302	1977.88
403.526	2028.88
403.75	2031.88
403.974	2042.88
404.198	2007.88
404.422	2039.88
404.645	2053.88
404.869	2029.88
405.093	2037.88
405.317	1994.88
405.541	1988.88
405.765	2000.88
405.988	2034.88
406.212	2050.88
406.436	2045.88
406.66	2104.88
406.883	2082.88
407.107	2212.88
407.331	2281.88
407.555	2373.88
407.778	2380.88
408.002	2312.88
408.226	2277.88
408.449	2230.88
408.673	2172.88
408.896	2138.88
409.12	2106.88
409.344	2146.88
409.567	2055.88
409.791	2102.88
410.014	2096.88
410.238	2080.88
410.461	2055.88
410.685	2044.88
410.908	2016.88
411.132	1988.88
411.355	1969.88
411.578	1957.88
411.802	1958.88
412.025	1906.88
412.249	1963.88
412.472	1976.88
412.695	1937.88
412.919	1888.88
413.142	1912.88
413.365	1919.88
413.589	1927.88
413.812	1844.88
414.035	1864.88
414.258	1831.88
414.482	1854.88
414.705	1893.88
414.928	1881.88
415.151	1919.88
415.374	1878.88
415.597	1831.88
415.821	1852.88
416.044	1802.88
416.267	1831.88
416.49	1802.88
416.713	1734.88
416.936	1804.88
417.159	1788.88
417.382	1780.88
417.605	1775.88
417.828	1757.88
418.051	1753.88
418.274	1785.88
418.497	1850.88
418.72	1833.88
418.943	1839.88
419.166	1967.88
419.389	2135.88
419.611	2051.88
419.834	1956.88
420.057	1903.88
420.28	1866.88
420.503	1789.88
420.726	1791.88
420.948	1762.88
421.171	1797.88
421.394	1767.88
421.617	1777.88
421.839	1775.88
422.062	1830.88
422.285	1774.88
422.507	1844.88
422.73	1824.88
422.953	1819.88
423.175	1848.88
423.398	1814.88
423.621	1811.88
423.843	1869.88
424.066	1844.88
424.288	1833.88
424.511	1868.88
424.733	1829.88
424.956	1821.88
425.178	1832.88
425.401	1817.88
425.623	1814.88
425.846	1754.88
426.068	1784.88
426.291	1740.88
426.513	1724.88
426.735	1747.88
426.958	1696.88
427.18	1692.88
427.402	1705.88
427.625	1680.88
427.847	1663.88
428.069	1645.88
428.292	1677.88
428.514	1661.88
428.736	1604.88
428.958	1632.88
429.181	1639.88
429.403	1601.88
429.625	1587.88
429.847	1617.88
430.069	1608.88
430.292	1624.88
430.514	1622.88
430.736	1641.88
430.958	1658.88
431.18	1646.88
431.402	1605.88
431.624	1646.88
431.846	1675.88
432.068	1668.88
432.29	1684.88
432.512	1650.88
432.734	1647.88
432.956	1650.88
433.178	1638.88
433.4	1680.88
433.622	1715.88
433.844	1713.88
434.066	1700.88
434.287	1717.88
434.509	1792.88
434.731	1811.88
434.953	1836.88
435.175	1853.88
435.397	1825.88
435.618	1802.88
435.84	1751.88
436.062	1667.88
436.284	1658.88
436.505	1669.88
436.727	1626.88
436.949	1616.88
437.17	1646.88
437.392	1656.88
437.614	1615.88
437.835	1558.88
438.057	1606.88
438.278	1574.88
438.5	1572.88
438.721	1586.88
438.943	1608.88
439.165	1568.88
439.386	1590.88
439.608	1631.88
439.829	1595.88
440.05	1613.88
440.272	1634.88
440.493	1597.88
440.715	1635.88
440.936	1653.88
441.158	1663.88
441.379	1710.88
441.6	1787.88
441.822	1782.88
442.043	1813.88
442.264	1791.88
442.486	1734.88
442.707	1728.88
442.928	1758.88
443.149	1761.88
443.371	1735.88
443.592	1767.88
443.813	1762.88
444.034	1768.88
444.255	1853.88
444.476	1880.88
444.698	1995.88
444.919	2010.88
445.14	2128.88
445.361	1931.88
445.582	1824.88
445.803	1780.88
446.024	1751.88
446.245	1697.88
446.466	1671.88
446.687	1652.88
446.908	1627.88
447.129	1603.88
447.35	1574.88
447.571	1527.88
447.792	1527.88
448.013	1532.88
448.234	1486.88
448.455	1497.88
448.675	1501.88
448.896	1462.88
449.117	1472.88
449.338	1441.88
449.559	1478.88
449.779	1485.88
450	1430.88
450.221	1413.88
450.442	1461.88
450.662	1443.88
450.883	1439.88
451.104	1511.88
451.324	1481.88
451.545	1453.88
451.766	1419.88
451.986	1454.88
452.207	1466.88
452.428	1439.88
452.648	1473.88
452.869	1406.88
453.089	1427.88
453.31	1466.88
453.53	1406.88
453.751	1396.88
453.971	1407.88
454.192	1412.88
454.412	1380.88
454.633	1367.88
454.853	1434.88
455.073	1377.88
455.294	1369.88
455.514	1334.88
455.734	1372.88
455.955	1344.88
456.175	1364.88
456.395	1376.88
456.616	1389.88
456.836	1380.88
457.056	1354.88
457.276	1380.88
457.497	1385.88
457.717	1371.88
457.937	1402.88
458.157	1426.88
458.377	1468.88
458.598	1488.88
458.818	1470.88
459.038	1513.88
459.258	1570.88
459.478	1601.88
459.698	1638.88
459.918	1680.88
460.138	1690.88
460.358	1821.88
460.578	1851.88
460.798	1837.88
461.018	1870.88
461.238	1811.88
461.458	1840.88
461.678	1804.88
461.898	1862.88
462.118	1874.88
462.338	1968.88
462.558	2019.88
462.777	2113.88
462.997	2178.88
463.217	2282.88
463.437	2326.88
463.657	2217.88
463.876	2126.88
464.096	2109.88
464.316	2092.88
464.536	2073.88
464.755	2034.88
464.975	1958.88
465.195	1894.88
465.414	1817.88
465.634	1734.88
465.854	1653.88
466.073	1620.88
466.293	1622.88
466.512	1549.88
466.732	1572.88
466.951	1541.88
467.171	1584.88
467.391	1567.88
467.61	1526.88
467.829	1540.88
468.049	1542.88
468.268	1484.88
468.488	1468.88
468.707	1490.88
468.927	1495.88
469.146	1513.88
469.365	1521.88
469.585	1471.88
469.804	1571.88
470.023	1572.88
470.243	1545.88
470.462	1584.88
470.681	1585.88
470.901	1600.88
471.12	1549.88
471.339	1510.88
471.558	1518.88
471.777	1516.88
471.997	1485.88
472.216	1473.88
472.435	1478.88
472.654	1511.88
472.873	1449.88
473.092	1474.88
473.311	1465.88
473.53	1496.88
473.749	1459.88
473.968	1481.88
474.187	1477.88
474.406	1436.88
474.625	1482.88
474.844	1462.88
475.063	1466.88
475.282	1507.88
475.501	1513.88
475.72	1535.88
475.939	1557.88
476.158	1519.88
476.377	1533.88
476.596	1523.88
476.814	1619.88
477.033	1577.88
477.252	1621.88
477.471	1616.88
477.69	1670.88
477.908	1703.88
478.127	1682.88
478.346	1762.88
478.564	1781.88
478.783	1802.88
479.002	1824.88
479.22	1862.88
479.439	1857.88
479.658	1835.88
479.876	1873.88
480.095	1875.88
480.313	1958.88
480.532	1960.88
480.751	1989.88
480.969	1904.88
481.188	1912.88
481.406	1850.88
481.624	1849.88
481.843	1795.88
482.061	1831.88
482.28	1797.88
482.498	1811.88
482.717	1778.88
482.935	1813.88
483.153	1843.88
483.372	1849.88
483.59	1855.88
483.808	1858.88
484.027	1868.88
484.245	1856.88
484.463	1906.88
484.681	1913.88
484.9	1927.88
485.118	1939.88
485.336	1973.88
485.554	1972.88
485.772	2016.88
485.99	2014.88
486.209	1996.88
486.427	1988.88
486.645	1969.88
486.863	1979.88
487.081	2030.88
487.299	1956.88
487.517	1929.88
487.735	1930.88
487.953	1949.88
488.171	1956.88
488.389	1914.88
488.607	1901.88
488.825	1925.88
489.043	1901.88
489.261	1916.88
489.479	1886.88
489.696	1881.88
489.914	1882.88
