Data from NiCl2@0.25M.TitratingCurve.Agarose3%dH2O.NegLispCup.LampEnergy10.LIBS07252019_HRD10591_18-24-20-574.txt Node
Date: Thu Jul 25 18:24:20 EDT 2019
User: cochatt
Spectrometer: HR+D1059
Trigger mode: 1
Integration Time (sec): 1.000000E-1
Scans to average: 1
Electric dark correction enabled: true
Nonlinearity correction enabled: false
Boxcar width: 0
XAxis mode: Wavelengths
Number of Pixels in Spectrum: 2048
>>>>>Begin Spectral Data<<<<<
223.165	-27.44
223.4	-27.44
223.635	-27.44
223.869	-13.44
224.104	-14.44
224.338	-12.44
224.573	-17.44
224.808	-19.44
225.042	2.56
225.277	-12.44
225.511	-0.44
225.746	16.56
225.98	-9.44
226.215	11.56
226.449	25.56
226.683	22.56
226.918	17.56
227.152	30.56
227.387	41.56
227.621	28.56
227.856	36.56
228.09	35.56
228.324	44.56
228.559	62.56
228.793	72.56
229.027	127.56
229.262	141.56
229.496	134.56
229.73	150.56
229.964	154.56
230.199	158.56
230.433	145.56
230.667	171.56
230.901	176.56
231.136	157.56
231.37	167.56
231.604	163.56
231.838	179.56
232.072	174.56
232.306	162.56
232.541	180.56
232.775	179.56
233.009	162.56
233.243	180.56
233.477	189.56
233.711	174.56
233.945	178.56
234.179	190.56
234.413	192.56
234.647	195.56
234.881	191.56
235.115	179.56
235.349	195.56
235.583	188.56
235.817	182.56
236.051	186.56
236.285	191.56
236.519	193.56
236.753	196.56
236.987	191.56
237.221	203.56
237.455	182.56
237.689	203.56
237.922	204.56
238.156	223.56
238.39	199.56
238.624	223.56
238.858	207.56
239.091	194.56
239.325	215.56
239.559	225.56
239.793	233.56
240.027	225.56
240.26	227.56
240.494	231.56
240.728	218.56
240.961	212.56
241.195	231.56
241.429	238.56
241.662	240.56
241.896	256.56
242.13	267.56
242.363	277.56
242.597	254.56
242.83	229.56
243.064	244.56
243.298	262.56
243.531	259.56
243.765	271.56
243.998	266.56
244.232	264.56
244.465	277.56
244.699	269.56
244.932	288.56
245.166	296.56
245.399	268.56
245.633	287.56
245.866	289.56
246.099	292.56
246.333	270.56
246.566	302.56
246.8	301.56
247.033	316.56
247.266	282.56
247.5	297.56
247.733	298.56
247.966	304.56
248.2	304.56
248.433	315.56
248.666	318.56
248.899	323.56
249.133	311.56
249.366	325.56
249.599	327.56
249.832	320.56
250.066	336.56
250.299	313.56
250.532	331.56
250.765	335.56
250.998	338.56
251.231	352.56
251.465	350.56
251.698	344.56
251.931	352.56
252.164	356.56
252.397	361.56
252.63	363.56
252.863	357.56
253.096	336.56
253.329	352.56
253.562	356.56
253.795	373.56
254.028	370.56
254.261	358.56
254.494	363.56
254.727	357.56
254.96	373.56
255.193	359.56
255.426	358.56
255.659	372.56
255.892	389.56
256.124	386.56
256.357	391.56
256.59	375.56
256.823	386.56
257.056	392.56
257.289	382.56
257.521	398.56
257.754	394.56
257.987	395.56
258.22	415.56
258.452	400.56
258.685	414.56
258.918	416.56
259.151	398.56
259.383	417.56
259.616	402.56
259.849	414.56
260.081	407.56
260.314	427.56
260.547	440.56
260.779	426.56
261.012	429.56
261.244	426.56
261.477	447.56
261.71	430.56
261.942	440.56
262.175	413.56
262.407	457.56
262.64	427.56
262.872	431.56
263.105	438.56
263.337	433.56
263.57	459.56
263.802	455.56
264.035	463.56
264.267	466.56
264.499	464.56
264.732	443.56
264.964	465.56
265.197	455.56
265.429	471.56
265.661	474.56
265.894	482.56
266.126	482.56
266.358	495.56
266.591	493.56
266.823	479.56
267.055	473.56
267.287	497.56
267.52	490.56
267.752	477.56
267.984	484.56
268.216	482.56
268.448	488.56
268.681	519.56
268.913	485.56
269.145	522.56
269.377	511.56
269.609	496.56
269.841	497.56
270.073	511.56
270.306	513.56
270.538	531.56
270.77	522.56
271.002	491.56
271.234	514.56
271.466	514.56
271.698	523.56
271.93	529.56
272.162	517.56
272.394	516.56
272.626	518.56
272.858	511.56
273.09	539.56
273.322	518.56
273.553	564.56
273.785	553.56
274.017	540.56
274.249	558.56
274.481	556.56
274.713	560.56
274.945	572.56
275.176	584.56
275.408	581.56
275.64	568.56
275.872	548.56
276.104	582.56
276.335	578.56
276.567	559.56
276.799	597.56
277.031	591.56
277.262	581.56
277.494	598.56
277.726	588.56
277.957	608.56
278.189	597.56
278.421	589.56
278.652	581.56
278.884	596.56
279.115	585.56
279.347	562.56
279.579	602.56
279.81	604.56
280.042	602.56
280.273	640.56
280.505	634.56
280.736	632.56
280.968	616.56
281.199	646.56
281.431	616.56
281.662	624.56
281.894	637.56
282.125	626.56
282.356	649.56
282.588	638.56
282.819	646.56
283.051	657.56
283.282	664.56
283.513	639.56
283.745	658.56
283.976	648.56
284.207	656.56
284.439	665.56
284.67	694.56
284.901	667.56
285.132	699.56
285.364	667.56
285.595	665.56
285.826	701.56
286.057	684.56
286.288	658.56
286.52	706.56
286.751	682.56
286.982	690.56
287.213	670.56
287.444	705.56
287.675	702.56
287.906	697.56
288.138	711.56
288.369	699.56
288.6	715.56
288.831	685.56
289.062	703.56
289.293	712.56
289.524	715.56
289.755	723.56
289.986	714.56
290.217	706.56
290.448	696.56
290.679	729.56
290.91	740.56
291.141	706.56
291.371	735.56
291.602	719.56
291.833	704.56
292.064	686.56
292.295	699.56
292.526	724.56
292.757	721.56
292.987	725.56
293.218	719.56
293.449	716.56
293.68	731.56
293.91	714.56
294.141	719.56
294.372	699.56
294.603	737.56
294.833	745.56
295.064	732.56
295.295	740.56
295.525	736.56
295.756	743.56
295.987	722.56
296.217	748.56
296.448	716.56
296.679	742.56
296.909	748.56
297.14	748.56
297.37	753.56
297.601	788.56
297.831	769.56
298.062	778.56
298.292	775.56
298.523	811.56
298.753	810.56
298.984	781.56
299.214	777.56
299.445	805.56
299.675	795.56
299.905	787.56
300.136	775.56
300.366	796.56
300.597	798.56
300.827	816.56
301.057	798.56
301.288	834.56
301.518	838.56
301.748	836.56
301.979	855.56
302.209	859.56
302.439	832.56
302.669	822.56
302.9	823.56
303.13	819.56
303.36	837.56
303.59	837.56
303.82	819.56
304.051	850.56
304.281	822.56
304.511	831.56
304.741	838.56
304.971	853.56
305.201	800.56
305.431	833.56
305.661	824.56
305.891	806.56
306.121	838.56
306.352	808.56
306.582	784.56
306.812	802.56
307.042	814.56
307.272	807.56
307.502	811.56
307.731	791.56
307.961	812.56
308.191	816.56
308.421	802.56
308.651	822.56
308.881	805.56
309.111	783.56
309.341	795.56
309.571	832.56
309.8	814.56
310.03	809.56
310.26	810.56
310.49	843.56
310.72	821.56
310.949	802.56
311.179	820.56
311.409	832.56
311.639	835.56
311.868	822.56
312.098	832.56
312.328	856.56
312.557	831.56
312.787	838.56
313.017	844.56
313.246	851.56
313.476	873.56
313.706	866.56
313.935	895.56
314.165	875.56
314.394	876.56
314.624	867.56
314.853	851.56
315.083	860.56
315.312	863.56
315.542	858.56
315.771	866.56
316.001	862.56
316.23	836.56
316.46	846.56
316.689	848.56
316.919	837.56
317.148	851.56
317.377	834.56
317.607	857.56
317.836	821.56
318.065	851.56
318.295	854.56
318.524	843.56
318.753	855.56
318.983	850.56
319.212	837.56
319.441	849.56
319.67	856.56
319.9	854.56
320.129	826.56
320.358	858.56
320.587	863.56
320.816	884.56
321.046	848.56
321.275	856.56
321.504	871.56
321.733	878.56
321.962	850.56
322.191	864.56
322.42	846.56
322.649	861.56
322.878	871.56
323.108	843.56
323.337	864.56
323.566	868.56
323.795	864.56
324.024	878.56
324.253	878.56
324.482	875.56
324.71	885.56
324.939	910.56
325.168	907.56
325.397	888.56
325.626	933.56
325.855	906.56
326.084	920.56
326.313	939.56
326.542	901.56
326.77	942.56
326.999	932.56
327.228	926.56
327.457	943.56
327.686	913.56
327.914	922.56
328.143	950.56
328.372	925.56
328.6	948.56
328.829	926.56
329.058	936.56
329.287	916.56
329.515	929.56
329.744	955.56
329.972	962.56
330.201	968.56
330.43	960.56
330.658	990.56
330.887	963.56
331.115	1008.56
331.344	985.56
331.572	988.56
331.801	1032.56
332.03	1030.56
332.258	1062.56
332.486	1041.56
332.715	1091.56
332.943	1142.56
333.172	1124.56
333.4	1203.56
333.629	1217.56
333.857	1239.56
334.085	1256.56
334.314	1228.56
334.542	1239.56
334.771	1228.56
334.999	1196.56
335.227	1192.56
335.455	1182.56
335.684	1208.56
335.912	1204.56
336.14	1169.56
336.369	1166.56
336.597	1191.56
336.825	1166.56
337.053	1152.56
337.281	1108.56
337.51	1091.56
337.738	1096.56
337.966	1063.56
338.194	1053.56
338.422	1043.56
338.65	1011.56
338.878	1046.56
339.106	1028.56
339.334	1002.56
339.562	1034.56
339.79	982.56
340.018	992.56
340.246	967.56
340.474	980.56
340.702	983.56
340.93	993.56
341.158	998.56
341.386	1008.56
341.614	1034.56
341.842	969.56
342.07	988.56
342.298	979.56
342.526	992.56
342.754	980.56
342.981	975.56
343.209	1009.56
343.437	1044.56
343.665	1102.56
343.893	1147.56
344.12	1216.56
344.348	1177.56
344.576	1120.56
344.804	1103.56
345.031	1072.56
345.259	1026.56
345.487	979.56
345.714	1012.56
345.942	987.56
346.17	965.56
346.397	993.56
346.625	972.56
346.853	943.56
347.08	956.56
347.308	953.56
347.535	948.56
347.763	933.56
347.99	920.56
348.218	951.56
348.445	931.56
348.673	953.56
348.9	930.56
349.128	959.56
349.355	924.56
349.583	952.56
349.81	920.56
350.037	930.56
350.265	916.56
350.492	928.56
350.72	884.56
350.947	912.56
351.174	924.56
351.402	912.56
351.629	909.56
351.856	906.56
352.083	892.56
352.311	900.56
352.538	908.56
352.765	905.56
352.992	891.56
353.22	901.56
353.447	877.56
353.674	846.56
353.901	882.56
354.128	898.56
354.355	887.56
354.583	884.56
354.81	903.56
355.037	880.56
355.264	906.56
355.491	922.56
355.718	894.56
355.945	898.56
356.172	904.56
356.399	920.56
356.626	911.56
356.853	921.56
357.08	886.56
357.307	905.56
357.534	902.56
357.761	920.56
357.988	916.56
358.215	900.56
358.441	899.56
358.668	891.56
358.895	898.56
359.122	914.56
359.349	911.56
359.576	902.56
359.802	904.56
360.029	918.56
360.256	886.56
360.483	892.56
360.709	928.56
360.936	935.56
361.163	871.56
361.39	891.56
361.616	905.56
361.843	913.56
362.07	921.56
362.296	922.56
362.523	912.56
362.749	909.56
362.976	908.56
363.203	907.56
363.429	893.56
363.656	898.56
363.882	907.56
364.109	927.56
364.335	868.56
364.562	900.56
364.788	910.56
365.015	903.56
365.241	887.56
365.468	901.56
365.694	894.56
365.92	919.56
366.147	882.56
366.373	864.56
366.599	889.56
366.826	892.56
367.052	899.56
367.278	879.56
367.505	894.56
367.731	888.56
367.957	900.56
368.184	909.56
368.41	937.56
368.636	934.56
368.862	915.56
369.089	934.56
369.315	937.56
369.541	911.56
369.767	931.56
369.993	927.56
370.219	932.56
370.445	965.56
370.672	949.56
370.898	958.56
371.124	986.56
371.35	980.56
371.576	988.56
371.802	1002.56
372.028	983.56
372.254	961.56
372.48	993.56
372.706	1019.56
372.932	1030.56
373.158	1040.56
373.384	1006.56
373.61	1000.56
373.835	996.56
374.061	989.56
374.287	1018.56
374.513	1026.56
374.739	1035.56
374.965	1090.56
375.191	1107.56
375.416	1090.56
375.642	1056.56
375.868	1068.56
376.094	1007.56
376.319	998.56
376.545	987.56
376.771	1007.56
376.997	978.56
377.222	974.56
377.448	979.56
377.674	993.56
377.899	1001.56
378.125	967.56
378.35	958.56
378.576	938.56
378.802	979.56
379.027	971.56
379.253	967.56
379.478	937.56
379.704	975.56
379.929	961.56
380.155	988.56
380.38	950.56
380.606	993.56
380.831	980.56
381.057	1020.56
381.282	979.56
381.507	988.56
381.733	984.56
381.958	991.56
382.184	1020.56
382.409	995.56
382.634	999.56
382.86	1011.56
383.085	1054.56
383.31	1039.56
383.535	1050.56
383.761	1042.56
383.986	1092.56
384.211	1111.56
384.436	1121.56
384.662	1122.56
384.887	1171.56
385.112	1169.56
385.337	1180.56
385.562	1176.56
385.787	1179.56
386.013	1209.56
386.238	1200.56
386.463	1184.56
386.688	1215.56
386.913	1226.56
387.138	1191.56
387.363	1211.56
387.588	1175.56
387.813	1194.56
388.038	1183.56
388.263	1180.56
388.488	1204.56
388.713	1198.56
388.938	1206.56
389.163	1169.56
389.387	1193.56
389.612	1176.56
389.837	1163.56
390.062	1144.56
390.287	1170.56
390.512	1190.56
390.736	1212.56
390.961	1214.56
391.186	1247.56
391.411	1277.56
391.636	1324.56
391.86	1332.56
392.085	1362.56
392.31	1333.56
392.534	1307.56
392.759	1306.56
392.984	1264.56
393.208	1268.56
393.433	1283.56
393.658	1278.56
393.882	1280.56
394.107	1273.56
394.331	1287.56
394.556	1268.56
394.78	1270.56
395.005	1295.56
395.229	1292.56
395.454	1331.56
395.678	1319.56
395.903	1362.56
396.127	1343.56
396.352	1296.56
396.576	1264.56
396.801	1298.56
397.025	1328.56
397.249	1361.56
397.474	1360.56
397.698	1366.56
397.922	1380.56
398.147	1374.56
398.371	1406.56
398.595	1476.56
398.82	1532.56
399.044	1631.56
399.268	1738.56
399.492	1946.56
399.717	2144.56
399.941	2204.56
400.165	2091.56
400.389	1883.56
400.613	1794.56
400.837	1620.56
401.062	1598.56
401.286	1583.56
401.51	1553.56
401.734	1540.56
401.958	1549.56
402.182	1552.56
402.406	1562.56
402.63	1583.56
402.854	1594.56
403.078	1624.56
403.302	1662.56
403.526	1670.56
403.75	1694.56
403.974	1736.56
404.198	1707.56
404.422	1727.56
404.645	1689.56
404.869	1675.56
405.093	1693.56
405.317	1703.56
405.541	1691.56
405.765	1659.56
405.988	1658.56
406.212	1719.56
406.436	1671.56
406.66	1735.56
406.883	1708.56
407.107	1887.56
407.331	1930.56
407.555	1984.56
407.778	1946.56
408.002	1907.56
408.226	1882.56
408.449	1851.56
408.673	1779.56
408.896	1739.56
409.12	1700.56
409.344	1722.56
409.567	1720.56
409.791	1713.56
410.014	1710.56
410.238	1648.56
410.461	1673.56
410.685	1619.56
410.908	1600.56
411.132	1603.56
411.355	1592.56
411.578	1598.56
411.802	1576.56
412.025	1552.56
412.249	1617.56
412.472	1627.56
412.695	1574.56
412.919	1548.56
413.142	1551.56
413.365	1519.56
413.589	1539.56
413.812	1509.56
414.035	1497.56
414.258	1487.56
414.482	1511.56
414.705	1574.56
414.928	1552.56
415.151	1515.56
415.374	1492.56
415.597	1502.56
415.821	1455.56
416.044	1480.56
416.267	1491.56
416.49	1475.56
416.713	1474.56
416.936	1471.56
417.159	1462.56
417.382	1464.56
417.605	1444.56
417.828	1474.56
418.051	1452.56
418.274	1497.56
418.497	1468.56
418.72	1543.56
418.943	1524.56
419.166	1633.56
419.389	1750.56
419.611	1683.56
419.834	1616.56
420.057	1575.56
420.28	1512.56
420.503	1498.56
420.726	1472.56
420.948	1474.56
421.171	1479.56
421.394	1434.56
421.617	1456.56
421.839	1482.56
422.062	1488.56
422.285	1438.56
422.507	1492.56
422.73	1513.56
422.953	1501.56
423.175	1540.56
423.398	1550.56
423.621	1512.56
423.843	1540.56
424.066	1531.56
424.288	1532.56
424.511	1515.56
424.733	1528.56
424.956	1478.56
425.178	1518.56
425.401	1488.56
425.623	1493.56
425.846	1429.56
426.068	1433.56
426.291	1415.56
426.513	1398.56
426.735	1426.56
426.958	1401.56
427.18	1386.56
427.402	1362.56
427.625	1384.56
427.847	1370.56
428.069	1331.56
428.292	1346.56
428.514	1311.56
428.736	1313.56
428.958	1327.56
429.181	1292.56
429.403	1272.56
429.625	1317.56
429.847	1308.56
430.069	1247.56
430.292	1286.56
430.514	1287.56
430.736	1291.56
430.958	1332.56
431.18	1296.56
431.402	1330.56
431.624	1313.56
431.846	1315.56
432.068	1354.56
432.29	1354.56
432.512	1318.56
432.734	1310.56
432.956	1291.56
433.178	1334.56
433.4	1327.56
433.622	1339.56
433.844	1350.56
434.066	1371.56
434.287	1371.56
434.509	1400.56
434.731	1426.56
434.953	1432.56
435.175	1428.56
435.397	1463.56
435.618	1384.56
435.84	1343.56
436.062	1381.56
436.284	1328.56
436.505	1310.56
436.727	1314.56
436.949	1308.56
437.17	1330.56
437.392	1283.56
437.614	1260.56
437.835	1248.56
438.057	1263.56
438.278	1244.56
438.5	1244.56
438.721	1273.56
438.943	1296.56
439.165	1245.56
439.386	1286.56
439.608	1311.56
439.829	1315.56
440.05	1307.56
440.272	1339.56
440.493	1300.56
440.715	1344.56
440.936	1380.56
441.158	1400.56
441.379	1416.56
441.6	1483.56
441.822	1473.56
442.043	1490.56
442.264	1422.56
442.486	1406.56
442.707	1459.56
442.928	1451.56
443.149	1419.56
443.371	1425.56
443.592	1447.56
443.813	1483.56
444.034	1492.56
444.255	1538.56
444.476	1602.56
444.698	1651.56
444.919	1739.56
445.14	1754.56
445.361	1666.56
445.582	1530.56
445.803	1447.56
446.024	1393.56
446.245	1377.56
446.466	1333.56
446.687	1323.56
446.908	1326.56
447.129	1298.56
447.35	1291.56
447.571	1308.56
447.792	1256.56
448.013	1200.56
448.234	1246.56
448.455	1241.56
448.675	1178.56
448.896	1217.56
449.117	1174.56
449.338	1180.56
449.559	1184.56
449.779	1159.56
450	1178.56
450.221	1180.56
450.442	1217.56
450.662	1225.56
450.883	1205.56
451.104	1226.56
451.324	1226.56
451.545	1234.56
451.766	1221.56
451.986	1196.56
452.207	1179.56
452.428	1178.56
452.648	1196.56
452.869	1140.56
453.089	1152.56
453.31	1170.56
453.53	1145.56
453.751	1156.56
453.971	1154.56
454.192	1158.56
454.412	1135.56
454.633	1113.56
454.853	1112.56
455.073	1092.56
455.294	1114.56
455.514	1115.56
455.734	1118.56
455.955	1108.56
456.175	1110.56
456.395	1093.56
456.616	1114.56
456.836	1134.56
457.056	1117.56
457.276	1091.56
457.497	1104.56
457.717	1115.56
457.937	1153.56
458.157	1165.56
458.377	1172.56
458.598	1188.56
458.818	1249.56
459.038	1244.56
459.258	1298.56
459.478	1335.56
459.698	1365.56
459.918	1387.56
460.138	1443.56
460.358	1520.56
460.578	1553.56
460.798	1548.56
461.018	1571.56
461.238	1579.56
461.458	1567.56
461.678	1565.56
461.898	1588.56
462.118	1603.56
462.338	1625.56
462.558	1699.56
462.777	1804.56
462.997	1898.56
463.217	1954.56
463.437	1976.56
463.657	1922.56
463.876	1874.56
464.096	1858.56
464.316	1842.56
464.536	1803.56
464.755	1762.56
464.975	1672.56
465.195	1586.56
465.414	1562.56
465.634	1478.56
465.854	1379.56
466.073	1360.56
466.293	1293.56
466.512	1306.56
466.732	1296.56
466.951	1262.56
467.171	1252.56
467.391	1272.56
467.61	1250.56
467.829	1190.56
468.049	1244.56
468.268	1190.56
468.488	1190.56
468.707	1184.56
468.927	1218.56
469.146	1204.56
469.365	1245.56
469.585	1219.56
469.804	1264.56
470.023	1282.56
470.243	1262.56
470.462	1265.56
470.681	1286.56
470.901	1286.56
471.12	1284.56
471.339	1256.56
471.558	1230.56
471.777	1240.56
471.997	1226.56
472.216	1208.56
472.435	1215.56
472.654	1190.56
472.873	1163.56
473.092	1166.56
473.311	1180.56
473.53	1173.56
473.749	1200.56
473.968	1188.56
474.187	1170.56
474.406	1182.56
474.625	1195.56
474.844	1195.56
475.063	1176.56
475.282	1206.56
475.501	1174.56
475.72	1232.56
475.939	1220.56
476.158	1252.56
476.377	1259.56
476.596	1254.56
476.814	1238.56
477.033	1272.56
477.252	1270.56
477.471	1304.56
477.69	1342.56
477.908	1347.56
478.127	1365.56
478.346	1423.56
478.564	1434.56
478.783	1464.56
479.002	1471.56
479.22	1501.56
479.439	1490.56
479.658	1484.56
479.876	1493.56
480.095	1522.56
480.313	1544.56
480.532	1538.56
480.751	1561.56
480.969	1519.56
481.188	1476.56
481.406	1460.56
481.624	1420.56
481.843	1408.56
482.061	1369.56
482.28	1364.56
482.498	1322.56
482.717	1356.56
482.935	1355.56
483.153	1342.56
483.372	1338.56
483.59	1336.56
483.808	1321.56
484.027	1355.56
484.245	1385.56
484.463	1365.56
484.681	1418.56
484.9	1378.56
485.118	1406.56
485.336	1377.56
485.554	1436.56
485.772	1408.56
485.99	1422.56
486.209	1402.56
486.427	1439.56
486.645	1402.56
486.863	1408.56
487.081	1418.56
487.299	1423.56
487.517	1398.56
487.735	1402.56
487.953	1404.56
488.171	1409.56
488.389	1402.56
488.607	1388.56
488.825	1392.56
489.043	1390.56
489.261	1360.56
489.479	1415.56
489.696	1420.56
489.914	1395.56
490.132	1426.56
490.35	1455.56
490.568	1417.56
490.786	1415.56
491.003	1457.56
491.221	1433.56
491.439	1415.56
491.657	1425.56
491.874	1408.56
492.092	1450.56
492.31	1430.56
492.527	1474.56
492.745	1472.56
492.963	1467.56
493.18	1494.56
493.398	1461.56
493.615	1487.56
493.833	1480.56
