Data from NiCl2@0.5M.TitratingCurve.Agarose3%dH2O.NegLispCup.LampEnergy10.LIBS07252019_HRD10591_18-18-39-570.txt Node
Date: Thu Jul 25 18:18:39 EDT 2019
User: cochatt
Spectrometer: HR+D1059
Trigger mode: 1
Integration Time (sec): 1.000000E-1
Scans to average: 1
Electric dark correction enabled: true
Nonlinearity correction enabled: false
Boxcar width: 0
XAxis mode: Wavelengths
Number of Pixels in Spectrum: 2048
>>>>>Begin Spectral Data<<<<<
223.165	-9.94
223.4	-9.94
223.635	-9.94
223.869	-23.94
224.104	-8.94
224.338	-18.94
224.573	-13.94
224.808	-16.94
225.042	-0.94
225.277	-1.94
225.511	6.06
225.746	20.06
225.98	15.06
226.215	2.06
226.449	9.06
226.683	13.06
226.918	11.06
227.152	19.06
227.387	42.06
227.621	31.06
227.856	35.06
228.09	43.06
228.324	47.06
228.559	33.06
228.793	65.06
229.027	133.06
229.262	153.06
229.496	172.06
229.73	167.06
229.964	176.06
230.199	193.06
230.433	182.06
230.667	171.06
230.901	167.06
231.136	191.06
231.37	182.06
231.604	186.06
231.838	201.06
232.072	201.06
232.306	206.06
232.541	203.06
232.775	212.06
233.009	217.06
233.243	224.06
233.477	224.06
233.711	219.06
233.945	220.06
234.179	205.06
234.413	202.06
234.647	217.06
234.881	215.06
235.115	203.06
235.349	203.06
235.583	218.06
235.817	215.06
236.051	229.06
236.285	206.06
236.519	234.06
236.753	244.06
236.987	220.06
237.221	240.06
237.455	239.06
237.689	239.06
237.922	256.06
238.156	241.06
238.39	235.06
238.624	252.06
238.858	257.06
239.091	262.06
239.325	247.06
239.559	268.06
239.793	264.06
240.027	276.06
240.26	272.06
240.494	268.06
240.728	273.06
240.961	265.06
241.195	275.06
241.429	270.06
241.662	292.06
241.896	295.06
242.13	296.06
242.363	304.06
242.597	291.06
242.83	325.06
243.064	304.06
243.298	319.06
243.531	303.06
243.765	313.06
243.998	333.06
244.232	300.06
244.465	325.06
244.699	329.06
244.932	324.06
245.166	327.06
245.399	328.06
245.633	332.06
245.866	336.06
246.099	323.06
246.333	354.06
246.566	359.06
246.8	358.06
247.033	343.06
247.266	325.06
247.5	375.06
247.733	376.06
247.966	358.06
248.2	381.06
248.433	369.06
248.666	360.06
248.899	376.06
249.133	383.06
249.366	370.06
249.599	388.06
249.832	388.06
250.066	403.06
250.299	382.06
250.532	396.06
250.765	405.06
250.998	418.06
251.231	411.06
251.465	420.06
251.698	417.06
251.931	415.06
252.164	393.06
252.397	412.06
252.63	415.06
252.863	435.06
253.096	437.06
253.329	444.06
253.562	437.06
253.795	461.06
254.028	458.06
254.261	446.06
254.494	450.06
254.727	450.06
254.96	423.06
255.193	444.06
255.426	453.06
255.659	459.06
255.892	438.06
256.124	480.06
256.357	465.06
256.59	464.06
256.823	457.06
257.056	471.06
257.289	471.06
257.521	491.06
257.754	475.06
257.987	499.06
258.22	495.06
258.452	490.06
258.685	481.06
258.918	507.06
259.151	507.06
259.383	499.06
259.616	496.06
259.849	513.06
260.081	488.06
260.314	508.06
260.547	515.06
260.779	516.06
261.012	535.06
261.244	535.06
261.477	525.06
261.71	529.06
261.942	530.06
262.175	548.06
262.407	536.06
262.64	528.06
262.872	547.06
263.105	550.06
263.337	557.06
263.57	553.06
263.802	557.06
264.035	553.06
264.267	583.06
264.499	555.06
264.732	563.06
264.964	571.06
265.197	601.06
265.429	581.06
265.661	580.06
265.894	589.06
266.126	589.06
266.358	595.06
266.591	596.06
266.823	592.06
267.055	605.06
267.287	599.06
267.52	593.06
267.752	580.06
267.984	604.06
268.216	624.06
268.448	623.06
268.681	624.06
268.913	623.06
269.145	635.06
269.377	634.06
269.609	646.06
269.841	627.06
270.073	619.06
270.306	641.06
270.538	616.06
270.77	632.06
271.002	643.06
271.234	639.06
271.466	629.06
271.698	637.06
271.93	675.06
272.162	662.06
272.394	669.06
272.626	662.06
272.858	661.06
273.09	691.06
273.322	706.06
273.553	672.06
273.785	672.06
274.017	697.06
274.249	675.06
274.481	696.06
274.713	697.06
274.945	701.06
275.176	713.06
275.408	676.06
275.64	716.06
275.872	726.06
276.104	721.06
276.335	726.06
276.567	735.06
276.799	718.06
277.031	730.06
277.262	697.06
277.494	724.06
277.726	750.06
277.957	739.06
278.189	743.06
278.421	731.06
278.652	759.06
278.884	762.06
279.115	743.06
279.347	723.06
279.579	741.06
279.81	791.06
280.042	789.06
280.273	789.06
280.505	776.06
280.736	782.06
280.968	779.06
281.199	801.06
281.431	819.06
281.662	771.06
281.894	786.06
282.125	808.06
282.356	796.06
282.588	808.06
282.819	813.06
283.051	836.06
283.282	817.06
283.513	812.06
283.745	809.06
283.976	818.06
284.207	839.06
284.439	835.06
284.67	851.06
284.901	829.06
285.132	863.06
285.364	871.06
285.595	853.06
285.826	823.06
286.057	865.06
286.288	831.06
286.52	856.06
286.751	856.06
286.982	877.06
287.213	882.06
287.444	874.06
287.675	855.06
287.906	869.06
288.138	872.06
288.369	877.06
288.6	881.06
288.831	879.06
289.062	871.06
289.293	897.06
289.524	870.06
289.755	899.06
289.986	895.06
290.217	894.06
290.448	895.06
290.679	895.06
290.91	920.06
291.141	901.06
291.371	915.06
291.602	888.06
291.833	900.06
292.064	931.06
292.295	913.06
292.526	912.06
292.757	933.06
292.987	879.06
293.218	892.06
293.449	907.06
293.68	910.06
293.91	931.06
294.141	916.06
294.372	896.06
294.603	887.06
294.833	943.06
295.064	939.06
295.295	939.06
295.525	938.06
295.756	928.06
295.987	917.06
296.217	929.06
296.448	964.06
296.679	946.06
296.909	942.06
297.14	919.06
297.37	980.06
297.601	994.06
297.831	1002.06
298.062	980.06
298.292	1003.06
298.523	1021.06
298.753	1012.06
298.984	977.06
299.214	993.06
299.445	1025.06
299.675	981.06
299.905	989.06
300.136	1020.06
300.366	1051.06
300.597	1074.06
300.827	1039.06
301.057	1059.06
301.288	1048.06
301.518	1065.06
301.748	1072.06
301.979	1090.06
302.209	1053.06
302.439	1056.06
302.669	1023.06
302.9	1051.06
303.13	1043.06
303.36	1069.06
303.59	1044.06
303.82	1051.06
304.051	1083.06
304.281	1058.06
304.511	1031.06
304.741	1035.06
304.971	1083.06
305.201	1076.06
305.431	1084.06
305.661	1058.06
305.891	1055.06
306.121	1083.06
306.352	1079.06
306.582	1033.06
306.812	1055.06
307.042	1028.06
307.272	1017.06
307.502	1019.06
307.731	1058.06
307.961	1020.06
308.191	1061.06
308.421	1025.06
308.651	1042.06
308.881	1014.06
309.111	1025.06
309.341	1013.06
309.571	1059.06
309.8	1071.06
310.03	1086.06
310.26	1065.06
310.49	1081.06
310.72	1018.06
310.949	1061.06
311.179	1096.06
311.409	1081.06
311.639	1062.06
311.868	1078.06
312.098	1095.06
312.328	1066.06
312.557	1085.06
312.787	1071.06
313.017	1121.06
313.246	1109.06
313.476	1127.06
313.706	1147.06
313.935	1155.06
314.165	1131.06
314.394	1153.06
314.624	1138.06
314.853	1095.06
315.083	1138.06
315.312	1133.06
315.542	1131.06
315.771	1113.06
316.001	1103.06
316.23	1134.06
316.46	1127.06
316.689	1147.06
316.919	1108.06
317.148	1102.06
317.377	1098.06
317.607	1102.06
317.836	1113.06
318.065	1107.06
318.295	1098.06
318.524	1116.06
318.753	1132.06
318.983	1139.06
319.212	1107.06
319.441	1111.06
319.67	1140.06
319.9	1129.06
320.129	1128.06
320.358	1120.06
320.587	1116.06
320.816	1144.06
321.046	1125.06
321.275	1118.06
321.504	1117.06
321.733	1151.06
321.962	1130.06
322.191	1139.06
322.42	1123.06
322.649	1160.06
322.878	1159.06
323.108	1113.06
323.337	1129.06
323.566	1175.06
323.795	1178.06
324.024	1161.06
324.253	1145.06
324.482	1188.06
324.71	1174.06
324.939	1156.06
325.168	1165.06
325.397	1152.06
325.626	1188.06
325.855	1227.06
326.084	1259.06
326.313	1209.06
326.542	1224.06
326.77	1202.06
326.999	1227.06
327.228	1246.06
327.457	1207.06
327.686	1213.06
327.914	1194.06
328.143	1218.06
328.372	1227.06
328.6	1240.06
328.829	1225.06
329.058	1233.06
329.287	1227.06
329.515	1226.06
329.744	1250.06
329.972	1239.06
330.201	1231.06
330.43	1248.06
330.658	1208.06
330.887	1266.06
331.115	1253.06
331.344	1285.06
331.572	1265.06
331.801	1318.06
332.03	1357.06
332.258	1378.06
332.486	1393.06
332.715	1456.06
332.943	1479.06
333.172	1493.06
333.4	1567.06
333.629	1604.06
333.857	1604.06
334.085	1647.06
334.314	1609.06
334.542	1563.06
334.771	1579.06
334.999	1534.06
335.227	1541.06
335.455	1577.06
335.684	1561.06
335.912	1499.06
336.14	1505.06
336.369	1484.06
336.597	1504.06
336.825	1490.06
337.053	1489.06
337.281	1461.06
337.51	1469.06
337.738	1417.06
337.966	1415.06
338.194	1409.06
338.422	1420.06
338.65	1352.06
338.878	1355.06
339.106	1395.06
339.334	1417.06
339.562	1365.06
339.79	1347.06
340.018	1293.06
340.246	1285.06
340.474	1264.06
340.702	1311.06
340.93	1285.06
341.158	1331.06
341.386	1334.06
341.614	1375.06
341.842	1338.06
342.07	1258.06
342.298	1290.06
342.526	1315.06
342.754	1293.06
342.981	1290.06
343.209	1333.06
343.437	1368.06
343.665	1498.06
343.893	1501.06
344.12	1517.06
344.348	1511.06
344.576	1498.06
344.804	1428.06
345.031	1380.06
345.259	1333.06
345.487	1316.06
345.714	1317.06
345.942	1331.06
346.17	1347.06
346.397	1321.06
346.625	1233.06
346.853	1243.06
347.08	1213.06
347.308	1246.06
347.535	1241.06
347.763	1212.06
347.99	1205.06
348.218	1242.06
348.445	1221.06
348.673	1186.06
348.9	1232.06
349.128	1231.06
349.355	1235.06
349.583	1261.06
349.81	1197.06
350.037	1174.06
350.265	1176.06
350.492	1174.06
350.72	1219.06
350.947	1204.06
351.174	1226.06
351.402	1232.06
351.629	1243.06
351.856	1260.06
352.083	1210.06
352.311	1188.06
352.538	1221.06
352.765	1245.06
352.992	1173.06
353.22	1125.06
353.447	1148.06
353.674	1147.06
353.901	1174.06
354.128	1178.06
354.355	1188.06
354.583	1187.06
354.81	1140.06
355.037	1195.06
355.264	1155.06
355.491	1170.06
355.718	1153.06
355.945	1165.06
356.172	1162.06
356.399	1205.06
356.626	1215.06
356.853	1218.06
357.08	1184.06
357.307	1180.06
357.534	1162.06
357.761	1187.06
357.988	1151.06
358.215	1163.06
358.441	1177.06
358.668	1143.06
358.895	1131.06
359.122	1173.06
359.349	1174.06
359.576	1138.06
359.802	1175.06
360.029	1201.06
360.256	1185.06
360.483	1173.06
360.709	1183.06
360.936	1161.06
361.163	1235.06
361.39	1175.06
361.616	1187.06
361.843	1236.06
362.07	1253.06
362.296	1228.06
362.523	1143.06
362.749	1169.06
362.976	1120.06
363.203	1133.06
363.429	1145.06
363.656	1150.06
363.882	1135.06
364.109	1173.06
364.335	1169.06
364.562	1127.06
364.788	1175.06
365.015	1144.06
365.241	1173.06
365.468	1147.06
365.694	1153.06
365.92	1167.06
366.147	1138.06
366.373	1137.06
366.599	1152.06
366.826	1135.06
367.052	1152.06
367.278	1155.06
367.505	1145.06
367.731	1167.06
367.957	1151.06
368.184	1147.06
368.41	1189.06
368.636	1177.06
368.862	1196.06
369.089	1163.06
369.315	1177.06
369.541	1201.06
369.767	1173.06
369.993	1175.06
370.219	1187.06
370.445	1173.06
370.672	1215.06
370.898	1229.06
371.124	1249.06
371.35	1210.06
371.576	1222.06
371.802	1239.06
372.028	1258.06
372.254	1251.06
372.48	1225.06
372.706	1240.06
372.932	1285.06
373.158	1282.06
373.384	1260.06
373.61	1228.06
373.835	1232.06
374.061	1232.06
374.287	1238.06
374.513	1242.06
374.739	1316.06
374.965	1337.06
375.191	1356.06
375.416	1306.06
375.642	1333.06
375.868	1286.06
376.094	1279.06
376.319	1276.06
376.545	1252.06
376.771	1269.06
376.997	1263.06
377.222	1251.06
377.448	1229.06
377.674	1244.06
377.899	1220.06
378.125	1243.06
378.35	1201.06
378.576	1218.06
378.802	1193.06
379.027	1194.06
379.253	1209.06
379.478	1196.06
379.704	1215.06
379.929	1248.06
380.155	1211.06
380.38	1197.06
380.606	1240.06
380.831	1249.06
381.057	1249.06
381.282	1204.06
381.507	1183.06
381.733	1244.06
381.958	1237.06
382.184	1225.06
382.409	1232.06
382.634	1267.06
382.86	1288.06
383.085	1288.06
383.31	1306.06
383.535	1312.06
383.761	1353.06
383.986	1346.06
384.211	1373.06
384.436	1413.06
384.662	1429.06
384.887	1434.06
385.112	1425.06
385.337	1459.06
385.562	1442.06
385.787	1464.06
386.013	1477.06
386.238	1484.06
386.463	1498.06
386.688	1503.06
386.913	1446.06
387.138	1440.06
387.363	1510.06
387.588	1448.06
387.813	1423.06
388.038	1436.06
388.263	1467.06
388.488	1437.06
388.713	1455.06
388.938	1472.06
389.163	1470.06
389.387	1452.06
389.612	1409.06
389.837	1425.06
390.062	1426.06
390.287	1453.06
390.512	1429.06
390.736	1502.06
390.961	1471.06
391.186	1520.06
391.411	1538.06
391.636	1584.06
391.86	1627.06
392.085	1636.06
392.31	1625.06
392.534	1597.06
392.759	1566.06
392.984	1583.06
393.208	1561.06
393.433	1562.06
393.658	1542.06
393.882	1554.06
394.107	1531.06
394.331	1589.06
394.556	1597.06
394.78	1572.06
395.005	1567.06
395.229	1595.06
395.454	1613.06
395.678	1647.06
395.903	1642.06
396.127	1629.06
396.352	1591.06
396.576	1574.06
396.801	1550.06
397.025	1633.06
397.249	1584.06
397.474	1671.06
397.698	1668.06
397.922	1703.06
398.147	1661.06
398.371	1747.06
398.595	1785.06
398.82	1847.06
399.044	1953.06
399.268	2120.06
399.492	2359.06
399.717	2593.06
399.941	2602.06
400.165	2457.06
400.389	2215.06
400.613	2083.06
400.837	1999.06
401.062	1936.06
401.286	1900.06
401.51	1867.06
401.734	1835.06
401.958	1914.06
402.182	1880.06
402.406	1884.06
402.63	1887.06
402.854	1911.06
403.078	1895.06
403.302	2003.06
403.526	1989.06
403.75	2002.06
403.974	2025.06
404.198	2035.06
404.422	2059.06
404.645	2012.06
404.869	2016.06
405.093	2067.06
405.317	2020.06
405.541	2031.06
405.765	2019.06
405.988	2016.06
406.212	2050.06
406.436	1999.06
406.66	2055.06
406.883	2079.06
407.107	2211.06
407.331	2284.06
407.555	2346.06
407.778	2326.06
408.002	2295.06
408.226	2199.06
408.449	2229.06
408.673	2137.06
408.896	2116.06
409.12	2045.06
409.344	2079.06
409.567	2047.06
409.791	2057.06
410.014	2032.06
410.238	2023.06
410.461	2003.06
410.685	1991.06
410.908	1990.06
411.132	1946.06
411.355	1899.06
411.578	1923.06
411.802	1936.06
412.025	1926.06
412.249	1962.06
412.472	1902.06
412.695	1878.06
412.919	1877.06
413.142	1883.06
413.365	1875.06
413.589	1862.06
413.812	1839.06
414.035	1862.06
414.258	1846.06
414.482	1852.06
414.705	1867.06
414.928	1875.06
415.151	1907.06
415.374	1902.06
415.597	1818.06
415.821	1793.06
416.044	1815.06
416.267	1801.06
416.49	1808.06
416.713	1785.06
416.936	1803.06
417.159	1812.06
417.382	1778.06
417.605	1761.06
417.828	1809.06
418.051	1833.06
418.274	1795.06
418.497	1805.06
418.72	1859.06
418.943	1858.06
419.166	1932.06
419.389	2075.06
419.611	2018.06
419.834	2000.06
420.057	1900.06
420.28	1841.06
420.503	1797.06
420.726	1784.06
420.948	1804.06
421.171	1828.06
421.394	1828.06
421.617	1824.06
421.839	1793.06
422.062	1828.06
422.285	1803.06
422.507	1833.06
422.73	1828.06
422.953	1840.06
423.175	1847.06
423.398	1823.06
423.621	1847.06
423.843	1905.06
424.066	1881.06
424.288	1890.06
424.511	1842.06
424.733	1850.06
424.956	1832.06
425.178	1831.06
425.401	1812.06
425.623	1856.06
425.846	1798.06
426.068	1791.06
426.291	1781.06
426.513	1757.06
426.735	1719.06
426.958	1772.06
427.18	1691.06
427.402	1642.06
427.625	1693.06
427.847	1662.06
428.069	1667.06
428.292	1665.06
428.514	1663.06
428.736	1658.06
428.958	1657.06
429.181	1652.06
429.403	1611.06
429.625	1603.06
429.847	1652.06
430.069	1632.06
430.292	1623.06
430.514	1619.06
430.736	1611.06
430.958	1620.06
431.18	1613.06
431.402	1624.06
431.624	1657.06
431.846	1652.06
432.068	1699.06
432.29	1708.06
432.512	1641.06
432.734	1680.06
432.956	1660.06
433.178	1665.06
433.4	1681.06
433.622	1696.06
433.844	1689.06
434.066	1704.06
434.287	1703.06
434.509	1795.06
434.731	1815.06
434.953	1818.06
435.175	1827.06
435.397	1877.06
435.618	1788.06
435.84	1757.06
436.062	1677.06
436.284	1714.06
436.505	1636.06
436.727	1667.06
436.949	1671.06
437.17	1675.06
437.392	1643.06
437.614	1623.06
437.835	1612.06
438.057	1629.06
438.278	1595.06
438.5	1598.06
438.721	1602.06
438.943	1620.06
439.165	1610.06
439.386	1593.06
439.608	1636.06
439.829	1675.06
440.05	1658.06
440.272	1678.06
440.493	1662.06
440.715	1698.06
440.936	1718.06
441.158	1750.06
441.379	1799.06
441.6	1861.06
441.822	1849.06
442.043	1875.06
442.264	1819.06
442.486	1776.06
442.707	1799.06
442.928	1799.06
443.149	1819.06
443.371	1873.06
443.592	1833.06
443.813	1842.06
444.034	1855.06
444.255	1893.06
444.476	2031.06
444.698	2075.06
444.919	2146.06
445.14	2151.06
445.361	2017.06
445.582	1925.06
445.803	1834.06
446.024	1805.06
446.245	1776.06
446.466	1723.06
446.687	1691.06
446.908	1682.06
447.129	1644.06
447.35	1637.06
447.571	1602.06
447.792	1563.06
448.013	1565.06
448.234	1557.06
448.455	1549.06
448.675	1540.06
448.896	1525.06
449.117	1490.06
449.338	1505.06
449.559	1516.06
449.779	1516.06
450	1505.06
450.221	1499.06
450.442	1545.06
450.662	1500.06
450.883	1527.06
451.104	1555.06
451.324	1546.06
451.545	1479.06
451.766	1519.06
451.986	1492.06
452.207	1448.06
452.428	1493.06
452.648	1485.06
452.869	1469.06
453.089	1493.06
453.31	1425.06
453.53	1421.06
453.751	1455.06
453.971	1451.06
454.192	1449.06
454.412	1437.06
454.633	1434.06
454.853	1415.06
455.073	1453.06
455.294	1415.06
455.514	1431.06
455.734	1401.06
455.955	1409.06
456.175	1434.06
456.395	1427.06
456.616	1409.06
456.836	1480.06
457.056	1414.06
457.276	1429.06
457.497	1428.06
457.717	1449.06
457.937	1433.06
458.157	1431.06
458.377	1485.06
458.598	1518.06
458.818	1551.06
459.038	1591.06
459.258	1629.06
459.478	1689.06
459.698	1738.06
459.918	1801.06
460.138	1844.06
460.358	1868.06
460.578	1943.06
460.798	1959.06
461.018	1978.06
461.238	1945.06
461.458	1912.06
461.678	1959.06
461.898	2011.06
462.118	1982.06
462.338	2071.06
462.558	2117.06
462.777	2211.06
462.997	2393.06
463.217	2483.06
463.437	2530.06
463.657	2390.06
463.876	2341.06
464.096	2271.06
464.316	2291.06
464.536	2232.06
464.755	2191.06
464.975	2127.06
465.195	2030.06
465.414	1936.06
465.634	1848.06
465.854	1756.06
466.073	1742.06
466.293	1703.06
466.512	1653.06
466.732	1623.06
466.951	1644.06
467.171	1651.06
467.391	1641.06
467.61	1627.06
467.829	1616.06
468.049	1567.06
468.268	1570.06
468.488	1546.06
468.707	1551.06
468.927	1563.06
469.146	1568.06
469.365	1624.06
469.585	1569.06
469.804	1665.06
470.023	1642.06
470.243	1654.06
470.462	1633.06
470.681	1677.06
470.901	1633.06
471.12	1669.06
471.339	1619.06
471.558	1613.06
471.777	1611.06
471.997	1581.06
472.216	1572.06
472.435	1556.06
472.654	1528.06
472.873	1519.06
473.092	1553.06
473.311	1544.06
473.53	1515.06
473.749	1480.06
473.968	1512.06
474.187	1552.06
474.406	1558.06
474.625	1576.06
474.844	1564.06
475.063	1527.06
475.282	1511.06
475.501	1543.06
475.72	1543.06
475.939	1621.06
476.158	1569.06
476.377	1601.06
476.596	1580.06
476.814	1642.06
477.033	1660.06
477.252	1675.06
477.471	1693.06
477.69	1742.06
477.908	1771.06
478.127	1843.06
478.346	1840.06
478.564	1877.06
478.783	1921.06
479.002	1963.06
479.22	1962.06
479.439	1935.06
479.658	1937.06
479.876	1968.06
480.095	1925.06
480.313	2030.06
480.532	2067.06
480.751	2040.06
480.969	1978.06
481.188	1941.06
481.406	1885.06
481.624	1875.06
481.843	1835.06
482.061	1833.06
482.28	1793.06
482.498	1853.06
482.717	1855.06
482.935	1843.06
483.153	1842.06
483.372	1857.06
483.59	1894.06
483.808	1842.06
484.027	1855.06
484.245	1825.06
484.463	1834.06
484.681	1865.06
484.9	1887.06
485.118	1896.06
485.336	1904.06
485.554	1891.06
485.772	1934.06
485.99	1908.06
486.209	1889.06
486.427	1918.06
486.645	1893.06
486.863	1917.06
487.081	1949.06
487.299	1927.06
487.517	1901.06
487.735	1952.06
487.953	1941.06
488.171	1929.06
488.389	1891.06
488.607	1904.06
488.825	1865.06
489.043	1864.06
489.261	1858.06
489.479	1926.06
489.696	1890.06
489.914	1909.06
