Data from NiCl2@0.125M.TitratingCurve.Agarose3%dH2O.NegLispCup.LampEnergy10.LIBS07252019_HRD10591_18-30-29-576.txt Node
Date: Thu Jul 25 18:30:29 EDT 2019
User: cochatt
Spectrometer: HR+D1059
Trigger mode: 1
Integration Time (sec): 1.000000E-1
Scans to average: 1
Electric dark correction enabled: true
Nonlinearity correction enabled: false
Boxcar width: 0
XAxis mode: Wavelengths
Number of Pixels in Spectrum: 2048
>>>>>Begin Spectral Data<<<<<
223.165	-22.25
223.4	-22.25
223.635	-22.25
223.869	-9.25
224.104	-7.25
224.338	0.75
224.573	-10.25
224.808	-13.25
225.042	-8.25
225.277	1.75
225.511	-6.25
225.746	-1.25
225.98	-11.25
226.215	2.75
226.449	25.75
226.683	8.75
226.918	18.75
227.152	30.75
227.387	13.75
227.621	52.75
227.856	53.75
228.09	40.75
228.324	56.75
228.559	54.75
228.793	75.75
229.027	106.75
229.262	120.75
229.496	103.75
229.73	122.75
229.964	130.75
230.199	105.75
230.433	126.75
230.667	130.75
230.901	149.75
231.136	134.75
231.37	146.75
231.604	135.75
231.838	152.75
232.072	136.75
232.306	137.75
232.541	141.75
232.775	143.75
233.009	138.75
233.243	148.75
233.477	150.75
233.711	160.75
233.945	158.75
234.179	139.75
234.413	150.75
234.647	147.75
234.881	152.75
235.115	143.75
235.349	155.75
235.583	143.75
235.817	148.75
236.051	146.75
236.285	170.75
236.519	135.75
236.753	152.75
236.987	149.75
237.221	164.75
237.455	153.75
237.689	160.75
237.922	148.75
238.156	166.75
238.39	174.75
238.624	168.75
238.858	163.75
239.091	164.75
239.325	162.75
239.559	169.75
239.793	169.75
240.027	174.75
240.26	176.75
240.494	182.75
240.728	160.75
240.961	155.75
241.195	180.75
241.429	178.75
241.662	187.75
241.896	200.75
242.13	201.75
242.363	188.75
242.597	197.75
242.83	192.75
243.064	183.75
243.298	195.75
243.531	200.75
243.765	215.75
243.998	204.75
244.232	213.75
244.465	217.75
244.699	199.75
244.932	215.75
245.166	227.75
245.399	221.75
245.633	211.75
245.866	222.75
246.099	228.75
246.333	223.75
246.566	213.75
246.8	232.75
247.033	223.75
247.266	216.75
247.5	225.75
247.733	231.75
247.966	234.75
248.2	235.75
248.433	232.75
248.666	242.75
248.899	231.75
249.133	254.75
249.366	233.75
249.599	241.75
249.832	226.75
250.066	242.75
250.299	249.75
250.532	234.75
250.765	246.75
250.998	267.75
251.231	242.75
251.465	258.75
251.698	261.75
251.931	258.75
252.164	262.75
252.397	264.75
252.63	279.75
252.863	273.75
253.096	279.75
253.329	273.75
253.562	259.75
253.795	267.75
254.028	281.75
254.261	268.75
254.494	275.75
254.727	276.75
254.96	276.75
255.193	280.75
255.426	270.75
255.659	259.75
255.892	278.75
256.124	304.75
256.357	274.75
256.59	286.75
256.823	276.75
257.056	259.75
257.289	271.75
257.521	309.75
257.754	291.75
257.987	306.75
258.22	304.75
258.452	285.75
258.685	292.75
258.918	296.75
259.151	313.75
259.383	299.75
259.616	310.75
259.849	307.75
260.081	308.75
260.314	326.75
260.547	291.75
260.779	286.75
261.012	306.75
261.244	324.75
261.477	333.75
261.71	314.75
261.942	304.75
262.175	325.75
262.407	316.75
262.64	319.75
262.872	329.75
263.105	317.75
263.337	329.75
263.57	332.75
263.802	340.75
264.035	333.75
264.267	311.75
264.499	326.75
264.732	337.75
264.964	316.75
265.197	355.75
265.429	339.75
265.661	344.75
265.894	338.75
266.126	368.75
266.358	339.75
266.591	323.75
266.823	354.75
267.055	332.75
267.287	346.75
267.52	358.75
267.752	351.75
267.984	359.75
268.216	356.75
268.448	363.75
268.681	366.75
268.913	362.75
269.145	379.75
269.377	351.75
269.609	349.75
269.841	369.75
270.073	367.75
270.306	354.75
270.538	356.75
270.77	375.75
271.002	360.75
271.234	367.75
271.466	377.75
271.698	376.75
271.93	374.75
272.162	391.75
272.394	384.75
272.626	385.75
272.858	386.75
273.09	367.75
273.322	387.75
273.553	387.75
273.785	385.75
274.017	396.75
274.249	381.75
274.481	392.75
274.713	391.75
274.945	408.75
275.176	395.75
275.408	394.75
275.64	407.75
275.872	386.75
276.104	425.75
276.335	405.75
276.567	408.75
276.799	404.75
277.031	418.75
277.262	415.75
277.494	412.75
277.726	398.75
277.957	416.75
278.189	420.75
278.421	426.75
278.652	409.75
278.884	464.75
279.115	438.75
279.347	403.75
279.579	422.75
279.81	414.75
280.042	444.75
280.273	430.75
280.505	408.75
280.736	432.75
280.968	432.75
281.199	442.75
281.431	450.75
281.662	440.75
281.894	448.75
282.125	439.75
282.356	455.75
282.588	452.75
282.819	458.75
283.051	472.75
283.282	462.75
283.513	473.75
283.745	462.75
283.976	470.75
284.207	469.75
284.439	465.75
284.67	473.75
284.901	472.75
285.132	460.75
285.364	479.75
285.595	482.75
285.826	466.75
286.057	474.75
286.288	478.75
286.52	471.75
286.751	481.75
286.982	469.75
287.213	497.75
287.444	490.75
287.675	486.75
287.906	487.75
288.138	490.75
288.369	506.75
288.6	500.75
288.831	496.75
289.062	503.75
289.293	514.75
289.524	496.75
289.755	503.75
289.986	508.75
290.217	503.75
290.448	502.75
290.679	530.75
290.91	519.75
291.141	512.75
291.371	512.75
291.602	518.75
291.833	504.75
292.064	495.75
292.295	499.75
292.526	516.75
292.757	494.75
292.987	495.75
293.218	511.75
293.449	525.75
293.68	524.75
293.91	495.75
294.141	514.75
294.372	520.75
294.603	537.75
294.833	532.75
295.064	532.75
295.295	511.75
295.525	498.75
295.756	513.75
295.987	540.75
296.217	535.75
296.448	540.75
296.679	542.75
296.909	537.75
297.14	547.75
297.37	566.75
297.601	581.75
297.831	567.75
298.062	544.75
298.292	575.75
298.523	564.75
298.753	579.75
298.984	570.75
299.214	583.75
299.445	554.75
299.675	546.75
299.905	571.75
300.136	576.75
300.366	536.75
300.597	558.75
300.827	564.75
301.057	576.75
301.288	594.75
301.518	600.75
301.748	588.75
301.979	612.75
302.209	600.75
302.439	561.75
302.669	580.75
302.9	592.75
303.13	561.75
303.36	571.75
303.59	564.75
303.82	572.75
304.051	569.75
304.281	577.75
304.511	545.75
304.741	578.75
304.971	569.75
305.201	577.75
305.431	564.75
305.661	547.75
305.891	576.75
306.121	600.75
306.352	574.75
306.582	564.75
306.812	574.75
307.042	572.75
307.272	579.75
307.502	564.75
307.731	561.75
307.961	551.75
308.191	560.75
308.421	554.75
308.651	578.75
308.881	559.75
309.111	553.75
309.341	568.75
309.571	574.75
309.8	579.75
310.03	539.75
310.26	546.75
310.49	568.75
310.72	578.75
310.949	556.75
311.179	554.75
311.409	560.75
311.639	568.75
311.868	583.75
312.098	562.75
312.328	577.75
312.557	586.75
312.787	569.75
313.017	596.75
313.246	582.75
313.476	624.75
313.706	616.75
313.935	602.75
314.165	600.75
314.394	591.75
314.624	623.75
314.853	594.75
315.083	606.75
315.312	590.75
315.542	611.75
315.771	563.75
316.001	595.75
316.23	587.75
316.46	566.75
316.689	576.75
316.919	588.75
317.148	602.75
317.377	589.75
317.607	578.75
317.836	588.75
318.065	578.75
318.295	580.75
318.524	589.75
318.753	578.75
318.983	575.75
319.212	595.75
319.441	583.75
319.67	602.75
319.9	569.75
320.129	594.75
320.358	592.75
320.587	582.75
320.816	577.75
321.046	598.75
321.275	587.75
321.504	611.75
321.733	580.75
321.962	602.75
322.191	589.75
322.42	611.75
322.649	583.75
322.878	608.75
323.108	603.75
323.337	577.75
323.566	571.75
323.795	632.75
324.024	620.75
324.253	592.75
324.482	601.75
324.71	587.75
324.939	601.75
325.168	589.75
325.397	615.75
325.626	636.75
325.855	630.75
326.084	664.75
326.313	656.75
326.542	647.75
326.77	643.75
326.999	649.75
327.228	624.75
327.457	625.75
327.686	629.75
327.914	636.75
328.143	652.75
328.372	652.75
328.6	657.75
328.829	626.75
329.058	650.75
329.287	642.75
329.515	647.75
329.744	623.75
329.972	663.75
330.201	663.75
330.43	654.75
330.658	666.75
330.887	672.75
331.115	671.75
331.344	672.75
331.572	689.75
331.801	720.75
332.03	722.75
332.258	714.75
332.486	726.75
332.715	752.75
332.943	796.75
333.172	836.75
333.4	855.75
333.629	883.75
333.857	889.75
334.085	869.75
334.314	854.75
334.542	831.75
334.771	838.75
334.999	785.75
335.227	792.75
335.455	807.75
335.684	791.75
335.912	789.75
336.14	810.75
336.369	784.75
336.597	805.75
336.825	791.75
337.053	771.75
337.281	737.75
337.51	762.75
337.738	738.75
337.966	734.75
338.194	699.75
338.422	698.75
338.65	692.75
338.878	682.75
339.106	689.75
339.334	697.75
339.562	657.75
339.79	678.75
340.018	672.75
340.246	653.75
340.474	671.75
340.702	672.75
340.93	674.75
341.158	678.75
341.386	684.75
341.614	681.75
341.842	675.75
342.07	643.75
342.298	674.75
342.526	682.75
342.754	652.75
342.981	645.75
343.209	672.75
343.437	726.75
343.665	755.75
343.893	810.75
344.12	870.75
344.348	796.75
344.576	752.75
344.804	764.75
345.031	691.75
345.259	682.75
345.487	679.75
345.714	683.75
345.942	660.75
346.17	656.75
346.397	672.75
346.625	687.75
346.853	666.75
347.08	659.75
347.308	646.75
347.535	679.75
347.763	690.75
347.99	674.75
348.218	690.75
348.445	645.75
348.673	672.75
348.9	646.75
349.128	646.75
349.355	646.75
349.583	650.75
349.81	663.75
350.037	631.75
350.265	630.75
350.492	608.75
350.72	622.75
350.947	627.75
351.174	626.75
351.402	640.75
351.629	613.75
351.856	636.75
352.083	634.75
352.311	638.75
352.538	613.75
352.765	646.75
352.992	608.75
353.22	608.75
353.447	609.75
353.674	628.75
353.901	620.75
354.128	630.75
354.355	638.75
354.583	632.75
354.81	638.75
355.037	631.75
355.264	624.75
355.491	634.75
355.718	628.75
355.945	665.75
356.172	652.75
356.399	620.75
356.626	636.75
356.853	616.75
357.08	633.75
357.307	640.75
357.534	628.75
357.761	630.75
357.988	642.75
358.215	630.75
358.441	641.75
358.668	600.75
358.895	613.75
359.122	636.75
359.349	645.75
359.576	635.75
359.802	618.75
360.029	618.75
360.256	628.75
360.483	619.75
360.709	631.75
360.936	635.75
361.163	632.75
361.39	601.75
361.616	626.75
361.843	650.75
362.07	615.75
362.296	618.75
362.523	612.75
362.749	661.75
362.976	617.75
363.203	626.75
363.429	632.75
363.656	627.75
363.882	636.75
364.109	615.75
364.335	610.75
364.562	610.75
364.788	628.75
365.015	647.75
365.241	621.75
365.468	604.75
365.694	646.75
365.92	615.75
366.147	627.75
366.373	634.75
366.599	625.75
366.826	629.75
367.052	620.75
367.278	610.75
367.505	637.75
367.731	650.75
367.957	641.75
368.184	624.75
368.41	634.75
368.636	651.75
368.862	638.75
369.089	637.75
369.315	649.75
369.541	642.75
369.767	635.75
369.993	651.75
370.219	656.75
370.445	662.75
370.672	670.75
370.898	646.75
371.124	664.75
371.35	691.75
371.576	680.75
371.802	688.75
372.028	678.75
372.254	676.75
372.48	677.75
372.706	679.75
372.932	727.75
373.158	711.75
373.384	682.75
373.61	672.75
373.835	667.75
374.061	678.75
374.287	695.75
374.513	706.75
374.739	713.75
374.965	727.75
375.191	753.75
375.416	755.75
375.642	738.75
375.868	736.75
376.094	729.75
376.319	694.75
376.545	690.75
376.771	667.75
376.997	689.75
377.222	730.75
377.448	698.75
377.674	703.75
377.899	687.75
378.125	687.75
378.35	686.75
378.576	660.75
378.802	666.75
379.027	664.75
379.253	696.75
379.478	677.75
379.704	678.75
379.929	674.75
380.155	671.75
380.38	666.75
380.606	692.75
380.831	679.75
381.057	675.75
381.282	663.75
381.507	677.75
381.733	690.75
381.958	696.75
382.184	696.75
382.409	695.75
382.634	715.75
382.86	692.75
383.085	734.75
383.31	737.75
383.535	754.75
383.761	759.75
383.986	794.75
384.211	770.75
384.436	809.75
384.662	818.75
384.887	814.75
385.112	833.75
385.337	822.75
385.562	835.75
385.787	828.75
386.013	836.75
386.238	825.75
386.463	822.75
386.688	826.75
386.913	797.75
387.138	797.75
387.363	835.75
387.588	790.75
387.813	792.75
388.038	780.75
388.263	815.75
388.488	835.75
388.713	811.75
388.938	819.75
389.163	786.75
389.387	777.75
389.612	816.75
389.837	787.75
390.062	814.75
390.287	795.75
390.512	793.75
390.736	802.75
390.961	806.75
391.186	851.75
391.411	856.75
391.636	891.75
391.86	913.75
392.085	929.75
392.31	932.75
392.534	892.75
392.759	873.75
392.984	857.75
393.208	891.75
393.433	897.75
393.658	872.75
393.882	878.75
394.107	888.75
394.331	875.75
394.556	874.75
394.78	860.75
395.005	880.75
395.229	874.75
395.454	920.75
395.678	901.75
395.903	907.75
396.127	912.75
396.352	898.75
396.576	873.75
396.801	886.75
397.025	862.75
397.249	874.75
397.474	942.75
397.698	902.75
397.922	940.75
398.147	900.75
398.371	943.75
398.595	923.75
398.82	995.75
399.044	1046.75
399.268	1166.75
399.492	1397.75
399.717	1608.75
399.941	1603.75
400.165	1422.75
400.389	1226.75
400.613	1121.75
400.837	1086.75
401.062	1073.75
401.286	1021.75
401.51	1013.75
401.734	1020.75
401.958	1057.75
402.182	1044.75
402.406	1057.75
402.63	1080.75
402.854	1083.75
403.078	1163.75
403.302	1165.75
403.526	1194.75
403.75	1185.75
403.974	1207.75
404.198	1218.75
404.422	1233.75
404.645	1174.75
404.869	1205.75
405.093	1156.75
405.317	1171.75
405.541	1152.75
405.765	1144.75
405.988	1126.75
406.212	1131.75
406.436	1128.75
406.66	1155.75
406.883	1190.75
407.107	1264.75
407.331	1300.75
407.555	1354.75
407.778	1345.75
408.002	1312.75
408.226	1300.75
408.449	1238.75
408.673	1186.75
408.896	1190.75
409.12	1192.75
409.344	1170.75
409.567	1178.75
409.791	1216.75
410.014	1206.75
410.238	1161.75
410.461	1176.75
410.685	1167.75
410.908	1142.75
411.132	1099.75
411.355	1092.75
411.578	1090.75
411.802	1050.75
412.025	1090.75
412.249	1068.75
412.472	1092.75
412.695	1063.75
412.919	1028.75
413.142	1024.75
413.365	1049.75
413.589	1038.75
413.812	999.75
414.035	1018.75
414.258	1004.75
414.482	1032.75
414.705	994.75
414.928	1038.75
415.151	1062.75
415.374	1083.75
415.597	1042.75
415.821	1009.75
416.044	1023.75
416.267	986.75
416.49	1011.75
416.713	995.75
416.936	1026.75
417.159	993.75
417.382	1004.75
417.605	1047.75
417.828	1025.75
418.051	1028.75
418.274	998.75
418.497	1033.75
418.72	1056.75
418.943	1077.75
419.166	1124.75
419.389	1264.75
419.611	1164.75
419.834	1136.75
420.057	1064.75
420.28	1050.75
420.503	1015.75
420.726	1008.75
420.948	983.75
421.171	1018.75
421.394	1002.75
421.617	1000.75
421.839	1022.75
422.062	1019.75
422.285	988.75
422.507	1043.75
422.73	1041.75
422.953	1066.75
423.175	1065.75
423.398	1108.75
423.621	1086.75
423.843	1116.75
424.066	1104.75
424.288	1097.75
424.511	1100.75
424.733	1084.75
424.956	1050.75
425.178	1060.75
425.401	1042.75
425.623	1028.75
425.846	1006.75
426.068	947.75
426.291	986.75
426.513	979.75
426.735	965.75
426.958	982.75
427.18	936.75
427.402	934.75
427.625	921.75
427.847	923.75
428.069	937.75
428.292	916.75
428.514	904.75
428.736	914.75
428.958	929.75
429.181	915.75
429.403	892.75
429.625	893.75
429.847	910.75
430.069	906.75
430.292	900.75
430.514	867.75
430.736	890.75
430.958	891.75
431.18	869.75
431.402	889.75
431.624	910.75
431.846	924.75
432.068	934.75
432.29	926.75
432.512	904.75
432.734	907.75
432.956	904.75
433.178	919.75
433.4	944.75
433.622	934.75
433.844	916.75
434.066	933.75
434.287	937.75
434.509	985.75
434.731	1008.75
434.953	1035.75
435.175	1065.75
435.397	1056.75
435.618	980.75
435.84	937.75
436.062	943.75
436.284	919.75
436.505	916.75
436.727	951.75
436.949	942.75
437.17	917.75
437.392	912.75
437.614	913.75
437.835	867.75
438.057	866.75
438.278	882.75
438.5	884.75
438.721	907.75
438.943	887.75
439.165	884.75
439.386	912.75
439.608	900.75
439.829	920.75
440.05	928.75
440.272	925.75
440.493	954.75
440.715	942.75
440.936	950.75
441.158	964.75
441.379	1024.75
441.6	1029.75
441.822	1080.75
442.043	1072.75
442.264	1032.75
442.486	993.75
442.707	1031.75
442.928	1011.75
443.149	1035.75
443.371	1047.75
443.592	1051.75
443.813	1059.75
444.034	1050.75
444.255	1109.75
444.476	1150.75
444.698	1188.75
444.919	1269.75
445.14	1350.75
445.361	1211.75
445.582	1120.75
445.803	1032.75
446.024	1000.75
446.245	960.75
446.466	939.75
446.687	911.75
446.908	921.75
447.129	903.75
447.35	902.75
447.571	889.75
447.792	879.75
448.013	873.75
448.234	894.75
448.455	885.75
448.675	873.75
448.896	855.75
449.117	869.75
449.338	856.75
449.559	837.75
449.779	857.75
450	834.75
450.221	861.75
450.442	862.75
450.662	857.75
450.883	888.75
451.104	885.75
451.324	902.75
451.545	898.75
451.766	871.75
451.986	871.75
452.207	865.75
452.428	883.75
452.648	851.75
452.869	847.75
453.089	842.75
453.31	847.75
453.53	840.75
453.751	825.75
453.971	837.75
454.192	832.75
454.412	793.75
454.633	826.75
454.853	843.75
455.073	810.75
455.294	810.75
455.514	802.75
455.734	793.75
455.955	791.75
456.175	793.75
456.395	800.75
456.616	802.75
456.836	799.75
457.056	812.75
457.276	792.75
457.497	799.75
457.717	779.75
457.937	814.75
458.157	809.75
458.377	822.75
458.598	855.75
458.818	862.75
459.038	882.75
459.258	913.75
459.478	959.75
459.698	940.75
459.918	989.75
460.138	1013.75
460.358	1078.75
460.578	1108.75
460.798	1099.75
461.018	1145.75
461.238	1092.75
461.458	1060.75
461.678	1065.75
461.898	1086.75
462.118	1125.75
462.338	1176.75
462.558	1225.75
462.777	1293.75
462.997	1390.75
463.217	1470.75
463.437	1543.75
463.657	1399.75
463.876	1318.75
464.096	1317.75
464.316	1315.75
464.536	1321.75
464.755	1282.75
464.975	1245.75
465.195	1160.75
465.414	1074.75
465.634	1036.75
465.854	992.75
466.073	978.75
466.293	954.75
466.512	914.75
466.732	935.75
466.951	949.75
467.171	930.75
467.391	890.75
467.61	883.75
467.829	899.75
468.049	904.75
468.268	888.75
468.488	821.75
468.707	848.75
468.927	864.75
469.146	841.75
469.365	879.75
469.585	880.75
469.804	887.75
470.023	905.75
470.243	915.75
470.462	909.75
470.681	898.75
470.901	955.75
471.12	942.75
471.339	896.75
471.558	867.75
471.777	872.75
471.997	842.75
472.216	841.75
472.435	872.75
472.654	854.75
472.873	820.75
473.092	822.75
473.311	823.75
473.53	849.75
473.749	825.75
473.968	817.75
474.187	834.75
474.406	823.75
474.625	834.75
474.844	820.75
475.063	823.75
475.282	820.75
475.501	832.75
475.72	863.75
475.939	863.75
476.158	854.75
476.377	862.75
476.596	867.75
476.814	888.75
477.033	886.75
477.252	915.75
477.471	928.75
477.69	924.75
477.908	971.75
478.127	1014.75
478.346	1029.75
478.564	1011.75
478.783	1029.75
479.002	1051.75
479.22	1055.75
479.439	1040.75
479.658	1047.75
479.876	1044.75
480.095	1077.75
480.313	1130.75
480.532	1154.75
480.751	1126.75
480.969	1086.75
481.188	1035.75
481.406	1036.75
481.624	994.75
481.843	970.75
482.061	958.75
482.28	944.75
482.498	926.75
482.717	963.75
482.935	950.75
483.153	963.75
483.372	974.75
483.59	954.75
483.808	976.75
484.027	970.75
484.245	934.75
484.463	990.75
484.681	984.75
484.9	995.75
485.118	983.75
485.336	1012.75
485.554	1016.75
485.772	1065.75
485.99	1036.75
486.209	1023.75
486.427	1043.75
486.645	1034.75
486.863	1035.75
487.081	1010.75
487.299	1032.75
487.517	984.75
487.735	1000.75
487.953	987.75
488.171	1001.75
488.389	994.75
488.607	998.75
488.825	1007.75
489.043	997.75
489.261	1002.75
489.479	1004.75
489.696	970.75
489.914	1012.75
490.132	998.75
490.35	1014.75
490.568	1011.75
490.786	1015.75
491.003	1013.75
491.221	1031.75
491.439	1014.75
491.657	1032.75
491.874	1012.75
492.092	1027.75
492.31	1028.75
492.527	1025.75
492.745	1059.75
492.963	1049.75
493.18	1039.75
493.398	1047.75
493.615	1035.75
493.833	1042.75
494.05	1046.75
494.268	1036.75
494.485	1075.75
494.703	1046.75
494.92	1070.75
495.138	1018.75
495.355	1048.75
495.573	1073.75
495.79	1063.75
496.008	1048.75
496.225	1072.75
496.442	1102.75
496.66	1082.75
496.877	1121.75
497.094	1143.75
497.312	1121.75
497.529	1164.75
497.746	1168.75
497.963	1232.75
498.181	1252.75
498.398	1356.75
