Data from NiCl2@0.0625M.TitratingCurve.Agarose3%dH2O.NegLispCup.LampEnergy10.LIBS07252019_HRD10591_18-33-50-576.txt Node
Date: Thu Jul 25 18:33:50 EDT 2019
User: cochatt
Spectrometer: HR+D1059
Trigger mode: 1
Integration Time (sec): 1.000000E-1
Scans to average: 1
Electric dark correction enabled: true
Nonlinearity correction enabled: false
Boxcar width: 0
XAxis mode: Wavelengths
Number of Pixels in Spectrum: 2048
>>>>>Begin Spectral Data<<<<<
223.165	-13.88
223.4	-13.88
223.635	-13.88
223.869	-15.88
224.104	-15.88
224.338	-21.88
224.573	-19.88
224.808	-11.88
225.042	1.12
225.277	-7.88
225.511	5.12
225.746	3.12
225.98	14.12
226.215	5.12
226.449	4.12
226.683	22.12
226.918	18.12
227.152	34.12
227.387	35.12
227.621	46.12
227.856	37.12
228.09	54.12
228.324	57.12
228.559	43.12
228.793	66.12
229.027	148.12
229.262	156.12
229.496	146.12
229.73	154.12
229.964	178.12
230.199	180.12
230.433	168.12
230.667	172.12
230.901	164.12
231.136	162.12
231.37	188.12
231.604	206.12
231.838	180.12
232.072	186.12
232.306	203.12
232.541	196.12
232.775	209.12
233.009	208.12
233.243	187.12
233.477	207.12
233.711	199.12
233.945	220.12
234.179	212.12
234.413	215.12
234.647	206.12
234.881	194.12
235.115	217.12
235.349	200.12
235.583	210.12
235.817	212.12
236.051	223.12
236.285	216.12
236.519	209.12
236.753	211.12
236.987	228.12
237.221	214.12
237.455	220.12
237.689	214.12
237.922	240.12
238.156	228.12
238.39	242.12
238.624	234.12
238.858	239.12
239.091	246.12
239.325	258.12
239.559	248.12
239.793	262.12
240.027	264.12
240.26	259.12
240.494	266.12
240.728	267.12
240.961	261.12
241.195	262.12
241.429	276.12
241.662	280.12
241.896	309.12
242.13	290.12
242.363	282.12
242.597	281.12
242.83	290.12
243.064	294.12
243.298	292.12
243.531	321.12
243.765	294.12
243.998	311.12
244.232	292.12
244.465	322.12
244.699	342.12
244.932	320.12
245.166	354.12
245.399	328.12
245.633	332.12
245.866	338.12
246.099	309.12
246.333	337.12
246.566	323.12
246.8	341.12
247.033	342.12
247.266	328.12
247.5	337.12
247.733	353.12
247.966	340.12
248.2	362.12
248.433	351.12
248.666	368.12
248.899	394.12
249.133	347.12
249.366	382.12
249.599	352.12
249.832	380.12
250.066	386.12
250.299	390.12
250.532	384.12
250.765	391.12
250.998	380.12
251.231	395.12
251.465	422.12
251.698	404.12
251.931	397.12
252.164	423.12
252.397	407.12
252.63	408.12
252.863	423.12
253.096	423.12
253.329	407.12
253.562	419.12
253.795	414.12
254.028	439.12
254.261	440.12
254.494	451.12
254.727	418.12
254.96	432.12
255.193	456.12
255.426	431.12
255.659	448.12
255.892	450.12
256.124	441.12
256.357	457.12
256.59	458.12
256.823	450.12
257.056	442.12
257.289	456.12
257.521	475.12
257.754	462.12
257.987	457.12
258.22	467.12
258.452	484.12
258.685	479.12
258.918	475.12
259.151	482.12
259.383	478.12
259.616	468.12
259.849	502.12
260.081	501.12
260.314	495.12
260.547	496.12
260.779	485.12
261.012	520.12
261.244	524.12
261.477	516.12
261.71	513.12
261.942	530.12
262.175	517.12
262.407	512.12
262.64	536.12
262.872	519.12
263.105	523.12
263.337	551.12
263.57	529.12
263.802	546.12
264.035	540.12
264.267	526.12
264.499	538.12
264.732	550.12
264.964	564.12
265.197	544.12
265.429	553.12
265.661	529.12
265.894	556.12
266.126	570.12
266.358	552.12
266.591	566.12
266.823	581.12
267.055	563.12
267.287	582.12
267.52	570.12
267.752	582.12
267.984	574.12
268.216	586.12
268.448	591.12
268.681	607.12
268.913	579.12
269.145	581.12
269.377	599.12
269.609	593.12
269.841	600.12
270.073	622.12
270.306	627.12
270.538	606.12
270.77	594.12
271.002	618.12
271.234	623.12
271.466	614.12
271.698	624.12
271.93	630.12
272.162	618.12
272.394	620.12
272.626	649.12
272.858	642.12
273.09	632.12
273.322	662.12
273.553	651.12
273.785	642.12
274.017	639.12
274.249	679.12
274.481	658.12
274.713	663.12
274.945	683.12
275.176	668.12
275.408	688.12
275.64	698.12
275.872	687.12
276.104	698.12
276.335	676.12
276.567	670.12
276.799	694.12
277.031	698.12
277.262	688.12
277.494	684.12
277.726	700.12
277.957	682.12
278.189	715.12
278.421	687.12
278.652	696.12
278.884	715.12
279.115	721.12
279.347	707.12
279.579	695.12
279.81	719.12
280.042	710.12
280.273	741.12
280.505	738.12
280.736	732.12
280.968	721.12
281.199	772.12
281.431	786.12
281.662	766.12
281.894	772.12
282.125	742.12
282.356	788.12
282.588	747.12
282.819	814.12
283.051	780.12
283.282	772.12
283.513	781.12
283.745	770.12
283.976	782.12
284.207	802.12
284.439	781.12
284.67	784.12
284.901	787.12
285.132	805.12
285.364	786.12
285.595	824.12
285.826	792.12
286.057	800.12
286.288	781.12
286.52	787.12
286.751	803.12
286.982	796.12
287.213	794.12
287.444	805.12
287.675	824.12
287.906	847.12
288.138	827.12
288.369	835.12
288.6	848.12
288.831	851.12
289.062	827.12
289.293	815.12
289.524	806.12
289.755	839.12
289.986	856.12
290.217	848.12
290.448	840.12
290.679	837.12
290.91	852.12
291.141	847.12
291.371	859.12
291.602	838.12
291.833	854.12
292.064	859.12
292.295	864.12
292.526	839.12
292.757	855.12
292.987	856.12
293.218	848.12
293.449	875.12
293.68	852.12
293.91	866.12
294.141	848.12
294.372	852.12
294.603	852.12
294.833	876.12
295.064	890.12
295.295	884.12
295.525	874.12
295.756	886.12
295.987	851.12
296.217	918.12
296.448	898.12
296.679	902.12
296.909	888.12
297.14	895.12
297.37	903.12
297.601	921.12
297.831	918.12
298.062	912.12
298.292	938.12
298.523	932.12
298.753	927.12
298.984	918.12
299.214	940.12
299.445	921.12
299.675	912.12
299.905	921.12
300.136	935.12
300.366	951.12
300.597	951.12
300.827	954.12
301.057	964.12
301.288	949.12
301.518	945.12
301.748	1002.12
301.979	978.12
302.209	994.12
302.439	1010.12
302.669	989.12
302.9	968.12
303.13	979.12
303.36	970.12
303.59	978.12
303.82	974.12
304.051	1021.12
304.281	981.12
304.511	965.12
304.741	955.12
304.971	967.12
305.201	962.12
305.431	996.12
305.661	976.12
305.891	952.12
306.121	946.12
306.352	959.12
306.582	981.12
306.812	959.12
307.042	951.12
307.272	997.12
307.502	974.12
307.731	948.12
307.961	965.12
308.191	948.12
308.421	951.12
308.651	960.12
308.881	956.12
309.111	953.12
309.341	956.12
309.571	976.12
309.8	962.12
310.03	979.12
310.26	946.12
310.49	977.12
310.72	976.12
310.949	963.12
311.179	1011.12
311.409	998.12
311.639	1008.12
311.868	977.12
312.098	982.12
312.328	994.12
312.557	1036.12
312.787	994.12
313.017	1014.12
313.246	1008.12
313.476	1027.12
313.706	1048.12
313.935	1028.12
314.165	1050.12
314.394	1050.12
314.624	1042.12
314.853	1041.12
315.083	1016.12
315.312	1065.12
315.542	1045.12
315.771	1032.12
316.001	1023.12
316.23	1049.12
316.46	1030.12
316.689	1034.12
316.919	1011.12
317.148	1023.12
317.377	1017.12
317.607	1016.12
317.836	1000.12
318.065	1024.12
318.295	1001.12
318.524	1048.12
318.753	1036.12
318.983	1029.12
319.212	1011.12
319.441	1043.12
319.67	1032.12
319.9	1016.12
320.129	1027.12
320.358	1012.12
320.587	1032.12
320.816	1022.12
321.046	1033.12
321.275	1027.12
321.504	1057.12
321.733	1018.12
321.962	1044.12
322.191	1058.12
322.42	1053.12
322.649	1061.12
322.878	1029.12
323.108	1033.12
323.337	1062.12
323.566	1035.12
323.795	1055.12
324.024	1077.12
324.253	1063.12
324.482	1067.12
324.71	1096.12
324.939	1089.12
325.168	1121.12
325.397	1060.12
325.626	1077.12
325.855	1084.12
326.084	1118.12
326.313	1118.12
326.542	1126.12
326.77	1127.12
326.999	1140.12
327.228	1112.12
327.457	1126.12
327.686	1116.12
327.914	1144.12
328.143	1120.12
328.372	1105.12
328.6	1136.12
328.829	1139.12
329.058	1151.12
329.287	1152.12
329.515	1137.12
329.744	1146.12
329.972	1107.12
330.201	1144.12
330.43	1174.12
330.658	1154.12
330.887	1198.12
331.115	1158.12
331.344	1192.12
331.572	1172.12
331.801	1195.12
332.03	1188.12
332.258	1228.12
332.486	1243.12
332.715	1297.12
332.943	1310.12
333.172	1330.12
333.4	1359.12
333.629	1392.12
333.857	1441.12
334.085	1441.12
334.314	1431.12
334.542	1426.12
334.771	1402.12
334.999	1383.12
335.227	1390.12
335.455	1368.12
335.684	1411.12
335.912	1384.12
336.14	1396.12
336.369	1360.12
336.597	1348.12
336.825	1353.12
337.053	1335.12
337.281	1314.12
337.51	1280.12
337.738	1293.12
337.966	1257.12
338.194	1254.12
338.422	1229.12
338.65	1224.12
338.878	1230.12
339.106	1218.12
339.334	1224.12
339.562	1223.12
339.79	1204.12
340.018	1221.12
340.246	1177.12
340.474	1200.12
340.702	1208.12
340.93	1186.12
341.158	1223.12
341.386	1234.12
341.614	1174.12
341.842	1194.12
342.07	1158.12
342.298	1143.12
342.526	1175.12
342.754	1178.12
342.981	1175.12
343.209	1234.12
343.437	1238.12
343.665	1303.12
343.893	1312.12
344.12	1363.12
344.348	1349.12
344.576	1296.12
344.804	1274.12
345.031	1257.12
345.259	1191.12
345.487	1200.12
345.714	1198.12
345.942	1188.12
346.17	1154.12
346.397	1163.12
346.625	1139.12
346.853	1120.12
347.08	1149.12
347.308	1122.12
347.535	1129.12
347.763	1134.12
347.99	1114.12
348.218	1140.12
348.445	1109.12
348.673	1121.12
348.9	1149.12
349.128	1112.12
349.355	1136.12
349.583	1129.12
349.81	1108.12
350.037	1092.12
350.265	1089.12
350.492	1099.12
350.72	1116.12
350.947	1110.12
351.174	1122.12
351.402	1097.12
351.629	1070.12
351.856	1066.12
352.083	1109.12
352.311	1078.12
352.538	1105.12
352.765	1057.12
352.992	1085.12
353.22	1074.12
353.447	1058.12
353.674	1058.12
353.901	1098.12
354.128	1106.12
354.355	1059.12
354.583	1075.12
354.81	1080.12
355.037	1088.12
355.264	1061.12
355.491	1091.12
355.718	1089.12
355.945	1077.12
356.172	1089.12
356.399	1102.12
356.626	1086.12
356.853	1094.12
357.08	1087.12
357.307	1123.12
357.534	1124.12
357.761	1090.12
357.988	1127.12
358.215	1107.12
358.441	1072.12
358.668	1082.12
358.895	1108.12
359.122	1097.12
359.349	1102.12
359.576	1090.12
359.802	1105.12
360.029	1078.12
360.256	1083.12
360.483	1106.12
360.709	1103.12
360.936	1099.12
361.163	1122.12
361.39	1125.12
361.616	1113.12
361.843	1108.12
362.07	1119.12
362.296	1122.12
362.523	1108.12
362.749	1100.12
362.976	1097.12
363.203	1056.12
363.429	1100.12
363.656	1090.12
363.882	1118.12
364.109	1097.12
364.335	1092.12
364.562	1085.12
364.788	1076.12
365.015	1115.12
365.241	1118.12
365.468	1082.12
365.694	1061.12
365.92	1121.12
366.147	1089.12
366.373	1089.12
366.599	1090.12
366.826	1102.12
367.052	1067.12
367.278	1106.12
367.505	1111.12
367.731	1111.12
367.957	1094.12
368.184	1152.12
368.41	1116.12
368.636	1166.12
368.862	1122.12
369.089	1142.12
369.315	1153.12
369.541	1173.12
369.767	1142.12
369.993	1152.12
370.219	1137.12
370.445	1174.12
370.672	1162.12
370.898	1154.12
371.124	1187.12
371.35	1211.12
371.576	1191.12
371.802	1179.12
372.028	1172.12
372.254	1195.12
372.48	1150.12
372.706	1188.12
372.932	1235.12
373.158	1215.12
373.384	1173.12
373.61	1192.12
373.835	1202.12
374.061	1192.12
374.287	1232.12
374.513	1226.12
374.739	1268.12
374.965	1290.12
375.191	1302.12
375.416	1302.12
375.642	1225.12
375.868	1251.12
376.094	1227.12
376.319	1213.12
376.545	1186.12
376.771	1181.12
376.997	1194.12
377.222	1198.12
377.448	1198.12
377.674	1192.12
377.899	1170.12
378.125	1162.12
378.35	1169.12
378.576	1190.12
378.802	1186.12
379.027	1188.12
379.253	1193.12
379.478	1176.12
379.704	1176.12
379.929	1175.12
380.155	1177.12
380.38	1182.12
380.606	1175.12
380.831	1184.12
381.057	1178.12
381.282	1165.12
381.507	1170.12
381.733	1193.12
381.958	1175.12
382.184	1219.12
382.409	1252.12
382.634	1222.12
382.86	1230.12
383.085	1234.12
383.31	1240.12
383.535	1276.12
383.761	1268.12
383.986	1299.12
384.211	1326.12
384.436	1328.12
384.662	1349.12
384.887	1377.12
385.112	1395.12
385.337	1411.12
385.562	1405.12
385.787	1411.12
386.013	1383.12
386.238	1435.12
386.463	1436.12
386.688	1434.12
386.913	1424.12
387.138	1416.12
387.363	1419.12
387.588	1413.12
387.813	1401.12
388.038	1384.12
388.263	1381.12
388.488	1391.12
388.713	1426.12
388.938	1396.12
389.163	1402.12
389.387	1399.12
389.612	1388.12
389.837	1386.12
390.062	1349.12
390.287	1371.12
390.512	1424.12
390.736	1414.12
390.961	1424.12
391.186	1434.12
391.411	1486.12
391.636	1522.12
391.86	1534.12
392.085	1523.12
392.31	1522.12
392.534	1514.12
392.759	1501.12
392.984	1512.12
393.208	1476.12
393.433	1479.12
393.658	1513.12
393.882	1482.12
394.107	1453.12
394.331	1476.12
394.556	1525.12
394.78	1492.12
395.005	1496.12
395.229	1519.12
395.454	1574.12
395.678	1554.12
395.903	1566.12
396.127	1536.12
396.352	1521.12
396.576	1521.12
396.801	1529.12
397.025	1518.12
397.249	1559.12
397.474	1597.12
397.698	1589.12
397.922	1589.12
398.147	1604.12
398.371	1625.12
398.595	1656.12
398.82	1718.12
399.044	1823.12
399.268	1948.12
399.492	2156.12
399.717	2362.12
399.941	2398.12
400.165	2215.12
400.389	2066.12
400.613	1942.12
400.837	1867.12
401.062	1811.12
401.286	1773.12
401.51	1720.12
401.734	1738.12
401.958	1763.12
402.182	1742.12
402.406	1750.12
402.63	1785.12
402.854	1798.12
403.078	1796.12
403.302	1841.12
403.526	1821.12
403.75	1858.12
403.974	1903.12
404.198	1849.12
404.422	1934.12
404.645	1877.12
404.869	1847.12
405.093	1834.12
405.317	1835.12
405.541	1871.12
405.765	1888.12
405.988	1870.12
406.212	1859.12
406.436	1866.12
406.66	1958.12
406.883	1946.12
407.107	2039.12
407.331	2114.12
407.555	2172.12
407.778	2183.12
408.002	2134.12
408.226	2082.12
408.449	2074.12
408.673	2021.12
408.896	1992.12
409.12	1917.12
409.344	1967.12
409.567	1904.12
409.791	1920.12
410.014	1875.12
410.238	1884.12
410.461	1888.12
410.685	1863.12
410.908	1874.12
411.132	1862.12
411.355	1816.12
411.578	1806.12
411.802	1824.12
412.025	1848.12
412.249	1838.12
412.472	1828.12
412.695	1790.12
412.919	1733.12
413.142	1772.12
413.365	1763.12
413.589	1758.12
413.812	1737.12
414.035	1714.12
414.258	1734.12
414.482	1787.12
414.705	1749.12
414.928	1758.12
415.151	1727.12
415.374	1732.12
415.597	1719.12
415.821	1658.12
416.044	1686.12
416.267	1676.12
416.49	1672.12
416.713	1636.12
416.936	1688.12
417.159	1656.12
417.382	1655.12
417.605	1637.12
417.828	1654.12
418.051	1672.12
418.274	1696.12
418.497	1659.12
418.72	1708.12
418.943	1678.12
419.166	1789.12
419.389	1900.12
419.611	1858.12
419.834	1817.12
420.057	1751.12
420.28	1731.12
420.503	1686.12
420.726	1634.12
420.948	1654.12
421.171	1628.12
421.394	1683.12
421.617	1654.12
421.839	1667.12
422.062	1654.12
422.285	1641.12
422.507	1671.12
422.73	1686.12
422.953	1699.12
423.175	1705.12
423.398	1701.12
423.621	1658.12
423.843	1716.12
424.066	1713.12
424.288	1668.12
424.511	1681.12
424.733	1704.12
424.956	1671.12
425.178	1671.12
425.401	1684.12
425.623	1660.12
425.846	1635.12
426.068	1630.12
426.291	1637.12
426.513	1584.12
426.735	1542.12
426.958	1627.12
427.18	1580.12
427.402	1593.12
427.625	1562.12
427.847	1525.12
428.069	1502.12
428.292	1516.12
428.514	1523.12
428.736	1476.12
428.958	1544.12
429.181	1518.12
429.403	1485.12
429.625	1490.12
429.847	1466.12
430.069	1489.12
430.292	1510.12
430.514	1460.12
430.736	1512.12
430.958	1554.12
431.18	1528.12
431.402	1556.12
431.624	1506.12
431.846	1553.12
432.068	1532.12
432.29	1612.12
432.512	1509.12
432.734	1519.12
432.956	1510.12
433.178	1505.12
433.4	1551.12
433.622	1547.12
433.844	1569.12
434.066	1550.12
434.287	1598.12
434.509	1665.12
434.731	1632.12
434.953	1680.12
435.175	1684.12
435.397	1718.12
435.618	1657.12
435.84	1600.12
436.062	1555.12
436.284	1529.12
436.505	1543.12
436.727	1533.12
436.949	1555.12
437.17	1508.12
437.392	1506.12
437.614	1514.12
437.835	1439.12
438.057	1494.12
438.278	1474.12
438.5	1462.12
438.721	1444.12
438.943	1447.12
439.165	1491.12
439.386	1458.12
439.608	1491.12
439.829	1487.12
440.05	1509.12
440.272	1529.12
440.493	1488.12
440.715	1515.12
440.936	1594.12
441.158	1546.12
441.379	1636.12
441.6	1602.12
441.822	1633.12
442.043	1621.12
442.264	1622.12
442.486	1564.12
442.707	1617.12
442.928	1627.12
443.149	1606.12
443.371	1639.12
443.592	1623.12
443.813	1662.12
444.034	1653.12
444.255	1656.12
444.476	1746.12
444.698	1819.12
444.919	1831.12
445.14	1951.12
445.361	1800.12
445.582	1706.12
445.803	1611.12
446.024	1593.12
446.245	1537.12
446.466	1522.12
446.687	1506.12
446.908	1519.12
447.129	1466.12
447.35	1435.12
447.571	1482.12
447.792	1419.12
448.013	1422.12
448.234	1396.12
448.455	1401.12
448.675	1375.12
448.896	1334.12
449.117	1394.12
449.338	1368.12
449.559	1351.12
449.779	1364.12
450	1340.12
450.221	1331.12
450.442	1352.12
450.662	1356.12
450.883	1356.12
451.104	1399.12
451.324	1391.12
451.545	1361.12
451.766	1352.12
451.986	1366.12
452.207	1350.12
452.428	1337.12
452.648	1362.12
452.869	1306.12
453.089	1267.12
453.31	1352.12
453.53	1276.12
453.751	1284.12
453.971	1264.12
454.192	1329.12
454.412	1270.12
454.633	1312.12
454.853	1309.12
455.073	1281.12
455.294	1290.12
455.514	1280.12
455.734	1297.12
455.955	1276.12
456.175	1303.12
456.395	1246.12
456.616	1282.12
456.836	1266.12
457.056	1299.12
457.276	1264.12
457.497	1312.12
457.717	1320.12
457.937	1313.12
458.157	1335.12
458.377	1294.12
458.598	1368.12
458.818	1409.12
459.038	1392.12
459.258	1444.12
459.478	1507.12
459.698	1559.12
459.918	1542.12
460.138	1598.12
460.358	1675.12
460.578	1649.12
460.798	1685.12
461.018	1682.12
461.238	1708.12
461.458	1668.12
461.678	1689.12
461.898	1706.12
462.118	1724.12
462.338	1823.12
462.558	1832.12
462.777	1894.12
462.997	2045.12
463.217	2108.12
463.437	2145.12
463.657	2050.12
463.876	1961.12
464.096	1953.12
464.316	1924.12
464.536	1917.12
464.755	1845.12
464.975	1844.12
465.195	1772.12
465.414	1696.12
465.634	1585.12
465.854	1561.12
466.073	1545.12
466.293	1516.12
466.512	1465.12
466.732	1446.12
466.951	1454.12
467.171	1431.12
467.391	1465.12
467.61	1424.12
467.829	1422.12
468.049	1435.12
468.268	1393.12
468.488	1362.12
468.707	1367.12
468.927	1408.12
469.146	1381.12
469.365	1401.12
469.585	1426.12
469.804	1479.12
470.023	1417.12
470.243	1472.12
470.462	1461.12
470.681	1445.12
470.901	1473.12
471.12	1463.12
471.339	1456.12
471.558	1442.12
471.777	1413.12
471.997	1380.12
472.216	1404.12
472.435	1392.12
472.654	1350.12
472.873	1375.12
473.092	1381.12
473.311	1367.12
473.53	1358.12
473.749	1362.12
473.968	1386.12
474.187	1367.12
474.406	1364.12
474.625	1355.12
474.844	1370.12
475.063	1370.12
475.282	1384.12
475.501	1412.12
475.72	1410.12
475.939	1413.12
476.158	1420.12
476.377	1413.12
476.596	1454.12
476.814	1486.12
477.033	1461.12
477.252	1528.12
477.471	1561.12
477.69	1587.12
477.908	1570.12
478.127	1618.12
478.346	1632.12
478.564	1624.12
478.783	1668.12
479.002	1696.12
479.22	1707.12
479.439	1740.12
479.658	1716.12
479.876	1714.12
480.095	1740.12
480.313	1790.12
480.532	1830.12
480.751	1847.12
480.969	1750.12
481.188	1741.12
481.406	1723.12
481.624	1676.12
481.843	1682.12
482.061	1639.12
482.28	1667.12
482.498	1676.12
482.717	1663.12
482.935	1687.12
483.153	1680.12
483.372	1696.12
483.59	1707.12
483.808	1682.12
484.027	1717.12
484.245	1748.12
484.463	1761.12
484.681	1806.12
484.9	1792.12
485.118	1807.12
485.336	1807.12
485.554	1822.12
485.772	1842.12
485.99	1868.12
486.209	1882.12
486.427	1829.12
486.645	1796.12
486.863	1840.12
487.081	1813.12
487.299	1802.12
487.517	1768.12
487.735	1743.12
487.953	1814.12
488.171	1802.12
488.389	1788.12
488.607	1706.12
488.825	1767.12
489.043	1746.12
489.261	1739.12
489.479	1742.12
489.696	1726.12
489.914	1732.12
490.132	1748.12
490.35	1732.12
490.568	1704.12
