Data from NiCl2@0.0625M.TitratingCurve.Agarose3%dH2O.NegLispCup.LampEnergy10.LIBS07252019_HRD10591_18-33-37-576.txt Node
Date: Thu Jul 25 18:33:37 EDT 2019
User: cochatt
Spectrometer: HR+D1059
Trigger mode: 1
Integration Time (sec): 1.000000E-1
Scans to average: 1
Electric dark correction enabled: true
Nonlinearity correction enabled: false
Boxcar width: 0
XAxis mode: Wavelengths
Number of Pixels in Spectrum: 2048
>>>>>Begin Spectral Data<<<<<
223.165	-4.81
223.4	-4.81
223.635	-4.81
223.869	-19.81
224.104	-5.81
224.338	-3.81
224.573	-17.81
224.808	-19.81
225.042	-15.81
225.277	-9.81
225.511	-3.81
225.746	2.19
225.98	4.19
226.215	7.19
226.449	11.19
226.683	16.19
226.918	34.19
227.152	26.19
227.387	33.19
227.621	28.19
227.856	50.19
228.09	53.19
228.324	46.19
228.559	63.19
228.793	75.19
229.027	148.19
229.262	139.19
229.496	142.19
229.73	143.19
229.964	160.19
230.199	172.19
230.433	190.19
230.667	175.19
230.901	193.19
231.136	174.19
231.37	192.19
231.604	180.19
231.838	178.19
232.072	190.19
232.306	196.19
232.541	202.19
232.775	182.19
233.009	180.19
233.243	203.19
233.477	207.19
233.711	210.19
233.945	195.19
234.179	217.19
234.413	221.19
234.647	222.19
234.881	216.19
235.115	193.19
235.349	214.19
235.583	235.19
235.817	213.19
236.051	212.19
236.285	229.19
236.519	205.19
236.753	201.19
236.987	217.19
237.221	231.19
237.455	233.19
237.689	233.19
237.922	247.19
238.156	240.19
238.39	240.19
238.624	243.19
238.858	258.19
239.091	253.19
239.325	268.19
239.559	273.19
239.793	254.19
240.027	278.19
240.26	271.19
240.494	270.19
240.728	286.19
240.961	286.19
241.195	297.19
241.429	281.19
241.662	259.19
241.896	270.19
242.13	293.19
242.363	298.19
242.597	305.19
242.83	296.19
243.064	301.19
243.298	290.19
243.531	303.19
243.765	314.19
243.998	307.19
244.232	319.19
244.465	324.19
244.699	317.19
244.932	332.19
245.166	330.19
245.399	342.19
245.633	336.19
245.866	330.19
246.099	360.19
246.333	325.19
246.566	345.19
246.8	341.19
247.033	350.19
247.266	366.19
247.5	344.19
247.733	354.19
247.966	365.19
248.2	369.19
248.433	371.19
248.666	369.19
248.899	368.19
249.133	360.19
249.366	372.19
249.599	394.19
249.832	381.19
250.066	395.19
250.299	401.19
250.532	408.19
250.765	390.19
250.998	412.19
251.231	395.19
251.465	421.19
251.698	397.19
251.931	425.19
252.164	403.19
252.397	419.19
252.63	429.19
252.863	409.19
253.096	424.19
253.329	405.19
253.562	411.19
253.795	420.19
254.028	436.19
254.261	431.19
254.494	459.19
254.727	427.19
254.96	430.19
255.193	461.19
255.426	454.19
255.659	457.19
255.892	467.19
256.124	457.19
256.357	449.19
256.59	479.19
256.823	465.19
257.056	460.19
257.289	475.19
257.521	477.19
257.754	465.19
257.987	476.19
258.22	463.19
258.452	484.19
258.685	486.19
258.918	500.19
259.151	473.19
259.383	499.19
259.616	486.19
259.849	508.19
260.081	497.19
260.314	497.19
260.547	495.19
260.779	501.19
261.012	496.19
261.244	514.19
261.477	529.19
261.71	543.19
261.942	537.19
262.175	513.19
262.407	537.19
262.64	556.19
262.872	526.19
263.105	540.19
263.337	534.19
263.57	545.19
263.802	530.19
264.035	553.19
264.267	550.19
264.499	562.19
264.732	568.19
264.964	578.19
265.197	562.19
265.429	567.19
265.661	567.19
265.894	573.19
266.126	577.19
266.358	583.19
266.591	583.19
266.823	577.19
267.055	572.19
267.287	603.19
267.52	571.19
267.752	582.19
267.984	610.19
268.216	591.19
268.448	589.19
268.681	590.19
268.913	614.19
269.145	608.19
269.377	595.19
269.609	628.19
269.841	611.19
270.073	625.19
270.306	597.19
270.538	618.19
270.77	610.19
271.002	640.19
271.234	584.19
271.466	624.19
271.698	637.19
271.93	636.19
272.162	636.19
272.394	646.19
272.626	650.19
272.858	648.19
273.09	640.19
273.322	660.19
273.553	660.19
273.785	666.19
274.017	639.19
274.249	663.19
274.481	688.19
274.713	671.19
274.945	680.19
275.176	673.19
275.408	693.19
275.64	690.19
275.872	689.19
276.104	688.19
276.335	704.19
276.567	676.19
276.799	704.19
277.031	710.19
277.262	722.19
277.494	700.19
277.726	711.19
277.957	713.19
278.189	719.19
278.421	694.19
278.652	729.19
278.884	729.19
279.115	731.19
279.347	729.19
279.579	761.19
279.81	749.19
280.042	729.19
280.273	744.19
280.505	739.19
280.736	747.19
280.968	756.19
281.199	768.19
281.431	756.19
281.662	781.19
281.894	741.19
282.125	782.19
282.356	757.19
282.588	815.19
282.819	765.19
283.051	781.19
283.282	766.19
283.513	789.19
283.745	785.19
283.976	766.19
284.207	792.19
284.439	802.19
284.67	784.19
284.901	802.19
285.132	796.19
285.364	801.19
285.595	809.19
285.826	813.19
286.057	829.19
286.288	818.19
286.52	828.19
286.751	826.19
286.982	836.19
287.213	846.19
287.444	828.19
287.675	849.19
287.906	852.19
288.138	862.19
288.369	852.19
288.6	859.19
288.831	857.19
289.062	871.19
289.293	857.19
289.524	869.19
289.755	866.19
289.986	858.19
290.217	833.19
290.448	852.19
290.679	847.19
290.91	869.19
291.141	864.19
291.371	873.19
291.602	848.19
291.833	844.19
292.064	890.19
292.295	856.19
292.526	865.19
292.757	884.19
292.987	900.19
293.218	877.19
293.449	878.19
293.68	869.19
293.91	895.19
294.141	846.19
294.372	889.19
294.603	886.19
294.833	890.19
295.064	896.19
295.295	886.19
295.525	890.19
295.756	917.19
295.987	866.19
296.217	898.19
296.448	901.19
296.679	892.19
296.909	886.19
297.14	918.19
297.37	950.19
297.601	944.19
297.831	935.19
298.062	937.19
298.292	923.19
298.523	956.19
298.753	934.19
298.984	946.19
299.214	970.19
299.445	942.19
299.675	916.19
299.905	956.19
300.136	961.19
300.366	964.19
300.597	967.19
300.827	975.19
301.057	968.19
301.288	1000.19
301.518	1001.19
301.748	992.19
301.979	993.19
302.209	1017.19
302.439	1052.19
302.669	1007.19
302.9	1006.19
303.13	966.19
303.36	1012.19
303.59	1007.19
303.82	1024.19
304.051	983.19
304.281	999.19
304.511	995.19
304.741	971.19
304.971	992.19
305.201	984.19
305.431	1012.19
305.661	1009.19
305.891	975.19
306.121	968.19
306.352	1017.19
306.582	1011.19
306.812	990.19
307.042	1001.19
307.272	1000.19
307.502	994.19
307.731	997.19
307.961	1025.19
308.191	976.19
308.421	984.19
308.651	1001.19
308.881	994.19
309.111	993.19
309.341	961.19
309.571	983.19
309.8	991.19
310.03	1000.19
310.26	1000.19
310.49	1011.19
310.72	1022.19
310.949	1018.19
311.179	1029.19
311.409	1004.19
311.639	1012.19
311.868	1011.19
312.098	1043.19
312.328	1024.19
312.557	1034.19
312.787	1025.19
313.017	1068.19
313.246	1061.19
313.476	1053.19
313.706	1053.19
313.935	1086.19
314.165	1082.19
314.394	1074.19
314.624	1071.19
314.853	1066.19
315.083	1057.19
315.312	1058.19
315.542	1068.19
315.771	1040.19
316.001	1072.19
316.23	1053.19
316.46	1044.19
316.689	1034.19
316.919	1038.19
317.148	1049.19
317.377	1067.19
317.607	1052.19
317.836	1076.19
318.065	1042.19
318.295	1068.19
318.524	1070.19
318.753	1046.19
318.983	1047.19
319.212	1080.19
319.441	1041.19
319.67	1050.19
319.9	1064.19
320.129	1044.19
320.358	1042.19
320.587	1044.19
320.816	1070.19
321.046	1064.19
321.275	1086.19
321.504	1058.19
321.733	1045.19
321.962	1066.19
322.191	1092.19
322.42	1088.19
322.649	1098.19
322.878	1076.19
323.108	1071.19
323.337	1102.19
323.566	1086.19
323.795	1091.19
324.024	1089.19
324.253	1103.19
324.482	1104.19
324.71	1125.19
324.939	1116.19
325.168	1114.19
325.397	1106.19
325.626	1103.19
325.855	1101.19
326.084	1109.19
326.313	1154.19
326.542	1178.19
326.77	1158.19
326.999	1138.19
327.228	1141.19
327.457	1168.19
327.686	1106.19
327.914	1153.19
328.143	1157.19
328.372	1181.19
328.6	1152.19
328.829	1162.19
329.058	1156.19
329.287	1160.19
329.515	1149.19
329.744	1127.19
329.972	1174.19
330.201	1173.19
330.43	1183.19
330.658	1177.19
330.887	1206.19
331.115	1193.19
331.344	1219.19
331.572	1216.19
331.801	1219.19
332.03	1257.19
332.258	1247.19
332.486	1291.19
332.715	1300.19
332.943	1350.19
333.172	1388.19
333.4	1419.19
333.629	1472.19
333.857	1490.19
334.085	1479.19
334.314	1473.19
334.542	1472.19
334.771	1469.19
334.999	1448.19
335.227	1441.19
335.455	1432.19
335.684	1421.19
335.912	1424.19
336.14	1442.19
336.369	1407.19
336.597	1377.19
336.825	1380.19
337.053	1383.19
337.281	1379.19
337.51	1344.19
337.738	1324.19
337.966	1316.19
338.194	1316.19
338.422	1280.19
338.65	1237.19
338.878	1280.19
339.106	1274.19
339.334	1252.19
339.562	1256.19
339.79	1214.19
340.018	1217.19
340.246	1228.19
340.474	1208.19
340.702	1238.19
340.93	1218.19
341.158	1254.19
341.386	1239.19
341.614	1224.19
341.842	1246.19
342.07	1221.19
342.298	1204.19
342.526	1174.19
342.754	1237.19
342.981	1198.19
343.209	1232.19
343.437	1264.19
343.665	1376.19
343.893	1361.19
344.12	1426.19
344.348	1388.19
344.576	1394.19
344.804	1327.19
345.031	1279.19
345.259	1231.19
345.487	1230.19
345.714	1219.19
345.942	1215.19
346.17	1198.19
346.397	1220.19
346.625	1188.19
346.853	1161.19
347.08	1183.19
347.308	1171.19
347.535	1199.19
347.763	1166.19
347.99	1178.19
348.218	1166.19
348.445	1143.19
348.673	1140.19
348.9	1123.19
349.128	1166.19
349.355	1146.19
349.583	1174.19
349.81	1161.19
350.037	1125.19
350.265	1135.19
350.492	1160.19
350.72	1106.19
350.947	1133.19
351.174	1121.19
351.402	1124.19
351.629	1139.19
351.856	1136.19
352.083	1098.19
352.311	1111.19
352.538	1128.19
352.765	1111.19
352.992	1145.19
353.22	1094.19
353.447	1114.19
353.674	1116.19
353.901	1072.19
354.128	1086.19
354.355	1110.19
354.583	1096.19
354.81	1103.19
355.037	1130.19
355.264	1150.19
355.491	1148.19
355.718	1136.19
355.945	1117.19
356.172	1117.19
356.399	1142.19
356.626	1129.19
356.853	1148.19
357.08	1120.19
357.307	1117.19
357.534	1126.19
357.761	1150.19
357.988	1158.19
358.215	1108.19
358.441	1114.19
358.668	1127.19
358.895	1130.19
359.122	1109.19
359.349	1126.19
359.576	1108.19
359.802	1112.19
360.029	1142.19
360.256	1154.19
360.483	1142.19
360.709	1144.19
360.936	1108.19
361.163	1123.19
361.39	1132.19
361.616	1123.19
361.843	1138.19
362.07	1144.19
362.296	1143.19
362.523	1127.19
362.749	1142.19
362.976	1125.19
363.203	1154.19
363.429	1140.19
363.656	1155.19
363.882	1139.19
364.109	1149.19
364.335	1101.19
364.562	1148.19
364.788	1136.19
365.015	1155.19
365.241	1121.19
365.468	1152.19
365.694	1134.19
365.92	1157.19
366.147	1108.19
366.373	1115.19
366.599	1127.19
366.826	1117.19
367.052	1121.19
367.278	1129.19
367.505	1144.19
367.731	1143.19
367.957	1137.19
368.184	1136.19
368.41	1156.19
368.636	1151.19
368.862	1170.19
369.089	1183.19
369.315	1159.19
369.541	1166.19
369.767	1168.19
369.993	1174.19
370.219	1195.19
370.445	1182.19
370.672	1212.19
370.898	1233.19
371.124	1205.19
371.35	1249.19
371.576	1214.19
371.802	1247.19
372.028	1217.19
372.254	1237.19
372.48	1212.19
372.706	1240.19
372.932	1239.19
373.158	1301.19
373.384	1245.19
373.61	1198.19
373.835	1244.19
374.061	1254.19
374.287	1235.19
374.513	1280.19
374.739	1305.19
374.965	1337.19
375.191	1342.19
375.416	1348.19
375.642	1324.19
375.868	1257.19
376.094	1232.19
376.319	1266.19
376.545	1242.19
376.771	1249.19
376.997	1252.19
377.222	1212.19
377.448	1208.19
377.674	1226.19
377.899	1208.19
378.125	1207.19
378.35	1202.19
378.576	1224.19
378.802	1210.19
379.027	1239.19
379.253	1203.19
379.478	1195.19
379.704	1213.19
379.929	1228.19
380.155	1210.19
380.38	1228.19
380.606	1204.19
380.831	1210.19
381.057	1242.19
381.282	1212.19
381.507	1223.19
381.733	1235.19
381.958	1242.19
382.184	1282.19
382.409	1286.19
382.634	1295.19
382.86	1272.19
383.085	1301.19
383.31	1309.19
383.535	1328.19
383.761	1352.19
383.986	1367.19
384.211	1362.19
384.436	1369.19
384.662	1428.19
384.887	1434.19
385.112	1415.19
385.337	1458.19
385.562	1487.19
385.787	1445.19
386.013	1486.19
386.238	1456.19
386.463	1485.19
386.688	1461.19
386.913	1431.19
387.138	1434.19
387.363	1448.19
387.588	1470.19
387.813	1423.19
388.038	1424.19
388.263	1435.19
388.488	1430.19
388.713	1453.19
388.938	1441.19
389.163	1417.19
389.387	1399.19
389.612	1447.19
389.837	1466.19
390.062	1421.19
390.287	1447.19
390.512	1445.19
390.736	1487.19
390.961	1486.19
391.186	1469.19
391.411	1517.19
391.636	1516.19
391.86	1614.19
392.085	1661.19
392.31	1599.19
392.534	1559.19
392.759	1600.19
392.984	1549.19
393.208	1550.19
393.433	1609.19
393.658	1571.19
393.882	1541.19
394.107	1512.19
394.331	1560.19
394.556	1542.19
394.78	1570.19
395.005	1568.19
395.229	1576.19
395.454	1630.19
395.678	1670.19
395.903	1622.19
396.127	1599.19
396.352	1545.19
396.576	1566.19
396.801	1592.19
397.025	1614.19
397.249	1614.19
397.474	1654.19
397.698	1653.19
397.922	1622.19
398.147	1637.19
398.371	1672.19
398.595	1755.19
398.82	1800.19
399.044	1922.19
399.268	2065.19
399.492	2326.19
399.717	2506.19
399.941	2530.19
400.165	2330.19
400.389	2176.19
400.613	2038.19
400.837	1916.19
401.062	1876.19
401.286	1855.19
401.51	1829.19
401.734	1808.19
401.958	1848.19
402.182	1853.19
402.406	1836.19
402.63	1848.19
402.854	1894.19
403.078	1883.19
403.302	1895.19
403.526	1924.19
403.75	1948.19
403.974	1997.19
404.198	1991.19
404.422	2012.19
404.645	2005.19
404.869	1954.19
405.093	1940.19
405.317	1948.19
405.541	1952.19
405.765	1937.19
405.988	1969.19
406.212	1983.19
406.436	1989.19
406.66	2050.19
406.883	2029.19
407.107	2172.19
407.331	2193.19
407.555	2232.19
407.778	2270.19
408.002	2277.19
408.226	2233.19
408.449	2151.19
408.673	2127.19
408.896	2059.19
409.12	2014.19
409.344	2021.19
409.567	2006.19
409.791	2015.19
410.014	1945.19
410.238	1965.19
410.461	1978.19
410.685	1968.19
410.908	1946.19
411.132	1940.19
411.355	1894.19
411.578	1884.19
411.802	1887.19
412.025	1923.19
412.249	1918.19
412.472	1913.19
412.695	1872.19
412.919	1861.19
413.142	1833.19
413.365	1844.19
413.589	1833.19
413.812	1790.19
414.035	1757.19
414.258	1774.19
414.482	1842.19
414.705	1857.19
414.928	1841.19
415.151	1815.19
415.374	1816.19
415.597	1782.19
415.821	1730.19
416.044	1757.19
416.267	1725.19
416.49	1726.19
416.713	1752.19
416.936	1751.19
417.159	1701.19
417.382	1704.19
417.605	1721.19
417.828	1727.19
418.051	1761.19
418.274	1758.19
418.497	1746.19
418.72	1787.19
418.943	1761.19
419.166	1901.19
419.389	2012.19
419.611	1919.19
419.834	1913.19
420.057	1836.19
420.28	1796.19
420.503	1739.19
420.726	1695.19
420.948	1725.19
421.171	1785.19
421.394	1762.19
421.617	1723.19
421.839	1752.19
422.062	1778.19
422.285	1747.19
422.507	1780.19
422.73	1760.19
422.953	1758.19
423.175	1770.19
423.398	1795.19
423.621	1752.19
423.843	1784.19
424.066	1818.19
424.288	1763.19
424.511	1823.19
424.733	1733.19
424.956	1738.19
425.178	1738.19
425.401	1744.19
425.623	1747.19
425.846	1684.19
426.068	1722.19
426.291	1689.19
426.513	1694.19
426.735	1687.19
426.958	1634.19
427.18	1624.19
427.402	1630.19
427.625	1624.19
427.847	1601.19
428.069	1570.19
428.292	1603.19
428.514	1594.19
428.736	1564.19
428.958	1590.19
429.181	1552.19
429.403	1588.19
429.625	1547.19
429.847	1572.19
430.069	1562.19
430.292	1565.19
430.514	1554.19
430.736	1606.19
430.958	1566.19
431.18	1553.19
431.402	1553.19
431.624	1548.19
431.846	1589.19
432.068	1607.19
432.29	1637.19
432.512	1598.19
432.734	1607.19
432.956	1609.19
433.178	1618.19
433.4	1610.19
433.622	1645.19
433.844	1623.19
434.066	1642.19
434.287	1647.19
434.509	1673.19
434.731	1732.19
434.953	1768.19
435.175	1714.19
435.397	1741.19
435.618	1714.19
435.84	1696.19
436.062	1632.19
436.284	1604.19
436.505	1573.19
436.727	1599.19
436.949	1592.19
437.17	1568.19
437.392	1569.19
437.614	1546.19
437.835	1500.19
438.057	1518.19
438.278	1502.19
438.5	1528.19
438.721	1519.19
438.943	1540.19
439.165	1511.19
439.386	1534.19
439.608	1529.19
439.829	1567.19
440.05	1554.19
440.272	1593.19
440.493	1557.19
440.715	1621.19
440.936	1618.19
441.158	1652.19
441.379	1644.19
441.6	1734.19
441.822	1749.19
442.043	1727.19
442.264	1722.19
442.486	1621.19
442.707	1717.19
442.928	1657.19
443.149	1722.19
443.371	1694.19
443.592	1689.19
443.813	1741.19
444.034	1748.19
444.255	1758.19
444.476	1821.19
444.698	1878.19
444.919	1944.19
445.14	2046.19
445.361	1906.19
445.582	1787.19
445.803	1695.19
446.024	1655.19
446.245	1610.19
446.466	1601.19
446.687	1578.19
446.908	1574.19
447.129	1546.19
447.35	1491.19
447.571	1504.19
447.792	1436.19
448.013	1494.19
448.234	1437.19
448.455	1434.19
448.675	1467.19
448.896	1457.19
449.117	1405.19
449.338	1405.19
449.559	1428.19
449.779	1412.19
450	1394.19
450.221	1414.19
450.442	1380.19
450.662	1424.19
450.883	1394.19
451.104	1447.19
451.324	1436.19
451.545	1413.19
451.766	1387.19
451.986	1371.19
452.207	1397.19
452.428	1414.19
452.648	1397.19
452.869	1364.19
453.089	1334.19
453.31	1352.19
453.53	1381.19
453.751	1338.19
453.971	1335.19
454.192	1337.19
454.412	1333.19
454.633	1354.19
454.853	1345.19
455.073	1318.19
455.294	1349.19
455.514	1337.19
455.734	1326.19
455.955	1286.19
456.175	1291.19
456.395	1336.19
456.616	1293.19
456.836	1341.19
457.056	1354.19
457.276	1290.19
457.497	1375.19
457.717	1333.19
457.937	1377.19
458.157	1381.19
458.377	1416.19
458.598	1418.19
458.818	1436.19
459.038	1482.19
459.258	1524.19
459.478	1588.19
459.698	1634.19
459.918	1608.19
460.138	1641.19
460.358	1750.19
460.578	1831.19
460.798	1748.19
461.018	1808.19
461.238	1794.19
461.458	1765.19
461.678	1728.19
461.898	1807.19
462.118	1800.19
462.338	1880.19
462.558	1951.19
462.777	2005.19
462.997	2149.19
463.217	2244.19
463.437	2275.19
463.657	2186.19
463.876	2048.19
464.096	2038.19
464.316	2030.19
464.536	2064.19
464.755	2014.19
464.975	1934.19
465.195	1826.19
465.414	1773.19
465.634	1668.19
465.854	1628.19
466.073	1584.19
466.293	1580.19
466.512	1503.19
466.732	1520.19
466.951	1497.19
467.171	1505.19
467.391	1509.19
467.61	1471.19
467.829	1442.19
468.049	1453.19
468.268	1436.19
468.488	1455.19
468.707	1427.19
468.927	1392.19
469.146	1434.19
469.365	1471.19
469.585	1432.19
469.804	1474.19
470.023	1478.19
470.243	1484.19
470.462	1517.19
470.681	1576.19
470.901	1519.19
471.12	1520.19
471.339	1507.19
471.558	1512.19
471.777	1505.19
471.997	1460.19
472.216	1430.19
472.435	1408.19
472.654	1416.19
472.873	1417.19
473.092	1420.19
473.311	1416.19
473.53	1448.19
473.749	1433.19
473.968	1417.19
474.187	1389.19
474.406	1417.19
474.625	1415.19
474.844	1438.19
475.063	1405.19
475.282	1462.19
475.501	1479.19
475.72	1453.19
475.939	1449.19
476.158	1501.19
476.377	1477.19
476.596	1480.19
476.814	1516.19
477.033	1513.19
477.252	1591.19
477.471	1552.19
477.69	1600.19
477.908	1653.19
478.127	1680.19
478.346	1695.19
478.564	1733.19
478.783	1733.19
479.002	1778.19
479.22	1735.19
479.439	1780.19
479.658	1767.19
479.876	1820.19
480.095	1762.19
480.313	1853.19
480.532	1886.19
480.751	1902.19
480.969	1839.19
481.188	1778.19
481.406	1798.19
481.624	1774.19
481.843	1705.19
482.061	1740.19
482.28	1721.19
482.498	1718.19
482.717	1729.19
482.935	1734.19
483.153	1749.19
483.372	1734.19
483.59	1708.19
483.808	1752.19
484.027	1791.19
484.245	1818.19
484.463	1827.19
484.681	1860.19
484.9	1849.19
485.118	1883.19
485.336	1831.19
485.554	1872.19
485.772	1915.19
485.99	1894.19
486.209	1857.19
486.427	1881.19
486.645	1891.19
486.863	1880.19
487.081	1908.19
487.299	1832.19
487.517	1870.19
487.735	1866.19
487.953	1849.19
488.171	1855.19
488.389	1848.19
488.607	1803.19
488.825	1798.19
489.043	1829.19
489.261	1814.19
489.479	1826.19
489.696	1798.19
489.914	1792.19
490.132	1785.19
490.35	1761.19
