Data from NiCl2@0.5M.TitratingCurve.Agarose3%dH2O.NegLispCup.LampEnergy10.LIBS07252019_HRD10591_18-19-43-571.txt Node
Date: Thu Jul 25 18:19:43 EDT 2019
User: cochatt
Spectrometer: HR+D1059
Trigger mode: 1
Integration Time (sec): 1.000000E-1
Scans to average: 1
Electric dark correction enabled: true
Nonlinearity correction enabled: false
Boxcar width: 0
XAxis mode: Wavelengths
Number of Pixels in Spectrum: 2048
>>>>>Begin Spectral Data<<<<<
223.165	-17.81
223.4	-17.81
223.635	-17.81
223.869	-13.81
224.104	-18.81
224.338	-12.81
224.573	-22.81
224.808	-10.81
225.042	-17.81
225.277	1.19
225.511	-9.81
225.746	1.19
225.98	3.19
226.215	26.19
226.449	17.19
226.683	20.19
226.918	29.19
227.152	26.19
227.387	42.19
227.621	37.19
227.856	42.19
228.09	55.19
228.324	55.19
228.559	54.19
228.793	70.19
229.027	90.19
229.262	97.19
229.496	113.19
229.73	105.19
229.964	104.19
230.199	117.19
230.433	104.19
230.667	124.19
230.901	117.19
231.136	124.19
231.37	117.19
231.604	125.19
231.838	138.19
232.072	118.19
232.306	127.19
232.541	131.19
232.775	110.19
233.009	115.19
233.243	123.19
233.477	119.19
233.711	125.19
233.945	125.19
234.179	121.19
234.413	126.19
234.647	127.19
234.881	132.19
235.115	129.19
235.349	151.19
235.583	124.19
235.817	117.19
236.051	122.19
236.285	131.19
236.519	135.19
236.753	144.19
236.987	127.19
237.221	128.19
237.455	140.19
237.689	137.19
237.922	134.19
238.156	129.19
238.39	136.19
238.624	129.19
238.858	132.19
239.091	137.19
239.325	136.19
239.559	139.19
239.793	159.19
240.027	155.19
240.26	156.19
240.494	129.19
240.728	137.19
240.961	151.19
241.195	142.19
241.429	155.19
241.662	154.19
241.896	156.19
242.13	169.19
242.363	165.19
242.597	174.19
242.83	146.19
243.064	162.19
243.298	148.19
243.531	162.19
243.765	161.19
243.998	166.19
244.232	166.19
244.465	161.19
244.699	169.19
244.932	174.19
245.166	186.19
245.399	169.19
245.633	177.19
245.866	181.19
246.099	161.19
246.333	178.19
246.566	167.19
246.8	172.19
247.033	174.19
247.266	182.19
247.5	171.19
247.733	174.19
247.966	187.19
248.2	169.19
248.433	193.19
248.666	186.19
248.899	183.19
249.133	187.19
249.366	184.19
249.599	183.19
249.832	174.19
250.066	203.19
250.299	193.19
250.532	196.19
250.765	205.19
250.998	194.19
251.231	214.19
251.465	192.19
251.698	207.19
251.931	194.19
252.164	195.19
252.397	202.19
252.63	210.19
252.863	211.19
253.096	206.19
253.329	214.19
253.562	214.19
253.795	207.19
254.028	201.19
254.261	225.19
254.494	196.19
254.727	202.19
254.96	211.19
255.193	213.19
255.426	214.19
255.659	214.19
255.892	222.19
256.124	236.19
256.357	224.19
256.59	218.19
256.823	221.19
257.056	226.19
257.289	216.19
257.521	230.19
257.754	226.19
257.987	227.19
258.22	220.19
258.452	245.19
258.685	229.19
258.918	233.19
259.151	236.19
259.383	227.19
259.616	230.19
259.849	253.19
260.081	251.19
260.314	235.19
260.547	225.19
260.779	237.19
261.012	244.19
261.244	241.19
261.477	246.19
261.71	254.19
261.942	259.19
262.175	255.19
262.407	249.19
262.64	250.19
262.872	242.19
263.105	246.19
263.337	246.19
263.57	255.19
263.802	261.19
264.035	247.19
264.267	258.19
264.499	245.19
264.732	249.19
264.964	276.19
265.197	259.19
265.429	265.19
265.661	257.19
265.894	252.19
266.126	267.19
266.358	261.19
266.591	271.19
266.823	265.19
267.055	263.19
267.287	272.19
267.52	261.19
267.752	265.19
267.984	267.19
268.216	279.19
268.448	288.19
268.681	286.19
268.913	273.19
269.145	286.19
269.377	270.19
269.609	263.19
269.841	286.19
270.073	289.19
270.306	290.19
270.538	295.19
270.77	289.19
271.002	291.19
271.234	277.19
271.466	281.19
271.698	297.19
271.93	291.19
272.162	290.19
272.394	302.19
272.626	298.19
272.858	291.19
273.09	287.19
273.322	314.19
273.553	318.19
273.785	282.19
274.017	292.19
274.249	307.19
274.481	303.19
274.713	301.19
274.945	306.19
275.176	318.19
275.408	311.19
275.64	303.19
275.872	309.19
276.104	312.19
276.335	333.19
276.567	318.19
276.799	320.19
277.031	313.19
277.262	322.19
277.494	322.19
277.726	319.19
277.957	323.19
278.189	307.19
278.421	328.19
278.652	335.19
278.884	337.19
279.115	321.19
279.347	307.19
279.579	350.19
279.81	338.19
280.042	342.19
280.273	331.19
280.505	336.19
280.736	325.19
280.968	339.19
281.199	321.19
281.431	348.19
281.662	346.19
281.894	348.19
282.125	334.19
282.356	356.19
282.588	335.19
282.819	341.19
283.051	331.19
283.282	362.19
283.513	333.19
283.745	355.19
283.976	351.19
284.207	356.19
284.439	347.19
284.67	352.19
284.901	365.19
285.132	366.19
285.364	377.19
285.595	363.19
285.826	339.19
286.057	363.19
286.288	374.19
286.52	367.19
286.751	375.19
286.982	367.19
287.213	385.19
287.444	385.19
287.675	357.19
287.906	375.19
288.138	363.19
288.369	381.19
288.6	373.19
288.831	373.19
289.062	390.19
289.293	373.19
289.524	387.19
289.755	364.19
289.986	383.19
290.217	372.19
290.448	383.19
290.679	391.19
290.91	382.19
291.141	395.19
291.371	393.19
291.602	403.19
291.833	399.19
292.064	393.19
292.295	384.19
292.526	387.19
292.757	370.19
292.987	394.19
293.218	387.19
293.449	400.19
293.68	380.19
293.91	386.19
294.141	392.19
294.372	390.19
294.603	366.19
294.833	392.19
295.064	401.19
295.295	393.19
295.525	388.19
295.756	419.19
295.987	423.19
296.217	406.19
296.448	406.19
296.679	396.19
296.909	419.19
297.14	395.19
297.37	416.19
297.601	429.19
297.831	407.19
298.062	434.19
298.292	431.19
298.523	446.19
298.753	426.19
298.984	416.19
299.214	428.19
299.445	439.19
299.675	425.19
299.905	427.19
300.136	433.19
300.366	430.19
300.597	459.19
300.827	442.19
301.057	453.19
301.288	460.19
301.518	437.19
301.748	452.19
301.979	457.19
302.209	445.19
302.439	458.19
302.669	426.19
302.9	426.19
303.13	452.19
303.36	475.19
303.59	445.19
303.82	455.19
304.051	460.19
304.281	447.19
304.511	429.19
304.741	449.19
304.971	463.19
305.201	467.19
305.431	457.19
305.661	462.19
305.891	487.19
306.121	459.19
306.352	444.19
306.582	443.19
306.812	465.19
307.042	447.19
307.272	469.19
307.502	442.19
307.731	453.19
307.961	469.19
308.191	451.19
308.421	443.19
308.651	445.19
308.881	445.19
309.111	443.19
309.341	438.19
309.571	454.19
309.8	448.19
310.03	452.19
310.26	456.19
310.49	480.19
310.72	455.19
310.949	449.19
311.179	471.19
311.409	453.19
311.639	454.19
311.868	469.19
312.098	459.19
312.328	454.19
312.557	464.19
312.787	475.19
313.017	438.19
313.246	452.19
313.476	484.19
313.706	476.19
313.935	493.19
314.165	499.19
314.394	481.19
314.624	495.19
314.853	477.19
315.083	474.19
315.312	485.19
315.542	489.19
315.771	500.19
316.001	501.19
316.23	481.19
316.46	482.19
316.689	499.19
316.919	474.19
317.148	467.19
317.377	486.19
317.607	470.19
317.836	474.19
318.065	474.19
318.295	461.19
318.524	484.19
318.753	462.19
318.983	464.19
319.212	469.19
319.441	475.19
319.67	469.19
319.9	483.19
320.129	486.19
320.358	490.19
320.587	477.19
320.816	496.19
321.046	492.19
321.275	490.19
321.504	486.19
321.733	471.19
321.962	468.19
322.191	500.19
322.42	473.19
322.649	485.19
322.878	511.19
323.108	485.19
323.337	499.19
323.566	522.19
323.795	506.19
324.024	488.19
324.253	479.19
324.482	504.19
324.71	511.19
324.939	475.19
325.168	492.19
325.397	502.19
325.626	519.19
325.855	517.19
326.084	523.19
326.313	518.19
326.542	499.19
326.77	498.19
326.999	488.19
327.228	505.19
327.457	537.19
327.686	527.19
327.914	525.19
328.143	529.19
328.372	533.19
328.6	517.19
328.829	501.19
329.058	520.19
329.287	532.19
329.515	513.19
329.744	523.19
329.972	535.19
330.201	537.19
330.43	533.19
330.658	531.19
330.887	518.19
331.115	538.19
331.344	542.19
331.572	545.19
331.801	556.19
332.03	551.19
332.258	583.19
332.486	590.19
332.715	595.19
332.943	603.19
333.172	627.19
333.4	635.19
333.629	644.19
333.857	653.19
334.085	653.19
334.314	653.19
334.542	654.19
334.771	641.19
334.999	611.19
335.227	633.19
335.455	600.19
335.684	642.19
335.912	627.19
336.14	622.19
336.369	641.19
336.597	606.19
336.825	624.19
337.053	632.19
337.281	598.19
337.51	605.19
337.738	620.19
337.966	597.19
338.194	603.19
338.422	591.19
338.65	566.19
338.878	561.19
339.106	571.19
339.334	590.19
339.562	580.19
339.79	558.19
340.018	557.19
340.246	550.19
340.474	536.19
340.702	569.19
340.93	567.19
341.158	557.19
341.386	577.19
341.614	585.19
341.842	571.19
342.07	550.19
342.298	554.19
342.526	548.19
342.754	557.19
342.981	576.19
343.209	557.19
343.437	583.19
343.665	591.19
343.893	626.19
344.12	613.19
344.348	629.19
344.576	617.19
344.804	600.19
345.031	587.19
345.259	585.19
345.487	552.19
345.714	557.19
345.942	550.19
346.17	577.19
346.397	567.19
346.625	534.19
346.853	537.19
347.08	535.19
347.308	543.19
347.535	551.19
347.763	563.19
347.99	532.19
348.218	545.19
348.445	542.19
348.673	521.19
348.9	546.19
349.128	541.19
349.355	540.19
349.583	549.19
349.81	526.19
350.037	522.19
350.265	503.19
350.492	516.19
350.72	510.19
350.947	531.19
351.174	527.19
351.402	520.19
351.629	544.19
351.856	526.19
352.083	506.19
352.311	533.19
352.538	534.19
352.765	545.19
352.992	507.19
353.22	513.19
353.447	512.19
353.674	479.19
353.901	489.19
354.128	511.19
354.355	497.19
354.583	506.19
354.81	514.19
355.037	502.19
355.264	487.19
355.491	523.19
355.718	507.19
355.945	487.19
356.172	509.19
356.399	505.19
356.626	518.19
356.853	536.19
357.08	510.19
357.307	504.19
357.534	518.19
357.761	526.19
357.988	507.19
358.215	515.19
358.441	509.19
358.668	487.19
358.895	502.19
359.122	491.19
359.349	522.19
359.576	495.19
359.802	521.19
360.029	524.19
360.256	502.19
360.483	512.19
360.709	511.19
360.936	517.19
361.163	516.19
361.39	523.19
361.616	523.19
361.843	523.19
362.07	528.19
362.296	557.19
362.523	494.19
362.749	499.19
362.976	515.19
363.203	507.19
363.429	506.19
363.656	502.19
363.882	494.19
364.109	481.19
364.335	492.19
364.562	474.19
364.788	510.19
365.015	490.19
365.241	478.19
365.468	510.19
365.694	498.19
365.92	511.19
366.147	488.19
366.373	509.19
366.599	500.19
366.826	519.19
367.052	492.19
367.278	477.19
367.505	486.19
367.731	498.19
367.957	490.19
368.184	525.19
368.41	514.19
368.636	507.19
368.862	518.19
369.089	514.19
369.315	512.19
369.541	519.19
369.767	490.19
369.993	495.19
370.219	519.19
370.445	529.19
370.672	521.19
370.898	519.19
371.124	525.19
371.35	524.19
371.576	524.19
371.802	498.19
372.028	531.19
372.254	515.19
372.48	545.19
372.706	557.19
372.932	557.19
373.158	542.19
373.384	556.19
373.61	543.19
373.835	546.19
374.061	549.19
374.287	570.19
374.513	557.19
374.739	546.19
374.965	570.19
375.191	562.19
375.416	542.19
375.642	552.19
375.868	561.19
376.094	563.19
376.319	535.19
376.545	541.19
376.771	533.19
376.997	528.19
377.222	526.19
377.448	511.19
377.674	531.19
377.899	524.19
378.125	513.19
378.35	499.19
378.576	522.19
378.802	503.19
379.027	518.19
379.253	519.19
379.478	537.19
379.704	513.19
379.929	509.19
380.155	542.19
380.38	521.19
380.606	521.19
380.831	518.19
381.057	512.19
381.282	530.19
381.507	532.19
381.733	542.19
381.958	535.19
382.184	542.19
382.409	522.19
382.634	536.19
382.86	553.19
383.085	550.19
383.31	581.19
383.535	578.19
383.761	546.19
383.986	567.19
384.211	577.19
384.436	594.19
384.662	586.19
384.887	602.19
385.112	577.19
385.337	595.19
385.562	598.19
385.787	591.19
386.013	632.19
386.238	599.19
386.463	629.19
386.688	599.19
386.913	604.19
387.138	609.19
387.363	615.19
387.588	621.19
387.813	585.19
388.038	601.19
388.263	600.19
388.488	606.19
388.713	612.19
388.938	594.19
389.163	592.19
389.387	612.19
389.612	585.19
389.837	617.19
390.062	591.19
390.287	625.19
390.512	597.19
390.736	604.19
390.961	634.19
391.186	641.19
391.411	649.19
391.636	654.19
391.86	662.19
392.085	659.19
392.31	657.19
392.534	646.19
392.759	655.19
392.984	637.19
393.208	634.19
393.433	628.19
393.658	646.19
393.882	659.19
394.107	650.19
394.331	634.19
394.556	628.19
394.78	647.19
395.005	670.19
395.229	641.19
395.454	670.19
395.678	679.19
395.903	701.19
396.127	670.19
396.352	664.19
396.576	643.19
396.801	641.19
397.025	662.19
397.249	669.19
397.474	685.19
397.698	696.19
397.922	660.19
398.147	678.19
398.371	703.19
398.595	716.19
398.82	754.19
399.044	808.19
399.268	834.19
399.492	917.19
399.717	1015.19
399.941	983.19
400.165	914.19
400.389	862.19
400.613	817.19
400.837	762.19
401.062	758.19
401.286	765.19
401.51	759.19
401.734	772.19
401.958	774.19
402.182	786.19
402.406	742.19
402.63	761.19
402.854	780.19
403.078	813.19
403.302	779.19
403.526	793.19
403.75	802.19
403.974	799.19
404.198	812.19
404.422	798.19
404.645	802.19
404.869	805.19
405.093	820.19
405.317	801.19
405.541	802.19
405.765	819.19
405.988	822.19
406.212	806.19
406.436	834.19
406.66	814.19
406.883	814.19
407.107	861.19
407.331	877.19
407.555	897.19
407.778	925.19
408.002	901.19
408.226	901.19
408.449	872.19
408.673	850.19
408.896	820.19
409.12	827.19
409.344	838.19
409.567	813.19
409.791	835.19
410.014	803.19
410.238	798.19
410.461	817.19
410.685	821.19
410.908	803.19
411.132	776.19
411.355	778.19
411.578	774.19
411.802	777.19
412.025	789.19
412.249	808.19
412.472	788.19
412.695	774.19
412.919	755.19
413.142	767.19
413.365	767.19
413.589	777.19
413.812	795.19
414.035	757.19
414.258	729.19
414.482	746.19
414.705	770.19
414.928	770.19
415.151	750.19
415.374	769.19
415.597	756.19
415.821	715.19
416.044	743.19
416.267	748.19
416.49	713.19
416.713	742.19
416.936	734.19
417.159	744.19
417.382	733.19
417.605	721.19
417.828	736.19
418.051	769.19
418.274	740.19
418.497	732.19
418.72	730.19
418.943	744.19
419.166	820.19
419.389	858.19
419.611	814.19
419.834	764.19
420.057	785.19
420.28	766.19
420.503	763.19
420.726	726.19
420.948	757.19
421.171	765.19
421.394	766.19
421.617	730.19
421.839	772.19
422.062	769.19
422.285	765.19
422.507	758.19
422.73	741.19
422.953	758.19
423.175	783.19
423.398	787.19
423.621	767.19
423.843	794.19
424.066	775.19
424.288	791.19
424.511	774.19
424.733	770.19
424.956	759.19
425.178	745.19
425.401	732.19
425.623	755.19
425.846	755.19
426.068	725.19
426.291	729.19
426.513	727.19
426.735	717.19
426.958	723.19
427.18	699.19
427.402	718.19
427.625	695.19
427.847	697.19
428.069	719.19
428.292	715.19
428.514	693.19
428.736	708.19
428.958	728.19
429.181	715.19
429.403	716.19
429.625	686.19
429.847	710.19
430.069	681.19
430.292	694.19
430.514	695.19
430.736	691.19
430.958	699.19
431.18	695.19
431.402	686.19
431.624	709.19
431.846	715.19
432.068	703.19
432.29	715.19
432.512	716.19
432.734	707.19
432.956	721.19
433.178	712.19
433.4	708.19
433.622	760.19
433.844	739.19
434.066	733.19
434.287	743.19
434.509	728.19
434.731	744.19
434.953	758.19
435.175	772.19
435.397	775.19
435.618	744.19
435.84	765.19
436.062	717.19
436.284	718.19
436.505	718.19
436.727	718.19
436.949	694.19
437.17	703.19
437.392	698.19
437.614	705.19
437.835	673.19
438.057	694.19
438.278	677.19
438.5	694.19
438.721	697.19
438.943	705.19
439.165	693.19
439.386	697.19
439.608	725.19
439.829	702.19
440.05	714.19
440.272	738.19
440.493	714.19
440.715	738.19
440.936	729.19
441.158	761.19
441.379	759.19
441.6	792.19
441.822	800.19
442.043	779.19
442.264	747.19
442.486	754.19
442.707	769.19
442.928	777.19
443.149	779.19
443.371	759.19
443.592	785.19
443.813	793.19
444.034	795.19
444.255	804.19
444.476	826.19
444.698	844.19
444.919	885.19
445.14	959.19
445.361	891.19
445.582	804.19
445.803	763.19
446.024	767.19
446.245	777.19
446.466	772.19
446.687	725.19
446.908	754.19
447.129	708.19
447.35	690.19
447.571	697.19
447.792	707.19
448.013	671.19
448.234	670.19
448.455	670.19
448.675	659.19
448.896	679.19
449.117	677.19
449.338	673.19
449.559	676.19
449.779	669.19
450	661.19
450.221	665.19
450.442	673.19
450.662	677.19
450.883	697.19
451.104	689.19
451.324	703.19
451.545	683.19
451.766	687.19
451.986	666.19
452.207	651.19
452.428	666.19
452.648	669.19
452.869	634.19
453.089	638.19
453.31	630.19
453.53	643.19
453.751	632.19
453.971	637.19
454.192	625.19
454.412	631.19
454.633	646.19
454.853	651.19
455.073	647.19
455.294	644.19
455.514	635.19
455.734	643.19
455.955	611.19
456.175	641.19
456.395	612.19
456.616	631.19
456.836	659.19
457.056	635.19
457.276	620.19
457.497	641.19
457.717	615.19
457.937	637.19
458.157	661.19
458.377	639.19
458.598	659.19
458.818	681.19
459.038	682.19
459.258	713.19
459.478	696.19
459.698	741.19
459.918	755.19
460.138	806.19
460.358	795.19
460.578	833.19
460.798	824.19
461.018	840.19
461.238	835.19
461.458	833.19
461.678	808.19
461.898	838.19
462.118	868.19
462.338	883.19
462.558	897.19
462.777	925.19
462.997	973.19
463.217	1041.19
463.437	1036.19
463.657	962.19
463.876	907.19
464.096	962.19
464.316	959.19
464.536	922.19
464.755	899.19
464.975	888.19
465.195	820.19
465.414	815.19
465.634	787.19
465.854	745.19
466.073	751.19
466.293	740.19
466.512	707.19
466.732	718.19
466.951	732.19
467.171	735.19
467.391	713.19
467.61	696.19
467.829	713.19
468.049	714.19
468.268	709.19
468.488	685.19
468.707	707.19
468.927	691.19
469.146	703.19
469.365	720.19
469.585	697.19
469.804	721.19
470.023	718.19
470.243	731.19
470.462	722.19
470.681	715.19
470.901	723.19
471.12	730.19
471.339	735.19
471.558	722.19
471.777	729.19
471.997	700.19
472.216	721.19
472.435	708.19
472.654	669.19
472.873	651.19
473.092	673.19
473.311	675.19
473.53	673.19
473.749	661.19
473.968	685.19
474.187	689.19
474.406	645.19
474.625	706.19
474.844	675.19
475.063	713.19
475.282	676.19
475.501	694.19
475.72	670.19
475.939	706.19
476.158	695.19
476.377	705.19
476.596	704.19
476.814	720.19
477.033	713.19
477.252	730.19
477.471	733.19
477.69	776.19
477.908	793.19
478.127	799.19
478.346	825.19
478.564	811.19
478.783	810.19
479.002	856.19
479.22	840.19
479.439	818.19
479.658	844.19
479.876	824.19
480.095	826.19
480.313	882.19
480.532	857.19
480.751	846.19
480.969	823.19
481.188	801.19
481.406	782.19
481.624	773.19
481.843	767.19
482.061	774.19
482.28	766.19
482.498	775.19
482.717	757.19
482.935	749.19
483.153	785.19
483.372	777.19
483.59	790.19
483.808	797.19
484.027	777.19
484.245	783.19
484.463	770.19
484.681	805.19
484.9	819.19
485.118	806.19
485.336	790.19
485.554	781.19
485.772	808.19
485.99	784.19
486.209	806.19
486.427	776.19
486.645	822.19
486.863	824.19
487.081	803.19
487.299	838.19
487.517	801.19
487.735	829.19
487.953	823.19
488.171	854.19
488.389	820.19
488.607	817.19
488.825	801.19
489.043	793.19
489.261	813.19
489.479	816.19
489.696	829.19
489.914	826.19
490.132	826.19
490.35	830.19
490.568	821.19
490.786	831.19
491.003	803.19
491.221	844.19
491.439	830.19
491.657	830.19
491.874	862.19
492.092	862.19
492.31	904.19
492.527	866.19
492.745	879.19
492.963	852.19
493.18	881.19
493.398	876.19
493.615	861.19
493.833	900.19
494.05	870.19
494.268	887.19
494.485	893.19
494.703	916.19
494.92	884.19
495.138	867.19
495.355	907.19
495.573	872.19
495.79	892.19
496.008	898.19
496.225	906.19
496.442	896.19
496.66	925.19
496.877	930.19
497.094	955.19
497.312	960.19
497.529	956.19
497.746	976.19
497.963	1011.19
498.181	1046.19
498.398	1102.19
498.615	1163.19
498.832	1171.19
499.049	1230.19
499.267	1316.19
499.484	1455.19
499.701	1559.19
499.918	1677.19
500.135	1813.19
500.352	1960.19
500.569	2037.19
500.786	2011.19
501.003	1941.19
501.22	1767.19
501.437	1598.19
