Data from NiCl2@0.125M.TitratingCurve.Agarose3%dH2O.NegLispCup.LampEnergy10.LIBS07252019_HRD10591_18-28-08-574.txt Node
Date: Thu Jul 25 18:28:08 EDT 2019
User: cochatt
Spectrometer: HR+D1059
Trigger mode: 1
Integration Time (sec): 1.000000E-1
Scans to average: 1
Electric dark correction enabled: true
Nonlinearity correction enabled: false
Boxcar width: 0
XAxis mode: Wavelengths
Number of Pixels in Spectrum: 2048
>>>>>Begin Spectral Data<<<<<
223.165	-13.94
223.4	-13.94
223.635	-13.94
223.869	-22.94
224.104	-19.94
224.338	-16.94
224.573	-8.94
224.808	4.06
225.042	-17.94
225.277	-18.94
225.511	-9.94
225.746	9.06
225.98	10.06
226.215	-5.94
226.449	13.06
226.683	29.06
226.918	33.06
227.152	37.06
227.387	43.06
227.621	35.06
227.856	46.06
228.09	44.06
228.324	50.06
228.559	57.06
228.793	65.06
229.027	111.06
229.262	123.06
229.496	121.06
229.73	126.06
229.964	143.06
230.199	139.06
230.433	150.06
230.667	155.06
230.901	136.06
231.136	132.06
231.37	153.06
231.604	157.06
231.838	145.06
232.072	169.06
232.306	157.06
232.541	169.06
232.775	158.06
233.009	182.06
233.243	182.06
233.477	148.06
233.711	173.06
233.945	178.06
234.179	177.06
234.413	165.06
234.647	168.06
234.881	182.06
235.115	170.06
235.349	177.06
235.583	171.06
235.817	177.06
236.051	179.06
236.285	181.06
236.519	193.06
236.753	179.06
236.987	186.06
237.221	174.06
237.455	188.06
237.689	192.06
237.922	187.06
238.156	190.06
238.39	188.06
238.624	210.06
238.858	205.06
239.091	198.06
239.325	198.06
239.559	201.06
239.793	206.06
240.027	233.06
240.26	232.06
240.494	189.06
240.728	216.06
240.961	246.06
241.195	221.06
241.429	224.06
241.662	229.06
241.896	208.06
242.13	227.06
242.363	235.06
242.597	238.06
242.83	245.06
243.064	247.06
243.298	237.06
243.531	243.06
243.765	231.06
243.998	231.06
244.232	249.06
244.465	259.06
244.699	263.06
244.932	263.06
245.166	249.06
245.399	257.06
245.633	261.06
245.866	252.06
246.099	260.06
246.333	258.06
246.566	258.06
246.8	263.06
247.033	254.06
247.266	274.06
247.5	286.06
247.733	282.06
247.966	293.06
248.2	254.06
248.433	297.06
248.666	286.06
248.899	274.06
249.133	281.06
249.366	270.06
249.599	291.06
249.832	287.06
250.066	321.06
250.299	304.06
250.532	307.06
250.765	307.06
250.998	293.06
251.231	311.06
251.465	298.06
251.698	317.06
251.931	317.06
252.164	318.06
252.397	321.06
252.63	331.06
252.863	328.06
253.096	324.06
253.329	335.06
253.562	327.06
253.795	345.06
254.028	362.06
254.261	349.06
254.494	341.06
254.727	342.06
254.96	339.06
255.193	340.06
255.426	352.06
255.659	355.06
255.892	340.06
256.124	351.06
256.357	342.06
256.59	359.06
256.823	357.06
257.056	340.06
257.289	365.06
257.521	350.06
257.754	361.06
257.987	342.06
258.22	349.06
258.452	381.06
258.685	376.06
258.918	366.06
259.151	375.06
259.383	364.06
259.616	363.06
259.849	379.06
260.081	388.06
260.314	375.06
260.547	372.06
260.779	401.06
261.012	365.06
261.244	396.06
261.477	377.06
261.71	390.06
261.942	391.06
262.175	398.06
262.407	419.06
262.64	391.06
262.872	402.06
263.105	410.06
263.337	411.06
263.57	420.06
263.802	412.06
264.035	418.06
264.267	399.06
264.499	394.06
264.732	426.06
264.964	421.06
265.197	424.06
265.429	437.06
265.661	430.06
265.894	420.06
266.126	429.06
266.358	423.06
266.591	420.06
266.823	455.06
267.055	423.06
267.287	449.06
267.52	437.06
267.752	443.06
267.984	439.06
268.216	451.06
268.448	454.06
268.681	460.06
268.913	426.06
269.145	433.06
269.377	457.06
269.609	449.06
269.841	457.06
270.073	454.06
270.306	463.06
270.538	452.06
270.77	463.06
271.002	468.06
271.234	463.06
271.466	470.06
271.698	467.06
271.93	466.06
272.162	487.06
272.394	478.06
272.626	467.06
272.858	464.06
273.09	464.06
273.322	494.06
273.553	462.06
273.785	466.06
274.017	499.06
274.249	489.06
274.481	499.06
274.713	490.06
274.945	491.06
275.176	511.06
275.408	496.06
275.64	498.06
275.872	510.06
276.104	526.06
276.335	507.06
276.567	499.06
276.799	506.06
277.031	528.06
277.262	540.06
277.494	511.06
277.726	530.06
277.957	508.06
278.189	543.06
278.421	517.06
278.652	525.06
278.884	529.06
279.115	551.06
279.347	526.06
279.579	528.06
279.81	545.06
280.042	521.06
280.273	526.06
280.505	565.06
280.736	545.06
280.968	577.06
281.199	563.06
281.431	573.06
281.662	585.06
281.894	551.06
282.125	552.06
282.356	565.06
282.588	540.06
282.819	549.06
283.051	569.06
283.282	559.06
283.513	572.06
283.745	559.06
283.976	587.06
284.207	585.06
284.439	558.06
284.67	570.06
284.901	593.06
285.132	600.06
285.364	595.06
285.595	588.06
285.826	580.06
286.057	582.06
286.288	602.06
286.52	609.06
286.751	606.06
286.982	597.06
287.213	613.06
287.444	633.06
287.675	618.06
287.906	619.06
288.138	615.06
288.369	627.06
288.6	618.06
288.831	632.06
289.062	625.06
289.293	638.06
289.524	632.06
289.755	635.06
289.986	637.06
290.217	630.06
290.448	642.06
290.679	641.06
290.91	630.06
291.141	637.06
291.371	631.06
291.602	627.06
291.833	643.06
292.064	644.06
292.295	628.06
292.526	634.06
292.757	630.06
292.987	615.06
293.218	632.06
293.449	655.06
293.68	649.06
293.91	617.06
294.141	645.06
294.372	643.06
294.603	639.06
294.833	667.06
295.064	660.06
295.295	653.06
295.525	653.06
295.756	681.06
295.987	656.06
296.217	651.06
296.448	669.06
296.679	674.06
296.909	658.06
297.14	669.06
297.37	694.06
297.601	707.06
297.831	692.06
298.062	692.06
298.292	692.06
298.523	711.06
298.753	695.06
298.984	717.06
299.214	723.06
299.445	691.06
299.675	678.06
299.905	695.06
300.136	691.06
300.366	687.06
300.597	714.06
300.827	718.06
301.057	714.06
301.288	723.06
301.518	734.06
301.748	756.06
301.979	742.06
302.209	740.06
302.439	742.06
302.669	714.06
302.9	741.06
303.13	714.06
303.36	736.06
303.59	725.06
303.82	734.06
304.051	735.06
304.281	734.06
304.511	706.06
304.741	737.06
304.971	714.06
305.201	717.06
305.431	725.06
305.661	742.06
305.891	712.06
306.121	716.06
306.352	701.06
306.582	713.06
306.812	702.06
307.042	719.06
307.272	706.06
307.502	711.06
307.731	696.06
307.961	694.06
308.191	720.06
308.421	715.06
308.651	704.06
308.881	692.06
309.111	705.06
309.341	706.06
309.571	705.06
309.8	711.06
310.03	709.06
310.26	724.06
310.49	700.06
310.72	692.06
310.949	723.06
311.179	720.06
311.409	725.06
311.639	731.06
311.868	735.06
312.098	743.06
312.328	739.06
312.557	742.06
312.787	735.06
313.017	753.06
313.246	731.06
313.476	773.06
313.706	771.06
313.935	753.06
314.165	754.06
314.394	758.06
314.624	757.06
314.853	738.06
315.083	761.06
315.312	750.06
315.542	766.06
315.771	744.06
316.001	749.06
316.23	755.06
316.46	734.06
316.689	739.06
316.919	745.06
317.148	746.06
317.377	749.06
317.607	740.06
317.836	729.06
318.065	733.06
318.295	749.06
318.524	749.06
318.753	750.06
318.983	741.06
319.212	731.06
319.441	760.06
319.67	724.06
319.9	739.06
320.129	743.06
320.358	740.06
320.587	753.06
320.816	734.06
321.046	769.06
321.275	729.06
321.504	747.06
321.733	780.06
321.962	765.06
322.191	754.06
322.42	770.06
322.649	759.06
322.878	742.06
323.108	767.06
323.337	790.06
323.566	762.06
323.795	775.06
324.024	738.06
324.253	756.06
324.482	773.06
324.71	762.06
324.939	793.06
325.168	789.06
325.397	762.06
325.626	784.06
325.855	814.06
326.084	832.06
326.313	824.06
326.542	832.06
326.77	857.06
326.999	839.06
327.228	825.06
327.457	797.06
327.686	799.06
327.914	799.06
328.143	825.06
328.372	803.06
328.6	845.06
328.829	821.06
329.058	810.06
329.287	801.06
329.515	817.06
329.744	829.06
329.972	834.06
330.201	838.06
330.43	838.06
330.658	865.06
330.887	857.06
331.115	842.06
331.344	862.06
331.572	854.06
331.801	887.06
332.03	870.06
332.258	903.06
332.486	954.06
332.715	969.06
332.943	1015.06
333.172	1025.06
333.4	1056.06
333.629	1063.06
333.857	1125.06
334.085	1086.06
334.314	1096.06
334.542	1086.06
334.771	1032.06
334.999	1014.06
335.227	1009.06
335.455	1017.06
335.684	998.06
335.912	979.06
336.14	975.06
336.369	982.06
336.597	993.06
336.825	960.06
337.053	981.06
337.281	958.06
337.51	925.06
337.738	907.06
337.966	920.06
338.194	902.06
338.422	907.06
338.65	896.06
338.878	903.06
339.106	877.06
339.334	876.06
339.562	866.06
339.79	865.06
340.018	845.06
340.246	836.06
340.474	828.06
340.702	854.06
340.93	838.06
341.158	850.06
341.386	860.06
341.614	852.06
341.842	853.06
342.07	810.06
342.298	859.06
342.526	830.06
342.754	834.06
342.981	831.06
343.209	857.06
343.437	902.06
343.665	955.06
343.893	1017.06
344.12	1040.06
344.348	1061.06
344.576	958.06
344.804	908.06
345.031	909.06
345.259	878.06
345.487	867.06
345.714	831.06
345.942	833.06
346.17	866.06
346.397	847.06
346.625	805.06
346.853	813.06
347.08	812.06
347.308	815.06
347.535	844.06
347.763	833.06
347.99	833.06
348.218	841.06
348.445	802.06
348.673	849.06
348.9	830.06
349.128	844.06
349.355	794.06
349.583	817.06
349.81	817.06
350.037	815.06
350.265	789.06
350.492	819.06
350.72	809.06
350.947	773.06
351.174	776.06
351.402	780.06
351.629	790.06
351.856	797.06
352.083	807.06
352.311	791.06
352.538	786.06
352.765	791.06
352.992	804.06
353.22	766.06
353.447	812.06
353.674	780.06
353.901	758.06
354.128	787.06
354.355	771.06
354.583	776.06
354.81	797.06
355.037	795.06
355.264	834.06
355.491	815.06
355.718	801.06
355.945	815.06
356.172	813.06
356.399	790.06
356.626	790.06
356.853	796.06
357.08	769.06
357.307	783.06
357.534	799.06
357.761	783.06
357.988	806.06
358.215	787.06
358.441	775.06
358.668	795.06
358.895	797.06
359.122	788.06
359.349	788.06
359.576	802.06
359.802	796.06
360.029	801.06
360.256	779.06
360.483	809.06
360.709	802.06
360.936	794.06
361.163	784.06
361.39	821.06
361.616	798.06
361.843	784.06
362.07	805.06
362.296	786.06
362.523	770.06
362.749	785.06
362.976	807.06
363.203	766.06
363.429	784.06
363.656	767.06
363.882	792.06
364.109	789.06
364.335	769.06
364.562	781.06
364.788	810.06
365.015	770.06
365.241	782.06
365.468	803.06
365.694	789.06
365.92	803.06
366.147	765.06
366.373	794.06
366.599	789.06
366.826	786.06
367.052	791.06
367.278	795.06
367.505	801.06
367.731	821.06
367.957	783.06
368.184	802.06
368.41	801.06
368.636	787.06
368.862	817.06
369.089	830.06
369.315	819.06
369.541	819.06
369.767	841.06
369.993	794.06
370.219	818.06
370.445	850.06
370.672	846.06
370.898	836.06
371.124	829.06
371.35	839.06
371.576	839.06
371.802	855.06
372.028	878.06
372.254	837.06
372.48	833.06
372.706	880.06
372.932	899.06
373.158	910.06
373.384	898.06
373.61	870.06
373.835	868.06
374.061	857.06
374.287	874.06
374.513	870.06
374.739	909.06
374.965	912.06
375.191	929.06
375.416	965.06
375.642	907.06
375.868	897.06
376.094	876.06
376.319	877.06
376.545	861.06
376.771	894.06
376.997	868.06
377.222	858.06
377.448	872.06
377.674	869.06
377.899	852.06
378.125	855.06
378.35	847.06
378.576	840.06
378.802	865.06
379.027	859.06
379.253	842.06
379.478	853.06
379.704	828.06
379.929	853.06
380.155	833.06
380.38	857.06
380.606	854.06
380.831	862.06
381.057	853.06
381.282	876.06
381.507	870.06
381.733	867.06
381.958	890.06
382.184	863.06
382.409	883.06
382.634	890.06
382.86	908.06
383.085	916.06
383.31	928.06
383.535	963.06
383.761	939.06
383.986	979.06
384.211	991.06
384.436	989.06
384.662	1003.06
384.887	1040.06
385.112	1045.06
385.337	1042.06
385.562	1031.06
385.787	1040.06
386.013	1047.06
386.238	1038.06
386.463	1037.06
386.688	1060.06
386.913	1034.06
387.138	1013.06
387.363	1033.06
387.588	994.06
387.813	1033.06
388.038	1016.06
388.263	1014.06
388.488	1018.06
388.713	1047.06
388.938	1045.06
389.163	1009.06
389.387	1028.06
389.612	1020.06
389.837	999.06
390.062	1011.06
390.287	1014.06
390.512	1011.06
390.736	1031.06
390.961	1056.06
391.186	1046.06
391.411	1105.06
391.636	1111.06
391.86	1162.06
392.085	1157.06
392.31	1169.06
392.534	1144.06
392.759	1110.06
392.984	1112.06
393.208	1085.06
393.433	1118.06
393.658	1083.06
393.882	1090.06
394.107	1115.06
394.331	1090.06
394.556	1109.06
394.78	1114.06
395.005	1126.06
395.229	1128.06
395.454	1146.06
395.678	1171.06
395.903	1157.06
396.127	1160.06
396.352	1121.06
396.576	1113.06
396.801	1091.06
397.025	1086.06
397.249	1107.06
397.474	1147.06
397.698	1148.06
397.922	1133.06
398.147	1154.06
398.371	1143.06
398.595	1254.06
398.82	1261.06
399.044	1362.06
399.268	1478.06
399.492	1729.06
399.717	1972.06
399.941	2001.06
400.165	1766.06
400.389	1593.06
400.613	1468.06
400.837	1341.06
401.062	1291.06
401.286	1311.06
401.51	1293.06
401.734	1271.06
401.958	1327.06
402.182	1335.06
402.406	1317.06
402.63	1376.06
402.854	1389.06
403.078	1401.06
403.302	1434.06
403.526	1452.06
403.75	1498.06
403.974	1510.06
404.198	1545.06
404.422	1523.06
404.645	1480.06
404.869	1457.06
405.093	1516.06
405.317	1438.06
405.541	1458.06
405.765	1432.06
405.988	1407.06
406.212	1417.06
406.436	1412.06
406.66	1469.06
406.883	1436.06
407.107	1529.06
407.331	1608.06
407.555	1701.06
407.778	1640.06
408.002	1626.06
408.226	1588.06
408.449	1564.06
408.673	1519.06
408.896	1471.06
409.12	1453.06
409.344	1489.06
409.567	1491.06
409.791	1487.06
410.014	1459.06
410.238	1419.06
410.461	1450.06
410.685	1434.06
410.908	1403.06
411.132	1415.06
411.355	1345.06
411.578	1349.06
411.802	1341.06
412.025	1342.06
412.249	1382.06
412.472	1359.06
412.695	1315.06
412.919	1276.06
413.142	1283.06
413.365	1308.06
413.589	1305.06
413.812	1272.06
414.035	1273.06
414.258	1283.06
414.482	1306.06
414.705	1349.06
414.928	1287.06
415.151	1301.06
415.374	1309.06
415.597	1305.06
415.821	1298.06
416.044	1254.06
416.267	1243.06
416.49	1240.06
416.713	1276.06
416.936	1280.06
417.159	1294.06
417.382	1262.06
417.605	1270.06
417.828	1249.06
418.051	1308.06
418.274	1244.06
418.497	1257.06
418.72	1308.06
418.943	1321.06
419.166	1384.06
419.389	1473.06
419.611	1449.06
419.834	1384.06
420.057	1346.06
420.28	1303.06
420.503	1285.06
420.726	1235.06
420.948	1236.06
421.171	1299.06
421.394	1269.06
421.617	1287.06
421.839	1271.06
422.062	1295.06
422.285	1255.06
422.507	1310.06
422.73	1335.06
422.953	1305.06
423.175	1351.06
423.398	1393.06
423.621	1367.06
423.843	1339.06
424.066	1357.06
424.288	1377.06
424.511	1337.06
424.733	1324.06
424.956	1331.06
425.178	1299.06
425.401	1294.06
425.623	1306.06
425.846	1268.06
426.068	1258.06
426.291	1224.06
426.513	1217.06
426.735	1223.06
426.958	1174.06
427.18	1162.06
427.402	1187.06
427.625	1156.06
427.847	1152.06
428.069	1151.06
428.292	1168.06
428.514	1118.06
428.736	1127.06
428.958	1158.06
429.181	1116.06
429.403	1099.06
429.625	1128.06
429.847	1108.06
430.069	1109.06
430.292	1099.06
430.514	1116.06
430.736	1133.06
430.958	1095.06
431.18	1145.06
431.402	1097.06
431.624	1119.06
431.846	1115.06
432.068	1137.06
432.29	1126.06
432.512	1127.06
432.734	1148.06
432.956	1144.06
433.178	1149.06
433.4	1137.06
433.622	1129.06
433.844	1166.06
434.066	1150.06
434.287	1186.06
434.509	1233.06
434.731	1254.06
434.953	1290.06
435.175	1318.06
435.397	1287.06
435.618	1243.06
435.84	1195.06
436.062	1177.06
436.284	1117.06
436.505	1125.06
436.727	1190.06
436.949	1153.06
437.17	1151.06
437.392	1125.06
437.614	1137.06
437.835	1086.06
438.057	1105.06
438.278	1087.06
438.5	1127.06
438.721	1135.06
438.943	1098.06
439.165	1079.06
439.386	1104.06
439.608	1103.06
439.829	1125.06
440.05	1148.06
440.272	1142.06
440.493	1144.06
440.715	1170.06
440.936	1211.06
441.158	1203.06
441.379	1237.06
441.6	1301.06
441.822	1328.06
442.043	1297.06
442.264	1257.06
442.486	1252.06
442.707	1239.06
442.928	1246.06
443.149	1269.06
443.371	1273.06
443.592	1261.06
443.813	1262.06
444.034	1289.06
444.255	1361.06
444.476	1409.06
444.698	1503.06
444.919	1541.06
445.14	1635.06
445.361	1465.06
445.582	1319.06
445.803	1260.06
446.024	1253.06
446.245	1201.06
446.466	1193.06
446.687	1187.06
446.908	1169.06
447.129	1129.06
447.35	1107.06
447.571	1122.06
447.792	1107.06
448.013	1078.06
448.234	1071.06
448.455	1061.06
448.675	1059.06
448.896	1070.06
449.117	1032.06
449.338	1047.06
449.559	1070.06
449.779	1036.06
450	1044.06
450.221	1029.06
450.442	1054.06
450.662	1061.06
450.883	1074.06
451.104	1100.06
451.324	1121.06
451.545	1071.06
451.766	1055.06
451.986	1060.06
452.207	1060.06
452.428	1054.06
452.648	1047.06
452.869	1039.06
453.089	1010.06
453.31	1039.06
453.53	1038.06
453.751	1043.06
453.971	1001.06
454.192	998.06
454.412	983.06
454.633	999.06
454.853	1030.06
455.073	1014.06
455.294	1010.06
455.514	1010.06
455.734	979.06
455.955	950.06
456.175	988.06
456.395	966.06
456.616	975.06
456.836	991.06
457.056	988.06
457.276	970.06
457.497	1010.06
457.717	982.06
457.937	1004.06
458.157	989.06
458.377	1000.06
458.598	1019.06
458.818	1078.06
459.038	1091.06
459.258	1125.06
459.478	1154.06
459.698	1171.06
459.918	1203.06
460.138	1283.06
460.358	1329.06
460.578	1337.06
460.798	1364.06
461.018	1381.06
461.238	1346.06
461.458	1350.06
461.678	1326.06
461.898	1375.06
462.118	1395.06
462.338	1398.06
462.558	1466.06
462.777	1556.06
462.997	1652.06
463.217	1840.06
463.437	1853.06
463.657	1728.06
463.876	1611.06
464.096	1595.06
464.316	1591.06
464.536	1618.06
464.755	1543.06
464.975	1487.06
465.195	1429.06
465.414	1325.06
465.634	1209.06
465.854	1185.06
466.073	1184.06
466.293	1123.06
466.512	1116.06
466.732	1124.06
466.951	1121.06
467.171	1075.06
467.391	1094.06
467.61	1097.06
467.829	1112.06
468.049	1077.06
468.268	1066.06
468.488	1062.06
468.707	1052.06
468.927	1062.06
469.146	1036.06
469.365	1049.06
469.585	1070.06
469.804	1113.06
470.023	1136.06
470.243	1137.06
470.462	1117.06
470.681	1139.06
470.901	1134.06
471.12	1126.06
471.339	1088.06
471.558	1110.06
471.777	1032.06
471.997	1041.06
472.216	1060.06
472.435	1071.06
472.654	1016.06
472.873	1040.06
473.092	1028.06
473.311	1037.06
473.53	1023.06
473.749	1009.06
473.968	1035.06
474.187	1023.06
474.406	1010.06
474.625	1012.06
474.844	1033.06
475.063	1022.06
475.282	1022.06
475.501	1026.06
475.72	1041.06
475.939	1046.06
476.158	1073.06
476.377	1061.06
476.596	1070.06
476.814	1081.06
477.033	1109.06
477.252	1139.06
477.471	1151.06
477.69	1146.06
477.908	1218.06
478.127	1260.06
478.346	1272.06
478.564	1258.06
478.783	1265.06
479.002	1284.06
479.22	1277.06
479.439	1300.06
479.658	1270.06
479.876	1267.06
480.095	1271.06
480.313	1375.06
480.532	1422.06
480.751	1392.06
480.969	1332.06
481.188	1296.06
481.406	1238.06
481.624	1214.06
481.843	1174.06
482.061	1179.06
482.28	1206.06
482.498	1194.06
482.717	1163.06
482.935	1181.06
483.153	1169.06
483.372	1186.06
483.59	1173.06
483.808	1175.06
484.027	1199.06
484.245	1207.06
484.463	1198.06
484.681	1236.06
484.9	1217.06
485.118	1244.06
485.336	1194.06
485.554	1215.06
485.772	1236.06
485.99	1285.06
486.209	1260.06
486.427	1249.06
486.645	1259.06
486.863	1227.06
487.081	1245.06
487.299	1244.06
487.517	1234.06
487.735	1250.06
487.953	1212.06
488.171	1228.06
488.389	1227.06
488.607	1258.06
488.825	1219.06
489.043	1233.06
489.261	1251.06
489.479	1198.06
489.696	1244.06
489.914	1227.06
490.132	1221.06
490.35	1257.06
490.568	1236.06
490.786	1229.06
491.003	1225.06
491.221	1237.06
491.439	1278.06
491.657	1228.06
491.874	1249.06
492.092	1267.06
492.31	1242.06
492.527	1259.06
492.745	1302.06
492.963	1244.06
493.18	1275.06
493.398	1270.06
493.615	1268.06
493.833	1300.06
494.05	1299.06
494.268	1300.06
494.485	1308.06
494.703	1325.06
