Data from NiCl2@0.25M.TitratingCurve.Agarose3%dH2O.NegLispCup.LampEnergy10.LIBS07252019_HRD10591_18-25-35-574.txt Node
Date: Thu Jul 25 18:25:35 EDT 2019
User: cochatt
Spectrometer: HR+D1059
Trigger mode: 1
Integration Time (sec): 1.000000E-1
Scans to average: 1
Electric dark correction enabled: true
Nonlinearity correction enabled: false
Boxcar width: 0
XAxis mode: Wavelengths
Number of Pixels in Spectrum: 2048
>>>>>Begin Spectral Data<<<<<
223.165	-22.19
223.4	-22.19
223.635	-22.19
223.869	-9.19
224.104	-11.19
224.338	-4.19
224.573	-25.19
224.808	-22.19
225.042	-23.19
225.277	-12.19
225.511	-1.19
225.746	13.81
225.98	10.81
226.215	9.81
226.449	13.81
226.683	21.81
226.918	38.81
227.152	21.81
227.387	28.81
227.621	33.81
227.856	54.81
228.09	41.81
228.324	57.81
228.559	47.81
228.793	72.81
229.027	98.81
229.262	89.81
229.496	110.81
229.73	104.81
229.964	109.81
230.199	123.81
230.433	112.81
230.667	122.81
230.901	125.81
231.136	130.81
231.37	129.81
231.604	121.81
231.838	129.81
232.072	130.81
232.306	137.81
232.541	149.81
232.775	141.81
233.009	137.81
233.243	134.81
233.477	114.81
233.711	141.81
233.945	141.81
234.179	153.81
234.413	143.81
234.647	138.81
234.881	130.81
235.115	122.81
235.349	143.81
235.583	147.81
235.817	143.81
236.051	149.81
236.285	146.81
236.519	144.81
236.753	138.81
236.987	144.81
237.221	159.81
237.455	157.81
237.689	150.81
237.922	152.81
238.156	154.81
238.39	161.81
238.624	155.81
238.858	167.81
239.091	165.81
239.325	158.81
239.559	148.81
239.793	146.81
240.027	184.81
240.26	183.81
240.494	147.81
240.728	162.81
240.961	170.81
241.195	168.81
241.429	160.81
241.662	159.81
241.896	159.81
242.13	179.81
242.363	170.81
242.597	174.81
242.83	177.81
243.064	178.81
243.298	187.81
243.531	185.81
243.765	189.81
243.998	182.81
244.232	177.81
244.465	190.81
244.699	183.81
244.932	200.81
245.166	196.81
245.399	204.81
245.633	198.81
245.866	197.81
246.099	194.81
246.333	198.81
246.566	200.81
246.8	201.81
247.033	183.81
247.266	213.81
247.5	187.81
247.733	197.81
247.966	210.81
248.2	204.81
248.433	208.81
248.666	204.81
248.899	206.81
249.133	203.81
249.366	226.81
249.599	216.81
249.832	237.81
250.066	230.81
250.299	227.81
250.532	224.81
250.765	224.81
250.998	229.81
251.231	217.81
251.465	212.81
251.698	242.81
251.931	229.81
252.164	217.81
252.397	216.81
252.63	231.81
252.863	247.81
253.096	225.81
253.329	224.81
253.562	221.81
253.795	224.81
254.028	271.81
254.261	257.81
254.494	244.81
254.727	240.81
254.96	257.81
255.193	251.81
255.426	247.81
255.659	270.81
255.892	252.81
256.124	256.81
256.357	235.81
256.59	241.81
256.823	252.81
257.056	260.81
257.289	253.81
257.521	276.81
257.754	264.81
257.987	259.81
258.22	264.81
258.452	258.81
258.685	282.81
258.918	260.81
259.151	263.81
259.383	261.81
259.616	268.81
259.849	289.81
260.081	266.81
260.314	277.81
260.547	279.81
260.779	288.81
261.012	270.81
261.244	291.81
261.477	288.81
261.71	288.81
261.942	286.81
262.175	274.81
262.407	277.81
262.64	291.81
262.872	291.81
263.105	280.81
263.337	295.81
263.57	292.81
263.802	310.81
264.035	301.81
264.267	306.81
264.499	296.81
264.732	291.81
264.964	299.81
265.197	293.81
265.429	295.81
265.661	295.81
265.894	288.81
266.126	314.81
266.358	317.81
266.591	306.81
266.823	301.81
267.055	304.81
267.287	310.81
267.52	311.81
267.752	318.81
267.984	328.81
268.216	333.81
268.448	325.81
268.681	307.81
268.913	333.81
269.145	320.81
269.377	327.81
269.609	326.81
269.841	320.81
270.073	311.81
270.306	306.81
270.538	330.81
270.77	331.81
271.002	335.81
271.234	350.81
271.466	344.81
271.698	333.81
271.93	333.81
272.162	329.81
272.394	339.81
272.626	321.81
272.858	343.81
273.09	336.81
273.322	341.81
273.553	346.81
273.785	350.81
274.017	355.81
274.249	347.81
274.481	355.81
274.713	333.81
274.945	368.81
275.176	346.81
275.408	364.81
275.64	366.81
275.872	364.81
276.104	386.81
276.335	364.81
276.567	361.81
276.799	356.81
277.031	368.81
277.262	365.81
277.494	390.81
277.726	390.81
277.957	385.81
278.189	364.81
278.421	368.81
278.652	358.81
278.884	372.81
279.115	374.81
279.347	389.81
279.579	378.81
279.81	390.81
280.042	383.81
280.273	382.81
280.505	392.81
280.736	371.81
280.968	383.81
281.199	393.81
281.431	387.81
281.662	413.81
281.894	387.81
282.125	402.81
282.356	399.81
282.588	416.81
282.819	409.81
283.051	403.81
283.282	397.81
283.513	422.81
283.745	403.81
283.976	430.81
284.207	408.81
284.439	422.81
284.67	425.81
284.901	412.81
285.132	404.81
285.364	414.81
285.595	418.81
285.826	419.81
286.057	416.81
286.288	430.81
286.52	416.81
286.751	428.81
286.982	420.81
287.213	440.81
287.444	436.81
287.675	438.81
287.906	438.81
288.138	432.81
288.369	426.81
288.6	457.81
288.831	428.81
289.062	458.81
289.293	428.81
289.524	454.81
289.755	458.81
289.986	454.81
290.217	457.81
290.448	454.81
290.679	436.81
290.91	473.81
291.141	451.81
291.371	448.81
291.602	438.81
291.833	450.81
292.064	452.81
292.295	462.81
292.526	437.81
292.757	472.81
292.987	451.81
293.218	438.81
293.449	442.81
293.68	457.81
293.91	464.81
294.141	467.81
294.372	448.81
294.603	453.81
294.833	452.81
295.064	471.81
295.295	464.81
295.525	467.81
295.756	455.81
295.987	464.81
296.217	475.81
296.448	469.81
296.679	497.81
296.909	475.81
297.14	471.81
297.37	490.81
297.601	486.81
297.831	499.81
298.062	486.81
298.292	473.81
298.523	505.81
298.753	491.81
298.984	500.81
299.214	481.81
299.445	489.81
299.675	476.81
299.905	497.81
300.136	498.81
300.366	489.81
300.597	487.81
300.827	498.81
301.057	553.81
301.288	526.81
301.518	514.81
301.748	510.81
301.979	525.81
302.209	529.81
302.439	516.81
302.669	498.81
302.9	512.81
303.13	520.81
303.36	509.81
303.59	485.81
303.82	513.81
304.051	547.81
304.281	530.81
304.511	520.81
304.741	525.81
304.971	519.81
305.201	498.81
305.431	500.81
305.661	512.81
305.891	533.81
306.121	509.81
306.352	520.81
306.582	519.81
306.812	497.81
307.042	502.81
307.272	505.81
307.502	515.81
307.731	500.81
307.961	487.81
308.191	492.81
308.421	502.81
308.651	518.81
308.881	516.81
309.111	514.81
309.341	509.81
309.571	506.81
309.8	505.81
310.03	497.81
310.26	497.81
310.49	510.81
310.72	505.81
310.949	505.81
311.179	510.81
311.409	516.81
311.639	524.81
311.868	532.81
312.098	520.81
312.328	532.81
312.557	520.81
312.787	534.81
313.017	540.81
313.246	535.81
313.476	532.81
313.706	570.81
313.935	553.81
314.165	552.81
314.394	535.81
314.624	543.81
314.853	500.81
315.083	546.81
315.312	552.81
315.542	526.81
315.771	568.81
316.001	528.81
316.23	544.81
316.46	545.81
316.689	550.81
316.919	531.81
317.148	533.81
317.377	549.81
317.607	541.81
317.836	527.81
318.065	545.81
318.295	546.81
318.524	534.81
318.753	536.81
318.983	540.81
319.212	541.81
319.441	535.81
319.67	531.81
319.9	546.81
320.129	554.81
320.358	530.81
320.587	551.81
320.816	521.81
321.046	531.81
321.275	533.81
321.504	578.81
321.733	542.81
321.962	551.81
322.191	541.81
322.42	534.81
322.649	540.81
322.878	545.81
323.108	528.81
323.337	540.81
323.566	544.81
323.795	553.81
324.024	545.81
324.253	574.81
324.482	555.81
324.71	565.81
324.939	547.81
325.168	555.81
325.397	572.81
325.626	571.81
325.855	582.81
326.084	590.81
326.313	606.81
326.542	598.81
326.77	609.81
326.999	592.81
327.228	586.81
327.457	580.81
327.686	584.81
327.914	560.81
328.143	593.81
328.372	588.81
328.6	590.81
328.829	581.81
329.058	575.81
329.287	578.81
329.515	572.81
329.744	626.81
329.972	582.81
330.201	588.81
330.43	617.81
330.658	591.81
330.887	608.81
331.115	611.81
331.344	626.81
331.572	632.81
331.801	665.81
332.03	644.81
332.258	649.81
332.486	651.81
332.715	699.81
332.943	717.81
333.172	739.81
333.4	763.81
333.629	784.81
333.857	783.81
334.085	805.81
334.314	763.81
334.542	756.81
334.771	732.81
334.999	732.81
335.227	738.81
335.455	725.81
335.684	708.81
335.912	738.81
336.14	696.81
336.369	714.81
336.597	715.81
336.825	687.81
337.053	684.81
337.281	692.81
337.51	672.81
337.738	662.81
337.966	678.81
338.194	665.81
338.422	633.81
338.65	637.81
338.878	635.81
339.106	649.81
339.334	637.81
339.562	644.81
339.79	637.81
340.018	614.81
340.246	605.81
340.474	622.81
340.702	618.81
340.93	641.81
341.158	619.81
341.386	641.81
341.614	630.81
341.842	621.81
342.07	591.81
342.298	611.81
342.526	622.81
342.754	611.81
342.981	592.81
343.209	642.81
343.437	650.81
343.665	697.81
343.893	758.81
344.12	760.81
344.348	726.81
344.576	680.81
344.804	672.81
345.031	657.81
345.259	650.81
345.487	633.81
345.714	612.81
345.942	612.81
346.17	619.81
346.397	604.81
346.625	583.81
346.853	593.81
347.08	609.81
347.308	590.81
347.535	582.81
347.763	609.81
347.99	592.81
348.218	620.81
348.445	574.81
348.673	576.81
348.9	596.81
349.128	595.81
349.355	565.81
349.583	581.81
349.81	574.81
350.037	575.81
350.265	594.81
350.492	577.81
350.72	576.81
350.947	573.81
351.174	597.81
351.402	574.81
351.629	569.81
351.856	572.81
352.083	577.81
352.311	592.81
352.538	590.81
352.765	593.81
352.992	562.81
353.22	580.81
353.447	571.81
353.674	600.81
353.901	570.81
354.128	554.81
354.355	583.81
354.583	565.81
354.81	566.81
355.037	572.81
355.264	579.81
355.491	571.81
355.718	597.81
355.945	584.81
356.172	566.81
356.399	570.81
356.626	582.81
356.853	580.81
357.08	580.81
357.307	576.81
357.534	569.81
357.761	589.81
357.988	618.81
358.215	572.81
358.441	562.81
358.668	567.81
358.895	577.81
359.122	586.81
359.349	600.81
359.576	568.81
359.802	597.81
360.029	587.81
360.256	590.81
360.483	577.81
360.709	584.81
360.936	601.81
361.163	595.81
361.39	563.81
361.616	568.81
361.843	581.81
362.07	575.81
362.296	601.81
362.523	573.81
362.749	604.81
362.976	584.81
363.203	586.81
363.429	587.81
363.656	599.81
363.882	597.81
364.109	574.81
364.335	574.81
364.562	603.81
364.788	562.81
365.015	562.81
365.241	603.81
365.468	598.81
365.694	575.81
365.92	580.81
366.147	560.81
366.373	587.81
366.599	576.81
366.826	582.81
367.052	589.81
367.278	583.81
367.505	591.81
367.731	579.81
367.957	578.81
368.184	581.81
368.41	595.81
368.636	564.81
368.862	582.81
369.089	598.81
369.315	589.81
369.541	608.81
369.767	611.81
369.993	635.81
370.219	591.81
370.445	609.81
370.672	596.81
370.898	605.81
371.124	631.81
371.35	643.81
371.576	638.81
371.802	618.81
372.028	637.81
372.254	632.81
372.48	632.81
372.706	634.81
372.932	658.81
373.158	653.81
373.384	660.81
373.61	641.81
373.835	640.81
374.061	650.81
374.287	632.81
374.513	658.81
374.739	678.81
374.965	665.81
375.191	694.81
375.416	668.81
375.642	660.81
375.868	660.81
376.094	642.81
376.319	634.81
376.545	653.81
376.771	636.81
376.997	642.81
377.222	641.81
377.448	641.81
377.674	629.81
377.899	624.81
378.125	635.81
378.35	624.81
378.576	630.81
378.802	643.81
379.027	624.81
379.253	616.81
379.478	628.81
379.704	616.81
379.929	624.81
380.155	630.81
380.38	624.81
380.606	642.81
380.831	609.81
381.057	620.81
381.282	637.81
381.507	630.81
381.733	635.81
381.958	650.81
382.184	644.81
382.409	649.81
382.634	650.81
382.86	666.81
383.085	688.81
383.31	673.81
383.535	679.81
383.761	706.81
383.986	700.81
384.211	722.81
384.436	727.81
384.662	734.81
384.887	749.81
385.112	739.81
385.337	770.81
385.562	741.81
385.787	737.81
386.013	755.81
386.238	749.81
386.463	755.81
386.688	773.81
386.913	758.81
387.138	735.81
387.363	748.81
387.588	769.81
387.813	737.81
388.038	726.81
388.263	723.81
388.488	770.81
388.713	738.81
388.938	758.81
389.163	724.81
389.387	720.81
389.612	728.81
389.837	721.81
390.062	726.81
390.287	747.81
390.512	746.81
390.736	752.81
390.961	741.81
391.186	796.81
391.411	804.81
391.636	830.81
391.86	862.81
392.085	854.81
392.31	848.81
392.534	796.81
392.759	813.81
392.984	834.81
393.208	786.81
393.433	780.81
393.658	792.81
393.882	818.81
394.107	805.81
394.331	816.81
394.556	804.81
394.78	802.81
395.005	844.81
395.229	828.81
395.454	827.81
395.678	839.81
395.903	839.81
396.127	838.81
396.352	789.81
396.576	780.81
396.801	797.81
397.025	808.81
397.249	821.81
397.474	848.81
397.698	858.81
397.922	841.81
398.147	839.81
398.371	856.81
398.595	908.81
398.82	958.81
399.044	995.81
399.268	1076.81
399.492	1264.81
399.717	1414.81
399.941	1386.81
400.165	1252.81
400.389	1125.81
400.613	1006.81
400.837	970.81
401.062	962.81
401.286	966.81
401.51	951.81
401.734	935.81
401.958	950.81
402.182	970.81
402.406	1003.81
402.63	1012.81
402.854	1005.81
403.078	1020.81
403.302	1064.81
403.526	1074.81
403.75	1084.81
403.974	1100.81
404.198	1092.81
404.422	1083.81
404.645	1068.81
404.869	1044.81
405.093	1065.81
405.317	1041.81
405.541	1088.81
405.765	1034.81
405.988	1046.81
406.212	1030.81
406.436	1027.81
406.66	1086.81
406.883	1078.81
407.107	1157.81
407.331	1184.81
407.555	1193.81
407.778	1220.81
408.002	1220.81
408.226	1148.81
408.449	1150.81
408.673	1079.81
408.896	1072.81
409.12	1049.81
409.344	1078.81
409.567	1072.81
409.791	1081.81
410.014	1079.81
410.238	1032.81
410.461	1039.81
410.685	1068.81
410.908	1031.81
411.132	989.81
411.355	995.81
411.578	1008.81
411.802	956.81
412.025	971.81
412.249	983.81
412.472	964.81
412.695	980.81
412.919	969.81
413.142	950.81
413.365	918.81
413.589	951.81
413.812	925.81
414.035	921.81
414.258	934.81
414.482	931.81
414.705	959.81
414.928	958.81
415.151	963.81
415.374	972.81
415.597	938.81
415.821	929.81
416.044	945.81
416.267	921.81
416.49	918.81
416.713	930.81
416.936	956.81
417.159	941.81
417.382	931.81
417.605	933.81
417.828	928.81
418.051	942.81
418.274	944.81
418.497	942.81
418.72	962.81
418.943	955.81
419.166	1016.81
419.389	1067.81
419.611	1048.81
419.834	1021.81
420.057	958.81
420.28	961.81
420.503	883.81
420.726	925.81
420.948	911.81
421.171	924.81
421.394	963.81
421.617	916.81
421.839	946.81
422.062	924.81
422.285	924.81
422.507	962.81
422.73	936.81
422.953	965.81
423.175	986.81
423.398	1030.81
423.621	965.81
423.843	991.81
424.066	1003.81
424.288	1004.81
424.511	981.81
424.733	972.81
424.956	940.81
425.178	941.81
425.401	935.81
425.623	958.81
425.846	918.81
426.068	908.81
426.291	889.81
426.513	908.81
426.735	888.81
426.958	868.81
427.18	859.81
427.402	863.81
427.625	870.81
427.847	824.81
428.069	830.81
428.292	839.81
428.514	814.81
428.736	831.81
428.958	836.81
429.181	818.81
429.403	806.81
429.625	799.81
429.847	792.81
430.069	786.81
430.292	824.81
430.514	803.81
430.736	806.81
430.958	811.81
431.18	796.81
431.402	841.81
431.624	793.81
431.846	809.81
432.068	838.81
432.29	845.81
432.512	819.81
432.734	834.81
432.956	809.81
433.178	829.81
433.4	833.81
433.622	847.81
433.844	857.81
434.066	842.81
434.287	855.81
434.509	891.81
434.731	915.81
434.953	960.81
435.175	935.81
435.397	897.81
435.618	874.81
435.84	876.81
436.062	840.81
436.284	811.81
436.505	806.81
436.727	809.81
436.949	821.81
437.17	832.81
437.392	812.81
437.614	809.81
437.835	811.81
438.057	786.81
438.278	793.81
438.5	759.81
438.721	801.81
438.943	827.81
439.165	809.81
439.386	775.81
439.608	818.81
439.829	800.81
440.05	812.81
440.272	828.81
440.493	810.81
440.715	846.81
440.936	852.81
441.158	873.81
441.379	915.81
441.6	921.81
441.822	951.81
442.043	947.81
442.264	916.81
442.486	904.81
442.707	879.81
442.928	893.81
443.149	904.81
443.371	900.81
443.592	897.81
443.813	949.81
444.034	945.81
444.255	970.81
444.476	1003.81
444.698	1057.81
444.919	1129.81
445.14	1161.81
445.361	1058.81
445.582	948.81
445.803	896.81
446.024	873.81
446.245	841.81
446.466	841.81
446.687	829.81
446.908	837.81
447.129	825.81
447.35	793.81
447.571	796.81
447.792	786.81
448.013	786.81
448.234	780.81
448.455	750.81
448.675	794.81
448.896	774.81
449.117	750.81
449.338	778.81
449.559	744.81
449.779	733.81
450	736.81
450.221	764.81
450.442	755.81
450.662	741.81
450.883	778.81
451.104	779.81
451.324	779.81
451.545	770.81
451.766	772.81
451.986	746.81
452.207	737.81
452.428	761.81
452.648	765.81
452.869	740.81
453.089	736.81
453.31	753.81
453.53	739.81
453.751	719.81
453.971	713.81
454.192	742.81
454.412	694.81
454.633	697.81
454.853	736.81
455.073	704.81
455.294	689.81
455.514	714.81
455.734	696.81
455.955	690.81
456.175	705.81
456.395	709.81
456.616	696.81
456.836	718.81
457.056	694.81
457.276	694.81
457.497	717.81
457.717	704.81
457.937	701.81
458.157	719.81
458.377	722.81
458.598	764.81
458.818	771.81
459.038	791.81
459.258	786.81
459.478	814.81
459.698	867.81
459.918	868.81
460.138	913.81
460.358	974.81
460.578	971.81
460.798	964.81
461.018	963.81
461.238	961.81
461.458	973.81
461.678	972.81
461.898	990.81
462.118	987.81
462.338	1032.81
462.558	1065.81
462.777	1090.81
462.997	1208.81
463.217	1294.81
463.437	1306.81
463.657	1178.81
463.876	1127.81
464.096	1152.81
464.316	1152.81
464.536	1155.81
464.755	1098.81
464.975	1055.81
465.195	1010.81
465.414	937.81
465.634	890.81
465.854	880.81
466.073	846.81
466.293	820.81
466.512	802.81
466.732	792.81
466.951	804.81
467.171	819.81
467.391	828.81
467.61	783.81
467.829	807.81
468.049	774.81
468.268	737.81
468.488	750.81
468.707	749.81
468.927	771.81
469.146	774.81
469.365	768.81
469.585	764.81
469.804	791.81
470.023	796.81
470.243	813.81
470.462	826.81
470.681	808.81
470.901	840.81
471.12	808.81
471.339	793.81
471.558	786.81
471.777	781.81
471.997	773.81
472.216	770.81
472.435	767.81
472.654	740.81
472.873	756.81
473.092	760.81
473.311	714.81
473.53	748.81
473.749	733.81
473.968	754.81
474.187	762.81
474.406	743.81
474.625	733.81
474.844	741.81
475.063	778.81
475.282	736.81
475.501	780.81
475.72	726.81
475.939	773.81
476.158	749.81
476.377	767.81
476.596	774.81
476.814	809.81
477.033	804.81
477.252	805.81
477.471	810.81
477.69	855.81
477.908	854.81
478.127	875.81
478.346	886.81
478.564	888.81
478.783	883.81
479.002	956.81
479.22	910.81
479.439	920.81
479.658	919.81
479.876	905.81
480.095	964.81
480.313	960.81
480.532	966.81
480.751	992.81
480.969	950.81
481.188	923.81
481.406	907.81
481.624	887.81
481.843	861.81
482.061	862.81
482.28	862.81
482.498	861.81
482.717	858.81
482.935	850.81
483.153	846.81
483.372	858.81
483.59	846.81
483.808	851.81
484.027	852.81
484.245	874.81
484.463	868.81
484.681	868.81
484.9	884.81
485.118	874.81
485.336	851.81
485.554	890.81
485.772	870.81
485.99	898.81
486.209	885.81
486.427	882.81
486.645	901.81
486.863	914.81
487.081	871.81
487.299	911.81
487.517	892.81
487.735	891.81
487.953	890.81
488.171	885.81
488.389	877.81
488.607	869.81
488.825	890.81
489.043	878.81
489.261	891.81
489.479	893.81
489.696	868.81
489.914	874.81
490.132	881.81
490.35	906.81
490.568	909.81
490.786	905.81
491.003	919.81
491.221	909.81
491.439	908.81
491.657	914.81
491.874	926.81
492.092	933.81
492.31	939.81
492.527	894.81
492.745	930.81
492.963	932.81
493.18	933.81
493.398	941.81
493.615	940.81
493.833	932.81
494.05	972.81
494.268	932.81
494.485	954.81
494.703	962.81
494.92	969.81
495.138	967.81
495.355	946.81
495.573	966.81
495.79	986.81
496.008	984.81
496.225	975.81
496.442	996.81
496.66	995.81
496.877	1025.81
497.094	1012.81
497.312	1020.81
497.529	1065.81
497.746	1092.81
497.963	1126.81
498.181	1157.81
498.398	1225.81
498.615	1332.81
498.832	1380.81
499.049	1485.81
499.267	1601.81
499.484	1753.81
499.701	1936.81
499.918	2106.81
500.135	2392.81
500.352	2796.81
