Data from NiCl2@0.0625M.TitratingCurve.Agarose3%dH2O.NegLispCup.LampEnergy10.LIBS07252019_HRD10591_18-32-43-597.txt Node
Date: Thu Jul 25 18:32:43 EDT 2019
User: cochatt
Spectrometer: HR+D1059
Trigger mode: 1
Integration Time (sec): 1.000000E-1
Scans to average: 1
Electric dark correction enabled: true
Nonlinearity correction enabled: false
Boxcar width: 0
XAxis mode: Wavelengths
Number of Pixels in Spectrum: 2048
>>>>>Begin Spectral Data<<<<<
223.165	-18.81
223.4	-18.81
223.635	-18.81
223.869	-9.81
224.104	-10.81
224.338	-11.81
224.573	-34.81
224.808	-11.81
225.042	-18.81
225.277	-0.81
225.511	-1.81
225.746	14.19
225.98	13.19
226.215	8.19
226.449	14.19
226.683	20.19
226.918	21.19
227.152	28.19
227.387	39.19
227.621	43.19
227.856	45.19
228.09	58.19
228.324	44.19
228.559	55.19
228.793	88.19
229.027	149.19
229.262	167.19
229.496	160.19
229.73	166.19
229.964	203.19
230.199	203.19
230.433	215.19
230.667	187.19
230.901	198.19
231.136	203.19
231.37	219.19
231.604	204.19
231.838	214.19
232.072	215.19
232.306	214.19
232.541	206.19
232.775	219.19
233.009	219.19
233.243	219.19
233.477	238.19
233.711	223.19
233.945	227.19
234.179	222.19
234.413	244.19
234.647	229.19
234.881	237.19
235.115	229.19
235.349	228.19
235.583	230.19
235.817	252.19
236.051	233.19
236.285	246.19
236.519	227.19
236.753	243.19
236.987	258.19
237.221	253.19
237.455	266.19
237.689	265.19
237.922	238.19
238.156	265.19
238.39	264.19
238.624	271.19
238.858	260.19
239.091	276.19
239.325	263.19
239.559	290.19
239.793	305.19
240.027	289.19
240.26	278.19
240.494	305.19
240.728	291.19
240.961	298.19
241.195	304.19
241.429	312.19
241.662	301.19
241.896	332.19
242.13	323.19
242.363	345.19
242.597	334.19
242.83	333.19
243.064	322.19
243.298	338.19
243.531	347.19
243.765	338.19
243.998	357.19
244.232	352.19
244.465	355.19
244.699	348.19
244.932	373.19
245.166	371.19
245.399	378.19
245.633	370.19
245.866	380.19
246.099	380.19
246.333	375.19
246.566	396.19
246.8	380.19
247.033	362.19
247.266	363.19
247.5	397.19
247.733	405.19
247.966	394.19
248.2	413.19
248.433	426.19
248.666	437.19
248.899	435.19
249.133	422.19
249.366	407.19
249.599	446.19
249.832	428.19
250.066	415.19
250.299	422.19
250.532	447.19
250.765	427.19
250.998	441.19
251.231	453.19
251.465	450.19
251.698	472.19
251.931	484.19
252.164	462.19
252.397	478.19
252.63	488.19
252.863	487.19
253.096	473.19
253.329	483.19
253.562	516.19
253.795	519.19
254.028	526.19
254.261	492.19
254.494	486.19
254.727	492.19
254.96	510.19
255.193	514.19
255.426	499.19
255.659	494.19
255.892	504.19
256.124	493.19
256.357	516.19
256.59	517.19
256.823	507.19
257.056	520.19
257.289	533.19
257.521	535.19
257.754	534.19
257.987	536.19
258.22	551.19
258.452	516.19
258.685	552.19
258.918	526.19
259.151	529.19
259.383	545.19
259.616	534.19
259.849	570.19
260.081	570.19
260.314	569.19
260.547	588.19
260.779	538.19
261.012	575.19
261.244	580.19
261.477	580.19
261.71	554.19
261.942	603.19
262.175	570.19
262.407	597.19
262.64	592.19
262.872	596.19
263.105	608.19
263.337	628.19
263.57	608.19
263.802	622.19
264.035	622.19
264.267	613.19
264.499	602.19
264.732	617.19
264.964	646.19
265.197	622.19
265.429	639.19
265.661	631.19
265.894	654.19
266.126	642.19
266.358	641.19
266.591	643.19
266.823	659.19
267.055	641.19
267.287	665.19
267.52	663.19
267.752	662.19
267.984	673.19
268.216	667.19
268.448	676.19
268.681	674.19
268.913	680.19
269.145	654.19
269.377	669.19
269.609	679.19
269.841	695.19
270.073	684.19
270.306	673.19
270.538	681.19
270.77	702.19
271.002	695.19
271.234	710.19
271.466	693.19
271.698	708.19
271.93	706.19
272.162	733.19
272.394	730.19
272.626	718.19
272.858	712.19
273.09	726.19
273.322	750.19
273.553	713.19
273.785	732.19
274.017	722.19
274.249	733.19
274.481	727.19
274.713	779.19
274.945	778.19
275.176	761.19
275.408	749.19
275.64	766.19
275.872	764.19
276.104	812.19
276.335	801.19
276.567	761.19
276.799	796.19
277.031	809.19
277.262	781.19
277.494	766.19
277.726	794.19
277.957	820.19
278.189	790.19
278.421	807.19
278.652	796.19
278.884	826.19
279.115	841.19
279.347	817.19
279.579	829.19
279.81	846.19
280.042	831.19
280.273	850.19
280.505	863.19
280.736	858.19
280.968	854.19
281.199	839.19
281.431	869.19
281.662	867.19
281.894	846.19
282.125	888.19
282.356	897.19
282.588	886.19
282.819	885.19
283.051	861.19
283.282	885.19
283.513	892.19
283.745	888.19
283.976	921.19
284.207	889.19
284.439	891.19
284.67	920.19
284.901	904.19
285.132	915.19
285.364	911.19
285.595	907.19
285.826	923.19
286.057	943.19
286.288	907.19
286.52	924.19
286.751	955.19
286.982	953.19
287.213	964.19
287.444	958.19
287.675	942.19
287.906	927.19
288.138	943.19
288.369	948.19
288.6	939.19
288.831	957.19
289.062	945.19
289.293	960.19
289.524	977.19
289.755	986.19
289.986	969.19
290.217	949.19
290.448	964.19
290.679	977.19
290.91	982.19
291.141	971.19
291.371	956.19
291.602	971.19
291.833	983.19
292.064	974.19
292.295	974.19
292.526	966.19
292.757	977.19
292.987	985.19
293.218	954.19
293.449	985.19
293.68	975.19
293.91	987.19
294.141	969.19
294.372	967.19
294.603	969.19
294.833	1027.19
295.064	1007.19
295.295	980.19
295.525	1016.19
295.756	998.19
295.987	1015.19
296.217	1002.19
296.448	1005.19
296.679	1005.19
296.909	1020.19
297.14	1045.19
297.37	1018.19
297.601	1025.19
297.831	1057.19
298.062	1046.19
298.292	1045.19
298.523	1080.19
298.753	1095.19
298.984	1066.19
299.214	1078.19
299.445	1079.19
299.675	1075.19
299.905	1060.19
300.136	1059.19
300.366	1074.19
300.597	1090.19
300.827	1106.19
301.057	1095.19
301.288	1105.19
301.518	1095.19
301.748	1121.19
301.979	1147.19
302.209	1126.19
302.439	1129.19
302.669	1112.19
302.9	1092.19
303.13	1080.19
303.36	1139.19
303.59	1114.19
303.82	1116.19
304.051	1118.19
304.281	1112.19
304.511	1111.19
304.741	1109.19
304.971	1115.19
305.201	1097.19
305.431	1151.19
305.661	1123.19
305.891	1134.19
306.121	1105.19
306.352	1116.19
306.582	1107.19
306.812	1104.19
307.042	1100.19
307.272	1126.19
307.502	1100.19
307.731	1107.19
307.961	1130.19
308.191	1088.19
308.421	1089.19
308.651	1128.19
308.881	1083.19
309.111	1103.19
309.341	1113.19
309.571	1138.19
309.8	1113.19
310.03	1110.19
310.26	1108.19
310.49	1106.19
310.72	1094.19
310.949	1096.19
311.179	1142.19
311.409	1139.19
311.639	1141.19
311.868	1122.19
312.098	1122.19
312.328	1141.19
312.557	1123.19
312.787	1163.19
313.017	1199.19
313.246	1156.19
313.476	1169.19
313.706	1179.19
313.935	1193.19
314.165	1184.19
314.394	1180.19
314.624	1215.19
314.853	1182.19
315.083	1187.19
315.312	1198.19
315.542	1181.19
315.771	1189.19
316.001	1197.19
316.23	1193.19
316.46	1191.19
316.689	1194.19
316.919	1193.19
317.148	1193.19
317.377	1217.19
317.607	1189.19
317.836	1164.19
318.065	1205.19
318.295	1205.19
318.524	1193.19
318.753	1185.19
318.983	1190.19
319.212	1168.19
319.441	1194.19
319.67	1178.19
319.9	1194.19
320.129	1165.19
320.358	1196.19
320.587	1198.19
320.816	1191.19
321.046	1176.19
321.275	1188.19
321.504	1180.19
321.733	1160.19
321.962	1193.19
322.191	1179.19
322.42	1205.19
322.649	1199.19
322.878	1177.19
323.108	1180.19
323.337	1205.19
323.566	1201.19
323.795	1228.19
324.024	1210.19
324.253	1218.19
324.482	1225.19
324.71	1222.19
324.939	1253.19
325.168	1258.19
325.397	1237.19
325.626	1244.19
325.855	1269.19
326.084	1306.19
326.313	1277.19
326.542	1294.19
326.77	1313.19
326.999	1321.19
327.228	1285.19
327.457	1281.19
327.686	1239.19
327.914	1296.19
328.143	1307.19
328.372	1290.19
328.6	1308.19
328.829	1298.19
329.058	1302.19
329.287	1295.19
329.515	1301.19
329.744	1303.19
329.972	1344.19
330.201	1326.19
330.43	1347.19
330.658	1334.19
330.887	1335.19
331.115	1370.19
331.344	1366.19
331.572	1367.19
331.801	1411.19
332.03	1397.19
332.258	1441.19
332.486	1467.19
332.715	1508.19
332.943	1528.19
333.172	1562.19
333.4	1625.19
333.629	1633.19
333.857	1678.19
334.085	1685.19
334.314	1649.19
334.542	1657.19
334.771	1639.19
334.999	1642.19
335.227	1640.19
335.455	1623.19
335.684	1611.19
335.912	1633.19
336.14	1568.19
336.369	1559.19
336.597	1573.19
336.825	1517.19
337.053	1544.19
337.281	1547.19
337.51	1493.19
337.738	1492.19
337.966	1435.19
338.194	1450.19
338.422	1426.19
338.65	1411.19
338.878	1414.19
339.106	1422.19
339.334	1434.19
339.562	1403.19
339.79	1382.19
340.018	1366.19
340.246	1367.19
340.474	1357.19
340.702	1377.19
340.93	1359.19
341.158	1364.19
341.386	1367.19
341.614	1387.19
341.842	1365.19
342.07	1310.19
342.298	1354.19
342.526	1354.19
342.754	1362.19
342.981	1355.19
343.209	1406.19
343.437	1410.19
343.665	1515.19
343.893	1543.19
344.12	1601.19
344.348	1556.19
344.576	1495.19
344.804	1454.19
345.031	1405.19
345.259	1384.19
345.487	1376.19
345.714	1372.19
345.942	1332.19
346.17	1338.19
346.397	1327.19
346.625	1288.19
346.853	1296.19
347.08	1287.19
347.308	1296.19
347.535	1337.19
347.763	1335.19
347.99	1309.19
348.218	1324.19
348.445	1303.19
348.673	1333.19
348.9	1337.19
349.128	1298.19
349.355	1287.19
349.583	1270.19
349.81	1249.19
350.037	1260.19
350.265	1283.19
350.492	1259.19
350.72	1260.19
350.947	1301.19
351.174	1246.19
351.402	1255.19
351.629	1258.19
351.856	1260.19
352.083	1299.19
352.311	1260.19
352.538	1203.19
352.765	1260.19
352.992	1212.19
353.22	1225.19
353.447	1209.19
353.674	1236.19
353.901	1243.19
354.128	1258.19
354.355	1247.19
354.583	1245.19
354.81	1228.19
355.037	1289.19
355.264	1247.19
355.491	1252.19
355.718	1262.19
355.945	1252.19
356.172	1262.19
356.399	1261.19
356.626	1262.19
356.853	1259.19
357.08	1261.19
357.307	1292.19
357.534	1268.19
357.761	1282.19
357.988	1247.19
358.215	1300.19
358.441	1235.19
358.668	1251.19
358.895	1252.19
359.122	1267.19
359.349	1263.19
359.576	1266.19
359.802	1256.19
360.029	1242.19
360.256	1291.19
360.483	1282.19
360.709	1265.19
360.936	1250.19
361.163	1276.19
361.39	1249.19
361.616	1271.19
361.843	1251.19
362.07	1251.19
362.296	1250.19
362.523	1253.19
362.749	1307.19
362.976	1271.19
363.203	1252.19
363.429	1247.19
363.656	1257.19
363.882	1307.19
364.109	1220.19
364.335	1245.19
364.562	1255.19
364.788	1276.19
365.015	1260.19
365.241	1254.19
365.468	1271.19
365.694	1248.19
365.92	1259.19
366.147	1247.19
366.373	1272.19
366.599	1233.19
366.826	1238.19
367.052	1307.19
367.278	1269.19
367.505	1240.19
367.731	1290.19
367.957	1258.19
368.184	1285.19
368.41	1253.19
368.636	1304.19
368.862	1320.19
369.089	1273.19
369.315	1290.19
369.541	1318.19
369.767	1327.19
369.993	1301.19
370.219	1301.19
370.445	1333.19
370.672	1335.19
370.898	1368.19
371.124	1341.19
371.35	1396.19
371.576	1371.19
371.802	1388.19
372.028	1382.19
372.254	1353.19
372.48	1407.19
372.706	1398.19
372.932	1435.19
373.158	1367.19
373.384	1380.19
373.61	1369.19
373.835	1372.19
374.061	1365.19
374.287	1423.19
374.513	1419.19
374.739	1439.19
374.965	1484.19
375.191	1479.19
375.416	1515.19
375.642	1424.19
375.868	1445.19
376.094	1415.19
376.319	1421.19
376.545	1385.19
376.771	1403.19
376.997	1357.19
377.222	1391.19
377.448	1365.19
377.674	1355.19
377.899	1365.19
378.125	1355.19
378.35	1337.19
378.576	1341.19
378.802	1375.19
379.027	1354.19
379.253	1340.19
379.478	1337.19
379.704	1355.19
379.929	1360.19
380.155	1355.19
380.38	1371.19
380.606	1373.19
380.831	1391.19
381.057	1391.19
381.282	1342.19
381.507	1350.19
381.733	1341.19
381.958	1389.19
382.184	1377.19
382.409	1383.19
382.634	1411.19
382.86	1445.19
383.085	1411.19
383.31	1442.19
383.535	1501.19
383.761	1475.19
383.986	1525.19
384.211	1532.19
384.436	1557.19
384.662	1570.19
384.887	1613.19
385.112	1588.19
385.337	1611.19
385.562	1615.19
385.787	1618.19
386.013	1636.19
386.238	1622.19
386.463	1669.19
386.688	1668.19
386.913	1631.19
387.138	1601.19
387.363	1665.19
387.588	1574.19
387.813	1610.19
388.038	1643.19
388.263	1645.19
388.488	1635.19
388.713	1625.19
388.938	1653.19
389.163	1614.19
389.387	1610.19
389.612	1590.19
389.837	1606.19
390.062	1583.19
390.287	1617.19
390.512	1613.19
390.736	1615.19
390.961	1674.19
391.186	1665.19
391.411	1717.19
391.636	1747.19
391.86	1769.19
392.085	1809.19
392.31	1829.19
392.534	1787.19
392.759	1753.19
392.984	1729.19
393.208	1750.19
393.433	1777.19
393.658	1802.19
393.882	1739.19
394.107	1709.19
394.331	1690.19
394.556	1747.19
394.78	1741.19
395.005	1700.19
395.229	1764.19
395.454	1780.19
395.678	1795.19
395.903	1834.19
396.127	1774.19
396.352	1765.19
396.576	1772.19
396.801	1765.19
397.025	1816.19
397.249	1847.19
397.474	1865.19
397.698	1830.19
397.922	1863.19
398.147	1860.19
398.371	1883.19
398.595	1930.19
398.82	2033.19
399.044	2154.19
399.268	2352.19
399.492	2600.19
399.717	2809.19
399.941	2829.19
400.165	2682.19
400.389	2446.19
400.613	2274.19
400.837	2145.19
401.062	2065.19
401.286	2089.19
401.51	2063.19
401.734	2017.19
401.958	2074.19
402.182	2077.19
402.406	2053.19
402.63	2063.19
402.854	2094.19
403.078	2118.19
403.302	2202.19
403.526	2182.19
403.75	2202.19
403.974	2210.19
404.198	2245.19
404.422	2216.19
404.645	2195.19
404.869	2154.19
405.093	2196.19
405.317	2142.19
405.541	2164.19
405.765	2173.19
405.988	2163.19
406.212	2182.19
406.436	2189.19
406.66	2261.19
406.883	2268.19
407.107	2363.19
407.331	2495.19
407.555	2573.19
407.778	2542.19
408.002	2468.19
408.226	2438.19
408.449	2412.19
408.673	2299.19
408.896	2225.19
409.12	2251.19
409.344	2262.19
409.567	2232.19
409.791	2237.19
410.014	2266.19
410.238	2201.19
410.461	2208.19
410.685	2163.19
410.908	2147.19
411.132	2129.19
411.355	2087.19
411.578	2091.19
411.802	2103.19
412.025	2082.19
412.249	2126.19
412.472	2156.19
412.695	2069.19
412.919	2043.19
413.142	2037.19
413.365	2077.19
413.589	2061.19
413.812	1991.19
414.035	2007.19
414.258	2019.19
414.482	2002.19
414.705	2064.19
414.928	2062.19
415.151	2029.19
415.374	2033.19
415.597	1990.19
415.821	1924.19
416.044	1946.19
416.267	1918.19
416.49	1952.19
416.713	1965.19
416.936	1950.19
417.159	1966.19
417.382	1921.19
417.605	1934.19
417.828	1946.19
418.051	1934.19
418.274	1953.19
418.497	1953.19
418.72	1982.19
418.943	2009.19
419.166	2143.19
419.389	2245.19
419.611	2190.19
419.834	2120.19
420.057	2089.19
420.28	1990.19
420.503	1945.19
420.726	1961.19
420.948	1937.19
421.171	1963.19
421.394	1938.19
421.617	1969.19
421.839	1986.19
422.062	1973.19
422.285	1944.19
422.507	1996.19
422.73	1965.19
422.953	2018.19
423.175	2007.19
423.398	2014.19
423.621	1959.19
423.843	1976.19
424.066	2018.19
424.288	1980.19
424.511	2033.19
424.733	2004.19
424.956	1961.19
425.178	1937.19
425.401	1969.19
425.623	1934.19
425.846	1899.19
426.068	1882.19
426.291	1878.19
426.513	1884.19
426.735	1870.19
426.958	1836.19
427.18	1829.19
427.402	1860.19
427.625	1821.19
427.847	1773.19
428.069	1795.19
428.292	1762.19
428.514	1778.19
428.736	1794.19
428.958	1791.19
429.181	1766.19
429.403	1734.19
429.625	1765.19
429.847	1692.19
430.069	1713.19
430.292	1761.19
430.514	1737.19
430.736	1801.19
430.958	1756.19
431.18	1735.19
431.402	1740.19
431.624	1733.19
431.846	1778.19
432.068	1797.19
432.29	1846.19
432.512	1771.19
432.734	1787.19
432.956	1751.19
433.178	1777.19
433.4	1795.19
433.622	1807.19
433.844	1854.19
434.066	1860.19
434.287	1813.19
434.509	1909.19
434.731	1908.19
434.953	1939.19
435.175	1961.19
435.397	1998.19
435.618	1900.19
435.84	1834.19
436.062	1768.19
436.284	1775.19
436.505	1741.19
436.727	1772.19
436.949	1750.19
437.17	1805.19
437.392	1711.19
437.614	1729.19
437.835	1702.19
438.057	1685.19
438.278	1645.19
438.5	1702.19
438.721	1705.19
438.943	1711.19
439.165	1670.19
439.386	1683.19
439.608	1760.19
439.829	1726.19
440.05	1698.19
440.272	1766.19
440.493	1738.19
440.715	1788.19
440.936	1798.19
441.158	1805.19
441.379	1853.19
441.6	1916.19
441.822	1951.19
442.043	1939.19
442.264	1959.19
442.486	1890.19
442.707	1907.19
442.928	1876.19
443.149	1883.19
443.371	1902.19
443.592	1906.19
443.813	1925.19
444.034	1914.19
444.255	1996.19
444.476	2041.19
444.698	2161.19
444.919	2208.19
445.14	2262.19
445.361	2121.19
445.582	2005.19
445.803	1894.19
446.024	1867.19
446.245	1863.19
446.466	1778.19
446.687	1773.19
446.908	1775.19
447.129	1673.19
447.35	1685.19
447.571	1694.19
447.792	1640.19
448.013	1639.19
448.234	1583.19
448.455	1614.19
448.675	1631.19
448.896	1587.19
449.117	1547.19
449.338	1573.19
449.559	1563.19
449.779	1557.19
450	1570.19
450.221	1616.19
450.442	1566.19
450.662	1594.19
450.883	1570.19
451.104	1612.19
451.324	1567.19
451.545	1606.19
451.766	1606.19
451.986	1592.19
452.207	1593.19
452.428	1600.19
452.648	1552.19
452.869	1512.19
453.089	1505.19
453.31	1525.19
453.53	1483.19
453.751	1541.19
453.971	1509.19
454.192	1531.19
454.412	1528.19
454.633	1508.19
454.853	1502.19
455.073	1514.19
455.294	1469.19
455.514	1494.19
455.734	1473.19
455.955	1484.19
456.175	1493.19
456.395	1474.19
456.616	1467.19
456.836	1482.19
457.056	1486.19
457.276	1441.19
457.497	1517.19
457.717	1478.19
457.937	1531.19
458.157	1558.19
458.377	1496.19
458.598	1600.19
458.818	1607.19
459.038	1657.19
459.258	1672.19
459.478	1759.19
459.698	1822.19
459.918	1820.19
460.138	1879.19
460.358	1969.19
460.578	1987.19
460.798	2019.19
461.018	2029.19
461.238	1973.19
461.458	1980.19
461.678	1941.19
461.898	2030.19
462.118	2042.19
462.338	2185.19
462.558	2197.19
462.777	2243.19
462.997	2338.19
463.217	2507.19
463.437	2564.19
463.657	2397.19
463.876	2309.19
464.096	2305.19
464.316	2294.19
464.536	2267.19
464.755	2222.19
464.975	2174.19
465.195	2036.19
465.414	1973.19
465.634	1884.19
465.854	1827.19
466.073	1741.19
466.293	1743.19
466.512	1709.19
466.732	1669.19
466.951	1692.19
467.171	1654.19
467.391	1661.19
467.61	1685.19
467.829	1645.19
468.049	1623.19
468.268	1604.19
468.488	1592.19
468.707	1583.19
468.927	1606.19
469.146	1601.19
469.365	1602.19
469.585	1658.19
469.804	1691.19
470.023	1675.19
470.243	1684.19
470.462	1713.19
470.681	1717.19
470.901	1734.19
471.12	1717.19
471.339	1689.19
471.558	1643.19
471.777	1591.19
471.997	1663.19
472.216	1628.19
472.435	1611.19
472.654	1587.19
472.873	1613.19
473.092	1596.19
473.311	1608.19
473.53	1594.19
473.749	1605.19
473.968	1606.19
474.187	1574.19
474.406	1589.19
474.625	1625.19
474.844	1565.19
475.063	1631.19
475.282	1602.19
475.501	1611.19
475.72	1612.19
475.939	1636.19
476.158	1679.19
476.377	1664.19
476.596	1677.19
476.814	1703.19
477.033	1687.19
477.252	1732.19
477.471	1769.19
477.69	1813.19
477.908	1797.19
478.127	1868.19
478.346	1915.19
478.564	1898.19
478.783	1904.19
479.002	1995.19
479.22	1991.19
479.439	2015.19
479.658	1989.19
479.876	1999.19
480.095	2010.19
480.313	2108.19
480.532	2131.19
480.751	2121.19
480.969	2062.19
481.188	2034.19
481.406	1945.19
481.624	1935.19
481.843	1930.19
482.061	1937.19
482.28	1899.19
482.498	1921.19
482.717	1875.19
482.935	1919.19
483.153	1953.19
483.372	1951.19
483.59	1933.19
483.808	1984.19
484.027	1939.19
484.245	1970.19
484.463	1953.19
484.681	2034.19
484.9	2004.19
485.118	2042.19
485.336	2048.19
485.554	2002.19
485.772	2051.19
485.99	2040.19
486.209	2050.19
486.427	2043.19
486.645	2088.19
486.863	2049.19
487.081	2051.19
487.299	2036.19
487.517	2009.19
487.735	2002.19
487.953	2025.19
488.171	2003.19
488.389	1994.19
488.607	2010.19
488.825	1981.19
489.043	1973.19
489.261	1997.19
489.479	1997.19
489.696	2014.19
