Data from NiCl2@0.125M.TitratingCurve.Agarose3%dH2O.NegLispCup.LampEnergy10.LIBS07252019_HRD10591_18-28-52-575.txt Node
Date: Thu Jul 25 18:28:52 EDT 2019
User: cochatt
Spectrometer: HR+D1059
Trigger mode: 1
Integration Time (sec): 1.000000E-1
Scans to average: 1
Electric dark correction enabled: true
Nonlinearity correction enabled: false
Boxcar width: 0
XAxis mode: Wavelengths
Number of Pixels in Spectrum: 2048
>>>>>Begin Spectral Data<<<<<
223.165	-8.94
223.4	-8.94
223.635	-8.94
223.869	-23.94
224.104	-21.94
224.338	-8.94
224.573	-22.94
224.808	-17.94
225.042	-13.94
225.277	-0.94
225.511	-20.94
225.746	5.06
225.98	5.06
226.215	4.06
226.449	28.06
226.683	31.06
226.918	36.06
227.152	31.06
227.387	33.06
227.621	37.06
227.856	49.06
228.09	58.06
228.324	41.06
228.559	66.06
228.793	75.06
229.027	111.06
229.262	101.06
229.496	109.06
229.73	116.06
229.964	117.06
230.199	136.06
230.433	128.06
230.667	130.06
230.901	137.06
231.136	137.06
231.37	151.06
231.604	139.06
231.838	154.06
232.072	146.06
232.306	147.06
232.541	153.06
232.775	158.06
233.009	137.06
233.243	160.06
233.477	162.06
233.711	164.06
233.945	143.06
234.179	163.06
234.413	167.06
234.647	156.06
234.881	165.06
235.115	166.06
235.349	148.06
235.583	185.06
235.817	164.06
236.051	171.06
236.285	141.06
236.519	158.06
236.753	157.06
236.987	162.06
237.221	156.06
237.455	170.06
237.689	175.06
237.922	177.06
238.156	179.06
238.39	189.06
238.624	181.06
238.858	183.06
239.091	180.06
239.325	171.06
239.559	194.06
239.793	194.06
240.027	184.06
240.26	173.06
240.494	178.06
240.728	200.06
240.961	197.06
241.195	188.06
241.429	186.06
241.662	190.06
241.896	204.06
242.13	216.06
242.363	209.06
242.597	220.06
242.83	203.06
243.064	212.06
243.298	220.06
243.531	215.06
243.765	222.06
243.998	239.06
244.232	209.06
244.465	216.06
244.699	208.06
244.932	236.06
245.166	234.06
245.399	228.06
245.633	235.06
245.866	227.06
246.099	206.06
246.333	238.06
246.566	245.06
246.8	237.06
247.033	250.06
247.266	227.06
247.5	248.06
247.733	251.06
247.966	253.06
248.2	243.06
248.433	259.06
248.666	240.06
248.899	238.06
249.133	258.06
249.366	261.06
249.599	259.06
249.832	263.06
250.066	267.06
250.299	276.06
250.532	269.06
250.765	278.06
250.998	248.06
251.231	287.06
251.465	261.06
251.698	282.06
251.931	301.06
252.164	284.06
252.397	290.06
252.63	279.06
252.863	278.06
253.096	294.06
253.329	287.06
253.562	281.06
253.795	276.06
254.028	309.06
254.261	298.06
254.494	306.06
254.727	299.06
254.96	289.06
255.193	308.06
255.426	318.06
255.659	301.06
255.892	302.06
256.124	298.06
256.357	314.06
256.59	309.06
256.823	329.06
257.056	327.06
257.289	312.06
257.521	320.06
257.754	307.06
257.987	325.06
258.22	318.06
258.452	314.06
258.685	325.06
258.918	348.06
259.151	340.06
259.383	325.06
259.616	320.06
259.849	330.06
260.081	352.06
260.314	336.06
260.547	330.06
260.779	340.06
261.012	343.06
261.244	341.06
261.477	328.06
261.71	341.06
261.942	352.06
262.175	342.06
262.407	367.06
262.64	342.06
262.872	354.06
263.105	348.06
263.337	366.06
263.57	379.06
263.802	356.06
264.035	372.06
264.267	370.06
264.499	354.06
264.732	385.06
264.964	385.06
265.197	370.06
265.429	369.06
265.661	377.06
265.894	393.06
266.126	388.06
266.358	397.06
266.591	379.06
266.823	377.06
267.055	398.06
267.287	401.06
267.52	381.06
267.752	395.06
267.984	394.06
268.216	380.06
268.448	388.06
268.681	377.06
268.913	403.06
269.145	392.06
269.377	406.06
269.609	387.06
269.841	399.06
270.073	380.06
270.306	395.06
270.538	413.06
270.77	419.06
271.002	376.06
271.234	396.06
271.466	402.06
271.698	389.06
271.93	398.06
272.162	426.06
272.394	403.06
272.626	424.06
272.858	405.06
273.09	409.06
273.322	411.06
273.553	414.06
273.785	420.06
274.017	424.06
274.249	425.06
274.481	404.06
274.713	408.06
274.945	426.06
275.176	436.06
275.408	454.06
275.64	440.06
275.872	429.06
276.104	432.06
276.335	455.06
276.567	455.06
276.799	434.06
277.031	446.06
277.262	451.06
277.494	449.06
277.726	449.06
277.957	437.06
278.189	437.06
278.421	460.06
278.652	470.06
278.884	460.06
279.115	470.06
279.347	459.06
279.579	462.06
279.81	468.06
280.042	487.06
280.273	482.06
280.505	448.06
280.736	481.06
280.968	468.06
281.199	494.06
281.431	492.06
281.662	477.06
281.894	477.06
282.125	490.06
282.356	483.06
282.588	498.06
282.819	499.06
283.051	498.06
283.282	504.06
283.513	492.06
283.745	484.06
283.976	487.06
284.207	507.06
284.439	504.06
284.67	510.06
284.901	501.06
285.132	512.06
285.364	534.06
285.595	521.06
285.826	516.06
286.057	516.06
286.288	528.06
286.52	540.06
286.751	509.06
286.982	500.06
287.213	545.06
287.444	540.06
287.675	544.06
287.906	532.06
288.138	528.06
288.369	541.06
288.6	553.06
288.831	540.06
289.062	523.06
289.293	536.06
289.524	549.06
289.755	560.06
289.986	549.06
290.217	550.06
290.448	546.06
290.679	562.06
290.91	572.06
291.141	560.06
291.371	538.06
291.602	550.06
291.833	577.06
292.064	559.06
292.295	555.06
292.526	566.06
292.757	542.06
292.987	567.06
293.218	571.06
293.449	574.06
293.68	567.06
293.91	559.06
294.141	569.06
294.372	574.06
294.603	555.06
294.833	548.06
295.064	547.06
295.295	569.06
295.525	555.06
295.756	569.06
295.987	590.06
296.217	599.06
296.448	546.06
296.679	581.06
296.909	587.06
297.14	596.06
297.37	603.06
297.601	597.06
297.831	586.06
298.062	610.06
298.292	628.06
298.523	662.06
298.753	652.06
298.984	614.06
299.214	619.06
299.445	608.06
299.675	608.06
299.905	626.06
300.136	598.06
300.366	630.06
300.597	646.06
300.827	628.06
301.057	639.06
301.288	638.06
301.518	636.06
301.748	625.06
301.979	649.06
302.209	634.06
302.439	667.06
302.669	644.06
302.9	618.06
303.13	609.06
303.36	647.06
303.59	616.06
303.82	642.06
304.051	641.06
304.281	640.06
304.511	621.06
304.741	628.06
304.971	637.06
305.201	639.06
305.431	622.06
305.661	648.06
305.891	586.06
306.121	613.06
306.352	623.06
306.582	586.06
306.812	620.06
307.042	622.06
307.272	625.06
307.502	602.06
307.731	612.06
307.961	598.06
308.191	612.06
308.421	606.06
308.651	623.06
308.881	596.06
309.111	626.06
309.341	618.06
309.571	621.06
309.8	599.06
310.03	635.06
310.26	638.06
310.49	632.06
310.72	621.06
310.949	622.06
311.179	622.06
311.409	621.06
311.639	625.06
311.868	640.06
312.098	634.06
312.328	621.06
312.557	636.06
312.787	646.06
313.017	655.06
313.246	638.06
313.476	648.06
313.706	642.06
313.935	659.06
314.165	656.06
314.394	684.06
314.624	680.06
314.853	669.06
315.083	652.06
315.312	640.06
315.542	643.06
315.771	653.06
316.001	662.06
316.23	640.06
316.46	628.06
316.689	624.06
316.919	633.06
317.148	646.06
317.377	637.06
317.607	630.06
317.836	634.06
318.065	617.06
318.295	654.06
318.524	634.06
318.753	626.06
318.983	636.06
319.212	657.06
319.441	646.06
319.67	651.06
319.9	636.06
320.129	618.06
320.358	659.06
320.587	651.06
320.816	644.06
321.046	643.06
321.275	649.06
321.504	634.06
321.733	642.06
321.962	659.06
322.191	652.06
322.42	650.06
322.649	651.06
322.878	660.06
323.108	632.06
323.337	640.06
323.566	643.06
323.795	672.06
324.024	652.06
324.253	665.06
324.482	657.06
324.71	658.06
324.939	654.06
325.168	673.06
325.397	681.06
325.626	680.06
325.855	661.06
326.084	712.06
326.313	707.06
326.542	713.06
326.77	713.06
326.999	716.06
327.228	688.06
327.457	686.06
327.686	671.06
327.914	688.06
328.143	713.06
328.372	711.06
328.6	739.06
328.829	712.06
329.058	686.06
329.287	679.06
329.515	704.06
329.744	696.06
329.972	704.06
330.201	727.06
330.43	737.06
330.658	710.06
330.887	727.06
331.115	704.06
331.344	702.06
331.572	755.06
331.801	796.06
332.03	776.06
332.258	823.06
332.486	805.06
332.715	813.06
332.943	858.06
333.172	904.06
333.4	930.06
333.629	960.06
333.857	998.06
334.085	956.06
334.314	950.06
334.542	951.06
334.771	897.06
334.999	894.06
335.227	864.06
335.455	871.06
335.684	869.06
335.912	874.06
336.14	850.06
336.369	840.06
336.597	858.06
336.825	844.06
337.053	824.06
337.281	826.06
337.51	794.06
337.738	796.06
337.966	767.06
338.194	766.06
338.422	779.06
338.65	745.06
338.878	772.06
339.106	762.06
339.334	760.06
339.562	736.06
339.79	741.06
340.018	724.06
340.246	723.06
340.474	725.06
340.702	746.06
340.93	729.06
341.158	706.06
341.386	727.06
341.614	728.06
341.842	756.06
342.07	717.06
342.298	745.06
342.526	706.06
342.754	724.06
342.981	708.06
343.209	741.06
343.437	790.06
343.665	853.06
343.893	892.06
344.12	945.06
344.348	888.06
344.576	840.06
344.804	817.06
345.031	774.06
345.259	777.06
345.487	729.06
345.714	736.06
345.942	725.06
346.17	733.06
346.397	733.06
346.625	702.06
346.853	718.06
347.08	720.06
347.308	739.06
347.535	743.06
347.763	723.06
347.99	756.06
348.218	739.06
348.445	706.06
348.673	714.06
348.9	724.06
349.128	692.06
349.355	710.06
349.583	707.06
349.81	673.06
350.037	694.06
350.265	691.06
350.492	685.06
350.72	682.06
350.947	662.06
351.174	697.06
351.402	694.06
351.629	700.06
351.856	670.06
352.083	684.06
352.311	691.06
352.538	688.06
352.765	678.06
352.992	698.06
353.22	673.06
353.447	666.06
353.674	679.06
353.901	676.06
354.128	669.06
354.355	667.06
354.583	660.06
354.81	679.06
355.037	674.06
355.264	678.06
355.491	673.06
355.718	686.06
355.945	682.06
356.172	673.06
356.399	674.06
356.626	686.06
356.853	700.06
357.08	689.06
357.307	675.06
357.534	679.06
357.761	689.06
357.988	685.06
358.215	677.06
358.441	692.06
358.668	683.06
358.895	673.06
359.122	681.06
359.349	689.06
359.576	685.06
359.802	664.06
360.029	690.06
360.256	691.06
360.483	684.06
360.709	684.06
360.936	691.06
361.163	678.06
361.39	699.06
361.616	721.06
361.843	688.06
362.07	683.06
362.296	693.06
362.523	662.06
362.749	689.06
362.976	672.06
363.203	697.06
363.429	651.06
363.656	695.06
363.882	692.06
364.109	664.06
364.335	681.06
364.562	685.06
364.788	663.06
365.015	676.06
365.241	677.06
365.468	661.06
365.694	672.06
365.92	677.06
366.147	670.06
366.373	675.06
366.599	672.06
366.826	706.06
367.052	685.06
367.278	680.06
367.505	659.06
367.731	691.06
367.957	672.06
368.184	674.06
368.41	673.06
368.636	684.06
368.862	712.06
369.089	681.06
369.315	698.06
369.541	702.06
369.767	711.06
369.993	734.06
370.219	702.06
370.445	743.06
370.672	730.06
370.898	706.06
371.124	723.06
371.35	753.06
371.576	733.06
371.802	734.06
372.028	730.06
372.254	741.06
372.48	731.06
372.706	751.06
372.932	781.06
373.158	786.06
373.384	776.06
373.61	736.06
373.835	738.06
374.061	760.06
374.287	749.06
374.513	743.06
374.739	787.06
374.965	795.06
375.191	814.06
375.416	821.06
375.642	792.06
375.868	816.06
376.094	783.06
376.319	779.06
376.545	773.06
376.771	770.06
376.997	776.06
377.222	728.06
377.448	739.06
377.674	761.06
377.899	746.06
378.125	748.06
378.35	743.06
378.576	729.06
378.802	714.06
379.027	741.06
379.253	720.06
379.478	732.06
379.704	725.06
379.929	739.06
380.155	739.06
380.38	737.06
380.606	752.06
380.831	733.06
381.057	760.06
381.282	742.06
381.507	743.06
381.733	728.06
381.958	778.06
382.184	755.06
382.409	763.06
382.634	762.06
382.86	795.06
383.085	792.06
383.31	807.06
383.535	820.06
383.761	827.06
383.986	872.06
384.211	870.06
384.436	884.06
384.662	896.06
384.887	903.06
385.112	927.06
385.337	899.06
385.562	927.06
385.787	884.06
386.013	889.06
386.238	900.06
386.463	908.06
386.688	913.06
386.913	904.06
387.138	881.06
387.363	866.06
387.588	877.06
387.813	880.06
388.038	898.06
388.263	870.06
388.488	892.06
388.713	884.06
388.938	872.06
389.163	882.06
389.387	884.06
389.612	856.06
389.837	872.06
390.062	873.06
390.287	899.06
390.512	893.06
390.736	875.06
390.961	918.06
391.186	875.06
391.411	930.06
391.636	990.06
391.86	999.06
392.085	1037.06
392.31	1021.06
392.534	974.06
392.759	962.06
392.984	956.06
393.208	950.06
393.433	933.06
393.658	956.06
393.882	940.06
394.107	976.06
394.331	952.06
394.556	973.06
394.78	958.06
395.005	962.06
395.229	996.06
395.454	948.06
395.678	987.06
395.903	1021.06
396.127	983.06
396.352	956.06
396.576	940.06
396.801	914.06
397.025	955.06
397.249	938.06
397.474	1006.06
397.698	1010.06
397.922	1018.06
398.147	983.06
398.371	1026.06
398.595	1036.06
398.82	1087.06
399.044	1156.06
399.268	1308.06
399.492	1508.06
399.717	1777.06
399.941	1757.06
400.165	1517.06
400.389	1386.06
400.613	1269.06
400.837	1201.06
401.062	1162.06
401.286	1125.06
401.51	1121.06
401.734	1113.06
401.958	1125.06
402.182	1136.06
402.406	1133.06
402.63	1183.06
402.854	1184.06
403.078	1224.06
403.302	1286.06
403.526	1276.06
403.75	1324.06
403.974	1316.06
404.198	1325.06
404.422	1344.06
404.645	1340.06
404.869	1297.06
405.093	1305.06
405.317	1317.06
405.541	1268.06
405.765	1259.06
405.988	1221.06
406.212	1246.06
406.436	1217.06
406.66	1264.06
406.883	1295.06
407.107	1330.06
407.331	1416.06
407.555	1456.06
407.778	1467.06
408.002	1449.06
408.226	1388.06
408.449	1362.06
408.673	1300.06
408.896	1308.06
409.12	1301.06
409.344	1267.06
409.567	1291.06
409.791	1313.06
410.014	1312.06
410.238	1256.06
410.461	1281.06
410.685	1270.06
410.908	1230.06
411.132	1190.06
411.355	1165.06
411.578	1147.06
411.802	1170.06
412.025	1162.06
412.249	1197.06
412.472	1180.06
412.695	1147.06
412.919	1099.06
413.142	1118.06
413.365	1114.06
413.589	1152.06
413.812	1127.06
414.035	1106.06
414.258	1098.06
414.482	1118.06
414.705	1172.06
414.928	1141.06
415.151	1140.06
415.374	1130.06
415.597	1135.06
415.821	1097.06
416.044	1116.06
416.267	1128.06
416.49	1058.06
416.713	1098.06
416.936	1123.06
417.159	1123.06
417.382	1113.06
417.605	1090.06
417.828	1129.06
418.051	1100.06
418.274	1104.06
418.497	1127.06
418.72	1167.06
418.943	1152.06
419.166	1228.06
419.389	1313.06
419.611	1304.06
419.834	1236.06
420.057	1195.06
420.28	1148.06
420.503	1114.06
420.726	1072.06
420.948	1102.06
421.171	1145.06
421.394	1105.06
421.617	1145.06
421.839	1117.06
422.062	1157.06
422.285	1127.06
422.507	1122.06
422.73	1121.06
422.953	1165.06
423.175	1190.06
423.398	1180.06
423.621	1201.06
423.843	1208.06
424.066	1264.06
424.288	1218.06
424.511	1165.06
424.733	1172.06
424.956	1180.06
425.178	1173.06
425.401	1146.06
425.623	1149.06
425.846	1118.06
426.068	1076.06
426.291	1114.06
426.513	1075.06
426.735	1063.06
426.958	1050.06
427.18	1038.06
427.402	1054.06
427.625	1011.06
427.847	1010.06
428.069	988.06
428.292	1030.06
428.514	997.06
428.736	992.06
428.958	1004.06
429.181	993.06
429.403	986.06
429.625	957.06
429.847	962.06
430.069	948.06
430.292	978.06
430.514	964.06
430.736	979.06
430.958	1003.06
431.18	950.06
431.402	993.06
431.624	992.06
431.846	995.06
432.068	993.06
432.29	1016.06
432.512	974.06
432.734	973.06
432.956	1013.06
433.178	1000.06
433.4	997.06
433.622	1028.06
433.844	1018.06
434.066	1011.06
434.287	1022.06
434.509	1049.06
434.731	1070.06
434.953	1142.06
435.175	1140.06
435.397	1156.06
435.618	1083.06
435.84	1038.06
436.062	1024.06
436.284	1033.06
436.505	993.06
436.727	1036.06
436.949	996.06
437.17	1035.06
437.392	1004.06
437.614	975.06
437.835	963.06
438.057	966.06
438.278	961.06
438.5	937.06
438.721	960.06
438.943	992.06
439.165	977.06
439.386	980.06
439.608	1032.06
439.829	991.06
440.05	992.06
440.272	990.06
440.493	1015.06
440.715	1034.06
440.936	1028.06
441.158	1030.06
441.379	1066.06
441.6	1150.06
441.822	1161.06
442.043	1152.06
442.264	1113.06
442.486	1099.06
442.707	1123.06
442.928	1111.06
443.149	1099.06
443.371	1095.06
443.592	1125.06
443.813	1133.06
444.034	1178.06
444.255	1210.06
444.476	1268.06
444.698	1318.06
444.919	1387.06
445.14	1479.06
445.361	1316.06
445.582	1184.06
445.803	1121.06
446.024	1099.06
446.245	1087.06
446.466	1062.06
446.687	1010.06
446.908	1029.06
447.129	1015.06
447.35	976.06
447.571	976.06
447.792	958.06
448.013	963.06
448.234	956.06
448.455	922.06
448.675	918.06
448.896	926.06
449.117	922.06
449.338	941.06
449.559	939.06
449.779	886.06
450	894.06
450.221	925.06
450.442	934.06
450.662	919.06
450.883	950.06
451.104	938.06
451.324	972.06
451.545	956.06
451.766	954.06
451.986	950.06
452.207	930.06
452.428	946.06
452.648	931.06
452.869	920.06
453.089	900.06
453.31	913.06
453.53	866.06
453.751	897.06
453.971	906.06
454.192	919.06
454.412	889.06
454.633	868.06
454.853	886.06
455.073	880.06
455.294	877.06
455.514	880.06
455.734	859.06
455.955	853.06
456.175	856.06
456.395	884.06
456.616	886.06
456.836	882.06
457.056	893.06
457.276	846.06
457.497	887.06
457.717	857.06
457.937	869.06
458.157	877.06
458.377	898.06
458.598	902.06
458.818	928.06
459.038	966.06
459.258	995.06
459.478	1013.06
459.698	1048.06
459.918	1081.06
460.138	1142.06
460.358	1211.06
460.578	1203.06
460.798	1218.06
461.018	1206.06
461.238	1202.06
461.458	1201.06
461.678	1185.06
461.898	1224.06
462.118	1206.06
462.338	1248.06
462.558	1347.06
462.777	1376.06
462.997	1497.06
463.217	1625.06
463.437	1665.06
463.657	1536.06
463.876	1431.06
464.096	1438.06
464.316	1419.06
464.536	1493.06
464.755	1389.06
464.975	1338.06
465.195	1253.06
465.414	1184.06
465.634	1101.06
465.854	1076.06
466.073	1049.06
466.293	1017.06
466.512	985.06
466.732	971.06
466.951	976.06
467.171	966.06
467.391	979.06
467.61	986.06
467.829	965.06
468.049	954.06
468.268	949.06
468.488	941.06
468.707	918.06
468.927	930.06
469.146	917.06
469.365	977.06
469.585	977.06
469.804	982.06
470.023	1003.06
470.243	1005.06
470.462	981.06
470.681	993.06
470.901	1016.06
471.12	992.06
471.339	974.06
471.558	923.06
471.777	964.06
471.997	932.06
472.216	941.06
472.435	902.06
472.654	910.06
472.873	935.06
473.092	892.06
473.311	872.06
473.53	906.06
473.749	905.06
473.968	931.06
474.187	910.06
474.406	891.06
474.625	886.06
474.844	916.06
475.063	924.06
475.282	909.06
475.501	938.06
475.72	936.06
475.939	948.06
476.158	946.06
476.377	931.06
476.596	945.06
476.814	955.06
477.033	953.06
477.252	956.06
477.471	994.06
477.69	1017.06
477.908	1058.06
478.127	1072.06
478.346	1066.06
478.564	1089.06
478.783	1110.06
479.002	1148.06
479.22	1134.06
479.439	1124.06
479.658	1101.06
479.876	1146.06
480.095	1142.06
480.313	1186.06
480.532	1222.06
480.751	1208.06
480.969	1170.06
481.188	1142.06
481.406	1086.06
481.624	1064.06
481.843	1061.06
482.061	1047.06
482.28	1040.06
482.498	1024.06
482.717	1033.06
482.935	1038.06
483.153	1029.06
483.372	1006.06
483.59	998.06
483.808	1009.06
484.027	1032.06
484.245	1046.06
484.463	1028.06
484.681	1059.06
484.9	1091.06
485.118	1068.06
485.336	1093.06
485.554	1054.06
485.772	1100.06
485.99	1121.06
486.209	1088.06
486.427	1100.06
486.645	1151.06
486.863	1113.06
487.081	1094.06
487.299	1095.06
487.517	1067.06
487.735	1060.06
487.953	1094.06
488.171	1099.06
488.389	1069.06
488.607	1052.06
488.825	1062.06
489.043	1090.06
489.261	1046.06
489.479	1079.06
489.696	1075.06
489.914	1097.06
490.132	1096.06
490.35	1095.06
490.568	1085.06
490.786	1109.06
491.003	1086.06
491.221	1078.06
491.439	1085.06
491.657	1085.06
491.874	1098.06
492.092	1125.06
492.31	1094.06
492.527	1088.06
492.745	1086.06
492.963	1146.06
493.18	1140.06
493.398	1142.06
493.615	1112.06
493.833	1128.06
494.05	1141.06
494.268	1137.06
494.485	1137.06
494.703	1167.06
494.92	1174.06
495.138	1167.06
495.355	1130.06
495.573	1193.06
495.79	1186.06
496.008	1203.06
496.225	1141.06
496.442	1186.06
496.66	1170.06
496.877	1185.06
497.094	1205.06
497.312	1245.06
