Data from NiCl2@0.25M.TitratingCurve.Agarose3%dH2O.NegLispCup.LampEnergy10.LIBS07252019_HRD10591_18-25-25-574.txt Node
Date: Thu Jul 25 18:25:25 EDT 2019
User: cochatt
Spectrometer: HR+D1059
Trigger mode: 1
Integration Time (sec): 1.000000E-1
Scans to average: 1
Electric dark correction enabled: true
Nonlinearity correction enabled: false
Boxcar width: 0
XAxis mode: Wavelengths
Number of Pixels in Spectrum: 2048
>>>>>Begin Spectral Data<<<<<
223.165	-3.88
223.4	-3.88
223.635	-3.88
223.869	-14.88
224.104	-14.88
224.338	-12.88
224.573	-4.88
224.808	-9.88
225.042	-11.88
225.277	-3.88
225.511	3.12
225.746	4.12
225.98	-3.88
226.215	3.12
226.449	7.12
226.683	24.12
226.918	12.12
227.152	27.12
227.387	33.12
227.621	43.12
227.856	48.12
228.09	48.12
228.324	49.12
228.559	51.12
228.793	77.12
229.027	130.12
229.262	129.12
229.496	138.12
229.73	156.12
229.964	144.12
230.199	144.12
230.433	154.12
230.667	161.12
230.901	164.12
231.136	146.12
231.37	160.12
231.604	156.12
231.838	179.12
232.072	181.12
232.306	187.12
232.541	164.12
232.775	192.12
233.009	197.12
233.243	172.12
233.477	190.12
233.711	176.12
233.945	191.12
234.179	187.12
234.413	181.12
234.647	177.12
234.881	192.12
235.115	189.12
235.349	185.12
235.583	195.12
235.817	187.12
236.051	192.12
236.285	180.12
236.519	178.12
236.753	188.12
236.987	187.12
237.221	196.12
237.455	187.12
237.689	184.12
237.922	212.12
238.156	195.12
238.39	201.12
238.624	210.12
238.858	196.12
239.091	215.12
239.325	200.12
239.559	221.12
239.793	226.12
240.027	214.12
240.26	215.12
240.494	222.12
240.728	216.12
240.961	230.12
241.195	243.12
241.429	216.12
241.662	246.12
241.896	243.12
242.13	246.12
242.363	253.12
242.597	241.12
242.83	242.12
243.064	246.12
243.298	262.12
243.531	270.12
243.765	257.12
243.998	248.12
244.232	245.12
244.465	265.12
244.699	281.12
244.932	276.12
245.166	284.12
245.399	276.12
245.633	278.12
245.866	274.12
246.099	263.12
246.333	280.12
246.566	283.12
246.8	302.12
247.033	286.12
247.266	286.12
247.5	286.12
247.733	301.12
247.966	314.12
248.2	304.12
248.433	300.12
248.666	310.12
248.899	305.12
249.133	319.12
249.366	315.12
249.599	335.12
249.832	321.12
250.066	316.12
250.299	328.12
250.532	326.12
250.765	321.12
250.998	330.12
251.231	324.12
251.465	342.12
251.698	352.12
251.931	347.12
252.164	330.12
252.397	338.12
252.63	332.12
252.863	349.12
253.096	353.12
253.329	366.12
253.562	347.12
253.795	363.12
254.028	364.12
254.261	380.12
254.494	368.12
254.727	375.12
254.96	353.12
255.193	367.12
255.426	380.12
255.659	368.12
255.892	402.12
256.124	378.12
256.357	378.12
256.59	380.12
256.823	381.12
257.056	396.12
257.289	393.12
257.521	391.12
257.754	372.12
257.987	400.12
258.22	405.12
258.452	419.12
258.685	390.12
258.918	383.12
259.151	387.12
259.383	404.12
259.616	405.12
259.849	420.12
260.081	412.12
260.314	434.12
260.547	413.12
260.779	422.12
261.012	400.12
261.244	409.12
261.477	426.12
261.71	419.12
261.942	431.12
262.175	417.12
262.407	446.12
262.64	419.12
262.872	452.12
263.105	447.12
263.337	469.12
263.57	420.12
263.802	439.12
264.035	434.12
264.267	453.12
264.499	466.12
264.732	465.12
264.964	450.12
265.197	457.12
265.429	463.12
265.661	456.12
265.894	463.12
266.126	483.12
266.358	467.12
266.591	459.12
266.823	475.12
267.055	477.12
267.287	496.12
267.52	468.12
267.752	478.12
267.984	491.12
268.216	493.12
268.448	474.12
268.681	476.12
268.913	492.12
269.145	479.12
269.377	513.12
269.609	493.12
269.841	495.12
270.073	471.12
270.306	497.12
270.538	518.12
270.77	507.12
271.002	538.12
271.234	494.12
271.466	522.12
271.698	503.12
271.93	509.12
272.162	493.12
272.394	536.12
272.626	509.12
272.858	499.12
273.09	534.12
273.322	541.12
273.553	525.12
273.785	511.12
274.017	538.12
274.249	532.12
274.481	569.12
274.713	514.12
274.945	545.12
275.176	573.12
275.408	554.12
275.64	543.12
275.872	562.12
276.104	562.12
276.335	548.12
276.567	568.12
276.799	567.12
277.031	562.12
277.262	572.12
277.494	581.12
277.726	571.12
277.957	580.12
278.189	548.12
278.421	572.12
278.652	550.12
278.884	574.12
279.115	605.12
279.347	579.12
279.579	616.12
279.81	593.12
280.042	581.12
280.273	608.12
280.505	579.12
280.736	594.12
280.968	594.12
281.199	609.12
281.431	616.12
281.662	604.12
281.894	610.12
282.125	613.12
282.356	624.12
282.588	652.12
282.819	626.12
283.051	627.12
283.282	621.12
283.513	642.12
283.745	647.12
283.976	650.12
284.207	621.12
284.439	636.12
284.67	657.12
284.901	653.12
285.132	624.12
285.364	656.12
285.595	662.12
285.826	644.12
286.057	645.12
286.288	641.12
286.52	665.12
286.751	646.12
286.982	658.12
287.213	661.12
287.444	663.12
287.675	668.12
287.906	683.12
288.138	671.12
288.369	690.12
288.6	693.12
288.831	695.12
289.062	673.12
289.293	677.12
289.524	702.12
289.755	694.12
289.986	662.12
290.217	691.12
290.448	677.12
290.679	696.12
290.91	712.12
291.141	694.12
291.371	709.12
291.602	694.12
291.833	697.12
292.064	705.12
292.295	717.12
292.526	695.12
292.757	700.12
292.987	714.12
293.218	684.12
293.449	705.12
293.68	689.12
293.91	714.12
294.141	717.12
294.372	695.12
294.603	715.12
294.833	698.12
295.064	719.12
295.295	715.12
295.525	696.12
295.756	704.12
295.987	715.12
296.217	722.12
296.448	724.12
296.679	723.12
296.909	736.12
297.14	746.12
297.37	743.12
297.601	758.12
297.831	767.12
298.062	756.12
298.292	752.12
298.523	748.12
298.753	788.12
298.984	748.12
299.214	782.12
299.445	789.12
299.675	760.12
299.905	749.12
300.136	774.12
300.366	790.12
300.597	782.12
300.827	787.12
301.057	803.12
301.288	805.12
301.518	780.12
301.748	794.12
301.979	826.12
302.209	814.12
302.439	817.12
302.669	806.12
302.9	800.12
303.13	796.12
303.36	824.12
303.59	799.12
303.82	781.12
304.051	813.12
304.281	786.12
304.511	806.12
304.741	809.12
304.971	804.12
305.201	813.12
305.431	792.12
305.661	805.12
305.891	795.12
306.121	786.12
306.352	782.12
306.582	782.12
306.812	769.12
307.042	745.12
307.272	757.12
307.502	767.12
307.731	760.12
307.961	779.12
308.191	792.12
308.421	749.12
308.651	748.12
308.881	774.12
309.111	791.12
309.341	768.12
309.571	764.12
309.8	782.12
310.03	818.12
310.26	793.12
310.49	758.12
310.72	796.12
310.949	772.12
311.179	782.12
311.409	755.12
311.639	774.12
311.868	800.12
312.098	786.12
312.328	825.12
312.557	810.12
312.787	793.12
313.017	789.12
313.246	841.12
313.476	818.12
313.706	846.12
313.935	830.12
314.165	859.12
314.394	857.12
314.624	846.12
314.853	821.12
315.083	821.12
315.312	841.12
315.542	845.12
315.771	843.12
316.001	852.12
316.23	828.12
316.46	833.12
316.689	853.12
316.919	808.12
317.148	823.12
317.377	843.12
317.607	807.12
317.836	818.12
318.065	801.12
318.295	845.12
318.524	826.12
318.753	818.12
318.983	836.12
319.212	813.12
319.441	806.12
319.67	803.12
319.9	819.12
320.129	804.12
320.358	842.12
320.587	810.12
320.816	801.12
321.046	830.12
321.275	834.12
321.504	842.12
321.733	824.12
321.962	818.12
322.191	846.12
322.42	854.12
322.649	817.12
322.878	850.12
323.108	837.12
323.337	844.12
323.566	836.12
323.795	842.12
324.024	845.12
324.253	834.12
324.482	868.12
324.71	840.12
324.939	860.12
325.168	871.12
325.397	850.12
325.626	867.12
325.855	891.12
326.084	896.12
326.313	928.12
326.542	916.12
326.77	914.12
326.999	905.12
327.228	906.12
327.457	872.12
327.686	864.12
327.914	889.12
328.143	904.12
328.372	887.12
328.6	909.12
328.829	890.12
329.058	897.12
329.287	895.12
329.515	906.12
329.744	905.12
329.972	917.12
330.201	913.12
330.43	914.12
330.658	902.12
330.887	952.12
331.115	966.12
331.344	987.12
331.572	973.12
331.801	965.12
332.03	991.12
332.258	1017.12
332.486	1049.12
332.715	1088.12
332.943	1094.12
333.172	1125.12
333.4	1143.12
333.629	1206.12
333.857	1190.12
334.085	1208.12
334.314	1223.12
334.542	1230.12
334.771	1193.12
334.999	1167.12
335.227	1149.12
335.455	1140.12
335.684	1177.12
335.912	1121.12
336.14	1148.12
336.369	1113.12
336.597	1108.12
336.825	1126.12
337.053	1122.12
337.281	1080.12
337.51	1074.12
337.738	1038.12
337.966	1017.12
338.194	1022.12
338.422	990.12
338.65	995.12
338.878	978.12
339.106	984.12
339.334	992.12
339.562	975.12
339.79	960.12
340.018	998.12
340.246	913.12
340.474	956.12
340.702	937.12
340.93	953.12
341.158	941.12
341.386	940.12
341.614	975.12
341.842	971.12
342.07	954.12
342.298	922.12
342.526	895.12
342.754	908.12
342.981	941.12
343.209	964.12
343.437	1008.12
343.665	1054.12
343.893	1102.12
344.12	1185.12
344.348	1156.12
344.576	1149.12
344.804	1074.12
345.031	1018.12
345.259	1000.12
345.487	939.12
345.714	933.12
345.942	958.12
346.17	946.12
346.397	942.12
346.625	920.12
346.853	914.12
347.08	901.12
347.308	886.12
347.535	916.12
347.763	904.12
347.99	922.12
348.218	918.12
348.445	897.12
348.673	918.12
348.9	911.12
349.128	910.12
349.355	923.12
349.583	898.12
349.81	862.12
350.037	844.12
350.265	873.12
350.492	886.12
350.72	898.12
350.947	846.12
351.174	860.12
351.402	873.12
351.629	854.12
351.856	880.12
352.083	852.12
352.311	884.12
352.538	888.12
352.765	900.12
352.992	862.12
353.22	850.12
353.447	894.12
353.674	865.12
353.901	834.12
354.128	853.12
354.355	858.12
354.583	872.12
354.81	890.12
355.037	864.12
355.264	870.12
355.491	871.12
355.718	870.12
355.945	864.12
356.172	867.12
356.399	886.12
356.626	875.12
356.853	871.12
357.08	893.12
357.307	876.12
357.534	871.12
357.761	882.12
357.988	885.12
358.215	843.12
358.441	876.12
358.668	883.12
358.895	876.12
359.122	861.12
359.349	892.12
359.576	870.12
359.802	884.12
360.029	866.12
360.256	914.12
360.483	884.12
360.709	874.12
360.936	878.12
361.163	886.12
361.39	872.12
361.616	868.12
361.843	861.12
362.07	895.12
362.296	898.12
362.523	885.12
362.749	873.12
362.976	853.12
363.203	866.12
363.429	861.12
363.656	885.12
363.882	875.12
364.109	867.12
364.335	854.12
364.562	884.12
364.788	880.12
365.015	862.12
365.241	875.12
365.468	851.12
365.694	870.12
365.92	881.12
366.147	874.12
366.373	848.12
366.599	873.12
366.826	859.12
367.052	845.12
367.278	869.12
367.505	864.12
367.731	877.12
367.957	867.12
368.184	872.12
368.41	886.12
368.636	884.12
368.862	872.12
369.089	896.12
369.315	914.12
369.541	908.12
369.767	903.12
369.993	897.12
370.219	906.12
370.445	907.12
370.672	944.12
370.898	931.12
371.124	939.12
371.35	946.12
371.576	940.12
371.802	972.12
372.028	950.12
372.254	961.12
372.48	998.12
372.706	993.12
372.932	974.12
373.158	973.12
373.384	982.12
373.61	964.12
373.835	972.12
374.061	961.12
374.287	975.12
374.513	998.12
374.739	997.12
374.965	1046.12
375.191	1069.12
375.416	1058.12
375.642	1032.12
375.868	1004.12
376.094	994.12
376.319	984.12
376.545	970.12
376.771	964.12
376.997	960.12
377.222	958.12
377.448	939.12
377.674	933.12
377.899	953.12
378.125	921.12
378.35	928.12
378.576	938.12
378.802	915.12
379.027	942.12
379.253	966.12
379.478	968.12
379.704	936.12
379.929	925.12
380.155	927.12
380.38	949.12
380.606	941.12
380.831	924.12
381.057	939.12
381.282	971.12
381.507	946.12
381.733	965.12
381.958	960.12
382.184	966.12
382.409	986.12
382.634	978.12
382.86	977.12
383.085	1016.12
383.31	1020.12
383.535	1038.12
383.761	1062.12
383.986	1049.12
384.211	1066.12
384.436	1099.12
384.662	1099.12
384.887	1139.12
385.112	1100.12
385.337	1154.12
385.562	1181.12
385.787	1160.12
386.013	1177.12
386.238	1162.12
386.463	1176.12
386.688	1164.12
386.913	1147.12
387.138	1179.12
387.363	1194.12
387.588	1172.12
387.813	1165.12
388.038	1186.12
388.263	1141.12
388.488	1186.12
388.713	1184.12
388.938	1131.12
389.163	1128.12
389.387	1122.12
389.612	1133.12
389.837	1139.12
390.062	1133.12
390.287	1125.12
390.512	1139.12
390.736	1152.12
390.961	1160.12
391.186	1196.12
391.411	1229.12
391.636	1300.12
391.86	1284.12
392.085	1321.12
392.31	1330.12
392.534	1290.12
392.759	1275.12
392.984	1250.12
393.208	1226.12
393.433	1227.12
393.658	1261.12
393.882	1264.12
394.107	1259.12
394.331	1228.12
394.556	1181.12
394.78	1245.12
395.005	1243.12
395.229	1262.12
395.454	1272.12
395.678	1308.12
395.903	1296.12
396.127	1304.12
396.352	1285.12
396.576	1252.12
396.801	1261.12
397.025	1300.12
397.249	1280.12
397.474	1291.12
397.698	1351.12
397.922	1352.12
398.147	1307.12
398.371	1339.12
398.595	1388.12
398.82	1458.12
399.044	1560.12
399.268	1740.12
399.492	1934.12
399.717	2143.12
399.941	2186.12
400.165	2042.12
400.389	1874.12
400.613	1734.12
400.837	1657.12
401.062	1572.12
401.286	1503.12
401.51	1509.12
401.734	1509.12
401.958	1506.12
402.182	1520.12
402.406	1567.12
402.63	1544.12
402.854	1539.12
403.078	1581.12
403.302	1628.12
403.526	1631.12
403.75	1628.12
403.974	1635.12
404.198	1681.12
404.422	1692.12
404.645	1685.12
404.869	1675.12
405.093	1667.12
405.317	1641.12
405.541	1634.12
405.765	1622.12
405.988	1628.12
406.212	1655.12
406.436	1658.12
406.66	1709.12
406.883	1660.12
407.107	1807.12
407.331	1837.12
407.555	1879.12
407.778	1927.12
408.002	1912.12
408.226	1821.12
408.449	1818.12
408.673	1722.12
408.896	1634.12
409.12	1672.12
409.344	1708.12
409.567	1681.12
409.791	1664.12
410.014	1675.12
410.238	1611.12
410.461	1614.12
410.685	1592.12
410.908	1597.12
411.132	1590.12
411.355	1541.12
411.578	1518.12
411.802	1529.12
412.025	1545.12
412.249	1560.12
412.472	1571.12
412.695	1495.12
412.919	1504.12
413.142	1458.12
413.365	1491.12
413.589	1475.12
413.812	1473.12
414.035	1470.12
414.258	1468.12
414.482	1488.12
414.705	1480.12
414.928	1490.12
415.151	1501.12
415.374	1471.12
415.597	1460.12
415.821	1449.12
416.044	1473.12
416.267	1447.12
416.49	1383.12
416.713	1408.12
416.936	1464.12
417.159	1430.12
417.382	1422.12
417.605	1427.12
417.828	1424.12
418.051	1433.12
418.274	1460.12
418.497	1451.12
418.72	1515.12
418.943	1495.12
419.166	1599.12
419.389	1700.12
419.611	1670.12
419.834	1588.12
420.057	1573.12
420.28	1469.12
420.503	1429.12
420.726	1446.12
420.948	1441.12
421.171	1434.12
421.394	1462.12
421.617	1442.12
421.839	1421.12
422.062	1488.12
422.285	1415.12
422.507	1488.12
422.73	1475.12
422.953	1461.12
423.175	1484.12
423.398	1492.12
423.621	1469.12
423.843	1518.12
424.066	1479.12
424.288	1471.12
424.511	1473.12
424.733	1475.12
424.956	1465.12
425.178	1500.12
425.401	1446.12
425.623	1491.12
425.846	1441.12
426.068	1419.12
426.291	1417.12
426.513	1394.12
426.735	1372.12
426.958	1363.12
427.18	1304.12
427.402	1385.12
427.625	1306.12
427.847	1319.12
428.069	1291.12
428.292	1288.12
428.514	1300.12
428.736	1298.12
428.958	1304.12
429.181	1264.12
429.403	1240.12
429.625	1296.12
429.847	1256.12
430.069	1242.12
430.292	1277.12
430.514	1243.12
430.736	1259.12
430.958	1248.12
431.18	1253.12
431.402	1253.12
431.624	1259.12
431.846	1273.12
432.068	1305.12
432.29	1316.12
432.512	1302.12
432.734	1324.12
432.956	1252.12
433.178	1299.12
433.4	1294.12
433.622	1304.12
433.844	1319.12
434.066	1317.12
434.287	1335.12
434.509	1347.12
434.731	1396.12
434.953	1428.12
435.175	1457.12
435.397	1459.12
435.618	1418.12
435.84	1352.12
436.062	1338.12
436.284	1303.12
436.505	1288.12
436.727	1289.12
436.949	1271.12
437.17	1286.12
437.392	1235.12
437.614	1238.12
437.835	1216.12
438.057	1241.12
438.278	1224.12
438.5	1231.12
438.721	1191.12
438.943	1224.12
439.165	1221.12
439.386	1224.12
439.608	1253.12
439.829	1265.12
440.05	1277.12
440.272	1289.12
440.493	1323.12
440.715	1312.12
440.936	1301.12
441.158	1323.12
441.379	1420.12
441.6	1432.12
441.822	1414.12
442.043	1435.12
442.264	1410.12
442.486	1395.12
442.707	1370.12
442.928	1399.12
443.149	1402.12
443.371	1366.12
443.592	1444.12
443.813	1454.12
444.034	1473.12
444.255	1497.12
444.476	1551.12
444.698	1639.12
444.919	1667.12
445.14	1776.12
445.361	1596.12
445.582	1513.12
445.803	1460.12
446.024	1385.12
446.245	1398.12
446.466	1352.12
446.687	1320.12
446.908	1290.12
447.129	1275.12
447.35	1225.12
447.571	1253.12
447.792	1200.12
448.013	1236.12
448.234	1170.12
448.455	1186.12
448.675	1148.12
448.896	1170.12
449.117	1161.12
449.338	1181.12
449.559	1144.12
449.779	1137.12
450	1102.12
450.221	1145.12
450.442	1165.12
450.662	1142.12
450.883	1194.12
451.104	1210.12
451.324	1150.12
451.545	1139.12
451.766	1212.12
451.986	1178.12
452.207	1164.12
452.428	1149.12
452.648	1125.12
452.869	1143.12
453.089	1109.12
453.31	1133.12
453.53	1118.12
453.751	1114.12
453.971	1114.12
454.192	1123.12
454.412	1111.12
454.633	1114.12
454.853	1099.12
455.073	1108.12
455.294	1113.12
455.514	1088.12
455.734	1110.12
455.955	1081.12
456.175	1118.12
456.395	1084.12
456.616	1086.12
456.836	1095.12
457.056	1092.12
457.276	1101.12
457.497	1106.12
457.717	1091.12
457.937	1057.12
458.157	1138.12
458.377	1140.12
458.598	1188.12
458.818	1225.12
459.038	1200.12
459.258	1288.12
459.478	1346.12
459.698	1344.12
459.918	1378.12
460.138	1434.12
460.358	1511.12
460.578	1509.12
460.798	1529.12
461.018	1542.12
461.238	1546.12
461.458	1538.12
461.678	1531.12
461.898	1542.12
462.118	1573.12
462.338	1661.12
462.558	1714.12
462.777	1765.12
462.997	1856.12
463.217	1986.12
463.437	1970.12
463.657	1926.12
463.876	1766.12
464.096	1856.12
464.316	1778.12
464.536	1762.12
464.755	1730.12
464.975	1653.12
465.195	1576.12
465.414	1524.12
465.634	1423.12
465.854	1368.12
466.073	1347.12
466.293	1283.12
466.512	1281.12
466.732	1245.12
466.951	1254.12
467.171	1218.12
467.391	1236.12
467.61	1239.12
467.829	1202.12
468.049	1216.12
468.268	1167.12
468.488	1150.12
468.707	1186.12
468.927	1183.12
469.146	1184.12
469.365	1176.12
469.585	1211.12
469.804	1202.12
470.023	1281.12
470.243	1241.12
470.462	1261.12
470.681	1284.12
470.901	1275.12
471.12	1244.12
471.339	1279.12
471.558	1264.12
471.777	1216.12
471.997	1205.12
472.216	1215.12
472.435	1176.12
472.654	1149.12
472.873	1144.12
473.092	1180.12
473.311	1160.12
473.53	1145.12
473.749	1164.12
473.968	1189.12
474.187	1143.12
474.406	1153.12
474.625	1145.12
474.844	1156.12
475.063	1174.12
475.282	1154.12
475.501	1162.12
475.72	1164.12
475.939	1183.12
476.158	1209.12
476.377	1186.12
476.596	1190.12
476.814	1221.12
477.033	1235.12
477.252	1240.12
477.471	1288.12
477.69	1318.12
477.908	1337.12
478.127	1359.12
478.346	1366.12
478.564	1401.12
478.783	1429.12
479.002	1462.12
479.22	1467.12
479.439	1459.12
479.658	1457.12
479.876	1463.12
480.095	1468.12
480.313	1514.12
480.532	1533.12
480.751	1528.12
480.969	1515.12
481.188	1438.12
481.406	1427.12
481.624	1406.12
481.843	1360.12
482.061	1333.12
482.28	1308.12
482.498	1336.12
482.717	1336.12
482.935	1350.12
483.153	1293.12
483.372	1312.12
483.59	1332.12
483.808	1318.12
484.027	1341.12
484.245	1332.12
484.463	1348.12
484.681	1350.12
484.9	1377.12
485.118	1376.12
485.336	1347.12
485.554	1377.12
485.772	1406.12
485.99	1389.12
486.209	1429.12
486.427	1381.12
486.645	1388.12
486.863	1361.12
487.081	1427.12
487.299	1378.12
487.517	1374.12
487.735	1388.12
487.953	1383.12
488.171	1376.12
488.389	1358.12
488.607	1358.12
488.825	1349.12
489.043	1397.12
489.261	1354.12
489.479	1397.12
489.696	1377.12
489.914	1342.12
490.132	1389.12
490.35	1406.12
490.568	1382.12
490.786	1418.12
491.003	1392.12
491.221	1413.12
491.439	1423.12
491.657	1407.12
491.874	1421.12
492.092	1382.12
492.31	1384.12
492.527	1403.12
492.745	1424.12
492.963	1436.12
493.18	1438.12
493.398	1449.12
493.615	1450.12
493.833	1459.12
494.05	1484.12
494.268	1433.12
