Data from NiCl2@0.5M.TitratingCurve.Agarose3%dH2O.NegLispCup.LampEnergy10.LIBS07252019_HRD10591_18-20-28-571.txt Node
Date: Thu Jul 25 18:20:28 EDT 2019
User: cochatt
Spectrometer: HR+D1059
Trigger mode: 1
Integration Time (sec): 1.000000E-1
Scans to average: 1
Electric dark correction enabled: true
Nonlinearity correction enabled: false
Boxcar width: 0
XAxis mode: Wavelengths
Number of Pixels in Spectrum: 2048
>>>>>Begin Spectral Data<<<<<
223.165	-24.94
223.4	-24.94
223.635	-24.94
223.869	-30.94
224.104	-18.94
224.338	-15.94
224.573	-5.94
224.808	-6.94
225.042	-8.94
225.277	-3.94
225.511	-11.94
225.746	-6.94
225.98	18.06
226.215	17.06
226.449	19.06
226.683	23.06
226.918	25.06
227.152	33.06
227.387	42.06
227.621	37.06
227.856	43.06
228.09	55.06
228.324	55.06
228.559	70.06
228.793	70.06
229.027	91.06
229.262	94.06
229.496	107.06
229.73	99.06
229.964	120.06
230.199	118.06
230.433	112.06
230.667	118.06
230.901	125.06
231.136	126.06
231.37	120.06
231.604	133.06
231.838	122.06
232.072	107.06
232.306	116.06
232.541	127.06
232.775	128.06
233.009	143.06
233.243	134.06
233.477	128.06
233.711	126.06
233.945	141.06
234.179	134.06
234.413	135.06
234.647	141.06
234.881	135.06
235.115	137.06
235.349	130.06
235.583	150.06
235.817	148.06
236.051	130.06
236.285	120.06
236.519	145.06
236.753	126.06
236.987	146.06
237.221	152.06
237.455	139.06
237.689	134.06
237.922	145.06
238.156	146.06
238.39	150.06
238.624	141.06
238.858	128.06
239.091	147.06
239.325	153.06
239.559	151.06
239.793	152.06
240.027	141.06
240.26	155.06
240.494	155.06
240.728	144.06
240.961	142.06
241.195	160.06
241.429	162.06
241.662	160.06
241.896	144.06
242.13	170.06
242.363	160.06
242.597	173.06
242.83	162.06
243.064	165.06
243.298	156.06
243.531	163.06
243.765	163.06
243.998	172.06
244.232	182.06
244.465	179.06
244.699	183.06
244.932	175.06
245.166	180.06
245.399	183.06
245.633	177.06
245.866	203.06
246.099	176.06
246.333	178.06
246.566	199.06
246.8	205.06
247.033	194.06
247.266	191.06
247.5	179.06
247.733	184.06
247.966	187.06
248.2	185.06
248.433	174.06
248.666	197.06
248.899	212.06
249.133	190.06
249.366	219.06
249.599	213.06
249.832	204.06
250.066	206.06
250.299	198.06
250.532	204.06
250.765	194.06
250.998	214.06
251.231	214.06
251.465	220.06
251.698	196.06
251.931	224.06
252.164	218.06
252.397	207.06
252.63	214.06
252.863	228.06
253.096	225.06
253.329	229.06
253.562	222.06
253.795	214.06
254.028	233.06
254.261	248.06
254.494	226.06
254.727	222.06
254.96	232.06
255.193	223.06
255.426	229.06
255.659	229.06
255.892	224.06
256.124	243.06
256.357	239.06
256.59	253.06
256.823	236.06
257.056	222.06
257.289	230.06
257.521	234.06
257.754	235.06
257.987	247.06
258.22	243.06
258.452	245.06
258.685	255.06
258.918	248.06
259.151	267.06
259.383	254.06
259.616	256.06
259.849	256.06
260.081	261.06
260.314	271.06
260.547	278.06
260.779	258.06
261.012	254.06
261.244	263.06
261.477	270.06
261.71	255.06
261.942	277.06
262.175	269.06
262.407	264.06
262.64	276.06
262.872	258.06
263.105	265.06
263.337	278.06
263.57	247.06
263.802	278.06
264.035	286.06
264.267	275.06
264.499	274.06
264.732	270.06
264.964	284.06
265.197	287.06
265.429	280.06
265.661	277.06
265.894	292.06
266.126	283.06
266.358	294.06
266.591	272.06
266.823	274.06
267.055	291.06
267.287	283.06
267.52	295.06
267.752	287.06
267.984	281.06
268.216	300.06
268.448	290.06
268.681	306.06
268.913	307.06
269.145	301.06
269.377	306.06
269.609	296.06
269.841	311.06
270.073	308.06
270.306	321.06
270.538	309.06
270.77	312.06
271.002	305.06
271.234	314.06
271.466	308.06
271.698	307.06
271.93	323.06
272.162	306.06
272.394	314.06
272.626	331.06
272.858	325.06
273.09	302.06
273.322	319.06
273.553	312.06
273.785	329.06
274.017	337.06
274.249	334.06
274.481	334.06
274.713	337.06
274.945	332.06
275.176	325.06
275.408	350.06
275.64	325.06
275.872	340.06
276.104	346.06
276.335	352.06
276.567	346.06
276.799	345.06
277.031	347.06
277.262	351.06
277.494	359.06
277.726	346.06
277.957	341.06
278.189	340.06
278.421	354.06
278.652	357.06
278.884	366.06
279.115	365.06
279.347	356.06
279.579	364.06
279.81	347.06
280.042	362.06
280.273	363.06
280.505	370.06
280.736	362.06
280.968	368.06
281.199	375.06
281.431	361.06
281.662	370.06
281.894	382.06
282.125	374.06
282.356	384.06
282.588	376.06
282.819	368.06
283.051	380.06
283.282	377.06
283.513	398.06
283.745	382.06
283.976	384.06
284.207	396.06
284.439	395.06
284.67	400.06
284.901	385.06
285.132	398.06
285.364	389.06
285.595	374.06
285.826	399.06
286.057	398.06
286.288	397.06
286.52	406.06
286.751	394.06
286.982	406.06
287.213	415.06
287.444	412.06
287.675	414.06
287.906	405.06
288.138	399.06
288.369	410.06
288.6	403.06
288.831	426.06
289.062	394.06
289.293	418.06
289.524	412.06
289.755	412.06
289.986	405.06
290.217	425.06
290.448	419.06
290.679	426.06
290.91	431.06
291.141	413.06
291.371	419.06
291.602	424.06
291.833	415.06
292.064	419.06
292.295	428.06
292.526	416.06
292.757	404.06
292.987	415.06
293.218	429.06
293.449	444.06
293.68	440.06
293.91	426.06
294.141	428.06
294.372	423.06
294.603	431.06
294.833	444.06
295.064	418.06
295.295	446.06
295.525	452.06
295.756	432.06
295.987	432.06
296.217	450.06
296.448	440.06
296.679	458.06
296.909	439.06
297.14	450.06
297.37	453.06
297.601	456.06
297.831	460.06
298.062	450.06
298.292	479.06
298.523	464.06
298.753	450.06
298.984	444.06
299.214	464.06
299.445	452.06
299.675	448.06
299.905	463.06
300.136	478.06
300.366	468.06
300.597	480.06
300.827	483.06
301.057	483.06
301.288	515.06
301.518	493.06
301.748	470.06
301.979	491.06
302.209	475.06
302.439	497.06
302.669	480.06
302.9	474.06
303.13	488.06
303.36	502.06
303.59	471.06
303.82	476.06
304.051	503.06
304.281	488.06
304.511	499.06
304.741	485.06
304.971	476.06
305.201	495.06
305.431	497.06
305.661	513.06
305.891	490.06
306.121	478.06
306.352	482.06
306.582	483.06
306.812	479.06
307.042	491.06
307.272	492.06
307.502	487.06
307.731	464.06
307.961	494.06
308.191	471.06
308.421	471.06
308.651	470.06
308.881	481.06
309.111	506.06
309.341	450.06
309.571	484.06
309.8	470.06
310.03	501.06
310.26	480.06
310.49	501.06
310.72	494.06
310.949	502.06
311.179	486.06
311.409	483.06
311.639	504.06
311.868	501.06
312.098	534.06
312.328	513.06
312.557	507.06
312.787	499.06
313.017	501.06
313.246	542.06
313.476	523.06
313.706	528.06
313.935	516.06
314.165	537.06
314.394	532.06
314.624	536.06
314.853	507.06
315.083	502.06
315.312	531.06
315.542	530.06
315.771	515.06
316.001	491.06
316.23	510.06
316.46	509.06
316.689	542.06
316.919	533.06
317.148	513.06
317.377	499.06
317.607	512.06
317.836	514.06
318.065	518.06
318.295	532.06
318.524	513.06
318.753	492.06
318.983	512.06
319.212	491.06
319.441	494.06
319.67	506.06
319.9	498.06
320.129	520.06
320.358	519.06
320.587	525.06
320.816	540.06
321.046	531.06
321.275	528.06
321.504	526.06
321.733	522.06
321.962	516.06
322.191	521.06
322.42	526.06
322.649	522.06
322.878	538.06
323.108	508.06
323.337	536.06
323.566	566.06
323.795	528.06
324.024	566.06
324.253	532.06
324.482	527.06
324.71	532.06
324.939	542.06
325.168	552.06
325.397	543.06
325.626	554.06
325.855	546.06
326.084	566.06
326.313	580.06
326.542	584.06
326.77	579.06
326.999	578.06
327.228	574.06
327.457	547.06
327.686	577.06
327.914	576.06
328.143	560.06
328.372	580.06
328.6	577.06
328.829	568.06
329.058	556.06
329.287	585.06
329.515	592.06
329.744	559.06
329.972	570.06
330.201	560.06
330.43	570.06
330.658	586.06
330.887	579.06
331.115	596.06
331.344	564.06
331.572	604.06
331.801	611.06
332.03	612.06
332.258	656.06
332.486	638.06
332.715	666.06
332.943	664.06
333.172	678.06
333.4	714.06
333.629	748.06
333.857	723.06
334.085	732.06
334.314	743.06
334.542	702.06
334.771	703.06
334.999	701.06
335.227	692.06
335.455	694.06
335.684	702.06
335.912	690.06
336.14	702.06
336.369	678.06
336.597	669.06
336.825	671.06
337.053	665.06
337.281	650.06
337.51	637.06
337.738	644.06
337.966	636.06
338.194	638.06
338.422	630.06
338.65	610.06
338.878	621.06
339.106	590.06
339.334	631.06
339.562	622.06
339.79	600.06
340.018	591.06
340.246	603.06
340.474	608.06
340.702	583.06
340.93	603.06
341.158	598.06
341.386	605.06
341.614	611.06
341.842	618.06
342.07	574.06
342.298	568.06
342.526	587.06
342.754	614.06
342.981	597.06
343.209	619.06
343.437	630.06
343.665	650.06
343.893	699.06
344.12	726.06
344.348	703.06
344.576	649.06
344.804	634.06
345.031	613.06
345.259	593.06
345.487	600.06
345.714	606.06
345.942	582.06
346.17	588.06
346.397	566.06
346.625	573.06
346.853	561.06
347.08	559.06
347.308	583.06
347.535	575.06
347.763	573.06
347.99	592.06
348.218	556.06
348.445	583.06
348.673	559.06
348.9	568.06
349.128	564.06
349.355	573.06
349.583	583.06
349.81	554.06
350.037	555.06
350.265	552.06
350.492	544.06
350.72	550.06
350.947	562.06
351.174	569.06
351.402	569.06
351.629	545.06
351.856	551.06
352.083	566.06
352.311	562.06
352.538	547.06
352.765	543.06
352.992	537.06
353.22	511.06
353.447	539.06
353.674	533.06
353.901	537.06
354.128	530.06
354.355	534.06
354.583	531.06
354.81	562.06
355.037	573.06
355.264	535.06
355.491	527.06
355.718	543.06
355.945	532.06
356.172	558.06
356.399	554.06
356.626	555.06
356.853	545.06
357.08	587.06
357.307	535.06
357.534	539.06
357.761	543.06
357.988	563.06
358.215	570.06
358.441	541.06
358.668	527.06
358.895	565.06
359.122	558.06
359.349	562.06
359.576	538.06
359.802	536.06
360.029	532.06
360.256	532.06
360.483	528.06
360.709	554.06
360.936	555.06
361.163	568.06
361.39	555.06
361.616	528.06
361.843	542.06
362.07	564.06
362.296	554.06
362.523	549.06
362.749	552.06
362.976	548.06
363.203	543.06
363.429	540.06
363.656	534.06
363.882	516.06
364.109	540.06
364.335	518.06
364.562	536.06
364.788	518.06
365.015	539.06
365.241	542.06
365.468	526.06
365.694	533.06
365.92	525.06
366.147	528.06
366.373	548.06
366.599	563.06
366.826	520.06
367.052	538.06
367.278	547.06
367.505	526.06
367.731	559.06
367.957	538.06
368.184	536.06
368.41	560.06
368.636	551.06
368.862	534.06
369.089	546.06
369.315	551.06
369.541	538.06
369.767	557.06
369.993	564.06
370.219	570.06
370.445	575.06
370.672	581.06
370.898	543.06
371.124	587.06
371.35	554.06
371.576	577.06
371.802	605.06
372.028	590.06
372.254	589.06
372.48	589.06
372.706	614.06
372.932	600.06
373.158	595.06
373.384	588.06
373.61	568.06
373.835	573.06
374.061	575.06
374.287	576.06
374.513	595.06
374.739	603.06
374.965	602.06
375.191	618.06
375.416	619.06
375.642	603.06
375.868	621.06
376.094	600.06
376.319	571.06
376.545	557.06
376.771	581.06
376.997	575.06
377.222	569.06
377.448	580.06
377.674	595.06
377.899	548.06
378.125	579.06
378.35	583.06
378.576	548.06
378.802	555.06
379.027	565.06
379.253	557.06
379.478	542.06
379.704	571.06
379.929	578.06
380.155	583.06
380.38	574.06
380.606	576.06
380.831	565.06
381.057	550.06
381.282	570.06
381.507	568.06
381.733	579.06
381.958	590.06
382.184	588.06
382.409	597.06
382.634	596.06
382.86	582.06
383.085	596.06
383.31	606.06
383.535	626.06
383.761	600.06
383.986	615.06
384.211	613.06
384.436	668.06
384.662	643.06
384.887	681.06
385.112	644.06
385.337	654.06
385.562	669.06
385.787	669.06
386.013	694.06
386.238	686.06
386.463	657.06
386.688	671.06
386.913	649.06
387.138	683.06
387.363	678.06
387.588	665.06
387.813	668.06
388.038	663.06
388.263	670.06
388.488	636.06
388.713	640.06
388.938	657.06
389.163	642.06
389.387	645.06
389.612	650.06
389.837	666.06
390.062	658.06
390.287	645.06
390.512	644.06
390.736	668.06
390.961	669.06
391.186	670.06
391.411	694.06
391.636	723.06
391.86	736.06
392.085	755.06
392.31	738.06
392.534	741.06
392.759	741.06
392.984	679.06
393.208	686.06
393.433	690.06
393.658	698.06
393.882	692.06
394.107	699.06
394.331	710.06
394.556	727.06
394.78	722.06
395.005	727.06
395.229	728.06
395.454	720.06
395.678	750.06
395.903	756.06
396.127	733.06
396.352	720.06
396.576	719.06
396.801	683.06
397.025	700.06
397.249	727.06
397.474	743.06
397.698	726.06
397.922	747.06
398.147	743.06
398.371	758.06
398.595	784.06
398.82	816.06
399.044	855.06
399.268	936.06
399.492	1068.06
399.717	1164.06
399.941	1145.06
400.165	1043.06
400.389	972.06
400.613	901.06
400.837	881.06
401.062	837.06
401.286	856.06
401.51	813.06
401.734	779.06
401.958	839.06
402.182	832.06
402.406	852.06
402.63	848.06
402.854	879.06
403.078	890.06
403.302	893.06
403.526	914.06
403.75	931.06
403.974	923.06
404.198	909.06
404.422	954.06
404.645	932.06
404.869	899.06
405.093	919.06
405.317	906.06
405.541	921.06
405.765	913.06
405.988	900.06
406.212	899.06
406.436	898.06
406.66	912.06
406.883	918.06
407.107	969.06
407.331	1044.06
407.555	1088.06
407.778	1059.06
408.002	1034.06
408.226	991.06
408.449	958.06
408.673	938.06
408.896	940.06
409.12	907.06
409.344	946.06
409.567	940.06
409.791	939.06
410.014	925.06
410.238	933.06
410.461	908.06
410.685	918.06
410.908	903.06
411.132	883.06
411.355	870.06
411.578	847.06
411.802	858.06
412.025	869.06
412.249	863.06
412.472	860.06
412.695	887.06
412.919	853.06
413.142	828.06
413.365	833.06
413.589	813.06
413.812	838.06
414.035	847.06
414.258	873.06
414.482	863.06
414.705	880.06
414.928	850.06
415.151	857.06
415.374	833.06
415.597	837.06
415.821	817.06
416.044	832.06
416.267	827.06
416.49	815.06
416.713	814.06
416.936	827.06
417.159	831.06
417.382	844.06
417.605	808.06
417.828	816.06
418.051	825.06
418.274	844.06
418.497	846.06
418.72	863.06
418.943	857.06
419.166	904.06
419.389	946.06
419.611	948.06
419.834	902.06
420.057	871.06
420.28	859.06
420.503	835.06
420.726	822.06
420.948	825.06
421.171	819.06
421.394	844.06
421.617	818.06
421.839	832.06
422.062	851.06
422.285	836.06
422.507	862.06
422.73	834.06
422.953	868.06
423.175	865.06
423.398	879.06
423.621	880.06
423.843	881.06
424.066	890.06
424.288	886.06
424.511	867.06
424.733	868.06
424.956	867.06
425.178	846.06
425.401	864.06
425.623	862.06
425.846	840.06
426.068	855.06
426.291	821.06
426.513	795.06
426.735	797.06
426.958	801.06
427.18	773.06
427.402	782.06
427.625	804.06
427.847	764.06
428.069	766.06
428.292	799.06
428.514	740.06
428.736	718.06
428.958	780.06
429.181	751.06
429.403	779.06
429.625	748.06
429.847	741.06
430.069	787.06
430.292	776.06
430.514	747.06
430.736	773.06
430.958	737.06
431.18	744.06
431.402	758.06
431.624	748.06
431.846	764.06
432.068	745.06
432.29	788.06
432.512	776.06
432.734	782.06
432.956	761.06
433.178	781.06
433.4	772.06
433.622	791.06
433.844	778.06
434.066	790.06
434.287	787.06
434.509	820.06
434.731	845.06
434.953	854.06
435.175	837.06
435.397	858.06
435.618	818.06
435.84	811.06
436.062	801.06
436.284	762.06
436.505	750.06
436.727	782.06
436.949	807.06
437.17	763.06
437.392	782.06
437.614	784.06
437.835	774.06
438.057	758.06
438.278	732.06
438.5	741.06
438.721	735.06
438.943	776.06
439.165	743.06
439.386	762.06
439.608	784.06
439.829	774.06
440.05	799.06
440.272	796.06
440.493	759.06
440.715	806.06
440.936	799.06
441.158	830.06
441.379	846.06
441.6	859.06
441.822	852.06
442.043	900.06
442.264	870.06
442.486	844.06
442.707	845.06
442.928	856.06
443.149	844.06
443.371	862.06
443.592	864.06
443.813	894.06
444.034	854.06
444.255	924.06
444.476	934.06
444.698	955.06
444.919	1006.06
445.14	1050.06
445.361	999.06
445.582	911.06
445.803	830.06
446.024	830.06
446.245	812.06
446.466	805.06
446.687	788.06
446.908	807.06
447.129	796.06
447.35	768.06
447.571	783.06
447.792	766.06
448.013	742.06
448.234	754.06
448.455	720.06
448.675	723.06
448.896	729.06
449.117	729.06
449.338	714.06
449.559	728.06
449.779	725.06
450	724.06
450.221	728.06
450.442	748.06
450.662	743.06
450.883	735.06
451.104	757.06
451.324	719.06
451.545	721.06
451.766	724.06
451.986	728.06
452.207	720.06
452.428	737.06
452.648	729.06
452.869	725.06
453.089	719.06
453.31	714.06
453.53	710.06
453.751	682.06
453.971	684.06
454.192	690.06
454.412	679.06
454.633	680.06
454.853	695.06
455.073	674.06
455.294	678.06
455.514	686.06
455.734	662.06
455.955	660.06
456.175	660.06
456.395	674.06
456.616	679.06
456.836	694.06
457.056	715.06
457.276	669.06
457.497	674.06
457.717	678.06
457.937	665.06
458.157	710.06
458.377	716.06
458.598	720.06
458.818	738.06
459.038	766.06
459.258	760.06
459.478	810.06
459.698	774.06
459.918	801.06
460.138	832.06
460.358	894.06
460.578	906.06
460.798	901.06
461.018	930.06
461.238	920.06
461.458	911.06
461.678	899.06
461.898	925.06
462.118	933.06
462.338	951.06
462.558	967.06
462.777	1028.06
462.997	1092.06
463.217	1158.06
463.437	1209.06
463.657	1091.06
463.876	1057.06
464.096	1040.06
464.316	1057.06
464.536	1032.06
464.755	1044.06
464.975	991.06
465.195	958.06
465.414	910.06
465.634	855.06
465.854	813.06
466.073	829.06
466.293	820.06
466.512	792.06
466.732	766.06
466.951	777.06
467.171	762.06
467.391	780.06
467.61	791.06
467.829	778.06
468.049	772.06
468.268	735.06
468.488	722.06
468.707	751.06
468.927	736.06
469.146	732.06
469.365	767.06
469.585	756.06
469.804	766.06
470.023	781.06
470.243	791.06
470.462	784.06
470.681	795.06
470.901	793.06
471.12	817.06
471.339	808.06
471.558	774.06
471.777	779.06
471.997	759.06
472.216	749.06
472.435	757.06
472.654	729.06
472.873	722.06
473.092	730.06
473.311	749.06
473.53	727.06
473.749	736.06
473.968	739.06
474.187	736.06
474.406	711.06
474.625	740.06
474.844	726.06
475.063	720.06
475.282	741.06
475.501	738.06
475.72	732.06
475.939	744.06
476.158	774.06
476.377	781.06
476.596	786.06
476.814	756.06
477.033	755.06
477.252	797.06
477.471	793.06
477.69	809.06
477.908	841.06
478.127	866.06
478.346	863.06
478.564	860.06
478.783	906.06
479.002	907.06
479.22	944.06
479.439	899.06
479.658	900.06
479.876	890.06
480.095	916.06
480.313	934.06
480.532	955.06
480.751	964.06
480.969	918.06
481.188	906.06
481.406	875.06
481.624	859.06
481.843	810.06
482.061	856.06
482.28	868.06
482.498	819.06
482.717	843.06
482.935	838.06
483.153	863.06
483.372	866.06
483.59	837.06
483.808	851.06
484.027	850.06
484.245	852.06
484.463	854.06
484.681	883.06
484.9	876.06
485.118	885.06
485.336	894.06
485.554	890.06
485.772	911.06
485.99	890.06
486.209	920.06
486.427	878.06
486.645	887.06
486.863	914.06
487.081	871.06
487.299	886.06
487.517	888.06
487.735	920.06
487.953	908.06
488.171	894.06
488.389	860.06
488.607	884.06
488.825	846.06
489.043	861.06
489.261	863.06
489.479	879.06
489.696	894.06
489.914	880.06
490.132	900.06
490.35	897.06
490.568	890.06
490.786	885.06
491.003	919.06
491.221	893.06
491.439	906.06
491.657	892.06
491.874	895.06
492.092	937.06
492.31	922.06
492.527	926.06
492.745	916.06
492.963	934.06
493.18	895.06
493.398	926.06
493.615	938.06
493.833	916.06
494.05	920.06
494.268	936.06
494.485	953.06
494.703	934.06
494.92	952.06
495.138	957.06
495.355	913.06
495.573	987.06
495.79	982.06
496.008	965.06
496.225	971.06
496.442	965.06
496.66	1001.06
496.877	1008.06
497.094	978.06
497.312	1012.06
497.529	1042.06
497.746	1065.06
497.963	1100.06
498.181	1107.06
498.398	1163.06
498.615	1214.06
498.832	1279.06
499.049	1395.06
499.267	1476.06
499.484	1612.06
499.701	1730.06
499.918	1910.06
500.135	2110.06
500.352	2389.06
500.569	2446.06
500.786	2418.06
501.003	2294.06
