Data from NiCl2@0.125M.TitratingCurve.Agarose3%dH2O.NegLispCup.LampEnergy10.LIBS07252019_HRD10591_18-30-19-575.txt Node
Date: Thu Jul 25 18:30:19 EDT 2019
User: cochatt
Spectrometer: HR+D1059
Trigger mode: 1
Integration Time (sec): 1.000000E-1
Scans to average: 1
Electric dark correction enabled: true
Nonlinearity correction enabled: false
Boxcar width: 0
XAxis mode: Wavelengths
Number of Pixels in Spectrum: 2048
>>>>>Begin Spectral Data<<<<<
223.165	-3.94
223.4	-3.94
223.635	-3.94
223.869	-13.94
224.104	-8.94
224.338	-24.94
224.573	-10.94
224.808	-14.94
225.042	-13.94
225.277	-11.94
225.511	-21.94
225.746	-2.94
225.98	3.06
226.215	26.06
226.449	10.06
226.683	29.06
226.918	27.06
227.152	33.06
227.387	39.06
227.621	32.06
227.856	30.06
228.09	44.06
228.324	41.06
228.559	59.06
228.793	63.06
229.027	98.06
229.262	110.06
229.496	114.06
229.73	101.06
229.964	120.06
230.199	118.06
230.433	112.06
230.667	129.06
230.901	128.06
231.136	124.06
231.37	129.06
231.604	119.06
231.838	133.06
232.072	135.06
232.306	145.06
232.541	126.06
232.775	148.06
233.009	134.06
233.243	153.06
233.477	130.06
233.711	141.06
233.945	140.06
234.179	150.06
234.413	135.06
234.647	126.06
234.881	147.06
235.115	156.06
235.349	146.06
235.583	148.06
235.817	143.06
236.051	138.06
236.285	154.06
236.519	148.06
236.753	149.06
236.987	146.06
237.221	146.06
237.455	145.06
237.689	157.06
237.922	148.06
238.156	154.06
238.39	139.06
238.624	169.06
238.858	156.06
239.091	158.06
239.325	165.06
239.559	165.06
239.793	152.06
240.027	166.06
240.26	154.06
240.494	167.06
240.728	165.06
240.961	179.06
241.195	164.06
241.429	174.06
241.662	190.06
241.896	182.06
242.13	175.06
242.363	186.06
242.597	186.06
242.83	194.06
243.064	185.06
243.298	175.06
243.531	199.06
243.765	198.06
243.998	198.06
244.232	210.06
244.465	187.06
244.699	189.06
244.932	202.06
245.166	211.06
245.399	196.06
245.633	189.06
245.866	201.06
246.099	202.06
246.333	204.06
246.566	208.06
246.8	221.06
247.033	213.06
247.266	200.06
247.5	212.06
247.733	214.06
247.966	229.06
248.2	210.06
248.433	222.06
248.666	226.06
248.899	214.06
249.133	220.06
249.366	244.06
249.599	238.06
249.832	237.06
250.066	234.06
250.299	225.06
250.532	239.06
250.765	226.06
250.998	232.06
251.231	241.06
251.465	235.06
251.698	234.06
251.931	259.06
252.164	262.06
252.397	252.06
252.63	243.06
252.863	260.06
253.096	259.06
253.329	264.06
253.562	252.06
253.795	263.06
254.028	261.06
254.261	273.06
254.494	256.06
254.727	260.06
254.96	258.06
255.193	287.06
255.426	251.06
255.659	263.06
255.892	247.06
256.124	259.06
256.357	258.06
256.59	302.06
256.823	276.06
257.056	265.06
257.289	288.06
257.521	284.06
257.754	267.06
257.987	276.06
258.22	285.06
258.452	278.06
258.685	293.06
258.918	284.06
259.151	282.06
259.383	292.06
259.616	311.06
259.849	282.06
260.081	287.06
260.314	300.06
260.547	292.06
260.779	304.06
261.012	290.06
261.244	318.06
261.477	316.06
261.71	309.06
261.942	324.06
262.175	304.06
262.407	309.06
262.64	304.06
262.872	320.06
263.105	327.06
263.337	312.06
263.57	323.06
263.802	305.06
264.035	308.06
264.267	339.06
264.499	313.06
264.732	287.06
264.964	308.06
265.197	315.06
265.429	314.06
265.661	322.06
265.894	341.06
266.126	302.06
266.358	332.06
266.591	336.06
266.823	344.06
267.055	341.06
267.287	337.06
267.52	323.06
267.752	341.06
267.984	347.06
268.216	343.06
268.448	355.06
268.681	343.06
268.913	351.06
269.145	362.06
269.377	348.06
269.609	332.06
269.841	340.06
270.073	373.06
270.306	352.06
270.538	350.06
270.77	346.06
271.002	358.06
271.234	350.06
271.466	373.06
271.698	350.06
271.93	359.06
272.162	366.06
272.394	354.06
272.626	361.06
272.858	332.06
273.09	388.06
273.322	376.06
273.553	373.06
273.785	371.06
274.017	386.06
274.249	375.06
274.481	380.06
274.713	380.06
274.945	380.06
275.176	352.06
275.408	375.06
275.64	378.06
275.872	381.06
276.104	391.06
276.335	403.06
276.567	386.06
276.799	376.06
277.031	417.06
277.262	401.06
277.494	400.06
277.726	414.06
277.957	386.06
278.189	390.06
278.421	404.06
278.652	397.06
278.884	436.06
279.115	386.06
279.347	406.06
279.579	420.06
279.81	405.06
280.042	418.06
280.273	406.06
280.505	414.06
280.736	404.06
280.968	413.06
281.199	416.06
281.431	415.06
281.662	427.06
281.894	419.06
282.125	423.06
282.356	432.06
282.588	421.06
282.819	430.06
283.051	402.06
283.282	414.06
283.513	439.06
283.745	419.06
283.976	420.06
284.207	453.06
284.439	454.06
284.67	472.06
284.901	430.06
285.132	443.06
285.364	453.06
285.595	458.06
285.826	442.06
286.057	443.06
286.288	470.06
286.52	461.06
286.751	455.06
286.982	455.06
287.213	456.06
287.444	482.06
287.675	462.06
287.906	468.06
288.138	465.06
288.369	470.06
288.6	486.06
288.831	488.06
289.062	473.06
289.293	473.06
289.524	493.06
289.755	478.06
289.986	488.06
290.217	483.06
290.448	489.06
290.679	489.06
290.91	487.06
291.141	485.06
291.371	481.06
291.602	489.06
291.833	467.06
292.064	475.06
292.295	494.06
292.526	498.06
292.757	474.06
292.987	487.06
293.218	482.06
293.449	494.06
293.68	499.06
293.91	504.06
294.141	475.06
294.372	484.06
294.603	485.06
294.833	496.06
295.064	497.06
295.295	484.06
295.525	506.06
295.756	496.06
295.987	518.06
296.217	497.06
296.448	506.06
296.679	522.06
296.909	488.06
297.14	516.06
297.37	518.06
297.601	520.06
297.831	536.06
298.062	532.06
298.292	530.06
298.523	548.06
298.753	555.06
298.984	539.06
299.214	545.06
299.445	556.06
299.675	534.06
299.905	544.06
300.136	510.06
300.366	544.06
300.597	562.06
300.827	562.06
301.057	557.06
301.288	591.06
301.518	534.06
301.748	556.06
301.979	538.06
302.209	551.06
302.439	562.06
302.669	560.06
302.9	554.06
303.13	562.06
303.36	570.06
303.59	561.06
303.82	552.06
304.051	562.06
304.281	567.06
304.511	534.06
304.741	548.06
304.971	558.06
305.201	548.06
305.431	574.06
305.661	539.06
305.891	565.06
306.121	536.06
306.352	554.06
306.582	539.06
306.812	548.06
307.042	519.06
307.272	548.06
307.502	540.06
307.731	537.06
307.961	544.06
308.191	540.06
308.421	523.06
308.651	530.06
308.881	534.06
309.111	523.06
309.341	524.06
309.571	528.06
309.8	553.06
310.03	555.06
310.26	527.06
310.49	531.06
310.72	550.06
310.949	540.06
311.179	551.06
311.409	523.06
311.639	552.06
311.868	562.06
312.098	528.06
312.328	560.06
312.557	588.06
312.787	565.06
313.017	533.06
313.246	558.06
313.476	563.06
313.706	586.06
313.935	581.06
314.165	577.06
314.394	589.06
314.624	558.06
314.853	562.06
315.083	573.06
315.312	581.06
315.542	551.06
315.771	550.06
316.001	559.06
316.23	549.06
316.46	542.06
316.689	551.06
316.919	552.06
317.148	566.06
317.377	566.06
317.607	531.06
317.836	544.06
318.065	563.06
318.295	570.06
318.524	544.06
318.753	554.06
318.983	545.06
319.212	561.06
319.441	555.06
319.67	548.06
319.9	550.06
320.129	563.06
320.358	561.06
320.587	555.06
320.816	561.06
321.046	551.06
321.275	529.06
321.504	549.06
321.733	548.06
321.962	550.06
322.191	549.06
322.42	582.06
322.649	565.06
322.878	588.06
323.108	577.06
323.337	587.06
323.566	559.06
323.795	552.06
324.024	587.06
324.253	572.06
324.482	575.06
324.71	573.06
324.939	588.06
325.168	575.06
325.397	573.06
325.626	581.06
325.855	577.06
326.084	596.06
326.313	602.06
326.542	636.06
326.77	623.06
326.999	640.06
327.228	608.06
327.457	601.06
327.686	601.06
327.914	622.06
328.143	601.06
328.372	594.06
328.6	606.06
328.829	594.06
329.058	632.06
329.287	602.06
329.515	607.06
329.744	642.06
329.972	648.06
330.201	629.06
330.43	630.06
330.658	630.06
330.887	627.06
331.115	636.06
331.344	650.06
331.572	652.06
331.801	658.06
332.03	677.06
332.258	672.06
332.486	704.06
332.715	722.06
332.943	764.06
333.172	776.06
333.4	828.06
333.629	837.06
333.857	854.06
334.085	843.06
334.314	834.06
334.542	809.06
334.771	780.06
334.999	753.06
335.227	788.06
335.455	760.06
335.684	767.06
335.912	738.06
336.14	732.06
336.369	724.06
336.597	732.06
336.825	734.06
337.053	712.06
337.281	729.06
337.51	683.06
337.738	696.06
337.966	698.06
338.194	679.06
338.422	644.06
338.65	676.06
338.878	672.06
339.106	634.06
339.334	658.06
339.562	642.06
339.79	652.06
340.018	640.06
340.246	616.06
340.474	599.06
340.702	634.06
340.93	626.06
341.158	632.06
341.386	653.06
341.614	654.06
341.842	628.06
342.07	630.06
342.298	625.06
342.526	628.06
342.754	647.06
342.981	648.06
343.209	652.06
343.437	666.06
343.665	726.06
343.893	787.06
344.12	817.06
344.348	766.06
344.576	722.06
344.804	706.06
345.031	634.06
345.259	662.06
345.487	658.06
345.714	626.06
345.942	648.06
346.17	654.06
346.397	638.06
346.625	634.06
346.853	612.06
347.08	628.06
347.308	627.06
347.535	618.06
347.763	640.06
347.99	634.06
348.218	645.06
348.445	644.06
348.673	631.06
348.9	624.06
349.128	612.06
349.355	598.06
349.583	616.06
349.81	602.06
350.037	582.06
350.265	614.06
350.492	610.06
350.72	617.06
350.947	601.06
351.174	613.06
351.402	571.06
351.629	602.06
351.856	597.06
352.083	611.06
352.311	611.06
352.538	596.06
352.765	607.06
352.992	596.06
353.22	593.06
353.447	609.06
353.674	588.06
353.901	580.06
354.128	582.06
354.355	577.06
354.583	594.06
354.81	603.06
355.037	623.06
355.264	603.06
355.491	607.06
355.718	584.06
355.945	599.06
356.172	612.06
356.399	578.06
356.626	599.06
356.853	594.06
357.08	606.06
357.307	598.06
357.534	607.06
357.761	598.06
357.988	590.06
358.215	603.06
358.441	583.06
358.668	588.06
358.895	588.06
359.122	604.06
359.349	618.06
359.576	594.06
359.802	606.06
360.029	586.06
360.256	606.06
360.483	627.06
360.709	606.06
360.936	615.06
361.163	616.06
361.39	592.06
361.616	615.06
361.843	606.06
362.07	620.06
362.296	620.06
362.523	598.06
362.749	587.06
362.976	618.06
363.203	615.06
363.429	584.06
363.656	605.06
363.882	582.06
364.109	579.06
364.335	580.06
364.562	600.06
364.788	594.06
365.015	595.06
365.241	598.06
365.468	610.06
365.694	596.06
365.92	599.06
366.147	596.06
366.373	589.06
366.599	590.06
366.826	605.06
367.052	609.06
367.278	601.06
367.505	605.06
367.731	584.06
367.957	595.06
368.184	584.06
368.41	622.06
368.636	604.06
368.862	597.06
369.089	610.06
369.315	629.06
369.541	607.06
369.767	610.06
369.993	630.06
370.219	640.06
370.445	644.06
370.672	608.06
370.898	634.06
371.124	636.06
371.35	647.06
371.576	662.06
371.802	649.06
372.028	642.06
372.254	657.06
372.48	654.06
372.706	670.06
372.932	697.06
373.158	665.06
373.384	679.06
373.61	658.06
373.835	656.06
374.061	644.06
374.287	652.06
374.513	664.06
374.739	681.06
374.965	722.06
375.191	731.06
375.416	700.06
375.642	679.06
375.868	704.06
376.094	675.06
376.319	668.06
376.545	673.06
376.771	668.06
376.997	643.06
377.222	650.06
377.448	631.06
377.674	653.06
377.899	632.06
378.125	632.06
378.35	635.06
378.576	637.06
378.802	632.06
379.027	642.06
379.253	646.06
379.478	633.06
379.704	603.06
379.929	640.06
380.155	652.06
380.38	653.06
380.606	640.06
380.831	627.06
381.057	643.06
381.282	646.06
381.507	653.06
381.733	673.06
381.958	649.06
382.184	673.06
382.409	663.06
382.634	662.06
382.86	669.06
383.085	706.06
383.31	711.06
383.535	707.06
383.761	696.06
383.986	714.06
384.211	750.06
384.436	752.06
384.662	783.06
384.887	792.06
385.112	799.06
385.337	806.06
385.562	770.06
385.787	785.06
386.013	800.06
386.238	799.06
386.463	810.06
386.688	794.06
386.913	761.06
387.138	751.06
387.363	792.06
387.588	770.06
387.813	770.06
388.038	773.06
388.263	770.06
388.488	753.06
388.713	767.06
388.938	748.06
389.163	775.06
389.387	751.06
389.612	751.06
389.837	750.06
390.062	750.06
390.287	776.06
390.512	776.06
390.736	787.06
390.961	808.06
391.186	772.06
391.411	816.06
391.636	837.06
391.86	862.06
392.085	882.06
392.31	854.06
392.534	856.06
392.759	846.06
392.984	830.06
393.208	808.06
393.433	808.06
393.658	819.06
393.882	837.06
394.107	844.06
394.331	834.06
394.556	830.06
394.78	850.06
395.005	821.06
395.229	838.06
395.454	850.06
395.678	878.06
395.903	910.06
396.127	868.06
396.352	840.06
396.576	826.06
396.801	855.06
397.025	849.06
397.249	857.06
397.474	853.06
397.698	891.06
397.922	869.06
398.147	883.06
398.371	870.06
398.595	900.06
398.82	936.06
399.044	1049.06
399.268	1140.06
399.492	1319.06
399.717	1503.06
399.941	1573.06
400.165	1367.06
400.389	1213.06
400.613	1086.06
400.837	1035.06
401.062	997.06
401.286	990.06
401.51	968.06
401.734	950.06
401.958	979.06
402.182	991.06
402.406	1011.06
402.63	1048.06
402.854	1039.06
403.078	1102.06
403.302	1081.06
403.526	1114.06
403.75	1138.06
403.974	1162.06
404.198	1191.06
404.422	1172.06
404.645	1170.06
404.869	1084.06
405.093	1124.06
405.317	1111.06
405.541	1109.06
405.765	1079.06
405.988	1043.06
406.212	1088.06
406.436	1092.06
406.66	1147.06
406.883	1086.06
407.107	1146.06
407.331	1252.06
407.555	1318.06
407.778	1299.06
408.002	1269.06
408.226	1214.06
408.449	1179.06
408.673	1130.06
408.896	1119.06
409.12	1116.06
409.344	1128.06
409.567	1133.06
409.791	1162.06
410.014	1146.06
410.238	1120.06
410.461	1115.06
410.685	1106.06
410.908	1072.06
411.132	1054.06
411.355	1043.06
411.578	1021.06
411.802	1003.06
412.025	1009.06
412.249	1031.06
412.472	1032.06
412.695	1010.06
412.919	987.06
413.142	990.06
413.365	994.06
413.589	1010.06
413.812	965.06
414.035	956.06
414.258	959.06
414.482	982.06
414.705	988.06
414.928	992.06
415.151	1008.06
415.374	987.06
415.597	987.06
415.821	919.06
416.044	938.06
416.267	944.06
416.49	966.06
416.713	942.06
416.936	976.06
417.159	945.06
417.382	969.06
417.605	952.06
417.828	962.06
418.051	989.06
418.274	1001.06
418.497	978.06
418.72	991.06
418.943	992.06
419.166	1058.06
419.389	1176.06
419.611	1094.06
419.834	1068.06
420.057	1041.06
420.28	1010.06
420.503	967.06
420.726	963.06
420.948	982.06
421.171	961.06
421.394	947.06
421.617	946.06
421.839	983.06
422.062	986.06
422.285	952.06
422.507	1002.06
422.73	986.06
422.953	1034.06
423.175	1030.06
423.398	1040.06
423.621	1047.06
423.843	1028.06
424.066	1051.06
424.288	1059.06
424.511	1044.06
424.733	1048.06
424.956	1026.06
425.178	1006.06
425.401	987.06
425.623	1008.06
425.846	951.06
426.068	944.06
426.291	922.06
426.513	912.06
426.735	911.06
426.958	910.06
427.18	892.06
427.402	886.06
427.625	892.06
427.847	887.06
428.069	881.06
428.292	885.06
428.514	887.06
428.736	850.06
428.958	867.06
429.181	890.06
429.403	863.06
429.625	834.06
429.847	855.06
430.069	840.06
430.292	850.06
430.514	848.06
430.736	857.06
430.958	848.06
431.18	850.06
431.402	875.06
431.624	851.06
431.846	870.06
432.068	855.06
432.29	891.06
432.512	874.06
432.734	890.06
432.956	884.06
433.178	897.06
433.4	855.06
433.622	881.06
433.844	920.06
434.066	875.06
434.287	903.06
434.509	928.06
434.731	933.06
434.953	1011.06
435.175	1013.06
435.397	1006.06
435.618	951.06
435.84	925.06
436.062	905.06
436.284	912.06
436.505	888.06
436.727	871.06
436.949	902.06
437.17	904.06
437.392	887.06
437.614	870.06
437.835	844.06
438.057	840.06
438.278	827.06
438.5	822.06
438.721	856.06
438.943	856.06
439.165	845.06
439.386	861.06
439.608	863.06
439.829	901.06
440.05	873.06
440.272	850.06
440.493	891.06
440.715	900.06
440.936	926.06
441.158	918.06
441.379	975.06
441.6	1018.06
441.822	1022.06
442.043	1004.06
442.264	982.06
442.486	985.06
442.707	999.06
442.928	988.06
443.149	953.06
443.371	965.06
443.592	982.06
443.813	1020.06
444.034	1027.06
444.255	1029.06
444.476	1092.06
444.698	1168.06
444.919	1222.06
445.14	1307.06
445.361	1150.06
445.582	1052.06
445.803	999.06
446.024	955.06
446.245	939.06
446.466	907.06
446.687	875.06
446.908	880.06
447.129	889.06
447.35	839.06
447.571	833.06
447.792	816.06
448.013	825.06
448.234	828.06
448.455	828.06
448.675	841.06
448.896	802.06
449.117	808.06
449.338	822.06
449.559	812.06
449.779	800.06
450	839.06
450.221	805.06
450.442	823.06
450.662	848.06
450.883	837.06
451.104	854.06
451.324	851.06
451.545	868.06
451.766	854.06
451.986	835.06
452.207	845.06
452.428	834.06
452.648	803.06
452.869	828.06
453.089	796.06
453.31	810.06
453.53	772.06
453.751	800.06
453.971	828.06
454.192	793.06
454.412	772.06
454.633	793.06
454.853	798.06
455.073	764.06
455.294	736.06
455.514	748.06
455.734	804.06
455.955	742.06
456.175	768.06
456.395	742.06
456.616	751.06
456.836	756.06
457.056	752.06
457.276	745.06
457.497	731.06
457.717	746.06
457.937	770.06
458.157	770.06
458.377	792.06
458.598	797.06
458.818	793.06
459.038	828.06
459.258	884.06
459.478	918.06
459.698	908.06
459.918	954.06
460.138	967.06
460.358	1012.06
460.578	1059.06
460.798	1066.06
461.018	1060.06
461.238	1066.06
461.458	1027.06
461.678	1046.06
461.898	1042.06
462.118	1048.06
462.338	1122.06
462.558	1170.06
462.777	1150.06
462.997	1310.06
463.217	1452.06
463.437	1470.06
463.657	1361.06
463.876	1266.06
464.096	1219.06
464.316	1257.06
464.536	1275.06
464.755	1239.06
464.975	1147.06
465.195	1099.06
465.414	1036.06
465.634	937.06
465.854	942.06
466.073	887.06
466.293	900.06
466.512	871.06
466.732	857.06
466.951	835.06
467.171	854.06
467.391	853.06
467.61	854.06
467.829	856.06
468.049	846.06
468.268	839.06
468.488	805.06
468.707	821.06
468.927	847.06
469.146	795.06
469.365	834.06
469.585	846.06
469.804	830.06
470.023	880.06
470.243	866.06
470.462	875.06
470.681	905.06
470.901	910.06
471.12	870.06
471.339	859.06
471.558	818.06
471.777	833.06
471.997	833.06
472.216	811.06
472.435	806.06
472.654	825.06
472.873	802.06
473.092	795.06
473.311	789.06
473.53	783.06
473.749	809.06
473.968	782.06
474.187	784.06
474.406	786.06
474.625	812.06
474.844	745.06
475.063	791.06
475.282	780.06
475.501	822.06
475.72	815.06
475.939	797.06
476.158	827.06
476.377	833.06
476.596	836.06
476.814	831.06
477.033	830.06
477.252	863.06
477.471	896.06
477.69	903.06
477.908	924.06
478.127	936.06
478.346	995.06
478.564	960.06
478.783	952.06
479.002	968.06
479.22	1026.06
479.439	1005.06
479.658	984.06
479.876	1003.06
480.095	999.06
480.313	1063.06
480.532	1078.06
480.751	1098.06
480.969	1040.06
481.188	995.06
481.406	980.06
481.624	971.06
481.843	942.06
482.061	914.06
482.28	926.06
482.498	928.06
482.717	903.06
482.935	914.06
483.153	934.06
483.372	888.06
483.59	913.06
483.808	937.06
484.027	906.06
484.245	913.06
484.463	911.06
484.681	959.06
484.9	928.06
485.118	942.06
485.336	929.06
485.554	944.06
485.772	960.06
485.99	953.06
486.209	961.06
486.427	986.06
486.645	977.06
486.863	984.06
487.081	990.06
487.299	993.06
487.517	986.06
487.735	918.06
487.953	947.06
488.171	952.06
488.389	948.06
488.607	917.06
488.825	952.06
489.043	944.06
489.261	942.06
489.479	954.06
489.696	929.06
489.914	954.06
490.132	963.06
490.35	970.06
490.568	944.06
490.786	956.06
491.003	947.06
491.221	956.06
491.439	950.06
491.657	955.06
491.874	937.06
492.092	982.06
492.31	950.06
492.527	966.06
492.745	961.06
492.963	971.06
493.18	1003.06
493.398	971.06
493.615	996.06
493.833	1022.06
494.05	987.06
494.268	986.06
494.485	1039.06
494.703	986.06
494.92	988.06
495.138	1006.06
495.355	988.06
495.573	1029.06
495.79	1014.06
496.008	1026.06
496.225	1008.06
496.442	1063.06
496.66	1046.06
496.877	1024.06
497.094	1082.06
497.312	1072.06
497.529	1101.06
497.746	1116.06
497.963	1155.06
498.181	1200.06
498.398	1213.06
498.615	1331.06
498.832	1414.06
499.049	1540.06
499.267	1639.06
499.484	1819.06
