Data from NiCl2@0.125M.TitratingCurve.Agarose3%dH2O.NegLispCup.LampEnergy10.LIBS07252019_HRD10591_18-28-33-581.txt Node
Date: Thu Jul 25 18:28:33 EDT 2019
User: cochatt
Spectrometer: HR+D1059
Trigger mode: 1
Integration Time (sec): 1.000000E-1
Scans to average: 1
Electric dark correction enabled: true
Nonlinearity correction enabled: false
Boxcar width: 0
XAxis mode: Wavelengths
Number of Pixels in Spectrum: 2048
>>>>>Begin Spectral Data<<<<<
223.165	-22.69
223.4	-22.69
223.635	-22.69
223.869	-11.69
224.104	-8.69
224.338	-20.69
224.573	-11.69
224.808	-6.69
225.042	1.31
225.277	-9.69
225.511	-2.69
225.746	3.31
225.98	1.31
226.215	3.31
226.449	11.31
226.683	26.31
226.918	21.31
227.152	26.31
227.387	35.31
227.621	33.31
227.856	60.31
228.09	48.31
228.324	51.31
228.559	61.31
228.793	72.31
229.027	124.31
229.262	123.31
229.496	119.31
229.73	121.31
229.964	126.31
230.199	148.31
230.433	128.31
230.667	148.31
230.901	155.31
231.136	157.31
231.37	149.31
231.604	157.31
231.838	153.31
232.072	153.31
232.306	161.31
232.541	142.31
232.775	159.31
233.009	161.31
233.243	160.31
233.477	163.31
233.711	147.31
233.945	157.31
234.179	152.31
234.413	173.31
234.647	157.31
234.881	160.31
235.115	169.31
235.349	171.31
235.583	158.31
235.817	170.31
236.051	157.31
236.285	151.31
236.519	165.31
236.753	172.31
236.987	165.31
237.221	175.31
237.455	171.31
237.689	189.31
237.922	178.31
238.156	180.31
238.39	183.31
238.624	171.31
238.858	173.31
239.091	187.31
239.325	187.31
239.559	197.31
239.793	190.31
240.027	193.31
240.26	171.31
240.494	208.31
240.728	205.31
240.961	185.31
241.195	183.31
241.429	203.31
241.662	203.31
241.896	209.31
242.13	200.31
242.363	207.31
242.597	204.31
242.83	202.31
243.064	188.31
243.298	206.31
243.531	206.31
243.765	210.31
243.998	226.31
244.232	212.31
244.465	213.31
244.699	210.31
244.932	224.31
245.166	225.31
245.399	248.31
245.633	223.31
245.866	222.31
246.099	223.31
246.333	232.31
246.566	243.31
246.8	252.31
247.033	229.31
247.266	243.31
247.5	234.31
247.733	241.31
247.966	249.31
248.2	255.31
248.433	248.31
248.666	240.31
248.899	256.31
249.133	264.31
249.366	254.31
249.599	267.31
249.832	264.31
250.066	247.31
250.299	253.31
250.532	257.31
250.765	262.31
250.998	269.31
251.231	280.31
251.465	283.31
251.698	279.31
251.931	277.31
252.164	292.31
252.397	281.31
252.63	288.31
252.863	270.31
253.096	303.31
253.329	304.31
253.562	304.31
253.795	279.31
254.028	302.31
254.261	287.31
254.494	289.31
254.727	291.31
254.96	287.31
255.193	283.31
255.426	288.31
255.659	287.31
255.892	324.31
256.124	311.31
256.357	312.31
256.59	299.31
256.823	313.31
257.056	315.31
257.289	323.31
257.521	311.31
257.754	331.31
257.987	316.31
258.22	310.31
258.452	325.31
258.685	325.31
258.918	330.31
259.151	329.31
259.383	319.31
259.616	311.31
259.849	343.31
260.081	356.31
260.314	328.31
260.547	319.31
260.779	338.31
261.012	333.31
261.244	345.31
261.477	338.31
261.71	350.31
261.942	352.31
262.175	350.31
262.407	344.31
262.64	347.31
262.872	346.31
263.105	369.31
263.337	343.31
263.57	360.31
263.802	346.31
264.035	349.31
264.267	376.31
264.499	381.31
264.732	373.31
264.964	372.31
265.197	358.31
265.429	380.31
265.661	377.31
265.894	375.31
266.126	365.31
266.358	373.31
266.591	389.31
266.823	372.31
267.055	398.31
267.287	377.31
267.52	372.31
267.752	380.31
267.984	381.31
268.216	400.31
268.448	386.31
268.681	387.31
268.913	392.31
269.145	388.31
269.377	388.31
269.609	407.31
269.841	391.31
270.073	388.31
270.306	409.31
270.538	386.31
270.77	392.31
271.002	392.31
271.234	395.31
271.466	411.31
271.698	397.31
271.93	417.31
272.162	412.31
272.394	423.31
272.626	413.31
272.858	412.31
273.09	409.31
273.322	424.31
273.553	436.31
273.785	432.31
274.017	411.31
274.249	424.31
274.481	437.31
274.713	412.31
274.945	410.31
275.176	415.31
275.408	449.31
275.64	441.31
275.872	430.31
276.104	448.31
276.335	433.31
276.567	443.31
276.799	459.31
277.031	447.31
277.262	455.31
277.494	447.31
277.726	457.31
277.957	440.31
278.189	438.31
278.421	430.31
278.652	456.31
278.884	478.31
279.115	461.31
279.347	456.31
279.579	475.31
279.81	471.31
280.042	486.31
280.273	476.31
280.505	467.31
280.736	475.31
280.968	496.31
281.199	485.31
281.431	473.31
281.662	488.31
281.894	499.31
282.125	491.31
282.356	482.31
282.588	492.31
282.819	492.31
283.051	490.31
283.282	512.31
283.513	503.31
283.745	482.31
283.976	517.31
284.207	509.31
284.439	497.31
284.67	508.31
284.901	545.31
285.132	520.31
285.364	515.31
285.595	528.31
285.826	508.31
286.057	526.31
286.288	516.31
286.52	555.31
286.751	567.31
286.982	522.31
287.213	539.31
287.444	545.31
287.675	543.31
287.906	530.31
288.138	531.31
288.369	526.31
288.6	541.31
288.831	537.31
289.062	546.31
289.293	537.31
289.524	541.31
289.755	548.31
289.986	557.31
290.217	557.31
290.448	563.31
290.679	562.31
290.91	555.31
291.141	548.31
291.371	576.31
291.602	574.31
291.833	533.31
292.064	547.31
292.295	539.31
292.526	561.31
292.757	576.31
292.987	547.31
293.218	557.31
293.449	555.31
293.68	555.31
293.91	553.31
294.141	559.31
294.372	570.31
294.603	565.31
294.833	588.31
295.064	560.31
295.295	568.31
295.525	559.31
295.756	552.31
295.987	574.31
296.217	583.31
296.448	585.31
296.679	581.31
296.909	566.31
297.14	597.31
297.37	607.31
297.601	615.31
297.831	595.31
298.062	612.31
298.292	592.31
298.523	632.31
298.753	633.31
298.984	593.31
299.214	605.31
299.445	630.31
299.675	617.31
299.905	623.31
300.136	629.31
300.366	625.31
300.597	641.31
300.827	630.31
301.057	620.31
301.288	635.31
301.518	610.31
301.748	639.31
301.979	659.31
302.209	662.31
302.439	660.31
302.669	626.31
302.9	658.31
303.13	640.31
303.36	632.31
303.59	623.31
303.82	616.31
304.051	652.31
304.281	637.31
304.511	638.31
304.741	631.31
304.971	636.31
305.201	625.31
305.431	643.31
305.661	619.31
305.891	631.31
306.121	624.31
306.352	615.31
306.582	604.31
306.812	593.31
307.042	604.31
307.272	617.31
307.502	612.31
307.731	627.31
307.961	647.31
308.191	629.31
308.421	619.31
308.651	625.31
308.881	607.31
309.111	617.31
309.341	613.31
309.571	604.31
309.8	607.31
310.03	610.31
310.26	625.31
310.49	614.31
310.72	627.31
310.949	627.31
311.179	621.31
311.409	623.31
311.639	627.31
311.868	635.31
312.098	648.31
312.328	615.31
312.557	651.31
312.787	647.31
313.017	637.31
313.246	647.31
313.476	644.31
313.706	649.31
313.935	661.31
314.165	675.31
314.394	668.31
314.624	664.31
314.853	657.31
315.083	662.31
315.312	655.31
315.542	675.31
315.771	636.31
316.001	658.31
316.23	641.31
316.46	623.31
316.689	641.31
316.919	663.31
317.148	638.31
317.377	635.31
317.607	649.31
317.836	633.31
318.065	653.31
318.295	648.31
318.524	638.31
318.753	654.31
318.983	633.31
319.212	621.31
319.441	650.31
319.67	630.31
319.9	649.31
320.129	647.31
320.358	648.31
320.587	639.31
320.816	637.31
321.046	653.31
321.275	652.31
321.504	664.31
321.733	663.31
321.962	649.31
322.191	663.31
322.42	648.31
322.649	676.31
322.878	644.31
323.108	645.31
323.337	654.31
323.566	645.31
323.795	678.31
324.024	677.31
324.253	640.31
324.482	651.31
324.71	657.31
324.939	679.31
325.168	681.31
325.397	661.31
325.626	680.31
325.855	679.31
326.084	704.31
326.313	715.31
326.542	721.31
326.77	724.31
326.999	704.31
327.228	721.31
327.457	677.31
327.686	677.31
327.914	722.31
328.143	691.31
328.372	700.31
328.6	695.31
328.829	705.31
329.058	717.31
329.287	701.31
329.515	704.31
329.744	718.31
329.972	711.31
330.201	722.31
330.43	727.31
330.658	725.31
330.887	725.31
331.115	731.31
331.344	763.31
331.572	742.31
331.801	759.31
332.03	769.31
332.258	806.31
332.486	839.31
332.715	833.31
332.943	860.31
333.172	902.31
333.4	951.31
333.629	945.31
333.857	968.31
334.085	967.31
334.314	959.31
334.542	931.31
334.771	896.31
334.999	886.31
335.227	895.31
335.455	893.31
335.684	881.31
335.912	876.31
336.14	859.31
336.369	836.31
336.597	848.31
336.825	849.31
337.053	839.31
337.281	852.31
337.51	825.31
337.738	807.31
337.966	787.31
338.194	785.31
338.422	789.31
338.65	770.31
338.878	777.31
339.106	757.31
339.334	759.31
339.562	766.31
339.79	753.31
340.018	749.31
340.246	718.31
340.474	728.31
340.702	725.31
340.93	747.31
341.158	735.31
341.386	735.31
341.614	719.31
341.842	729.31
342.07	707.31
342.298	725.31
342.526	729.31
342.754	725.31
342.981	724.31
343.209	748.31
343.437	786.31
343.665	848.31
343.893	890.31
344.12	923.31
344.348	905.31
344.576	851.31
344.804	816.31
345.031	777.31
345.259	771.31
345.487	773.31
345.714	757.31
345.942	742.31
346.17	716.31
346.397	727.31
346.625	712.31
346.853	709.31
347.08	697.31
347.308	707.31
347.535	758.31
347.763	727.31
347.99	724.31
348.218	750.31
348.445	719.31
348.673	735.31
348.9	708.31
349.128	720.31
349.355	740.31
349.583	709.31
349.81	709.31
350.037	699.31
350.265	714.31
350.492	695.31
350.72	695.31
350.947	687.31
351.174	693.31
351.402	693.31
351.629	685.31
351.856	699.31
352.083	672.31
352.311	682.31
352.538	667.31
352.765	702.31
352.992	675.31
353.22	695.31
353.447	691.31
353.674	676.31
353.901	670.31
354.128	665.31
354.355	668.31
354.583	683.31
354.81	674.31
355.037	688.31
355.264	672.31
355.491	680.31
355.718	677.31
355.945	680.31
356.172	677.31
356.399	714.31
356.626	718.31
356.853	698.31
357.08	704.31
357.307	687.31
357.534	695.31
357.761	699.31
357.988	701.31
358.215	673.31
358.441	712.31
358.668	683.31
358.895	679.31
359.122	698.31
359.349	685.31
359.576	700.31
359.802	676.31
360.029	680.31
360.256	701.31
360.483	688.31
360.709	703.31
360.936	681.31
361.163	697.31
361.39	703.31
361.616	696.31
361.843	686.31
362.07	701.31
362.296	679.31
362.523	671.31
362.749	686.31
362.976	673.31
363.203	688.31
363.429	686.31
363.656	670.31
363.882	681.31
364.109	690.31
364.335	685.31
364.562	686.31
364.788	699.31
365.015	685.31
365.241	692.31
365.468	671.31
365.694	667.31
365.92	692.31
366.147	679.31
366.373	671.31
366.599	682.31
366.826	684.31
367.052	667.31
367.278	657.31
367.505	692.31
367.731	677.31
367.957	688.31
368.184	695.31
368.41	690.31
368.636	707.31
368.862	707.31
369.089	735.31
369.315	711.31
369.541	699.31
369.767	719.31
369.993	715.31
370.219	708.31
370.445	705.31
370.672	730.31
370.898	730.31
371.124	748.31
371.35	733.31
371.576	762.31
371.802	747.31
372.028	745.31
372.254	749.31
372.48	757.31
372.706	752.31
372.932	785.31
373.158	801.31
373.384	766.31
373.61	735.31
373.835	743.31
374.061	733.31
374.287	739.31
374.513	748.31
374.739	777.31
374.965	804.31
375.191	858.31
375.416	838.31
375.642	827.31
375.868	784.31
376.094	775.31
376.319	791.31
376.545	782.31
376.771	753.31
376.997	734.31
377.222	769.31
377.448	755.31
377.674	748.31
377.899	736.31
378.125	744.31
378.35	734.31
378.576	708.31
378.802	715.31
379.027	728.31
379.253	729.31
379.478	742.31
379.704	736.31
379.929	750.31
380.155	732.31
380.38	723.31
380.606	753.31
380.831	710.31
381.057	753.31
381.282	756.31
381.507	729.31
381.733	764.31
381.958	758.31
382.184	755.31
382.409	760.31
382.634	758.31
382.86	778.31
383.085	784.31
383.31	815.31
383.535	787.31
383.761	833.31
383.986	843.31
384.211	869.31
384.436	897.31
384.662	895.31
384.887	887.31
385.112	893.31
385.337	897.31
385.562	922.31
385.787	922.31
386.013	943.31
386.238	934.31
386.463	927.31
386.688	908.31
386.913	903.31
387.138	898.31
387.363	908.31
387.588	900.31
387.813	917.31
388.038	885.31
388.263	914.31
388.488	907.31
388.713	885.31
388.938	880.31
389.163	845.31
389.387	888.31
389.612	903.31
389.837	891.31
390.062	877.31
390.287	877.31
390.512	883.31
390.736	923.31
390.961	907.31
391.186	910.31
391.411	942.31
391.636	954.31
391.86	1021.31
392.085	1032.31
392.31	1055.31
392.534	985.31
392.759	984.31
392.984	940.31
393.208	922.31
393.433	937.31
393.658	935.31
393.882	965.31
394.107	957.31
394.331	953.31
394.556	969.31
394.78	976.31
395.005	986.31
395.229	976.31
395.454	989.31
395.678	1011.31
395.903	1000.31
396.127	985.31
396.352	977.31
396.576	966.31
396.801	955.31
397.025	968.31
397.249	986.31
397.474	1019.31
397.698	985.31
397.922	1031.31
398.147	1003.31
398.371	1017.31
398.595	1063.31
398.82	1116.31
399.044	1219.31
399.268	1322.31
399.492	1516.31
399.717	1747.31
399.941	1765.31
400.165	1553.31
400.389	1420.31
400.613	1295.31
400.837	1212.31
401.062	1179.31
401.286	1134.31
401.51	1115.31
401.734	1119.31
401.958	1162.31
402.182	1141.31
402.406	1185.31
402.63	1189.31
402.854	1228.31
403.078	1220.31
403.302	1256.31
403.526	1277.31
403.75	1307.31
403.974	1296.31
404.198	1335.31
404.422	1332.31
404.645	1316.31
404.869	1276.31
405.093	1337.31
405.317	1259.31
405.541	1262.31
405.765	1239.31
405.988	1239.31
406.212	1253.31
406.436	1251.31
406.66	1287.31
406.883	1297.31
407.107	1366.31
407.331	1444.31
407.555	1471.31
407.778	1481.31
408.002	1448.31
408.226	1413.31
408.449	1364.31
408.673	1317.31
408.896	1293.31
409.12	1319.31
409.344	1283.31
409.567	1288.31
409.791	1331.31
410.014	1271.31
410.238	1272.31
410.461	1292.31
410.685	1262.31
410.908	1239.31
411.132	1201.31
411.355	1167.31
411.578	1208.31
411.802	1173.31
412.025	1180.31
412.249	1220.31
412.472	1189.31
412.695	1139.31
412.919	1135.31
413.142	1129.31
413.365	1130.31
413.589	1134.31
413.812	1138.31
414.035	1108.31
414.258	1105.31
414.482	1145.31
414.705	1180.31
414.928	1135.31
415.151	1153.31
415.374	1175.31
415.597	1119.31
415.821	1134.31
416.044	1101.31
416.267	1089.31
416.49	1085.31
416.713	1085.31
416.936	1124.31
417.159	1107.31
417.382	1100.31
417.605	1097.31
417.828	1135.31
418.051	1157.31
418.274	1104.31
418.497	1119.31
418.72	1151.31
418.943	1191.31
419.166	1229.31
419.389	1291.31
419.611	1311.31
419.834	1225.31
420.057	1211.31
420.28	1159.31
420.503	1122.31
420.726	1122.31
420.948	1095.31
421.171	1107.31
421.394	1113.31
421.617	1127.31
421.839	1129.31
422.062	1117.31
422.285	1140.31
422.507	1148.31
422.73	1144.31
422.953	1167.31
423.175	1191.31
423.398	1229.31
423.621	1197.31
423.843	1233.31
424.066	1192.31
424.288	1187.31
424.511	1203.31
424.733	1191.31
424.956	1155.31
425.178	1167.31
425.401	1156.31
425.623	1147.31
425.846	1107.31
426.068	1099.31
426.291	1093.31
426.513	1079.31
426.735	1053.31
426.958	1062.31
427.18	1019.31
427.402	1043.31
427.625	1060.31
427.847	1048.31
428.069	1002.31
428.292	1017.31
428.514	1039.31
428.736	990.31
428.958	1023.31
429.181	983.31
429.403	978.31
429.625	977.31
429.847	1008.31
430.069	991.31
430.292	995.31
430.514	985.31
430.736	1001.31
430.958	988.31
431.18	965.31
431.402	971.31
431.624	999.31
431.846	1002.31
432.068	1017.31
432.29	1038.31
432.512	997.31
432.734	976.31
432.956	983.31
433.178	1024.31
433.4	997.31
433.622	1015.31
433.844	1022.31
434.066	1019.31
434.287	1065.31
434.509	1078.31
434.731	1097.31
434.953	1132.31
435.175	1173.31
435.397	1139.31
435.618	1069.31
435.84	1043.31
436.062	1043.31
436.284	1025.31
436.505	995.31
436.727	1062.31
436.949	1035.31
437.17	1016.31
437.392	1009.31
437.614	984.31
437.835	965.31
438.057	963.31
438.278	955.31
438.5	975.31
438.721	1009.31
438.943	991.31
439.165	975.31
439.386	984.31
439.608	1016.31
439.829	1001.31
440.05	1030.31
440.272	1025.31
440.493	1037.31
440.715	1046.31
440.936	1040.31
441.158	1087.31
441.379	1093.31
441.6	1153.31
441.822	1145.31
442.043	1177.31
442.264	1147.31
442.486	1083.31
442.707	1131.31
442.928	1129.31
443.149	1111.31
443.371	1115.31
443.592	1147.31
443.813	1139.31
444.034	1173.31
444.255	1186.31
444.476	1246.31
444.698	1343.31
444.919	1391.31
445.14	1471.31
445.361	1299.31
445.582	1225.31
445.803	1123.31
446.024	1053.31
446.245	1075.31
446.466	1084.31
446.687	1025.31
446.908	1052.31
447.129	1016.31
447.35	994.31
447.571	1026.31
447.792	974.31
448.013	974.31
448.234	947.31
448.455	944.31
448.675	967.31
448.896	949.31
449.117	935.31
449.338	937.31
449.559	912.31
449.779	919.31
450	912.31
450.221	917.31
450.442	929.31
450.662	944.31
450.883	956.31
451.104	986.31
451.324	960.31
451.545	940.31
451.766	970.31
451.986	958.31
452.207	944.31
452.428	931.31
452.648	955.31
452.869	921.31
453.089	891.31
453.31	945.31
453.53	933.31
453.751	913.31
453.971	886.31
454.192	897.31
454.412	890.31
454.633	905.31
454.853	907.31
455.073	888.31
455.294	886.31
455.514	878.31
455.734	897.31
455.955	883.31
456.175	871.31
456.395	901.31
456.616	867.31
456.836	870.31
457.056	889.31
457.276	853.31
457.497	899.31
457.717	892.31
457.937	870.31
458.157	893.31
458.377	905.31
458.598	913.31
458.818	930.31
459.038	969.31
459.258	980.31
459.478	1039.31
459.698	1061.31
459.918	1112.31
460.138	1119.31
460.358	1182.31
460.578	1206.31
460.798	1205.31
461.018	1248.31
461.238	1227.31
461.458	1217.31
461.678	1214.31
461.898	1236.31
462.118	1216.31
462.338	1292.31
462.558	1351.31
462.777	1376.31
462.997	1542.31
463.217	1639.31
463.437	1676.31
463.657	1541.31
463.876	1462.31
464.096	1454.31
464.316	1434.31
464.536	1437.31
464.755	1399.31
464.975	1355.31
465.195	1275.31
465.414	1212.31
465.634	1125.31
465.854	1100.31
466.073	1059.31
466.293	1045.31
466.512	1023.31
466.732	1016.31
466.951	1029.31
467.171	976.31
467.391	984.31
467.61	980.31
467.829	1008.31
468.049	977.31
468.268	961.31
468.488	956.31
468.707	950.31
468.927	962.31
469.146	943.31
469.365	959.31
469.585	967.31
469.804	956.31
470.023	987.31
470.243	1013.31
470.462	1020.31
470.681	1006.31
470.901	1019.31
471.12	1020.31
471.339	1008.31
471.558	969.31
471.777	963.31
471.997	957.31
472.216	964.31
472.435	943.31
472.654	944.31
472.873	891.31
473.092	911.31
473.311	940.31
473.53	930.31
473.749	919.31
473.968	921.31
474.187	939.31
474.406	920.31
474.625	915.31
474.844	911.31
475.063	926.31
475.282	915.31
475.501	934.31
475.72	947.31
475.939	946.31
476.158	940.31
476.377	960.31
476.596	967.31
476.814	961.31
477.033	1007.31
477.252	1025.31
477.471	1011.31
477.69	1039.31
477.908	1067.31
478.127	1102.31
478.346	1101.31
478.564	1128.31
478.783	1130.31
479.002	1173.31
479.22	1171.31
479.439	1145.31
479.658	1196.31
479.876	1133.31
480.095	1173.31
480.313	1229.31
480.532	1243.31
480.751	1226.31
480.969	1185.31
481.188	1146.31
481.406	1111.31
481.624	1054.31
481.843	1091.31
482.061	1081.31
482.28	1059.31
482.498	1031.31
482.717	1008.31
482.935	1033.31
483.153	1065.31
483.372	1046.31
483.59	1071.31
483.808	1029.31
484.027	1060.31
484.245	1063.31
484.463	1042.31
484.681	1061.31
484.9	1070.31
485.118	1085.31
485.336	1085.31
485.554	1099.31
485.772	1097.31
485.99	1139.31
486.209	1131.31
486.427	1127.31
486.645	1159.31
486.863	1129.31
487.081	1120.31
487.299	1101.31
487.517	1109.31
487.735	1118.31
487.953	1121.31
488.171	1084.31
488.389	1113.31
488.607	1067.31
488.825	1088.31
489.043	1083.31
489.261	1083.31
489.479	1092.31
489.696	1068.31
489.914	1089.31
490.132	1107.31
490.35	1125.31
490.568	1095.31
490.786	1107.31
491.003	1151.31
491.221	1121.31
491.439	1095.31
491.657	1118.31
491.874	1121.31
492.092	1131.31
492.31	1125.31
492.527	1112.31
492.745	1142.31
492.963	1125.31
493.18	1120.31
493.398	1133.31
493.615	1123.31
493.833	1178.31
494.05	1160.31
494.268	1169.31
494.485	1184.31
494.703	1152.31
494.92	1223.31
495.138	1164.31
495.355	1205.31
495.573	1194.31
495.79	1173.31
496.008	1173.31
496.225	1194.31
496.442	1228.31
496.66	1246.31
496.877	1246.31
497.094	1254.31
