Data from NiCl2@0.25M.TitratingCurve.Agarose3%dH2O.NegLispCup.LampEnergy10.LIBS07252019_HRD10591_18-23-03-573.txt Node
Date: Thu Jul 25 18:23:03 EDT 2019
User: cochatt
Spectrometer: HR+D1059
Trigger mode: 1
Integration Time (sec): 1.000000E-1
Scans to average: 1
Electric dark correction enabled: true
Nonlinearity correction enabled: false
Boxcar width: 0
XAxis mode: Wavelengths
Number of Pixels in Spectrum: 2048
>>>>>Begin Spectral Data<<<<<
223.165	-12.44
223.4	-12.44
223.635	-12.44
223.869	-16.44
224.104	-11.44
224.338	-18.44
224.573	-15.44
224.808	-1.44
225.042	-10.44
225.277	-13.44
225.511	-2.44
225.746	-5.44
225.98	1.56
226.215	16.56
226.449	16.56
226.683	20.56
226.918	29.56
227.152	22.56
227.387	26.56
227.621	49.56
227.856	42.56
228.09	41.56
228.324	48.56
228.559	70.56
228.793	72.56
229.027	84.56
229.262	89.56
229.496	110.56
229.73	107.56
229.964	114.56
230.199	116.56
230.433	115.56
230.667	108.56
230.901	119.56
231.136	124.56
231.37	113.56
231.604	121.56
231.838	131.56
232.072	133.56
232.306	127.56
232.541	143.56
232.775	128.56
233.009	128.56
233.243	129.56
233.477	122.56
233.711	124.56
233.945	124.56
234.179	121.56
234.413	132.56
234.647	133.56
234.881	110.56
235.115	126.56
235.349	120.56
235.583	127.56
235.817	114.56
236.051	129.56
236.285	145.56
236.519	124.56
236.753	125.56
236.987	116.56
237.221	124.56
237.455	133.56
237.689	121.56
237.922	118.56
238.156	126.56
238.39	122.56
238.624	141.56
238.858	126.56
239.091	128.56
239.325	128.56
239.559	140.56
239.793	138.56
240.027	130.56
240.26	135.56
240.494	146.56
240.728	147.56
240.961	138.56
241.195	144.56
241.429	137.56
241.662	153.56
241.896	157.56
242.13	141.56
242.363	152.56
242.597	161.56
242.83	146.56
243.064	151.56
243.298	148.56
243.531	141.56
243.765	151.56
243.998	159.56
244.232	159.56
244.465	156.56
244.699	164.56
244.932	169.56
245.166	168.56
245.399	169.56
245.633	155.56
245.866	164.56
246.099	152.56
246.333	157.56
246.566	181.56
246.8	173.56
247.033	166.56
247.266	181.56
247.5	162.56
247.733	173.56
247.966	164.56
248.2	187.56
248.433	163.56
248.666	170.56
248.899	186.56
249.133	172.56
249.366	182.56
249.599	173.56
249.832	190.56
250.066	178.56
250.299	176.56
250.532	186.56
250.765	176.56
250.998	190.56
251.231	198.56
251.465	181.56
251.698	198.56
251.931	189.56
252.164	210.56
252.397	204.56
252.63	201.56
252.863	204.56
253.096	212.56
253.329	201.56
253.562	202.56
253.795	200.56
254.028	203.56
254.261	198.56
254.494	204.56
254.727	202.56
254.96	221.56
255.193	216.56
255.426	217.56
255.659	205.56
255.892	206.56
256.124	215.56
256.357	186.56
256.59	208.56
256.823	224.56
257.056	219.56
257.289	214.56
257.521	208.56
257.754	219.56
257.987	213.56
258.22	225.56
258.452	212.56
258.685	207.56
258.918	214.56
259.151	205.56
259.383	214.56
259.616	248.56
259.849	217.56
260.081	225.56
260.314	257.56
260.547	221.56
260.779	237.56
261.012	236.56
261.244	229.56
261.477	237.56
261.71	229.56
261.942	229.56
262.175	236.56
262.407	232.56
262.64	213.56
262.872	232.56
263.105	219.56
263.337	228.56
263.57	238.56
263.802	260.56
264.035	245.56
264.267	245.56
264.499	240.56
264.732	252.56
264.964	249.56
265.197	248.56
265.429	241.56
265.661	249.56
265.894	259.56
266.126	250.56
266.358	254.56
266.591	243.56
266.823	240.56
267.055	237.56
267.287	249.56
267.52	267.56
267.752	234.56
267.984	256.56
268.216	259.56
268.448	276.56
268.681	267.56
268.913	252.56
269.145	276.56
269.377	270.56
269.609	260.56
269.841	268.56
270.073	283.56
270.306	270.56
270.538	261.56
270.77	273.56
271.002	280.56
271.234	298.56
271.466	273.56
271.698	261.56
271.93	265.56
272.162	270.56
272.394	271.56
272.626	269.56
272.858	276.56
273.09	276.56
273.322	296.56
273.553	283.56
273.785	292.56
274.017	290.56
274.249	298.56
274.481	285.56
274.713	312.56
274.945	293.56
275.176	282.56
275.408	292.56
275.64	284.56
275.872	288.56
276.104	304.56
276.335	317.56
276.567	309.56
276.799	279.56
277.031	299.56
277.262	285.56
277.494	300.56
277.726	304.56
277.957	300.56
278.189	312.56
278.421	306.56
278.652	307.56
278.884	294.56
279.115	314.56
279.347	320.56
279.579	310.56
279.81	307.56
280.042	316.56
280.273	321.56
280.505	312.56
280.736	328.56
280.968	330.56
281.199	299.56
281.431	314.56
281.662	311.56
281.894	334.56
282.125	311.56
282.356	329.56
282.588	326.56
282.819	328.56
283.051	344.56
283.282	338.56
283.513	332.56
283.745	343.56
283.976	326.56
284.207	317.56
284.439	337.56
284.67	341.56
284.901	367.56
285.132	337.56
285.364	350.56
285.595	346.56
285.826	362.56
286.057	359.56
286.288	358.56
286.52	351.56
286.751	333.56
286.982	355.56
287.213	360.56
287.444	361.56
287.675	369.56
287.906	364.56
288.138	371.56
288.369	370.56
288.6	362.56
288.831	380.56
289.062	348.56
289.293	355.56
289.524	354.56
289.755	362.56
289.986	375.56
290.217	363.56
290.448	360.56
290.679	384.56
290.91	376.56
291.141	369.56
291.371	373.56
291.602	355.56
291.833	350.56
292.064	368.56
292.295	378.56
292.526	374.56
292.757	370.56
292.987	380.56
293.218	367.56
293.449	370.56
293.68	364.56
293.91	361.56
294.141	386.56
294.372	380.56
294.603	349.56
294.833	374.56
295.064	384.56
295.295	379.56
295.525	390.56
295.756	392.56
295.987	382.56
296.217	374.56
296.448	376.56
296.679	388.56
296.909	374.56
297.14	394.56
297.37	386.56
297.601	368.56
297.831	403.56
298.062	406.56
298.292	398.56
298.523	411.56
298.753	427.56
298.984	417.56
299.214	397.56
299.445	411.56
299.675	402.56
299.905	408.56
300.136	411.56
300.366	428.56
300.597	413.56
300.827	436.56
301.057	408.56
301.288	422.56
301.518	410.56
301.748	411.56
301.979	433.56
302.209	402.56
302.439	417.56
302.669	417.56
302.9	444.56
303.13	408.56
303.36	422.56
303.59	426.56
303.82	406.56
304.051	408.56
304.281	416.56
304.511	417.56
304.741	436.56
304.971	446.56
305.201	412.56
305.431	406.56
305.661	428.56
305.891	418.56
306.121	404.56
306.352	413.56
306.582	425.56
306.812	417.56
307.042	410.56
307.272	404.56
307.502	429.56
307.731	413.56
307.961	420.56
308.191	412.56
308.421	418.56
308.651	417.56
308.881	399.56
309.111	403.56
309.341	418.56
309.571	440.56
309.8	426.56
310.03	422.56
310.26	423.56
310.49	417.56
310.72	417.56
310.949	409.56
311.179	417.56
311.409	415.56
311.639	409.56
311.868	420.56
312.098	440.56
312.328	428.56
312.557	440.56
312.787	440.56
313.017	438.56
313.246	449.56
313.476	442.56
313.706	467.56
313.935	438.56
314.165	444.56
314.394	428.56
314.624	446.56
314.853	443.56
315.083	433.56
315.312	438.56
315.542	446.56
315.771	422.56
316.001	425.56
316.23	412.56
316.46	434.56
316.689	459.56
316.919	441.56
317.148	455.56
317.377	452.56
317.607	445.56
317.836	439.56
318.065	467.56
318.295	445.56
318.524	456.56
318.753	443.56
318.983	453.56
319.212	436.56
319.441	448.56
319.67	443.56
319.9	453.56
320.129	442.56
320.358	433.56
320.587	440.56
320.816	452.56
321.046	462.56
321.275	457.56
321.504	429.56
321.733	437.56
321.962	450.56
322.191	457.56
322.42	451.56
322.649	445.56
322.878	437.56
323.108	463.56
323.337	468.56
323.566	462.56
323.795	480.56
324.024	454.56
324.253	466.56
324.482	456.56
324.71	465.56
324.939	474.56
325.168	460.56
325.397	471.56
325.626	468.56
325.855	482.56
326.084	481.56
326.313	485.56
326.542	477.56
326.77	485.56
326.999	461.56
327.228	478.56
327.457	491.56
327.686	481.56
327.914	473.56
328.143	483.56
328.372	493.56
328.6	483.56
328.829	483.56
329.058	494.56
329.287	476.56
329.515	491.56
329.744	480.56
329.972	484.56
330.201	502.56
330.43	496.56
330.658	498.56
330.887	506.56
331.115	515.56
331.344	520.56
331.572	523.56
331.801	532.56
332.03	518.56
332.258	520.56
332.486	573.56
332.715	583.56
332.943	594.56
333.172	603.56
333.4	628.56
333.629	637.56
333.857	624.56
334.085	632.56
334.314	615.56
334.542	604.56
334.771	612.56
334.999	600.56
335.227	598.56
335.455	604.56
335.684	600.56
335.912	612.56
336.14	598.56
336.369	576.56
336.597	604.56
336.825	612.56
337.053	593.56
337.281	572.56
337.51	562.56
337.738	549.56
337.966	535.56
338.194	553.56
338.422	535.56
338.65	567.56
338.878	530.56
339.106	545.56
339.334	534.56
339.562	541.56
339.79	539.56
340.018	522.56
340.246	514.56
340.474	520.56
340.702	515.56
340.93	527.56
341.158	545.56
341.386	507.56
341.614	499.56
341.842	531.56
342.07	512.56
342.298	524.56
342.526	522.56
342.754	516.56
342.981	536.56
343.209	499.56
343.437	549.56
343.665	562.56
343.893	601.56
344.12	601.56
344.348	596.56
344.576	546.56
344.804	570.56
345.031	527.56
345.259	526.56
345.487	539.56
345.714	519.56
345.942	536.56
346.17	517.56
346.397	528.56
346.625	488.56
346.853	516.56
347.08	499.56
347.308	505.56
347.535	513.56
347.763	491.56
347.99	477.56
348.218	481.56
348.445	516.56
348.673	483.56
348.9	493.56
349.128	530.56
349.355	504.56
349.583	509.56
349.81	496.56
350.037	486.56
350.265	497.56
350.492	502.56
350.72	472.56
350.947	485.56
351.174	488.56
351.402	496.56
351.629	473.56
351.856	482.56
352.083	479.56
352.311	499.56
352.538	498.56
352.765	487.56
352.992	484.56
353.22	460.56
353.447	489.56
353.674	488.56
353.901	483.56
354.128	482.56
354.355	475.56
354.583	482.56
354.81	486.56
355.037	498.56
355.264	469.56
355.491	477.56
355.718	467.56
355.945	462.56
356.172	479.56
356.399	482.56
356.626	477.56
356.853	481.56
357.08	486.56
357.307	471.56
357.534	468.56
357.761	469.56
357.988	481.56
358.215	473.56
358.441	485.56
358.668	480.56
358.895	497.56
359.122	493.56
359.349	481.56
359.576	480.56
359.802	484.56
360.029	496.56
360.256	491.56
360.483	492.56
360.709	489.56
360.936	498.56
361.163	487.56
361.39	476.56
361.616	487.56
361.843	477.56
362.07	496.56
362.296	496.56
362.523	467.56
362.749	492.56
362.976	486.56
363.203	467.56
363.429	465.56
363.656	484.56
363.882	483.56
364.109	489.56
364.335	454.56
364.562	469.56
364.788	482.56
365.015	500.56
365.241	483.56
365.468	482.56
365.694	471.56
365.92	470.56
366.147	469.56
366.373	497.56
366.599	511.56
366.826	467.56
367.052	477.56
367.278	489.56
367.505	480.56
367.731	479.56
367.957	499.56
368.184	472.56
368.41	497.56
368.636	485.56
368.862	512.56
369.089	502.56
369.315	498.56
369.541	483.56
369.767	517.56
369.993	501.56
370.219	488.56
370.445	505.56
370.672	517.56
370.898	497.56
371.124	512.56
371.35	544.56
371.576	514.56
371.802	529.56
372.028	505.56
372.254	509.56
372.48	511.56
372.706	544.56
372.932	537.56
373.158	542.56
373.384	539.56
373.61	486.56
373.835	513.56
374.061	532.56
374.287	520.56
374.513	530.56
374.739	553.56
374.965	563.56
375.191	590.56
375.416	563.56
375.642	549.56
375.868	532.56
376.094	547.56
376.319	557.56
376.545	560.56
376.771	537.56
376.997	530.56
377.222	514.56
377.448	521.56
377.674	529.56
377.899	525.56
378.125	525.56
378.35	503.56
378.576	497.56
378.802	516.56
379.027	516.56
379.253	513.56
379.478	494.56
379.704	514.56
379.929	524.56
380.155	506.56
380.38	512.56
380.606	512.56
380.831	507.56
381.057	510.56
381.282	509.56
381.507	523.56
381.733	537.56
381.958	538.56
382.184	523.56
382.409	533.56
382.634	548.56
382.86	560.56
383.085	557.56
383.31	565.56
383.535	571.56
383.761	561.56
383.986	583.56
384.211	592.56
384.436	592.56
384.662	610.56
384.887	597.56
385.112	593.56
385.337	617.56
385.562	604.56
385.787	616.56
386.013	597.56
386.238	629.56
386.463	598.56
386.688	621.56
386.913	619.56
387.138	620.56
387.363	607.56
387.588	624.56
387.813	611.56
388.038	616.56
388.263	611.56
388.488	596.56
388.713	597.56
388.938	602.56
389.163	604.56
389.387	633.56
389.612	594.56
389.837	582.56
390.062	596.56
390.287	606.56
390.512	622.56
390.736	606.56
390.961	643.56
391.186	649.56
391.411	644.56
391.636	646.56
391.86	696.56
392.085	673.56
392.31	671.56
392.534	677.56
392.759	670.56
392.984	634.56
393.208	611.56
393.433	651.56
393.658	648.56
393.882	633.56
394.107	652.56
394.331	664.56
394.556	668.56
394.78	655.56
395.005	651.56
395.229	636.56
395.454	676.56
395.678	694.56
395.903	681.56
396.127	670.56
396.352	648.56
396.576	626.56
396.801	644.56
397.025	666.56
397.249	662.56
397.474	669.56
397.698	680.56
397.922	696.56
398.147	699.56
398.371	699.56
398.595	714.56
398.82	754.56
399.044	801.56
399.268	876.56
399.492	1014.56
399.717	1083.56
399.941	1075.56
400.165	967.56
400.389	897.56
400.613	843.56
400.837	788.56
401.062	758.56
401.286	797.56
401.51	739.56
401.734	769.56
401.958	756.56
402.182	778.56
402.406	787.56
402.63	800.56
402.854	809.56
403.078	817.56
403.302	818.56
403.526	808.56
403.75	829.56
403.974	872.56
404.198	858.56
404.422	873.56
404.645	827.56
404.869	860.56
405.093	868.56
405.317	837.56
405.541	837.56
405.765	849.56
405.988	827.56
406.212	851.56
406.436	813.56
406.66	880.56
406.883	884.56
407.107	888.56
407.331	922.56
407.555	958.56
407.778	960.56
408.002	923.56
408.226	902.56
408.449	927.56
408.673	875.56
408.896	852.56
409.12	840.56
409.344	849.56
409.567	828.56
409.791	844.56
410.014	844.56
410.238	867.56
410.461	868.56
410.685	855.56
410.908	850.56
411.132	813.56
411.355	830.56
411.578	803.56
411.802	783.56
412.025	810.56
412.249	798.56
412.472	791.56
412.695	784.56
412.919	769.56
413.142	762.56
413.365	785.56
413.589	783.56
413.812	747.56
414.035	757.56
414.258	748.56
414.482	772.56
414.705	783.56
414.928	772.56
415.151	771.56
415.374	769.56
415.597	769.56
415.821	764.56
416.044	761.56
416.267	742.56
416.49	768.56
416.713	746.56
416.936	757.56
417.159	747.56
417.382	761.56
417.605	766.56
417.828	727.56
418.051	766.56
418.274	748.56
418.497	739.56
418.72	793.56
418.943	792.56
419.166	808.56
419.389	851.56
419.611	834.56
419.834	818.56
420.057	792.56
420.28	759.56
420.503	748.56
420.726	765.56
420.948	746.56
421.171	752.56
421.394	757.56
421.617	749.56
421.839	766.56
422.062	765.56
422.285	744.56
422.507	755.56
422.73	746.56
422.953	776.56
423.175	760.56
423.398	783.56
423.621	803.56
423.843	761.56
424.066	787.56
424.288	815.56
424.511	792.56
424.733	750.56
424.956	770.56
425.178	737.56
425.401	735.56
425.623	758.56
425.846	733.56
426.068	724.56
426.291	736.56
426.513	737.56
426.735	713.56
426.958	698.56
427.18	705.56
427.402	692.56
427.625	690.56
427.847	674.56
428.069	686.56
428.292	678.56
428.514	676.56
428.736	666.56
428.958	694.56
429.181	664.56
429.403	669.56
429.625	672.56
429.847	681.56
430.069	673.56
430.292	678.56
430.514	678.56
430.736	655.56
430.958	656.56
431.18	682.56
431.402	674.56
431.624	673.56
431.846	666.56
432.068	677.56
432.29	714.56
432.512	680.56
432.734	662.56
432.956	664.56
433.178	680.56
433.4	686.56
433.622	683.56
433.844	721.56
434.066	683.56
434.287	704.56
434.509	714.56
434.731	731.56
434.953	745.56
435.175	749.56
435.397	757.56
435.618	706.56
435.84	720.56
436.062	708.56
436.284	674.56
436.505	671.56
436.727	712.56
436.949	688.56
437.17	688.56
437.392	666.56
437.614	647.56
437.835	648.56
438.057	644.56
438.278	634.56
438.5	656.56
438.721	639.56
438.943	668.56
439.165	663.56
439.386	657.56
439.608	660.56
439.829	699.56
440.05	664.56
440.272	656.56
440.493	684.56
440.715	666.56
440.936	694.56
441.158	691.56
441.379	737.56
441.6	760.56
441.822	747.56
442.043	749.56
442.264	717.56
442.486	713.56
442.707	741.56
442.928	742.56
443.149	717.56
443.371	758.56
443.592	739.56
443.813	758.56
444.034	777.56
444.255	790.56
444.476	826.56
444.698	836.56
444.919	885.56
445.14	982.56
445.361	877.56
445.582	778.56
445.803	727.56
446.024	716.56
446.245	691.56
446.466	696.56
446.687	688.56
446.908	688.56
447.129	654.56
447.35	653.56
447.571	666.56
447.792	653.56
448.013	633.56
448.234	646.56
448.455	625.56
448.675	632.56
448.896	619.56
449.117	632.56
449.338	624.56
449.559	616.56
449.779	664.56
450	633.56
450.221	600.56
450.442	639.56
450.662	640.56
450.883	628.56
451.104	636.56
451.324	640.56
451.545	631.56
451.766	620.56
451.986	612.56
452.207	621.56
452.428	606.56
452.648	605.56
452.869	612.56
453.089	589.56
453.31	606.56
453.53	600.56
453.751	613.56
453.971	594.56
454.192	608.56
454.412	586.56
454.633	588.56
454.853	584.56
455.073	579.56
455.294	590.56
455.514	587.56
455.734	574.56
455.955	609.56
456.175	580.56
456.395	601.56
456.616	571.56
456.836	590.56
457.056	589.56
457.276	582.56
457.497	588.56
457.717	571.56
457.937	605.56
458.157	583.56
458.377	603.56
458.598	636.56
458.818	632.56
459.038	637.56
459.258	661.56
459.478	697.56
459.698	705.56
459.918	713.56
460.138	733.56
460.358	734.56
460.578	754.56
460.798	775.56
461.018	808.56
461.238	787.56
461.458	781.56
461.678	794.56
461.898	787.56
462.118	813.56
462.338	821.56
462.558	845.56
462.777	876.56
462.997	931.56
463.217	1013.56
463.437	1032.56
463.657	944.56
463.876	908.56
464.096	920.56
464.316	888.56
464.536	881.56
464.755	872.56
464.975	838.56
465.195	796.56
465.414	762.56
465.634	717.56
465.854	708.56
466.073	725.56
466.293	693.56
466.512	669.56
466.732	663.56
466.951	650.56
467.171	657.56
467.391	649.56
467.61	671.56
467.829	654.56
468.049	646.56
468.268	627.56
468.488	620.56
468.707	627.56
468.927	627.56
469.146	617.56
469.365	642.56
469.585	636.56
469.804	650.56
470.023	677.56
470.243	657.56
470.462	685.56
470.681	698.56
470.901	655.56
471.12	651.56
471.339	664.56
471.558	652.56
471.777	643.56
471.997	643.56
472.216	665.56
472.435	645.56
472.654	639.56
472.873	602.56
473.092	616.56
473.311	602.56
473.53	587.56
473.749	629.56
473.968	631.56
474.187	628.56
474.406	607.56
474.625	625.56
474.844	599.56
475.063	640.56
475.282	625.56
475.501	655.56
475.72	653.56
475.939	646.56
476.158	639.56
476.377	656.56
476.596	634.56
476.814	664.56
477.033	649.56
477.252	663.56
477.471	666.56
477.69	712.56
477.908	717.56
478.127	722.56
478.346	746.56
478.564	748.56
478.783	716.56
479.002	778.56
479.22	764.56
479.439	778.56
479.658	732.56
479.876	754.56
480.095	746.56
480.313	800.56
480.532	808.56
480.751	808.56
480.969	759.56
481.188	747.56
481.406	732.56
481.624	732.56
481.843	724.56
482.061	705.56
482.28	715.56
482.498	690.56
482.717	678.56
482.935	708.56
483.153	710.56
483.372	691.56
483.59	692.56
483.808	692.56
484.027	718.56
484.245	708.56
484.463	714.56
484.681	733.56
484.9	718.56
485.118	755.56
485.336	737.56
485.554	755.56
485.772	745.56
485.99	747.56
486.209	733.56
486.427	754.56
486.645	731.56
486.863	760.56
487.081	726.56
487.299	726.56
487.517	736.56
487.735	760.56
487.953	732.56
488.171	728.56
488.389	707.56
488.607	715.56
488.825	736.56
489.043	727.56
489.261	726.56
489.479	734.56
489.696	769.56
489.914	728.56
490.132	754.56
490.35	742.56
490.568	715.56
490.786	747.56
491.003	764.56
491.221	740.56
491.439	768.56
491.657	759.56
491.874	770.56
492.092	777.56
492.31	792.56
492.527	774.56
492.745	777.56
492.963	767.56
493.18	770.56
493.398	802.56
493.615	758.56
493.833	755.56
494.05	788.56
494.268	812.56
494.485	815.56
494.703	776.56
494.92	786.56
495.138	797.56
495.355	852.56
495.573	809.56
495.79	824.56
496.008	813.56
496.225	825.56
496.442	851.56
496.66	842.56
496.877	852.56
497.094	826.56
497.312	859.56
497.529	888.56
497.746	906.56
497.963	905.56
498.181	935.56
498.398	999.56
498.615	1048.56
498.832	1092.56
499.049	1193.56
499.267	1265.56
499.484	1388.56
499.701	1532.56
499.918	1658.56
500.135	1853.56
500.352	2086.56
500.569	2108.56
500.786	2129.56
501.003	1944.56
501.22	1777.56
501.437	1633.56
