Data from NiCl2@0.5M.TitratingCurve.Agarose3%dH2O.NegLispCup.LampEnergy10.LIBS07252019_HRD10591_18-18-29-571.txt Node
Date: Thu Jul 25 18:18:29 EDT 2019
User: cochatt
Spectrometer: HR+D1059
Trigger mode: 1
Integration Time (sec): 1.000000E-1
Scans to average: 1
Electric dark correction enabled: true
Nonlinearity correction enabled: false
Boxcar width: 0
XAxis mode: Wavelengths
Number of Pixels in Spectrum: 2048
>>>>>Begin Spectral Data<<<<<
223.165	-14.31
223.4	-14.31
223.635	-14.31
223.869	-35.31
224.104	-13.31
224.338	-12.31
224.573	-7.31
224.808	-13.31
225.042	-10.31
225.277	-4.31
225.511	-12.31
225.746	2.69
225.98	5.69
226.215	22.69
226.449	5.69
226.683	19.69
226.918	34.69
227.152	31.69
227.387	31.69
227.621	33.69
227.856	38.69
228.09	36.69
228.324	33.69
228.559	54.69
228.793	89.69
229.027	162.69
229.262	179.69
229.496	164.69
229.73	165.69
229.964	194.69
230.199	252.69
230.433	250.69
230.667	226.69
230.901	221.69
231.136	217.69
231.37	206.69
231.604	222.69
231.838	265.69
232.072	256.69
232.306	241.69
232.541	247.69
232.775	210.69
233.009	213.69
233.243	224.69
233.477	215.69
233.711	221.69
233.945	211.69
234.179	211.69
234.413	229.69
234.647	234.69
234.881	229.69
235.115	219.69
235.349	229.69
235.583	207.69
235.817	211.69
236.051	225.69
236.285	214.69
236.519	221.69
236.753	242.69
236.987	239.69
237.221	251.69
237.455	250.69
237.689	250.69
237.922	258.69
238.156	251.69
238.39	242.69
238.624	230.69
238.858	240.69
239.091	241.69
239.325	259.69
239.559	274.69
239.793	301.69
240.027	314.69
240.26	280.69
240.494	277.69
240.728	277.69
240.961	283.69
241.195	273.69
241.429	275.69
241.662	310.69
241.896	338.69
242.13	330.69
242.363	316.69
242.597	293.69
242.83	295.69
243.064	289.69
243.298	295.69
243.531	327.69
243.765	319.69
243.998	360.69
244.232	332.69
244.465	324.69
244.699	302.69
244.932	333.69
245.166	340.69
245.399	354.69
245.633	341.69
245.866	334.69
246.099	335.69
246.333	335.69
246.566	334.69
246.8	330.69
247.033	358.69
247.266	330.69
247.5	360.69
247.733	357.69
247.966	379.69
248.2	360.69
248.433	357.69
248.666	372.69
248.899	367.69
249.133	355.69
249.366	381.69
249.599	372.69
249.832	378.69
250.066	395.69
250.299	397.69
250.532	386.69
250.765	399.69
250.998	402.69
251.231	413.69
251.465	430.69
251.698	439.69
251.931	408.69
252.164	406.69
252.397	423.69
252.63	427.69
252.863	427.69
253.096	422.69
253.329	443.69
253.562	448.69
253.795	436.69
254.028	430.69
254.261	434.69
254.494	445.69
254.727	445.69
254.96	460.69
255.193	450.69
255.426	462.69
255.659	459.69
255.892	433.69
256.124	437.69
256.357	466.69
256.59	474.69
256.823	469.69
257.056	454.69
257.289	472.69
257.521	484.69
257.754	494.69
257.987	464.69
258.22	482.69
258.452	499.69
258.685	507.69
258.918	486.69
259.151	482.69
259.383	515.69
259.616	489.69
259.849	500.69
260.081	505.69
260.314	523.69
260.547	516.69
260.779	498.69
261.012	535.69
261.244	543.69
261.477	531.69
261.71	552.69
261.942	530.69
262.175	537.69
262.407	546.69
262.64	549.69
262.872	543.69
263.105	539.69
263.337	553.69
263.57	549.69
263.802	559.69
264.035	540.69
264.267	546.69
264.499	550.69
264.732	571.69
264.964	591.69
265.197	557.69
265.429	550.69
265.661	539.69
265.894	579.69
266.126	570.69
266.358	588.69
266.591	591.69
266.823	599.69
267.055	583.69
267.287	614.69
267.52	590.69
267.752	600.69
267.984	582.69
268.216	607.69
268.448	632.69
268.681	642.69
268.913	628.69
269.145	622.69
269.377	647.69
269.609	614.69
269.841	635.69
270.073	633.69
270.306	620.69
270.538	618.69
270.77	626.69
271.002	624.69
271.234	621.69
271.466	645.69
271.698	652.69
271.93	650.69
272.162	648.69
272.394	637.69
272.626	643.69
272.858	636.69
273.09	689.69
273.322	670.69
273.553	676.69
273.785	666.69
274.017	691.69
274.249	688.69
274.481	677.69
274.713	671.69
274.945	703.69
275.176	696.69
275.408	693.69
275.64	687.69
275.872	705.69
276.104	715.69
276.335	716.69
276.567	729.69
276.799	715.69
277.031	752.69
277.262	726.69
277.494	711.69
277.726	765.69
277.957	742.69
278.189	726.69
278.421	727.69
278.652	751.69
278.884	716.69
279.115	752.69
279.347	771.69
279.579	740.69
279.81	763.69
280.042	785.69
280.273	778.69
280.505	767.69
280.736	763.69
280.968	773.69
281.199	785.69
281.431	787.69
281.662	801.69
281.894	790.69
282.125	774.69
282.356	823.69
282.588	810.69
282.819	799.69
283.051	821.69
283.282	795.69
283.513	815.69
283.745	821.69
283.976	813.69
284.207	837.69
284.439	827.69
284.67	835.69
284.901	833.69
285.132	852.69
285.364	825.69
285.595	834.69
285.826	837.69
286.057	843.69
286.288	865.69
286.52	869.69
286.751	884.69
286.982	850.69
287.213	843.69
287.444	872.69
287.675	856.69
287.906	892.69
288.138	879.69
288.369	867.69
288.6	866.69
288.831	891.69
289.062	856.69
289.293	879.69
289.524	897.69
289.755	881.69
289.986	903.69
290.217	866.69
290.448	863.69
290.679	884.69
290.91	907.69
291.141	887.69
291.371	858.69
291.602	881.69
291.833	913.69
292.064	899.69
292.295	878.69
292.526	896.69
292.757	916.69
292.987	880.69
293.218	886.69
293.449	928.69
293.68	917.69
293.91	872.69
294.141	893.69
294.372	947.69
294.603	921.69
294.833	942.69
295.064	927.69
295.295	929.69
295.525	921.69
295.756	914.69
295.987	914.69
296.217	912.69
296.448	914.69
296.679	924.69
296.909	931.69
297.14	945.69
297.37	976.69
297.601	961.69
297.831	927.69
298.062	970.69
298.292	976.69
298.523	1005.69
298.753	967.69
298.984	946.69
299.214	974.69
299.445	989.69
299.675	998.69
299.905	987.69
300.136	995.69
300.366	1076.69
300.597	1103.69
300.827	1047.69
301.057	1026.69
301.288	1059.69
301.518	1089.69
301.748	1074.69
301.979	1049.69
302.209	1059.69
302.439	1019.69
302.669	1040.69
302.9	1050.69
303.13	1029.69
303.36	1044.69
303.59	1049.69
303.82	1082.69
304.051	1093.69
304.281	1042.69
304.511	1063.69
304.741	1069.69
304.971	1067.69
305.201	1101.69
305.431	1130.69
305.661	1093.69
305.891	1083.69
306.121	1072.69
306.352	1024.69
306.582	1038.69
306.812	1040.69
307.042	1035.69
307.272	1024.69
307.502	983.69
307.731	1041.69
307.961	1010.69
308.191	1018.69
308.421	1051.69
308.651	1041.69
308.881	1034.69
309.111	1035.69
309.341	1031.69
309.571	1032.69
309.8	1098.69
310.03	1086.69
310.26	1156.69
310.49	1189.69
310.72	1104.69
310.949	1067.69
311.179	1064.69
311.409	1075.69
311.639	1066.69
311.868	1051.69
312.098	1048.69
312.328	1074.69
312.557	1083.69
312.787	1118.69
313.017	1104.69
313.246	1105.69
313.476	1139.69
313.706	1185.69
313.935	1137.69
314.165	1121.69
314.394	1085.69
314.624	1121.69
314.853	1085.69
315.083	1140.69
315.312	1133.69
315.542	1123.69
315.771	1120.69
316.001	1116.69
316.23	1118.69
316.46	1131.69
316.689	1117.69
316.919	1117.69
317.148	1109.69
317.377	1106.69
317.607	1112.69
317.836	1107.69
318.065	1115.69
318.295	1100.69
318.524	1108.69
318.753	1118.69
318.983	1103.69
319.212	1118.69
319.441	1137.69
319.67	1120.69
319.9	1129.69
320.129	1126.69
320.358	1128.69
320.587	1137.69
320.816	1115.69
321.046	1130.69
321.275	1135.69
321.504	1161.69
321.733	1139.69
321.962	1154.69
322.191	1179.69
322.42	1158.69
322.649	1149.69
322.878	1157.69
323.108	1144.69
323.337	1154.69
323.566	1190.69
323.795	1203.69
324.024	1186.69
324.253	1185.69
324.482	1149.69
324.71	1176.69
324.939	1155.69
325.168	1215.69
325.397	1166.69
325.626	1188.69
325.855	1153.69
326.084	1223.69
326.313	1203.69
326.542	1197.69
326.77	1226.69
326.999	1219.69
327.228	1209.69
327.457	1163.69
327.686	1215.69
327.914	1216.69
328.143	1188.69
328.372	1218.69
328.6	1203.69
328.829	1214.69
329.058	1230.69
329.287	1224.69
329.515	1246.69
329.744	1233.69
329.972	1247.69
330.201	1238.69
330.43	1249.69
330.658	1267.69
330.887	1294.69
331.115	1296.69
331.344	1319.69
331.572	1289.69
331.801	1326.69
332.03	1401.69
332.258	1355.69
332.486	1356.69
332.715	1403.69
332.943	1412.69
333.172	1459.69
333.4	1478.69
333.629	1490.69
333.857	1504.69
334.085	1490.69
334.314	1511.69
334.542	1488.69
334.771	1512.69
334.999	1501.69
335.227	1465.69
335.455	1493.69
335.684	1447.69
335.912	1498.69
336.14	1494.69
336.369	1498.69
336.597	1495.69
336.825	1507.69
337.053	1538.69
337.281	1480.69
337.51	1442.69
337.738	1477.69
337.966	1419.69
338.194	1493.69
338.422	1473.69
338.65	1356.69
338.878	1344.69
339.106	1397.69
339.334	1463.69
339.562	1407.69
339.79	1332.69
340.018	1303.69
340.246	1317.69
340.474	1296.69
340.702	1295.69
340.93	1305.69
341.158	1325.69
341.386	1385.69
341.614	1490.69
341.842	1433.69
342.07	1317.69
342.298	1305.69
342.526	1383.69
342.754	1291.69
342.981	1277.69
343.209	1334.69
343.437	1399.69
343.665	1491.69
343.893	1515.69
344.12	1529.69
344.348	1488.69
344.576	1487.69
344.804	1460.69
345.031	1433.69
345.259	1390.69
345.487	1384.69
345.714	1358.69
345.942	1413.69
346.17	1465.69
346.397	1401.69
346.625	1292.69
346.853	1248.69
347.08	1266.69
347.308	1308.69
347.535	1291.69
347.763	1265.69
347.99	1249.69
348.218	1256.69
348.445	1247.69
348.673	1234.69
348.9	1216.69
349.128	1274.69
349.355	1334.69
349.583	1366.69
349.81	1250.69
350.037	1205.69
350.265	1205.69
350.492	1230.69
350.72	1212.69
350.947	1241.69
351.174	1306.69
351.402	1345.69
351.629	1385.69
351.856	1360.69
352.083	1240.69
352.311	1261.69
352.538	1361.69
352.765	1421.69
352.992	1212.69
353.22	1179.69
353.447	1174.69
353.674	1155.69
353.901	1169.69
354.128	1178.69
354.355	1150.69
354.583	1152.69
354.81	1179.69
355.037	1198.69
355.264	1165.69
355.491	1173.69
355.718	1174.69
355.945	1198.69
356.172	1184.69
356.399	1279.69
356.626	1229.69
356.853	1306.69
357.08	1205.69
357.307	1222.69
357.534	1200.69
357.761	1194.69
357.988	1171.69
358.215	1181.69
358.441	1184.69
358.668	1177.69
358.895	1161.69
359.122	1169.69
359.349	1154.69
359.576	1205.69
359.802	1207.69
360.029	1231.69
360.256	1217.69
360.483	1185.69
360.709	1174.69
360.936	1228.69
361.163	1222.69
361.39	1256.69
361.616	1215.69
361.843	1285.69
362.07	1342.69
362.296	1339.69
362.523	1209.69
362.749	1188.69
362.976	1157.69
363.203	1177.69
363.429	1143.69
363.656	1137.69
363.882	1172.69
364.109	1161.69
364.335	1166.69
364.562	1192.69
364.788	1168.69
365.015	1176.69
365.241	1203.69
365.468	1179.69
365.694	1174.69
365.92	1153.69
366.147	1139.69
366.373	1167.69
366.599	1174.69
366.826	1146.69
367.052	1175.69
367.278	1157.69
367.505	1180.69
367.731	1204.69
367.957	1188.69
368.184	1172.69
368.41	1199.69
368.636	1206.69
368.862	1205.69
369.089	1195.69
369.315	1186.69
369.541	1177.69
369.767	1211.69
369.993	1200.69
370.219	1213.69
370.445	1239.69
370.672	1217.69
370.898	1250.69
371.124	1202.69
371.35	1249.69
371.576	1270.69
371.802	1253.69
372.028	1285.69
372.254	1241.69
372.48	1238.69
372.706	1277.69
372.932	1263.69
373.158	1261.69
373.384	1266.69
373.61	1276.69
373.835	1292.69
374.061	1258.69
374.287	1273.69
374.513	1290.69
374.739	1354.69
374.965	1326.69
375.191	1338.69
375.416	1338.69
375.642	1293.69
375.868	1295.69
376.094	1261.69
376.319	1255.69
376.545	1261.69
376.771	1256.69
376.997	1233.69
377.222	1215.69
377.448	1226.69
377.674	1266.69
377.899	1263.69
378.125	1224.69
378.35	1210.69
378.576	1254.69
378.802	1226.69
379.027	1268.69
379.253	1209.69
379.478	1247.69
379.704	1230.69
379.929	1228.69
380.155	1199.69
380.38	1244.69
380.606	1232.69
380.831	1258.69
381.057	1273.69
381.282	1240.69
381.507	1258.69
381.733	1286.69
381.958	1253.69
382.184	1257.69
382.409	1290.69
382.634	1286.69
382.86	1258.69
383.085	1283.69
383.31	1369.69
383.535	1350.69
383.761	1332.69
383.986	1340.69
384.211	1357.69
384.436	1398.69
384.662	1395.69
384.887	1437.69
385.112	1411.69
385.337	1421.69
385.562	1427.69
385.787	1466.69
386.013	1513.69
386.238	1473.69
386.463	1457.69
386.688	1444.69
386.913	1419.69
387.138	1454.69
387.363	1480.69
387.588	1477.69
387.813	1464.69
388.038	1431.69
388.263	1473.69
388.488	1489.69
388.713	1468.69
388.938	1469.69
389.163	1458.69
389.387	1478.69
389.612	1448.69
389.837	1446.69
390.062	1403.69
390.287	1463.69
390.512	1461.69
390.736	1465.69
390.961	1490.69
391.186	1505.69
391.411	1545.69
391.636	1579.69
391.86	1605.69
392.085	1593.69
392.31	1582.69
392.534	1581.69
392.759	1579.69
392.984	1555.69
393.208	1546.69
393.433	1591.69
393.658	1570.69
393.882	1546.69
394.107	1537.69
394.331	1521.69
394.556	1482.69
394.78	1581.69
395.005	1597.69
395.229	1547.69
395.454	1601.69
395.678	1618.69
395.903	1664.69
396.127	1625.69
396.352	1587.69
396.576	1609.69
396.801	1542.69
397.025	1561.69
397.249	1607.69
397.474	1675.69
397.698	1625.69
397.922	1690.69
398.147	1660.69
398.371	1703.69
398.595	1730.69
398.82	1800.69
399.044	1959.69
399.268	2025.69
399.492	2214.69
399.717	2369.69
399.941	2426.69
400.165	2311.69
400.389	2149.69
400.613	2045.69
400.837	1933.69
401.062	1914.69
401.286	1874.69
401.51	1834.69
401.734	1832.69
401.958	1904.69
402.182	1849.69
402.406	1828.69
402.63	1858.69
402.854	1862.69
403.078	1883.69
403.302	1869.69
403.526	1919.69
403.75	1951.69
403.974	1956.69
404.198	1922.69
404.422	1959.69
404.645	1953.69
404.869	1918.69
405.093	1962.69
405.317	1952.69
405.541	1943.69
405.765	1964.69
405.988	1950.69
406.212	1985.69
406.436	1973.69
406.66	2052.69
406.883	1954.69
407.107	2124.69
407.331	2177.69
407.555	2229.69
407.778	2246.69
408.002	2207.69
408.226	2158.69
408.449	2152.69
408.673	2087.69
408.896	2096.69
409.12	2032.69
409.344	2016.69
409.567	1985.69
409.791	1957.69
410.014	1968.69
410.238	1962.69
410.461	1973.69
410.685	1965.69
410.908	1911.69
411.132	1908.69
411.355	1871.69
411.578	1888.69
411.802	1888.69
412.025	1899.69
412.249	1959.69
412.472	1926.69
412.695	1875.69
412.919	1853.69
413.142	1822.69
413.365	1859.69
413.589	1823.69
413.812	1848.69
414.035	1813.69
414.258	1817.69
414.482	1819.69
414.705	1838.69
414.928	1831.69
415.151	1846.69
415.374	1827.69
415.597	1815.69
415.821	1768.69
416.044	1764.69
416.267	1731.69
416.49	1721.69
416.713	1757.69
416.936	1803.69
417.159	1751.69
417.382	1759.69
417.605	1765.69
417.828	1752.69
418.051	1755.69
418.274	1789.69
418.497	1750.69
418.72	1797.69
418.943	1776.69
419.166	1861.69
419.389	2022.69
419.611	1999.69
419.834	1869.69
420.057	1839.69
420.28	1777.69
420.503	1774.69
420.726	1744.69
420.948	1735.69
421.171	1749.69
421.394	1745.69
421.617	1747.69
421.839	1725.69
422.062	1764.69
422.285	1748.69
422.507	1742.69
422.73	1769.69
422.953	1801.69
423.175	1811.69
423.398	1800.69
423.621	1816.69
423.843	1854.69
424.066	1800.69
424.288	1782.69
424.511	1791.69
424.733	1801.69
424.956	1759.69
425.178	1771.69
425.401	1754.69
425.623	1804.69
425.846	1742.69
426.068	1774.69
426.291	1734.69
426.513	1698.69
426.735	1693.69
426.958	1719.69
427.18	1640.69
427.402	1663.69
427.625	1673.69
427.847	1641.69
428.069	1667.69
428.292	1672.69
428.514	1619.69
428.736	1635.69
428.958	1701.69
429.181	1619.69
429.403	1631.69
429.625	1627.69
429.847	1600.69
430.069	1615.69
430.292	1633.69
430.514	1619.69
430.736	1624.69
430.958	1624.69
431.18	1587.69
431.402	1646.69
431.624	1633.69
431.846	1666.69
432.068	1683.69
432.29	1706.69
432.512	1647.69
432.734	1659.69
432.956	1690.69
433.178	1669.69
433.4	1734.69
433.622	1719.69
433.844	1710.69
434.066	1707.69
434.287	1734.69
434.509	1706.69
434.731	1792.69
434.953	1776.69
435.175	1833.69
435.397	1859.69
435.618	1720.69
435.84	1731.69
436.062	1701.69
436.284	1665.69
436.505	1671.69
436.727	1689.69
436.949	1665.69
437.17	1681.69
437.392	1665.69
437.614	1639.69
437.835	1608.69
438.057	1617.69
438.278	1580.69
438.5	1575.69
438.721	1591.69
438.943	1613.69
439.165	1602.69
439.386	1597.69
439.608	1586.69
439.829	1645.69
440.05	1635.69
440.272	1663.69
440.493	1691.69
440.715	1706.69
440.936	1715.69
441.158	1732.69
441.379	1747.69
441.6	1831.69
441.822	1821.69
442.043	1775.69
442.264	1740.69
442.486	1755.69
442.707	1812.69
442.928	1753.69
443.149	1781.69
443.371	1741.69
443.592	1898.69
443.813	1891.69
444.034	1811.69
444.255	1844.69
444.476	1949.69
444.698	2008.69
444.919	2055.69
445.14	2094.69
445.361	1997.69
445.582	1866.69
445.803	1787.69
446.024	1742.69
446.245	1707.69
446.466	1756.69
446.687	1667.69
446.908	1684.69
447.129	1623.69
447.35	1613.69
447.571	1579.69
447.792	1516.69
448.013	1564.69
448.234	1528.69
448.455	1513.69
448.675	1568.69
448.896	1533.69
449.117	1491.69
449.338	1496.69
449.559	1495.69
449.779	1475.69
450	1461.69
450.221	1484.69
450.442	1499.69
450.662	1496.69
450.883	1521.69
451.104	1576.69
451.324	1529.69
451.545	1510.69
451.766	1504.69
451.986	1490.69
452.207	1490.69
452.428	1462.69
452.648	1453.69
452.869	1474.69
453.089	1473.69
453.31	1485.69
453.53	1479.69
453.751	1464.69
453.971	1453.69
454.192	1472.69
454.412	1484.69
454.633	1470.69
454.853	1444.69
455.073	1411.69
455.294	1443.69
455.514	1451.69
455.734	1468.69
455.955	1461.69
456.175	1462.69
456.395	1422.69
456.616	1442.69
456.836	1454.69
457.056	1433.69
457.276	1406.69
457.497	1440.69
457.717	1518.69
457.937	1463.69
458.157	1464.69
458.377	1505.69
458.598	1514.69
458.818	1525.69
459.038	1555.69
459.258	1616.69
459.478	1713.69
459.698	1863.69
459.918	1854.69
460.138	1870.69
460.358	1890.69
460.578	1886.69
460.798	1975.69
461.018	1949.69
461.238	1924.69
461.458	1907.69
461.678	1855.69
461.898	1939.69
462.118	1887.69
462.338	2054.69
462.558	2081.69
462.777	2153.69
462.997	2247.69
463.217	2315.69
463.437	2436.69
463.657	2342.69
463.876	2175.69
464.096	2183.69
464.316	2203.69
464.536	2175.69
464.755	2108.69
464.975	2020.69
465.195	1965.69
465.414	1915.69
465.634	1781.69
465.854	1785.69
466.073	1730.69
466.293	1732.69
466.512	1636.69
466.732	1607.69
466.951	1645.69
467.171	1635.69
467.391	1645.69
467.61	1599.69
467.829	1609.69
468.049	1608.69
468.268	1604.69
468.488	1545.69
468.707	1578.69
468.927	1551.69
469.146	1613.69
469.365	1637.69
469.585	1591.69
469.804	1637.69
470.023	1634.69
470.243	1642.69
470.462	1626.69
470.681	1650.69
470.901	1655.69
471.12	1645.69
471.339	1660.69
471.558	1622.69
471.777	1650.69
471.997	1611.69
472.216	1617.69
472.435	1547.69
472.654	1565.69
472.873	1580.69
473.092	1576.69
473.311	1570.69
473.53	1590.69
473.749	1540.69
473.968	1562.69
474.187	1583.69
474.406	1565.69
474.625	1622.69
474.844	1564.69
475.063	1591.69
475.282	1595.69
475.501	1633.69
475.72	1595.69
475.939	1633.69
476.158	1631.69
476.377	1678.69
476.596	1640.69
476.814	1672.69
477.033	1664.69
477.252	1680.69
477.471	1729.69
477.69	1791.69
477.908	1796.69
478.127	1841.69
478.346	1881.69
478.564	1885.69
478.783	1939.69
479.002	2024.69
479.22	2068.69
479.439	1984.69
479.658	1923.69
479.876	1952.69
480.095	1954.69
480.313	2016.69
480.532	2041.69
480.751	2024.69
480.969	1984.69
481.188	1950.69
481.406	1949.69
481.624	1955.69
481.843	1875.69
482.061	1911.69
482.28	1871.69
482.498	1877.69
482.717	1865.69
482.935	1874.69
483.153	1921.69
483.372	1960.69
483.59	2000.69
483.808	1949.69
484.027	1914.69
484.245	1957.69
484.463	1926.69
484.681	2013.69
484.9	1958.69
485.118	1983.69
485.336	1952.69
485.554	2030.69
485.772	2041.69
485.99	1963.69
486.209	2006.69
486.427	2002.69
486.645	2021.69
486.863	2015.69
487.081	2037.69
487.299	2026.69
487.517	2022.69
487.735	2021.69
487.953	2063.69
488.171	2000.69
488.389	2009.69
488.607	2019.69
488.825	1966.69
489.043	1966.69
489.261	1951.69
489.479	1967.69
489.696	1986.69
489.914	1970.69
