Data from NiCl2@0.125M.TitratingCurve.Agarose3%dH2O.NegLispCup.LampEnergy10.LIBS07252019_HRD10591_18-29-25-574.txt Node
Date: Thu Jul 25 18:29:25 EDT 2019
User: cochatt
Spectrometer: HR+D1059
Trigger mode: 1
Integration Time (sec): 1.000000E-1
Scans to average: 1
Electric dark correction enabled: true
Nonlinearity correction enabled: false
Boxcar width: 0
XAxis mode: Wavelengths
Number of Pixels in Spectrum: 2048
>>>>>Begin Spectral Data<<<<<
223.165	-10.94
223.4	-10.94
223.635	-10.94
223.869	-2.94
224.104	-21.94
224.338	-30.94
224.573	-10.94
224.808	-11.94
225.042	-18.94
225.277	-2.94
225.511	-3.94
225.746	3.06
225.98	21.06
226.215	9.06
226.449	15.06
226.683	27.06
226.918	20.06
227.152	20.06
227.387	24.06
227.621	29.06
227.856	43.06
228.09	42.06
228.324	54.06
228.559	53.06
228.793	77.06
229.027	102.06
229.262	106.06
229.496	108.06
229.73	124.06
229.964	113.06
230.199	130.06
230.433	128.06
230.667	135.06
230.901	128.06
231.136	132.06
231.37	154.06
231.604	139.06
231.838	140.06
232.072	133.06
232.306	157.06
232.541	144.06
232.775	135.06
233.009	142.06
233.243	145.06
233.477	154.06
233.711	148.06
233.945	149.06
234.179	171.06
234.413	147.06
234.647	139.06
234.881	159.06
235.115	147.06
235.349	161.06
235.583	163.06
235.817	151.06
236.051	154.06
236.285	134.06
236.519	156.06
236.753	172.06
236.987	152.06
237.221	159.06
237.455	156.06
237.689	165.06
237.922	168.06
238.156	179.06
238.39	168.06
238.624	159.06
238.858	177.06
239.091	164.06
239.325	170.06
239.559	175.06
239.793	160.06
240.027	174.06
240.26	170.06
240.494	186.06
240.728	172.06
240.961	200.06
241.195	199.06
241.429	197.06
241.662	201.06
241.896	202.06
242.13	202.06
242.363	196.06
242.597	173.06
242.83	185.06
243.064	202.06
243.298	212.06
243.531	212.06
243.765	217.06
243.998	230.06
244.232	202.06
244.465	205.06
244.699	196.06
244.932	210.06
245.166	211.06
245.399	221.06
245.633	225.06
245.866	233.06
246.099	226.06
246.333	235.06
246.566	222.06
246.8	217.06
247.033	231.06
247.266	237.06
247.5	235.06
247.733	242.06
247.966	229.06
248.2	227.06
248.433	255.06
248.666	247.06
248.899	247.06
249.133	244.06
249.366	254.06
249.599	228.06
249.832	271.06
250.066	238.06
250.299	247.06
250.532	240.06
250.765	259.06
250.998	260.06
251.231	236.06
251.465	265.06
251.698	286.06
251.931	260.06
252.164	281.06
252.397	281.06
252.63	284.06
252.863	273.06
253.096	276.06
253.329	277.06
253.562	271.06
253.795	263.06
254.028	276.06
254.261	281.06
254.494	275.06
254.727	261.06
254.96	288.06
255.193	279.06
255.426	269.06
255.659	288.06
255.892	287.06
256.124	296.06
256.357	284.06
256.59	289.06
256.823	281.06
257.056	313.06
257.289	278.06
257.521	305.06
257.754	315.06
257.987	315.06
258.22	305.06
258.452	293.06
258.685	302.06
258.918	310.06
259.151	310.06
259.383	313.06
259.616	309.06
259.849	318.06
260.081	320.06
260.314	329.06
260.547	323.06
260.779	296.06
261.012	329.06
261.244	320.06
261.477	315.06
261.71	309.06
261.942	311.06
262.175	319.06
262.407	343.06
262.64	339.06
262.872	328.06
263.105	343.06
263.337	344.06
263.57	338.06
263.802	346.06
264.035	344.06
264.267	347.06
264.499	361.06
264.732	344.06
264.964	348.06
265.197	339.06
265.429	347.06
265.661	348.06
265.894	364.06
266.126	378.06
266.358	374.06
266.591	367.06
266.823	372.06
267.055	376.06
267.287	361.06
267.52	362.06
267.752	373.06
267.984	368.06
268.216	377.06
268.448	376.06
268.681	380.06
268.913	382.06
269.145	372.06
269.377	392.06
269.609	379.06
269.841	375.06
270.073	357.06
270.306	369.06
270.538	366.06
270.77	362.06
271.002	379.06
271.234	366.06
271.466	388.06
271.698	380.06
271.93	391.06
272.162	392.06
272.394	391.06
272.626	383.06
272.858	397.06
273.09	407.06
273.322	393.06
273.553	408.06
273.785	397.06
274.017	385.06
274.249	411.06
274.481	403.06
274.713	401.06
274.945	401.06
275.176	407.06
275.408	426.06
275.64	405.06
275.872	400.06
276.104	418.06
276.335	398.06
276.567	425.06
276.799	424.06
277.031	429.06
277.262	404.06
277.494	416.06
277.726	411.06
277.957	422.06
278.189	414.06
278.421	406.06
278.652	436.06
278.884	438.06
279.115	441.06
279.347	430.06
279.579	434.06
279.81	446.06
280.042	441.06
280.273	464.06
280.505	430.06
280.736	453.06
280.968	448.06
281.199	457.06
281.431	444.06
281.662	458.06
281.894	457.06
282.125	439.06
282.356	431.06
282.588	456.06
282.819	465.06
283.051	481.06
283.282	467.06
283.513	474.06
283.745	468.06
283.976	481.06
284.207	473.06
284.439	479.06
284.67	468.06
284.901	467.06
285.132	500.06
285.364	493.06
285.595	496.06
285.826	480.06
286.057	483.06
286.288	488.06
286.52	492.06
286.751	491.06
286.982	497.06
287.213	488.06
287.444	487.06
287.675	486.06
287.906	514.06
288.138	515.06
288.369	500.06
288.6	498.06
288.831	510.06
289.062	522.06
289.293	522.06
289.524	519.06
289.755	518.06
289.986	528.06
290.217	515.06
290.448	498.06
290.679	524.06
290.91	522.06
291.141	506.06
291.371	519.06
291.602	518.06
291.833	516.06
292.064	534.06
292.295	506.06
292.526	508.06
292.757	526.06
292.987	534.06
293.218	505.06
293.449	539.06
293.68	527.06
293.91	508.06
294.141	555.06
294.372	530.06
294.603	537.06
294.833	535.06
295.064	546.06
295.295	545.06
295.525	556.06
295.756	546.06
295.987	562.06
296.217	545.06
296.448	555.06
296.679	540.06
296.909	554.06
297.14	558.06
297.37	538.06
297.601	555.06
297.831	577.06
298.062	550.06
298.292	577.06
298.523	577.06
298.753	600.06
298.984	562.06
299.214	573.06
299.445	582.06
299.675	571.06
299.905	586.06
300.136	572.06
300.366	564.06
300.597	584.06
300.827	573.06
301.057	596.06
301.288	620.06
301.518	598.06
301.748	589.06
301.979	632.06
302.209	612.06
302.439	602.06
302.669	577.06
302.9	598.06
303.13	608.06
303.36	564.06
303.59	585.06
303.82	600.06
304.051	598.06
304.281	590.06
304.511	585.06
304.741	577.06
304.971	587.06
305.201	570.06
305.431	598.06
305.661	581.06
305.891	582.06
306.121	570.06
306.352	561.06
306.582	584.06
306.812	575.06
307.042	577.06
307.272	579.06
307.502	572.06
307.731	574.06
307.961	579.06
308.191	577.06
308.421	565.06
308.651	573.06
308.881	570.06
309.111	569.06
309.341	571.06
309.571	584.06
309.8	560.06
310.03	572.06
310.26	579.06
310.49	566.06
310.72	587.06
310.949	566.06
311.179	596.06
311.409	603.06
311.639	575.06
311.868	582.06
312.098	593.06
312.328	590.06
312.557	609.06
312.787	592.06
313.017	583.06
313.246	602.06
313.476	620.06
313.706	635.06
313.935	624.06
314.165	621.06
314.394	610.06
314.624	627.06
314.853	624.06
315.083	630.06
315.312	604.06
315.542	602.06
315.771	609.06
316.001	596.06
316.23	591.06
316.46	613.06
316.689	594.06
316.919	595.06
317.148	626.06
317.377	611.06
317.607	572.06
317.836	590.06
318.065	610.06
318.295	591.06
318.524	598.06
318.753	582.06
318.983	609.06
319.212	582.06
319.441	601.06
319.67	591.06
319.9	584.06
320.129	610.06
320.358	590.06
320.587	595.06
320.816	595.06
321.046	613.06
321.275	595.06
321.504	595.06
321.733	588.06
321.962	587.06
322.191	586.06
322.42	617.06
322.649	585.06
322.878	597.06
323.108	590.06
323.337	609.06
323.566	606.06
323.795	609.06
324.024	589.06
324.253	595.06
324.482	619.06
324.71	606.06
324.939	604.06
325.168	608.06
325.397	627.06
325.626	630.06
325.855	625.06
326.084	661.06
326.313	643.06
326.542	662.06
326.77	683.06
326.999	631.06
327.228	652.06
327.457	655.06
327.686	634.06
327.914	651.06
328.143	676.06
328.372	662.06
328.6	666.06
328.829	636.06
329.058	645.06
329.287	661.06
329.515	668.06
329.744	666.06
329.972	670.06
330.201	651.06
330.43	660.06
330.658	660.06
330.887	673.06
331.115	684.06
331.344	676.06
331.572	703.06
331.801	692.06
332.03	718.06
332.258	719.06
332.486	747.06
332.715	760.06
332.943	806.06
333.172	846.06
333.4	905.06
333.629	937.06
333.857	887.06
334.085	889.06
334.314	863.06
334.542	859.06
334.771	841.06
334.999	807.06
335.227	798.06
335.455	820.06
335.684	797.06
335.912	800.06
336.14	794.06
336.369	787.06
336.597	800.06
336.825	810.06
337.053	776.06
337.281	776.06
337.51	758.06
337.738	738.06
337.966	718.06
338.194	716.06
338.422	705.06
338.65	694.06
338.878	683.06
339.106	673.06
339.334	704.06
339.562	700.06
339.79	688.06
340.018	666.06
340.246	675.06
340.474	682.06
340.702	704.06
340.93	680.06
341.158	672.06
341.386	670.06
341.614	670.06
341.842	673.06
342.07	692.06
342.298	667.06
342.526	656.06
342.754	668.06
342.981	676.06
343.209	682.06
343.437	700.06
343.665	772.06
343.893	818.06
344.12	858.06
344.348	805.06
344.576	771.06
344.804	745.06
345.031	718.06
345.259	696.06
345.487	661.06
345.714	660.06
345.942	697.06
346.17	646.06
346.397	655.06
346.625	666.06
346.853	655.06
347.08	643.06
347.308	657.06
347.535	681.06
347.763	681.06
347.99	692.06
348.218	696.06
348.445	669.06
348.673	647.06
348.9	666.06
349.128	654.06
349.355	644.06
349.583	648.06
349.81	629.06
350.037	613.06
350.265	625.06
350.492	640.06
350.72	632.06
350.947	625.06
351.174	610.06
351.402	632.06
351.629	658.06
351.856	604.06
352.083	637.06
352.311	634.06
352.538	623.06
352.765	632.06
352.992	612.06
353.22	639.06
353.447	632.06
353.674	621.06
353.901	628.06
354.128	642.06
354.355	630.06
354.583	619.06
354.81	628.06
355.037	628.06
355.264	634.06
355.491	625.06
355.718	646.06
355.945	646.06
356.172	641.06
356.399	649.06
356.626	633.06
356.853	637.06
357.08	618.06
357.307	637.06
357.534	642.06
357.761	616.06
357.988	634.06
358.215	632.06
358.441	638.06
358.668	639.06
358.895	621.06
359.122	644.06
359.349	634.06
359.576	611.06
359.802	608.06
360.029	612.06
360.256	622.06
360.483	633.06
360.709	621.06
360.936	636.06
361.163	646.06
361.39	612.06
361.616	651.06
361.843	627.06
362.07	599.06
362.296	617.06
362.523	619.06
362.749	637.06
362.976	625.06
363.203	617.06
363.429	598.06
363.656	658.06
363.882	605.06
364.109	617.06
364.335	633.06
364.562	623.06
364.788	629.06
365.015	619.06
365.241	607.06
365.468	638.06
365.694	604.06
365.92	638.06
366.147	633.06
366.373	596.06
366.599	604.06
366.826	625.06
367.052	632.06
367.278	643.06
367.505	652.06
367.731	638.06
367.957	618.06
368.184	620.06
368.41	638.06
368.636	628.06
368.862	656.06
369.089	652.06
369.315	651.06
369.541	665.06
369.767	651.06
369.993	673.06
370.219	647.06
370.445	657.06
370.672	676.06
370.898	664.06
371.124	694.06
371.35	684.06
371.576	697.06
371.802	700.06
372.028	665.06
372.254	658.06
372.48	710.06
372.706	704.06
372.932	704.06
373.158	686.06
373.384	697.06
373.61	676.06
373.835	681.06
374.061	692.06
374.287	698.06
374.513	723.06
374.739	725.06
374.965	731.06
375.191	792.06
375.416	736.06
375.642	728.06
375.868	713.06
376.094	712.06
376.319	700.06
376.545	698.06
376.771	699.06
376.997	709.06
377.222	683.06
377.448	670.06
377.674	688.06
377.899	679.06
378.125	664.06
378.35	668.06
378.576	668.06
378.802	659.06
379.027	652.06
379.253	689.06
379.478	664.06
379.704	676.06
379.929	666.06
380.155	651.06
380.38	671.06
380.606	673.06
380.831	672.06
381.057	665.06
381.282	663.06
381.507	676.06
381.733	665.06
381.958	692.06
382.184	706.06
382.409	727.06
382.634	715.06
382.86	705.06
383.085	734.06
383.31	736.06
383.535	751.06
383.761	765.06
383.986	788.06
384.211	798.06
384.436	817.06
384.662	825.06
384.887	831.06
385.112	829.06
385.337	836.06
385.562	817.06
385.787	848.06
386.013	833.06
386.238	827.06
386.463	840.06
386.688	817.06
386.913	810.06
387.138	824.06
387.363	826.06
387.588	790.06
387.813	816.06
388.038	816.06
388.263	822.06
388.488	836.06
388.713	819.06
388.938	803.06
389.163	777.06
389.387	783.06
389.612	803.06
389.837	801.06
390.062	809.06
390.287	803.06
390.512	801.06
390.736	807.06
390.961	813.06
391.186	845.06
391.411	867.06
391.636	901.06
391.86	916.06
392.085	970.06
392.31	907.06
392.534	918.06
392.759	904.06
392.984	892.06
393.208	883.06
393.433	877.06
393.658	864.06
393.882	908.06
394.107	876.06
394.331	922.06
394.556	874.06
394.78	877.06
395.005	887.06
395.229	894.06
395.454	902.06
395.678	940.06
395.903	934.06
396.127	911.06
396.352	890.06
396.576	830.06
396.801	867.06
397.025	916.06
397.249	910.06
397.474	903.06
397.698	930.06
397.922	937.06
398.147	926.06
398.371	932.06
398.595	974.06
398.82	1009.06
399.044	1056.06
399.268	1193.06
399.492	1410.06
399.717	1606.06
399.941	1648.06
400.165	1420.06
400.389	1259.06
400.613	1135.06
400.837	1104.06
401.062	1051.06
401.286	1005.06
401.51	1042.06
401.734	1036.06
401.958	1049.06
402.182	1029.06
402.406	1062.06
402.63	1097.06
402.854	1114.06
403.078	1137.06
403.302	1148.06
403.526	1212.06
403.75	1233.06
403.974	1249.06
404.198	1258.06
404.422	1260.06
404.645	1252.06
404.869	1194.06
405.093	1205.06
405.317	1165.06
405.541	1144.06
405.765	1152.06
405.988	1119.06
406.212	1175.06
406.436	1157.06
406.66	1194.06
406.883	1210.06
407.107	1267.06
407.331	1336.06
407.555	1412.06
407.778	1370.06
408.002	1329.06
408.226	1301.06
408.449	1286.06
408.673	1218.06
408.896	1188.06
409.12	1164.06
409.344	1210.06
409.567	1210.06
409.791	1224.06
410.014	1231.06
410.238	1163.06
410.461	1170.06
410.685	1143.06
410.908	1155.06
411.132	1111.06
411.355	1063.06
411.578	1077.06
411.802	1056.06
412.025	1092.06
412.249	1115.06
412.472	1101.06
412.695	1092.06
412.919	1030.06
413.142	1059.06
413.365	1041.06
413.589	1062.06
413.812	1033.06
414.035	1034.06
414.258	1017.06
414.482	1037.06
414.705	1037.06
414.928	1056.06
415.151	1039.06
415.374	1018.06
415.597	1059.06
415.821	1011.06
416.044	1024.06
416.267	981.06
416.49	1005.06
416.713	1009.06
416.936	1015.06
417.159	1030.06
417.382	1036.06
417.605	1025.06
417.828	1043.06
418.051	1038.06
418.274	1061.06
418.497	1060.06
418.72	1080.06
418.943	1062.06
419.166	1137.06
419.389	1221.06
419.611	1182.06
419.834	1125.06
420.057	1126.06
420.28	1053.06
420.503	1053.06
420.726	1032.06
420.948	1010.06
421.171	1034.06
421.394	1017.06
421.617	1033.06
421.839	1051.06
422.062	1030.06
422.285	1051.06
422.507	1073.06
422.73	1060.06
422.953	1080.06
423.175	1122.06
423.398	1109.06
423.621	1123.06
423.843	1123.06
424.066	1115.06
424.288	1138.06
424.511	1124.06
424.733	1101.06
424.956	1065.06
425.178	1056.06
425.401	1086.06
425.623	1072.06
425.846	1008.06
426.068	1023.06
426.291	1013.06
426.513	1009.06
426.735	936.06
426.958	966.06
427.18	946.06
427.402	953.06
427.625	965.06
427.847	949.06
428.069	947.06
428.292	926.06
428.514	944.06
428.736	902.06
428.958	933.06
429.181	896.06
429.403	900.06
429.625	906.06
429.847	904.06
430.069	911.06
430.292	911.06
430.514	894.06
430.736	871.06
430.958	917.06
431.18	904.06
431.402	906.06
431.624	907.06
431.846	936.06
432.068	940.06
432.29	936.06
432.512	903.06
432.734	923.06
432.956	938.06
433.178	916.06
433.4	903.06
433.622	955.06
433.844	952.06
434.066	945.06
434.287	930.06
434.509	980.06
434.731	993.06
434.953	1041.06
435.175	1076.06
435.397	1054.06
435.618	966.06
435.84	974.06
436.062	948.06
436.284	964.06
436.505	931.06
436.727	922.06
436.949	948.06
437.17	952.06
437.392	905.06
437.614	890.06
437.835	903.06
438.057	910.06
438.278	861.06
438.5	890.06
438.721	903.06
438.943	916.06
439.165	895.06
439.386	900.06
439.608	920.06
439.829	948.06
440.05	931.06
440.272	945.06
440.493	947.06
440.715	956.06
440.936	958.06
441.158	989.06
441.379	989.06
441.6	1066.06
441.822	1073.06
442.043	1077.06
442.264	1060.06
442.486	1041.06
442.707	1039.06
442.928	1020.06
443.149	1044.06
443.371	1024.06
443.592	1059.06
443.813	1067.06
444.034	1050.06
444.255	1081.06
444.476	1162.06
444.698	1245.06
444.919	1269.06
445.14	1379.06
445.361	1216.06
445.582	1110.06
445.803	1032.06
446.024	1012.06
446.245	978.06
446.466	975.06
446.687	956.06
446.908	978.06
447.129	911.06
447.35	886.06
447.571	905.06
447.792	874.06
448.013	894.06
448.234	868.06
448.455	864.06
448.675	878.06
448.896	859.06
449.117	854.06
449.338	865.06
449.559	830.06
449.779	861.06
450	832.06
450.221	855.06
450.442	892.06
450.662	886.06
450.883	868.06
451.104	894.06
451.324	898.06
451.545	910.06
451.766	910.06
451.986	878.06
452.207	874.06
452.428	911.06
452.648	876.06
452.869	823.06
453.089	840.06
453.31	865.06
453.53	853.06
453.751	846.06
453.971	829.06
454.192	848.06
454.412	800.06
454.633	838.06
454.853	837.06
455.073	802.06
455.294	830.06
455.514	808.06
455.734	828.06
455.955	777.06
456.175	783.06
456.395	818.06
456.616	780.06
456.836	761.06
457.056	810.06
457.276	816.06
457.497	811.06
457.717	789.06
457.937	816.06
458.157	824.06
458.377	820.06
458.598	835.06
458.818	875.06
459.038	882.06
459.258	916.06
459.478	971.06
459.698	946.06
459.918	990.06
460.138	1028.06
460.358	1079.06
460.578	1112.06
460.798	1110.06
461.018	1164.06
461.238	1094.06
461.458	1124.06
461.678	1118.06
461.898	1121.06
462.118	1108.06
462.338	1184.06
462.558	1187.06
462.777	1249.06
462.997	1386.06
463.217	1518.06
463.437	1560.06
463.657	1424.06
463.876	1336.06
464.096	1301.06
464.316	1318.06
464.536	1320.06
464.755	1267.06
464.975	1242.06
465.195	1180.06
465.414	1120.06
465.634	1013.06
465.854	973.06
466.073	952.06
466.293	957.06
466.512	949.06
466.732	916.06
466.951	894.06
467.171	908.06
467.391	901.06
467.61	902.06
467.829	898.06
468.049	895.06
468.268	884.06
468.488	858.06
468.707	843.06
468.927	856.06
469.146	880.06
469.365	864.06
469.585	881.06
469.804	906.06
470.023	919.06
470.243	919.06
470.462	944.06
470.681	959.06
470.901	956.06
471.12	927.06
471.339	900.06
471.558	869.06
471.777	880.06
471.997	868.06
472.216	865.06
472.435	836.06
472.654	826.06
472.873	832.06
473.092	819.06
473.311	801.06
473.53	822.06
473.749	827.06
473.968	832.06
474.187	806.06
474.406	817.06
474.625	824.06
474.844	808.06
475.063	814.06
475.282	827.06
475.501	849.06
475.72	834.06
475.939	810.06
476.158	839.06
476.377	856.06
476.596	873.06
476.814	884.06
477.033	846.06
477.252	873.06
477.471	918.06
477.69	936.06
477.908	930.06
478.127	964.06
478.346	1001.06
478.564	1002.06
478.783	1045.06
479.002	1072.06
479.22	1055.06
479.439	1049.06
479.658	1019.06
479.876	1029.06
480.095	1062.06
480.313	1089.06
480.532	1126.06
480.751	1149.06
480.969	1102.06
481.188	1041.06
481.406	996.06
481.624	967.06
481.843	965.06
482.061	926.06
482.28	938.06
482.498	916.06
482.717	940.06
482.935	931.06
483.153	923.06
483.372	931.06
483.59	946.06
483.808	910.06
484.027	937.06
484.245	930.06
484.463	952.06
484.681	974.06
484.9	979.06
485.118	991.06
485.336	963.06
485.554	985.06
485.772	992.06
485.99	995.06
486.209	1010.06
486.427	1017.06
486.645	1027.06
486.863	1048.06
487.081	1006.06
487.299	998.06
487.517	985.06
487.735	1012.06
487.953	983.06
488.171	990.06
488.389	968.06
488.607	953.06
488.825	933.06
489.043	971.06
489.261	952.06
489.479	962.06
489.696	987.06
489.914	984.06
490.132	974.06
490.35	968.06
490.568	972.06
490.786	1011.06
491.003	964.06
491.221	1005.06
491.439	994.06
491.657	974.06
491.874	978.06
492.092	998.06
492.31	968.06
492.527	1014.06
492.745	1000.06
492.963	1021.06
493.18	1004.06
493.398	1020.06
493.615	998.06
493.833	1019.06
494.05	1030.06
494.268	1024.06
494.485	1050.06
494.703	1053.06
494.92	1050.06
495.138	1049.06
495.355	1037.06
495.573	1036.06
495.79	1062.06
496.008	1075.06
496.225	1066.06
496.442	1077.06
496.66	1081.06
496.877	1102.06
497.094	1086.06
497.312	1088.06
497.529	1126.06
497.746	1178.06
497.963	1224.06
498.181	1222.06
498.398	1295.06
498.615	1397.06
