Data from NiCl2@0.5M.TitratingCurve.Agarose3%dH2O.NegLispCup.LampEnergy10.LIBS07252019_HRD10591_18-19-53-571.txt Node
Date: Thu Jul 25 18:19:53 EDT 2019
User: cochatt
Spectrometer: HR+D1059
Trigger mode: 1
Integration Time (sec): 1.000000E-1
Scans to average: 1
Electric dark correction enabled: true
Nonlinearity correction enabled: false
Boxcar width: 0
XAxis mode: Wavelengths
Number of Pixels in Spectrum: 2048
>>>>>Begin Spectral Data<<<<<
223.165	-12.25
223.4	-12.25
223.635	-12.25
223.869	-11.25
224.104	-20.25
224.338	-22.25
224.573	-12.25
224.808	-11.25
225.042	-20.25
225.277	-0.25
225.511	-9.25
225.746	12.75
225.98	-13.25
226.215	12.75
226.449	19.75
226.683	20.75
226.918	20.75
227.152	45.75
227.387	27.75
227.621	42.75
227.856	39.75
228.09	56.75
228.324	49.75
228.559	48.75
228.793	67.75
229.027	105.75
229.262	92.75
229.496	90.75
229.73	112.75
229.964	123.75
230.199	124.75
230.433	132.75
230.667	126.75
230.901	133.75
231.136	115.75
231.37	115.75
231.604	130.75
231.838	137.75
232.072	146.75
232.306	124.75
232.541	133.75
232.775	132.75
233.009	128.75
233.243	143.75
233.477	135.75
233.711	131.75
233.945	140.75
234.179	142.75
234.413	125.75
234.647	135.75
234.881	145.75
235.115	141.75
235.349	134.75
235.583	126.75
235.817	136.75
236.051	126.75
236.285	140.75
236.519	149.75
236.753	150.75
236.987	141.75
237.221	144.75
237.455	150.75
237.689	135.75
237.922	158.75
238.156	146.75
238.39	142.75
238.624	136.75
238.858	155.75
239.091	142.75
239.325	154.75
239.559	137.75
239.793	162.75
240.027	149.75
240.26	142.75
240.494	158.75
240.728	164.75
240.961	142.75
241.195	157.75
241.429	154.75
241.662	162.75
241.896	167.75
242.13	175.75
242.363	172.75
242.597	166.75
242.83	166.75
243.064	189.75
243.298	168.75
243.531	185.75
243.765	170.75
243.998	182.75
244.232	188.75
244.465	183.75
244.699	178.75
244.932	193.75
245.166	192.75
245.399	183.75
245.633	186.75
245.866	176.75
246.099	185.75
246.333	184.75
246.566	193.75
246.8	205.75
247.033	179.75
247.266	205.75
247.5	186.75
247.733	181.75
247.966	194.75
248.2	189.75
248.433	195.75
248.666	201.75
248.899	204.75
249.133	206.75
249.366	212.75
249.599	197.75
249.832	209.75
250.066	190.75
250.299	217.75
250.532	206.75
250.765	208.75
250.998	220.75
251.231	233.75
251.465	222.75
251.698	230.75
251.931	216.75
252.164	213.75
252.397	211.75
252.63	232.75
252.863	220.75
253.096	232.75
253.329	241.75
253.562	233.75
253.795	235.75
254.028	231.75
254.261	233.75
254.494	243.75
254.727	229.75
254.96	233.75
255.193	228.75
255.426	232.75
255.659	245.75
255.892	252.75
256.124	251.75
256.357	252.75
256.59	229.75
256.823	260.75
257.056	246.75
257.289	244.75
257.521	268.75
257.754	261.75
257.987	241.75
258.22	268.75
258.452	260.75
258.685	260.75
258.918	245.75
259.151	258.75
259.383	272.75
259.616	270.75
259.849	265.75
260.081	278.75
260.314	250.75
260.547	268.75
260.779	269.75
261.012	263.75
261.244	268.75
261.477	283.75
261.71	276.75
261.942	252.75
262.175	266.75
262.407	282.75
262.64	272.75
262.872	274.75
263.105	284.75
263.337	277.75
263.57	277.75
263.802	281.75
264.035	294.75
264.267	284.75
264.499	284.75
264.732	285.75
264.964	278.75
265.197	271.75
265.429	281.75
265.661	289.75
265.894	309.75
266.126	310.75
266.358	300.75
266.591	312.75
266.823	309.75
267.055	301.75
267.287	290.75
267.52	292.75
267.752	305.75
267.984	302.75
268.216	297.75
268.448	313.75
268.681	312.75
268.913	310.75
269.145	307.75
269.377	317.75
269.609	320.75
269.841	317.75
270.073	320.75
270.306	325.75
270.538	315.75
270.77	301.75
271.002	291.75
271.234	308.75
271.466	337.75
271.698	324.75
271.93	329.75
272.162	336.75
272.394	330.75
272.626	310.75
272.858	314.75
273.09	333.75
273.322	326.75
273.553	324.75
273.785	341.75
274.017	334.75
274.249	335.75
274.481	332.75
274.713	349.75
274.945	328.75
275.176	346.75
275.408	345.75
275.64	355.75
275.872	353.75
276.104	351.75
276.335	348.75
276.567	356.75
276.799	331.75
277.031	361.75
277.262	353.75
277.494	357.75
277.726	360.75
277.957	376.75
278.189	374.75
278.421	362.75
278.652	359.75
278.884	344.75
279.115	365.75
279.347	362.75
279.579	382.75
279.81	383.75
280.042	374.75
280.273	390.75
280.505	377.75
280.736	405.75
280.968	388.75
281.199	376.75
281.431	381.75
281.662	387.75
281.894	374.75
282.125	392.75
282.356	406.75
282.588	374.75
282.819	394.75
283.051	390.75
283.282	377.75
283.513	398.75
283.745	402.75
283.976	407.75
284.207	406.75
284.439	406.75
284.67	388.75
284.901	434.75
285.132	415.75
285.364	390.75
285.595	401.75
285.826	400.75
286.057	422.75
286.288	422.75
286.52	393.75
286.751	405.75
286.982	424.75
287.213	419.75
287.444	409.75
287.675	406.75
287.906	423.75
288.138	408.75
288.369	427.75
288.6	410.75
288.831	422.75
289.062	406.75
289.293	426.75
289.524	442.75
289.755	429.75
289.986	448.75
290.217	411.75
290.448	476.75
290.679	440.75
290.91	426.75
291.141	416.75
291.371	432.75
291.602	409.75
291.833	436.75
292.064	441.75
292.295	426.75
292.526	437.75
292.757	424.75
292.987	428.75
293.218	451.75
293.449	458.75
293.68	427.75
293.91	440.75
294.141	429.75
294.372	440.75
294.603	444.75
294.833	427.75
295.064	452.75
295.295	460.75
295.525	443.75
295.756	456.75
295.987	434.75
296.217	472.75
296.448	462.75
296.679	454.75
296.909	454.75
297.14	460.75
297.37	448.75
297.601	471.75
297.831	461.75
298.062	482.75
298.292	494.75
298.523	473.75
298.753	472.75
298.984	484.75
299.214	479.75
299.445	475.75
299.675	491.75
299.905	485.75
300.136	489.75
300.366	486.75
300.597	525.75
300.827	506.75
301.057	500.75
301.288	507.75
301.518	513.75
301.748	523.75
301.979	512.75
302.209	518.75
302.439	518.75
302.669	511.75
302.9	513.75
303.13	480.75
303.36	487.75
303.59	510.75
303.82	515.75
304.051	494.75
304.281	506.75
304.511	499.75
304.741	504.75
304.971	507.75
305.201	503.75
305.431	512.75
305.661	521.75
305.891	513.75
306.121	513.75
306.352	489.75
306.582	523.75
306.812	501.75
307.042	501.75
307.272	526.75
307.502	482.75
307.731	510.75
307.961	504.75
308.191	515.75
308.421	509.75
308.651	514.75
308.881	495.75
309.111	492.75
309.341	538.75
309.571	516.75
309.8	503.75
310.03	510.75
310.26	527.75
310.49	510.75
310.72	522.75
310.949	520.75
311.179	529.75
311.409	521.75
311.639	507.75
311.868	515.75
312.098	529.75
312.328	521.75
312.557	539.75
312.787	519.75
313.017	540.75
313.246	557.75
313.476	551.75
313.706	543.75
313.935	558.75
314.165	551.75
314.394	553.75
314.624	532.75
314.853	543.75
315.083	546.75
315.312	549.75
315.542	547.75
315.771	553.75
316.001	522.75
316.23	525.75
316.46	538.75
316.689	551.75
316.919	554.75
317.148	564.75
317.377	571.75
317.607	541.75
317.836	532.75
318.065	538.75
318.295	534.75
318.524	512.75
318.753	520.75
318.983	525.75
319.212	566.75
319.441	538.75
319.67	524.75
319.9	552.75
320.129	552.75
320.358	559.75
320.587	570.75
320.816	526.75
321.046	554.75
321.275	540.75
321.504	550.75
321.733	562.75
321.962	560.75
322.191	566.75
322.42	552.75
322.649	561.75
322.878	536.75
323.108	558.75
323.337	538.75
323.566	560.75
323.795	556.75
324.024	554.75
324.253	558.75
324.482	548.75
324.71	573.75
324.939	574.75
325.168	565.75
325.397	557.75
325.626	583.75
325.855	596.75
326.084	600.75
326.313	603.75
326.542	586.75
326.77	618.75
326.999	598.75
327.228	605.75
327.457	589.75
327.686	586.75
327.914	602.75
328.143	589.75
328.372	574.75
328.6	588.75
328.829	599.75
329.058	585.75
329.287	605.75
329.515	611.75
329.744	592.75
329.972	591.75
330.201	588.75
330.43	596.75
330.658	599.75
330.887	617.75
331.115	611.75
331.344	630.75
331.572	632.75
331.801	621.75
332.03	664.75
332.258	640.75
332.486	644.75
332.715	674.75
332.943	693.75
333.172	715.75
333.4	732.75
333.629	743.75
333.857	772.75
334.085	724.75
334.314	726.75
334.542	745.75
334.771	721.75
334.999	707.75
335.227	704.75
335.455	701.75
335.684	709.75
335.912	703.75
336.14	697.75
336.369	697.75
336.597	716.75
336.825	725.75
337.053	702.75
337.281	699.75
337.51	678.75
337.738	692.75
337.966	685.75
338.194	696.75
338.422	678.75
338.65	654.75
338.878	642.75
339.106	654.75
339.334	665.75
339.562	638.75
339.79	624.75
340.018	638.75
340.246	620.75
340.474	633.75
340.702	619.75
340.93	624.75
341.158	636.75
341.386	665.75
341.614	645.75
341.842	626.75
342.07	618.75
342.298	617.75
342.526	640.75
342.754	621.75
342.981	611.75
343.209	632.75
343.437	674.75
343.665	705.75
343.893	708.75
344.12	722.75
344.348	711.75
344.576	688.75
344.804	703.75
345.031	646.75
345.259	641.75
345.487	654.75
345.714	656.75
345.942	668.75
346.17	642.75
346.397	647.75
346.625	634.75
346.853	609.75
347.08	592.75
347.308	597.75
347.535	609.75
347.763	613.75
347.99	614.75
348.218	616.75
348.445	578.75
348.673	602.75
348.9	594.75
349.128	600.75
349.355	611.75
349.583	605.75
349.81	582.75
350.037	615.75
350.265	560.75
350.492	573.75
350.72	573.75
350.947	582.75
351.174	610.75
351.402	607.75
351.629	599.75
351.856	574.75
352.083	587.75
352.311	610.75
352.538	605.75
352.765	624.75
352.992	582.75
353.22	572.75
353.447	572.75
353.674	563.75
353.901	570.75
354.128	581.75
354.355	554.75
354.583	578.75
354.81	578.75
355.037	561.75
355.264	577.75
355.491	581.75
355.718	565.75
355.945	569.75
356.172	560.75
356.399	586.75
356.626	573.75
356.853	592.75
357.08	579.75
357.307	586.75
357.534	584.75
357.761	588.75
357.988	584.75
358.215	560.75
358.441	566.75
358.668	564.75
358.895	578.75
359.122	582.75
359.349	569.75
359.576	571.75
359.802	582.75
360.029	582.75
360.256	574.75
360.483	564.75
360.709	568.75
360.936	570.75
361.163	606.75
361.39	587.75
361.616	588.75
361.843	598.75
362.07	633.75
362.296	602.75
362.523	561.75
362.749	557.75
362.976	556.75
363.203	580.75
363.429	550.75
363.656	550.75
363.882	579.75
364.109	571.75
364.335	569.75
364.562	590.75
364.788	556.75
365.015	568.75
365.241	561.75
365.468	572.75
365.694	579.75
365.92	555.75
366.147	562.75
366.373	549.75
366.599	566.75
366.826	576.75
367.052	568.75
367.278	566.75
367.505	588.75
367.731	576.75
367.957	590.75
368.184	588.75
368.41	558.75
368.636	578.75
368.862	579.75
369.089	542.75
369.315	566.75
369.541	578.75
369.767	591.75
369.993	596.75
370.219	579.75
370.445	599.75
370.672	576.75
370.898	580.75
371.124	601.75
371.35	595.75
371.576	594.75
371.802	584.75
372.028	601.75
372.254	600.75
372.48	616.75
372.706	628.75
372.932	651.75
373.158	610.75
373.384	631.75
373.61	613.75
373.835	599.75
374.061	616.75
374.287	604.75
374.513	629.75
374.739	632.75
374.965	639.75
375.191	647.75
375.416	657.75
375.642	630.75
375.868	629.75
376.094	605.75
376.319	634.75
376.545	618.75
376.771	610.75
376.997	605.75
377.222	612.75
377.448	596.75
377.674	593.75
377.899	585.75
378.125	577.75
378.35	607.75
378.576	599.75
378.802	588.75
379.027	594.75
379.253	583.75
379.478	587.75
379.704	570.75
379.929	586.75
380.155	594.75
380.38	594.75
380.606	598.75
380.831	594.75
381.057	588.75
381.282	583.75
381.507	604.75
381.733	602.75
381.958	617.75
382.184	608.75
382.409	612.75
382.634	590.75
382.86	620.75
383.085	602.75
383.31	632.75
383.535	602.75
383.761	630.75
383.986	658.75
384.211	649.75
384.436	673.75
384.662	684.75
384.887	670.75
385.112	699.75
385.337	682.75
385.562	701.75
385.787	706.75
386.013	713.75
386.238	677.75
386.463	689.75
386.688	709.75
386.913	681.75
387.138	676.75
387.363	700.75
387.588	693.75
387.813	712.75
388.038	704.75
388.263	701.75
388.488	698.75
388.713	688.75
388.938	700.75
389.163	707.75
389.387	688.75
389.612	688.75
389.837	696.75
390.062	690.75
390.287	700.75
390.512	694.75
390.736	696.75
390.961	701.75
391.186	723.75
391.411	741.75
391.636	739.75
391.86	744.75
392.085	781.75
392.31	753.75
392.534	722.75
392.759	738.75
392.984	770.75
393.208	741.75
393.433	718.75
393.658	729.75
393.882	741.75
394.107	738.75
394.331	731.75
394.556	740.75
394.78	736.75
395.005	742.75
395.229	772.75
395.454	774.75
395.678	762.75
395.903	797.75
396.127	781.75
396.352	760.75
396.576	740.75
396.801	741.75
397.025	745.75
397.249	792.75
397.474	768.75
397.698	774.75
397.922	796.75
398.147	796.75
398.371	786.75
398.595	851.75
398.82	828.75
399.044	939.75
399.268	982.75
399.492	1112.75
399.717	1136.75
399.941	1159.75
400.165	1086.75
400.389	1026.75
400.613	952.75
400.837	909.75
401.062	893.75
401.286	880.75
401.51	881.75
401.734	856.75
401.958	874.75
402.182	868.75
402.406	881.75
402.63	901.75
402.854	896.75
403.078	882.75
403.302	894.75
403.526	926.75
403.75	933.75
403.974	940.75
404.198	910.75
404.422	970.75
404.645	954.75
404.869	958.75
405.093	906.75
405.317	933.75
405.541	932.75
405.765	927.75
405.988	944.75
406.212	932.75
406.436	941.75
406.66	965.75
406.883	983.75
407.107	993.75
407.331	1053.75
407.555	1088.75
407.778	1060.75
408.002	1047.75
408.226	1027.75
408.449	1038.75
408.673	977.75
408.896	952.75
409.12	998.75
409.344	989.75
409.567	948.75
409.791	970.75
410.014	924.75
410.238	922.75
410.461	950.75
410.685	946.75
410.908	921.75
411.132	919.75
411.355	905.75
411.578	897.75
411.802	922.75
412.025	929.75
412.249	924.75
412.472	907.75
412.695	877.75
412.919	891.75
413.142	884.75
413.365	882.75
413.589	882.75
413.812	868.75
414.035	880.75
414.258	875.75
414.482	886.75
414.705	895.75
414.928	898.75
415.151	877.75
415.374	903.75
415.597	882.75
415.821	862.75
416.044	857.75
416.267	858.75
416.49	858.75
416.713	834.75
416.936	852.75
417.159	864.75
417.382	844.75
417.605	843.75
417.828	828.75
418.051	841.75
418.274	858.75
418.497	851.75
418.72	866.75
418.943	876.75
419.166	948.75
419.389	962.75
419.611	987.75
419.834	950.75
420.057	903.75
420.28	884.75
420.503	861.75
420.726	869.75
420.948	861.75
421.171	875.75
421.394	853.75
421.617	870.75
421.839	872.75
422.062	882.75
422.285	845.75
422.507	884.75
422.73	878.75
422.953	884.75
423.175	882.75
423.398	909.75
423.621	890.75
423.843	925.75
424.066	884.75
424.288	888.75
424.511	894.75
424.733	889.75
424.956	889.75
425.178	874.75
425.401	881.75
425.623	857.75
425.846	860.75
426.068	864.75
426.291	866.75
426.513	840.75
426.735	821.75
426.958	842.75
427.18	805.75
427.402	829.75
427.625	802.75
427.847	809.75
428.069	832.75
428.292	818.75
428.514	822.75
428.736	799.75
428.958	787.75
429.181	769.75
429.403	799.75
429.625	802.75
429.847	803.75
430.069	804.75
430.292	765.75
430.514	786.75
430.736	794.75
430.958	792.75
431.18	789.75
431.402	805.75
431.624	825.75
431.846	813.75
432.068	806.75
432.29	811.75
432.512	794.75
432.734	796.75
432.956	810.75
433.178	860.75
433.4	836.75
433.622	825.75
433.844	808.75
434.066	830.75
434.287	837.75
434.509	854.75
434.731	874.75
434.953	896.75
435.175	873.75
435.397	874.75
435.618	859.75
435.84	844.75
436.062	835.75
436.284	829.75
436.505	827.75
436.727	826.75
436.949	829.75
437.17	822.75
437.392	790.75
437.614	810.75
437.835	797.75
438.057	795.75
438.278	798.75
438.5	748.75
438.721	788.75
438.943	802.75
439.165	805.75
439.386	782.75
439.608	802.75
439.829	807.75
440.05	839.75
440.272	822.75
440.493	813.75
440.715	828.75
440.936	851.75
441.158	861.75
441.379	885.75
441.6	890.75
441.822	887.75
442.043	890.75
442.264	888.75
442.486	888.75
442.707	874.75
442.928	875.75
443.149	911.75
443.371	928.75
443.592	894.75
443.813	933.75
444.034	915.75
444.255	926.75
444.476	958.75
444.698	1009.75
444.919	1013.75
445.14	1120.75
445.361	1035.75
445.582	919.75
445.803	894.75
446.024	869.75
446.245	868.75
446.466	845.75
446.687	845.75
446.908	845.75
447.129	822.75
447.35	792.75
447.571	794.75
447.792	777.75
448.013	792.75
448.234	768.75
448.455	801.75
448.675	779.75
448.896	780.75
449.117	755.75
449.338	756.75
449.559	748.75
449.779	758.75
450	768.75
450.221	757.75
450.442	748.75
450.662	774.75
450.883	772.75
451.104	776.75
451.324	770.75
451.545	790.75
451.766	762.75
451.986	741.75
452.207	742.75
452.428	734.75
452.648	747.75
452.869	736.75
453.089	728.75
453.31	713.75
453.53	728.75
453.751	720.75
453.971	732.75
454.192	740.75
454.412	735.75
454.633	752.75
454.853	735.75
455.073	726.75
455.294	713.75
455.514	750.75
455.734	752.75
455.955	722.75
456.175	729.75
456.395	707.75
456.616	709.75
456.836	737.75
457.056	737.75
457.276	702.75
457.497	743.75
457.717	726.75
457.937	721.75
458.157	741.75
458.377	760.75
458.598	772.75
458.818	741.75
459.038	800.75
459.258	784.75
459.478	814.75
459.698	850.75
459.918	876.75
460.138	894.75
460.358	938.75
460.578	935.75
460.798	953.75
461.018	948.75
461.238	947.75
461.458	974.75
461.678	956.75
461.898	917.75
462.118	953.75
462.338	994.75
462.558	1030.75
462.777	1069.75
462.997	1104.75
463.217	1172.75
463.437	1204.75
463.657	1099.75
463.876	1085.75
464.096	1094.75
464.316	1102.75
464.536	1084.75
464.755	1039.75
464.975	1018.75
465.195	986.75
465.414	940.75
465.634	900.75
465.854	860.75
466.073	858.75
466.293	848.75
466.512	835.75
466.732	822.75
466.951	812.75
467.171	817.75
467.391	808.75
467.61	819.75
467.829	782.75
468.049	828.75
468.268	774.75
468.488	798.75
468.707	798.75
468.927	807.75
469.146	787.75
469.365	803.75
469.585	787.75
469.804	809.75
470.023	808.75
470.243	819.75
470.462	842.75
470.681	820.75
470.901	819.75
471.12	825.75
471.339	808.75
471.558	819.75
471.777	838.75
471.997	779.75
472.216	761.75
472.435	788.75
472.654	747.75
472.873	774.75
473.092	772.75
473.311	771.75
473.53	779.75
473.749	783.75
473.968	762.75
474.187	789.75
474.406	778.75
474.625	794.75
474.844	782.75
475.063	817.75
475.282	792.75
475.501	786.75
475.72	782.75
475.939	805.75
476.158	800.75
476.377	804.75
476.596	842.75
476.814	822.75
477.033	809.75
477.252	842.75
477.471	832.75
477.69	857.75
477.908	893.75
478.127	901.75
478.346	877.75
478.564	927.75
478.783	900.75
479.002	929.75
479.22	947.75
479.439	958.75
479.658	932.75
479.876	945.75
480.095	975.75
480.313	958.75
480.532	998.75
480.751	1009.75
480.969	938.75
481.188	938.75
481.406	925.75
481.624	907.75
481.843	926.75
482.061	921.75
482.28	916.75
482.498	892.75
482.717	895.75
482.935	908.75
483.153	906.75
483.372	894.75
483.59	939.75
483.808	936.75
484.027	919.75
484.245	928.75
484.463	921.75
484.681	916.75
484.9	929.75
485.118	952.75
485.336	936.75
485.554	941.75
485.772	924.75
485.99	940.75
486.209	952.75
486.427	962.75
486.645	953.75
486.863	924.75
487.081	933.75
487.299	938.75
487.517	949.75
487.735	952.75
487.953	954.75
488.171	974.75
488.389	942.75
488.607	958.75
488.825	942.75
489.043	923.75
489.261	911.75
489.479	922.75
489.696	932.75
489.914	942.75
490.132	960.75
490.35	949.75
490.568	961.75
490.786	951.75
491.003	971.75
491.221	952.75
491.439	964.75
491.657	974.75
491.874	998.75
492.092	1020.75
492.31	1000.75
492.527	969.75
492.745	962.75
492.963	984.75
493.18	1000.75
493.398	1005.75
493.615	999.75
493.833	1006.75
494.05	1014.75
494.268	1008.75
494.485	1015.75
494.703	1000.75
494.92	1011.75
495.138	1054.75
495.355	987.75
495.573	1001.75
495.79	1008.75
496.008	1051.75
496.225	1053.75
496.442	1068.75
496.66	1074.75
496.877	1047.75
497.094	1081.75
497.312	1107.75
497.529	1101.75
497.746	1152.75
497.963	1156.75
498.181	1222.75
498.398	1290.75
498.615	1299.75
498.832	1342.75
499.049	1451.75
499.267	1566.75
499.484	1655.75
499.701	1805.75
499.918	1914.75
500.135	2128.75
500.352	2355.75
500.569	2381.75
500.786	2387.75
