Data from NiCl2@0.25M.TitratingCurve.Agarose3%dH2O.NegLispCup.LampEnergy10.LIBS07252019_HRD10591_18-22-46-572.txt Node
Date: Thu Jul 25 18:22:46 EDT 2019
User: cochatt
Spectrometer: HR+D1059
Trigger mode: 1
Integration Time (sec): 1.000000E-1
Scans to average: 1
Electric dark correction enabled: true
Nonlinearity correction enabled: false
Boxcar width: 0
XAxis mode: Wavelengths
Number of Pixels in Spectrum: 2048
>>>>>Begin Spectral Data<<<<<
223.165	-12.56
223.4	-12.56
223.635	-12.56
223.869	-11.56
224.104	-20.56
224.338	-8.56
224.573	-14.56
224.808	-17.56
225.042	-12.56
225.277	-11.56
225.511	-10.56
225.746	0.44
225.98	15.44
226.215	16.44
226.449	6.44
226.683	25.44
226.918	23.44
227.152	32.44
227.387	37.44
227.621	30.44
227.856	24.44
228.09	38.44
228.324	38.44
228.559	54.44
228.793	60.44
229.027	87.44
229.262	88.44
229.496	89.44
229.73	98.44
229.964	106.44
230.199	94.44
230.433	108.44
230.667	101.44
230.901	98.44
231.136	108.44
231.37	100.44
231.604	116.44
231.838	114.44
232.072	112.44
232.306	107.44
232.541	115.44
232.775	126.44
233.009	116.44
233.243	100.44
233.477	122.44
233.711	118.44
233.945	113.44
234.179	123.44
234.413	122.44
234.647	109.44
234.881	107.44
235.115	115.44
235.349	124.44
235.583	115.44
235.817	112.44
236.051	111.44
236.285	111.44
236.519	114.44
236.753	134.44
236.987	105.44
237.221	124.44
237.455	126.44
237.689	117.44
237.922	127.44
238.156	122.44
238.39	107.44
238.624	126.44
238.858	126.44
239.091	117.44
239.325	114.44
239.559	132.44
239.793	130.44
240.027	128.44
240.26	134.44
240.494	134.44
240.728	132.44
240.961	133.44
241.195	121.44
241.429	138.44
241.662	139.44
241.896	134.44
242.13	132.44
242.363	138.44
242.597	134.44
242.83	146.44
243.064	122.44
243.298	130.44
243.531	133.44
243.765	146.44
243.998	151.44
244.232	153.44
244.465	145.44
244.699	130.44
244.932	156.44
245.166	147.44
245.399	143.44
245.633	148.44
245.866	148.44
246.099	169.44
246.333	151.44
246.566	162.44
246.8	138.44
247.033	138.44
247.266	146.44
247.5	154.44
247.733	174.44
247.966	160.44
248.2	161.44
248.433	164.44
248.666	174.44
248.899	161.44
249.133	175.44
249.366	167.44
249.599	155.44
249.832	170.44
250.066	172.44
250.299	185.44
250.532	187.44
250.765	157.44
250.998	174.44
251.231	176.44
251.465	167.44
251.698	172.44
251.931	163.44
252.164	168.44
252.397	180.44
252.63	172.44
252.863	181.44
253.096	190.44
253.329	187.44
253.562	185.44
253.795	180.44
254.028	180.44
254.261	170.44
254.494	192.44
254.727	186.44
254.96	186.44
255.193	186.44
255.426	195.44
255.659	203.44
255.892	208.44
256.124	192.44
256.357	174.44
256.59	182.44
256.823	204.44
257.056	202.44
257.289	208.44
257.521	199.44
257.754	194.44
257.987	191.44
258.22	197.44
258.452	211.44
258.685	205.44
258.918	190.44
259.151	192.44
259.383	215.44
259.616	204.44
259.849	192.44
260.081	203.44
260.314	212.44
260.547	201.44
260.779	208.44
261.012	208.44
261.244	214.44
261.477	201.44
261.71	188.44
261.942	198.44
262.175	226.44
262.407	203.44
262.64	207.44
262.872	224.44
263.105	200.44
263.337	233.44
263.57	206.44
263.802	222.44
264.035	210.44
264.267	188.44
264.499	202.44
264.732	222.44
264.964	217.44
265.197	208.44
265.429	230.44
265.661	245.44
265.894	239.44
266.126	241.44
266.358	231.44
266.591	235.44
266.823	225.44
267.055	234.44
267.287	236.44
267.52	239.44
267.752	216.44
267.984	210.44
268.216	246.44
268.448	239.44
268.681	249.44
268.913	231.44
269.145	232.44
269.377	250.44
269.609	233.44
269.841	252.44
270.073	230.44
270.306	248.44
270.538	254.44
270.77	236.44
271.002	258.44
271.234	244.44
271.466	224.44
271.698	247.44
271.93	246.44
272.162	263.44
272.394	251.44
272.626	242.44
272.858	257.44
273.09	258.44
273.322	272.44
273.553	243.44
273.785	240.44
274.017	260.44
274.249	239.44
274.481	253.44
274.713	273.44
274.945	278.44
275.176	262.44
275.408	250.44
275.64	260.44
275.872	259.44
276.104	281.44
276.335	252.44
276.567	242.44
276.799	269.44
277.031	258.44
277.262	269.44
277.494	286.44
277.726	283.44
277.957	269.44
278.189	264.44
278.421	282.44
278.652	266.44
278.884	274.44
279.115	283.44
279.347	282.44
279.579	274.44
279.81	268.44
280.042	283.44
280.273	279.44
280.505	278.44
280.736	276.44
280.968	275.44
281.199	276.44
281.431	276.44
281.662	284.44
281.894	319.44
282.125	278.44
282.356	304.44
282.588	290.44
282.819	298.44
283.051	289.44
283.282	307.44
283.513	293.44
283.745	290.44
283.976	293.44
284.207	304.44
284.439	311.44
284.67	290.44
284.901	310.44
285.132	319.44
285.364	295.44
285.595	288.44
285.826	303.44
286.057	306.44
286.288	299.44
286.52	304.44
286.751	306.44
286.982	302.44
287.213	322.44
287.444	325.44
287.675	313.44
287.906	318.44
288.138	308.44
288.369	318.44
288.6	310.44
288.831	307.44
289.062	312.44
289.293	306.44
289.524	320.44
289.755	321.44
289.986	332.44
290.217	334.44
290.448	319.44
290.679	326.44
290.91	317.44
291.141	315.44
291.371	319.44
291.602	320.44
291.833	332.44
292.064	321.44
292.295	317.44
292.526	318.44
292.757	309.44
292.987	337.44
293.218	328.44
293.449	328.44
293.68	321.44
293.91	322.44
294.141	323.44
294.372	327.44
294.603	336.44
294.833	337.44
295.064	333.44
295.295	320.44
295.525	326.44
295.756	333.44
295.987	343.44
296.217	362.44
296.448	329.44
296.679	334.44
296.909	359.44
297.14	347.44
297.37	345.44
297.601	340.44
297.831	359.44
298.062	352.44
298.292	355.44
298.523	364.44
298.753	358.44
298.984	355.44
299.214	339.44
299.445	359.44
299.675	356.44
299.905	359.44
300.136	376.44
300.366	361.44
300.597	352.44
300.827	376.44
301.057	367.44
301.288	374.44
301.518	361.44
301.748	356.44
301.979	373.44
302.209	370.44
302.439	378.44
302.669	373.44
302.9	364.44
303.13	382.44
303.36	370.44
303.59	375.44
303.82	376.44
304.051	357.44
304.281	369.44
304.511	368.44
304.741	400.44
304.971	362.44
305.201	389.44
305.431	371.44
305.661	369.44
305.891	402.44
306.121	364.44
306.352	357.44
306.582	370.44
306.812	356.44
307.042	340.44
307.272	384.44
307.502	363.44
307.731	356.44
307.961	372.44
308.191	350.44
308.421	359.44
308.651	368.44
308.881	351.44
309.111	361.44
309.341	361.44
309.571	377.44
309.8	376.44
310.03	366.44
310.26	360.44
310.49	350.44
310.72	360.44
310.949	370.44
311.179	347.44
311.409	374.44
311.639	378.44
311.868	372.44
312.098	380.44
312.328	376.44
312.557	369.44
312.787	397.44
313.017	381.44
313.246	374.44
313.476	387.44
313.706	415.44
313.935	406.44
314.165	374.44
314.394	390.44
314.624	383.44
314.853	378.44
315.083	406.44
315.312	381.44
315.542	379.44
315.771	390.44
316.001	398.44
316.23	401.44
316.46	389.44
316.689	398.44
316.919	399.44
317.148	378.44
317.377	378.44
317.607	388.44
317.836	364.44
318.065	374.44
318.295	402.44
318.524	394.44
318.753	380.44
318.983	407.44
319.212	366.44
319.441	374.44
319.67	392.44
319.9	382.44
320.129	401.44
320.358	380.44
320.587	375.44
320.816	362.44
321.046	392.44
321.275	390.44
321.504	396.44
321.733	405.44
321.962	397.44
322.191	382.44
322.42	392.44
322.649	402.44
322.878	387.44
323.108	389.44
323.337	400.44
323.566	420.44
323.795	388.44
324.024	392.44
324.253	391.44
324.482	403.44
324.71	421.44
324.939	403.44
325.168	408.44
325.397	404.44
325.626	408.44
325.855	434.44
326.084	432.44
326.313	433.44
326.542	428.44
326.77	432.44
326.999	430.44
327.228	410.44
327.457	408.44
327.686	421.44
327.914	425.44
328.143	429.44
328.372	434.44
328.6	419.44
328.829	433.44
329.058	403.44
329.287	441.44
329.515	423.44
329.744	423.44
329.972	440.44
330.201	430.44
330.43	418.44
330.658	418.44
330.887	441.44
331.115	461.44
331.344	464.44
331.572	457.44
331.801	449.44
332.03	450.44
332.258	474.44
332.486	479.44
332.715	485.44
332.943	512.44
333.172	539.44
333.4	529.44
333.629	556.44
333.857	560.44
334.085	554.44
334.314	550.44
334.542	549.44
334.771	553.44
334.999	519.44
335.227	532.44
335.455	534.44
335.684	496.44
335.912	514.44
336.14	506.44
336.369	521.44
336.597	503.44
336.825	523.44
337.053	501.44
337.281	523.44
337.51	502.44
337.738	483.44
337.966	468.44
338.194	481.44
338.422	467.44
338.65	443.44
338.878	477.44
339.106	488.44
339.334	484.44
339.562	455.44
339.79	458.44
340.018	460.44
340.246	456.44
340.474	452.44
340.702	452.44
340.93	426.44
341.158	452.44
341.386	438.44
341.614	454.44
341.842	456.44
342.07	434.44
342.298	437.44
342.526	427.44
342.754	448.44
342.981	444.44
343.209	445.44
343.437	470.44
343.665	489.44
343.893	520.44
344.12	555.44
344.348	530.44
344.576	513.44
344.804	492.44
345.031	469.44
345.259	476.44
345.487	474.44
345.714	421.44
345.942	464.44
346.17	459.44
346.397	444.44
346.625	474.44
346.853	426.44
347.08	418.44
347.308	409.44
347.535	425.44
347.763	435.44
347.99	441.44
348.218	451.44
348.445	425.44
348.673	434.44
348.9	431.44
349.128	426.44
349.355	396.44
349.583	460.44
349.81	443.44
350.037	420.44
350.265	430.44
350.492	432.44
350.72	437.44
350.947	399.44
351.174	406.44
351.402	407.44
351.629	420.44
351.856	419.44
352.083	402.44
352.311	429.44
352.538	442.44
352.765	396.44
352.992	415.44
353.22	398.44
353.447	411.44
353.674	427.44
353.901	422.44
354.128	408.44
354.355	410.44
354.583	404.44
354.81	411.44
355.037	435.44
355.264	408.44
355.491	434.44
355.718	410.44
355.945	413.44
356.172	423.44
356.399	417.44
356.626	442.44
356.853	429.44
357.08	445.44
357.307	426.44
357.534	423.44
357.761	410.44
357.988	419.44
358.215	407.44
358.441	416.44
358.668	425.44
358.895	411.44
359.122	422.44
359.349	402.44
359.576	420.44
359.802	416.44
360.029	419.44
360.256	402.44
360.483	422.44
360.709	420.44
360.936	430.44
361.163	431.44
361.39	427.44
361.616	414.44
361.843	410.44
362.07	412.44
362.296	430.44
362.523	418.44
362.749	426.44
362.976	434.44
363.203	430.44
363.429	394.44
363.656	412.44
363.882	408.44
364.109	423.44
364.335	408.44
364.562	407.44
364.788	402.44
365.015	407.44
365.241	416.44
365.468	420.44
365.694	409.44
365.92	423.44
366.147	415.44
366.373	418.44
366.599	413.44
366.826	410.44
367.052	414.44
367.278	430.44
367.505	424.44
367.731	410.44
367.957	422.44
368.184	435.44
368.41	438.44
368.636	426.44
368.862	413.44
369.089	451.44
369.315	451.44
369.541	452.44
369.767	454.44
369.993	440.44
370.219	444.44
370.445	420.44
370.672	457.44
370.898	440.44
371.124	441.44
371.35	443.44
371.576	431.44
371.802	447.44
372.028	450.44
372.254	455.44
372.48	448.44
372.706	466.44
372.932	452.44
373.158	456.44
373.384	467.44
373.61	446.44
373.835	464.44
374.061	485.44
374.287	472.44
374.513	472.44
374.739	491.44
374.965	489.44
375.191	512.44
375.416	488.44
375.642	480.44
375.868	472.44
376.094	467.44
376.319	472.44
376.545	449.44
376.771	449.44
376.997	441.44
377.222	451.44
377.448	452.44
377.674	450.44
377.899	462.44
378.125	433.44
378.35	455.44
378.576	432.44
378.802	425.44
379.027	471.44
379.253	449.44
379.478	464.44
379.704	448.44
379.929	442.44
380.155	435.44
380.38	451.44
380.606	442.44
380.831	440.44
381.057	450.44
381.282	469.44
381.507	456.44
381.733	464.44
381.958	461.44
382.184	471.44
382.409	473.44
382.634	463.44
382.86	461.44
383.085	475.44
383.31	489.44
383.535	491.44
383.761	498.44
383.986	515.44
384.211	490.44
384.436	516.44
384.662	547.44
384.887	538.44
385.112	539.44
385.337	538.44
385.562	544.44
385.787	546.44
386.013	544.44
386.238	534.44
386.463	536.44
386.688	540.44
386.913	538.44
387.138	527.44
387.363	546.44
387.588	560.44
387.813	546.44
388.038	551.44
388.263	562.44
388.488	556.44
388.713	539.44
388.938	554.44
389.163	526.44
389.387	491.44
389.612	516.44
389.837	516.44
390.062	512.44
390.287	526.44
390.512	526.44
390.736	537.44
390.961	541.44
391.186	552.44
391.411	579.44
391.636	578.44
391.86	594.44
392.085	617.44
392.31	622.44
392.534	580.44
392.759	597.44
392.984	598.44
393.208	581.44
393.433	562.44
393.658	578.44
393.882	588.44
394.107	570.44
394.331	576.44
394.556	595.44
394.78	587.44
395.005	594.44
395.229	603.44
395.454	624.44
395.678	601.44
395.903	586.44
396.127	582.44
396.352	601.44
396.576	568.44
396.801	588.44
397.025	571.44
397.249	600.44
397.474	602.44
397.698	607.44
397.922	622.44
398.147	602.44
398.371	624.44
398.595	652.44
398.82	676.44
399.044	688.44
399.268	792.44
399.492	870.44
399.717	979.44
399.941	964.44
400.165	890.44
400.389	801.44
400.613	754.44
400.837	704.44
401.062	680.44
401.286	684.44
401.51	676.44
401.734	666.44
401.958	676.44
402.182	666.44
402.406	706.44
402.63	720.44
402.854	706.44
403.078	712.44
403.302	746.44
403.526	759.44
403.75	774.44
403.974	783.44
404.198	758.44
404.422	785.44
404.645	757.44
404.869	756.44
405.093	735.44
405.317	743.44
405.541	736.44
405.765	708.44
405.988	729.44
406.212	742.44
406.436	732.44
406.66	763.44
406.883	759.44
407.107	847.44
407.331	871.44
407.555	874.44
407.778	842.44
408.002	839.44
408.226	823.44
408.449	780.44
408.673	790.44
408.896	794.44
409.12	772.44
409.344	784.44
409.567	777.44
409.791	781.44
410.014	780.44
410.238	759.44
410.461	766.44
410.685	730.44
410.908	731.44
411.132	744.44
411.355	704.44
411.578	715.44
411.802	696.44
412.025	720.44
412.249	706.44
412.472	701.44
412.695	697.44
412.919	681.44
413.142	722.44
413.365	720.44
413.589	693.44
413.812	690.44
414.035	674.44
414.258	680.44
414.482	697.44
414.705	680.44
414.928	726.44
415.151	703.44
415.374	678.44
415.597	688.44
415.821	663.44
416.044	670.44
416.267	667.44
416.49	665.44
416.713	672.44
416.936	657.44
417.159	659.44
417.382	671.44
417.605	690.44
417.828	689.44
418.051	703.44
418.274	684.44
418.497	664.44
418.72	675.44
418.943	711.44
419.166	741.44
419.389	785.44
419.611	759.44
419.834	723.44
420.057	701.44
420.28	719.44
420.503	672.44
420.726	681.44
420.948	690.44
421.171	686.44
421.394	679.44
421.617	662.44
421.839	665.44
422.062	705.44
422.285	679.44
422.507	681.44
422.73	698.44
422.953	683.44
423.175	706.44
423.398	695.44
423.621	706.44
423.843	711.44
424.066	692.44
424.288	712.44
424.511	674.44
424.733	674.44
424.956	679.44
425.178	686.44
425.401	697.44
425.623	670.44
425.846	650.44
426.068	638.44
426.291	651.44
426.513	649.44
426.735	645.44
426.958	645.44
427.18	640.44
427.402	622.44
427.625	620.44
427.847	631.44
428.069	599.44
428.292	604.44
428.514	628.44
428.736	582.44
428.958	588.44
429.181	585.44
429.403	586.44
429.625	595.44
429.847	587.44
430.069	589.44
430.292	601.44
430.514	580.44
430.736	590.44
430.958	619.44
431.18	590.44
431.402	605.44
431.624	603.44
431.846	586.44
432.068	587.44
432.29	625.44
432.512	599.44
432.734	614.44
432.956	593.44
433.178	603.44
433.4	606.44
433.622	634.44
433.844	594.44
434.066	602.44
434.287	637.44
434.509	626.44
434.731	634.44
434.953	668.44
435.175	672.44
435.397	666.44
435.618	628.44
435.84	630.44
436.062	620.44
436.284	610.44
436.505	631.44
436.727	611.44
436.949	603.44
437.17	613.44
437.392	603.44
437.614	608.44
437.835	601.44
438.057	586.44
438.278	571.44
438.5	582.44
438.721	570.44
438.943	618.44
439.165	590.44
439.386	567.44
439.608	592.44
439.829	612.44
440.05	603.44
440.272	603.44
440.493	617.44
440.715	611.44
440.936	620.44
441.158	622.44
441.379	629.44
441.6	671.44
441.822	669.44
442.043	652.44
442.264	656.44
442.486	670.44
442.707	665.44
442.928	649.44
443.149	654.44
443.371	676.44
443.592	648.44
443.813	646.44
444.034	678.44
444.255	697.44
444.476	725.44
444.698	773.44
444.919	785.44
445.14	884.44
445.361	760.44
445.582	688.44
445.803	696.44
446.024	636.44
446.245	613.44
446.466	630.44
446.687	618.44
446.908	606.44
447.129	601.44
447.35	595.44
447.571	595.44
447.792	568.44
448.013	568.44
448.234	547.44
448.455	566.44
448.675	571.44
448.896	567.44
449.117	541.44
449.338	530.44
449.559	529.44
449.779	551.44
450	555.44
450.221	564.44
450.442	566.44
450.662	572.44
450.883	552.44
451.104	568.44
451.324	579.44
451.545	566.44
451.766	550.44
451.986	540.44
452.207	550.44
452.428	566.44
452.648	548.44
452.869	554.44
453.089	539.44
453.31	549.44
453.53	541.44
453.751	544.44
453.971	544.44
454.192	563.44
454.412	545.44
454.633	527.44
454.853	500.44
455.073	541.44
455.294	530.44
455.514	523.44
455.734	542.44
455.955	517.44
456.175	541.44
456.395	498.44
456.616	520.44
456.836	537.44
457.056	511.44
457.276	512.44
457.497	532.44
457.717	544.44
457.937	520.44
458.157	547.44
458.377	539.44
458.598	549.44
458.818	555.44
459.038	595.44
459.258	619.44
459.478	601.44
459.698	636.44
459.918	656.44
460.138	690.44
460.358	690.44
460.578	716.44
460.798	701.44
461.018	731.44
461.238	686.44
461.458	705.44
461.678	712.44
461.898	715.44
462.118	708.44
462.338	762.44
462.558	759.44
462.777	788.44
462.997	876.44
463.217	912.44
463.437	935.44
463.657	867.44
463.876	809.44
464.096	844.44
464.316	821.44
464.536	824.44
464.755	764.44
464.975	777.44
465.195	727.44
465.414	700.44
465.634	672.44
465.854	643.44
466.073	626.44
466.293	599.44
466.512	587.44
466.732	593.44
466.951	587.44
467.171	595.44
467.391	599.44
467.61	581.44
467.829	568.44
468.049	585.44
468.268	562.44
468.488	566.44
468.707	562.44
468.927	600.44
469.146	546.44
469.365	559.44
469.585	582.44
469.804	597.44
470.023	598.44
470.243	595.44
470.462	607.44
470.681	602.44
470.901	592.44
471.12	591.44
471.339	606.44
471.558	578.44
471.777	579.44
471.997	561.44
472.216	556.44
472.435	536.44
472.654	533.44
472.873	554.44
473.092	560.44
473.311	567.44
473.53	546.44
473.749	570.44
473.968	538.44
474.187	544.44
474.406	537.44
474.625	562.44
474.844	550.44
475.063	581.44
475.282	547.44
475.501	559.44
475.72	563.44
475.939	582.44
476.158	562.44
476.377	562.44
476.596	549.44
476.814	586.44
477.033	581.44
477.252	609.44
477.471	628.44
477.69	637.44
477.908	645.44
478.127	662.44
478.346	658.44
478.564	676.44
478.783	674.44
479.002	702.44
479.22	690.44
479.439	681.44
479.658	678.44
479.876	675.44
480.095	692.44
480.313	710.44
480.532	737.44
480.751	707.44
480.969	671.44
481.188	649.44
481.406	670.44
481.624	648.44
481.843	618.44
482.061	636.44
482.28	622.44
482.498	630.44
482.717	626.44
482.935	614.44
483.153	637.44
483.372	630.44
483.59	636.44
483.808	623.44
484.027	621.44
484.245	632.44
484.463	632.44
484.681	660.44
484.9	672.44
485.118	632.44
485.336	658.44
485.554	632.44
485.772	630.44
485.99	631.44
486.209	688.44
486.427	665.44
486.645	664.44
486.863	653.44
487.081	658.44
487.299	644.44
487.517	638.44
487.735	660.44
487.953	657.44
488.171	659.44
488.389	650.44
488.607	650.44
488.825	646.44
489.043	653.44
489.261	640.44
489.479	650.44
489.696	649.44
489.914	658.44
490.132	678.44
490.35	657.44
490.568	664.44
490.786	694.44
491.003	640.44
491.221	676.44
491.439	678.44
491.657	677.44
491.874	666.44
492.092	682.44
492.31	683.44
492.527	683.44
492.745	674.44
492.963	678.44
493.18	692.44
493.398	700.44
493.615	697.44
493.833	696.44
494.05	703.44
494.268	701.44
494.485	690.44
494.703	696.44
494.92	699.44
495.138	675.44
495.355	702.44
495.573	708.44
495.79	713.44
496.008	736.44
496.225	726.44
496.442	726.44
496.66	731.44
496.877	751.44
497.094	762.44
497.312	775.44
497.529	794.44
497.746	804.44
497.963	828.44
498.181	839.44
498.398	878.44
498.615	940.44
498.832	976.44
499.049	1061.44
499.267	1148.44
499.484	1262.44
499.701	1358.44
499.918	1505.44
500.135	1682.44
500.352	1928.44
500.569	1956.44
500.786	1947.44
501.003	1833.44
501.22	1619.44
501.437	1467.44
