Data from NiCl2@0.0625M.TitratingCurve.Agarose3%dH2O.NegLispCup.LampEnergy10.LIBS07252019_HRD10591_18-35-12-577.txt Node
Date: Thu Jul 25 18:35:12 EDT 2019
User: cochatt
Spectrometer: HR+D1059
Trigger mode: 1
Integration Time (sec): 1.000000E-1
Scans to average: 1
Electric dark correction enabled: true
Nonlinearity correction enabled: false
Boxcar width: 0
XAxis mode: Wavelengths
Number of Pixels in Spectrum: 2048
>>>>>Begin Spectral Data<<<<<
223.165	-20.81
223.4	-20.81
223.635	-20.81
223.869	-31.81
224.104	-34.81
224.338	-11.81
224.573	-7.81
224.808	-8.81
225.042	0.19
225.277	8.19
225.511	6.19
225.746	9.19
225.98	14.19
226.215	4.19
226.449	9.19
226.683	26.19
226.918	15.19
227.152	23.19
227.387	45.19
227.621	40.19
227.856	40.19
228.09	51.19
228.324	42.19
228.559	56.19
228.793	78.19
229.027	148.19
229.262	156.19
229.496	148.19
229.73	149.19
229.964	149.19
230.199	192.19
230.433	175.19
230.667	181.19
230.901	186.19
231.136	177.19
231.37	190.19
231.604	191.19
231.838	190.19
232.072	185.19
232.306	213.19
232.541	209.19
232.775	192.19
233.009	176.19
233.243	181.19
233.477	203.19
233.711	205.19
233.945	211.19
234.179	203.19
234.413	205.19
234.647	212.19
234.881	230.19
235.115	202.19
235.349	221.19
235.583	216.19
235.817	211.19
236.051	206.19
236.285	223.19
236.519	210.19
236.753	206.19
236.987	209.19
237.221	226.19
237.455	220.19
237.689	224.19
237.922	259.19
238.156	233.19
238.39	233.19
238.624	230.19
238.858	236.19
239.091	248.19
239.325	245.19
239.559	258.19
239.793	259.19
240.027	262.19
240.26	267.19
240.494	276.19
240.728	272.19
240.961	277.19
241.195	265.19
241.429	283.19
241.662	290.19
241.896	292.19
242.13	312.19
242.363	294.19
242.597	290.19
242.83	297.19
243.064	277.19
243.298	279.19
243.531	292.19
243.765	306.19
243.998	307.19
244.232	322.19
244.465	322.19
244.699	308.19
244.932	324.19
245.166	331.19
245.399	345.19
245.633	336.19
245.866	343.19
246.099	323.19
246.333	349.19
246.566	350.19
246.8	356.19
247.033	342.19
247.266	342.19
247.5	377.19
247.733	372.19
247.966	361.19
248.2	370.19
248.433	368.19
248.666	353.19
248.899	357.19
249.133	357.19
249.366	382.19
249.599	385.19
249.832	369.19
250.066	389.19
250.299	381.19
250.532	411.19
250.765	382.19
250.998	398.19
251.231	413.19
251.465	394.19
251.698	410.19
251.931	410.19
252.164	430.19
252.397	409.19
252.63	433.19
252.863	437.19
253.096	412.19
253.329	438.19
253.562	434.19
253.795	413.19
254.028	425.19
254.261	441.19
254.494	433.19
254.727	437.19
254.96	445.19
255.193	460.19
255.426	445.19
255.659	455.19
255.892	444.19
256.124	461.19
256.357	454.19
256.59	472.19
256.823	460.19
257.056	474.19
257.289	471.19
257.521	454.19
257.754	489.19
257.987	472.19
258.22	456.19
258.452	474.19
258.685	492.19
258.918	493.19
259.151	486.19
259.383	490.19
259.616	510.19
259.849	508.19
260.081	513.19
260.314	506.19
260.547	486.19
260.779	516.19
261.012	504.19
261.244	530.19
261.477	533.19
261.71	508.19
261.942	544.19
262.175	514.19
262.407	524.19
262.64	529.19
262.872	539.19
263.105	544.19
263.337	541.19
263.57	546.19
263.802	557.19
264.035	557.19
264.267	557.19
264.499	560.19
264.732	551.19
264.964	566.19
265.197	568.19
265.429	532.19
265.661	570.19
265.894	568.19
266.126	572.19
266.358	588.19
266.591	588.19
266.823	581.19
267.055	577.19
267.287	580.19
267.52	590.19
267.752	599.19
267.984	600.19
268.216	616.19
268.448	607.19
268.681	595.19
268.913	624.19
269.145	610.19
269.377	591.19
269.609	624.19
269.841	637.19
270.073	625.19
270.306	609.19
270.538	620.19
270.77	616.19
271.002	648.19
271.234	633.19
271.466	616.19
271.698	623.19
271.93	619.19
272.162	639.19
272.394	621.19
272.626	651.19
272.858	616.19
273.09	662.19
273.322	664.19
273.553	654.19
273.785	661.19
274.017	662.19
274.249	633.19
274.481	664.19
274.713	688.19
274.945	663.19
275.176	713.19
275.408	677.19
275.64	682.19
275.872	692.19
276.104	688.19
276.335	693.19
276.567	677.19
276.799	698.19
277.031	720.19
277.262	720.19
277.494	737.19
277.726	693.19
277.957	695.19
278.189	698.19
278.421	714.19
278.652	694.19
278.884	708.19
279.115	738.19
279.347	747.19
279.579	741.19
279.81	741.19
280.042	712.19
280.273	755.19
280.505	748.19
280.736	760.19
280.968	764.19
281.199	737.19
281.431	766.19
281.662	766.19
281.894	781.19
282.125	777.19
282.356	756.19
282.588	772.19
282.819	782.19
283.051	795.19
283.282	779.19
283.513	804.19
283.745	772.19
283.976	798.19
284.207	808.19
284.439	805.19
284.67	791.19
284.901	786.19
285.132	826.19
285.364	811.19
285.595	786.19
285.826	829.19
286.057	813.19
286.288	833.19
286.52	848.19
286.751	826.19
286.982	866.19
287.213	845.19
287.444	849.19
287.675	851.19
287.906	846.19
288.138	842.19
288.369	829.19
288.6	843.19
288.831	843.19
289.062	841.19
289.293	872.19
289.524	849.19
289.755	856.19
289.986	844.19
290.217	862.19
290.448	866.19
290.679	843.19
290.91	854.19
291.141	907.19
291.371	871.19
291.602	836.19
291.833	894.19
292.064	854.19
292.295	875.19
292.526	884.19
292.757	881.19
292.987	882.19
293.218	876.19
293.449	889.19
293.68	878.19
293.91	889.19
294.141	875.19
294.372	865.19
294.603	886.19
294.833	906.19
295.064	894.19
295.295	896.19
295.525	891.19
295.756	887.19
295.987	870.19
296.217	898.19
296.448	900.19
296.679	928.19
296.909	891.19
297.14	917.19
297.37	924.19
297.601	943.19
297.831	916.19
298.062	934.19
298.292	960.19
298.523	980.19
298.753	972.19
298.984	928.19
299.214	962.19
299.445	957.19
299.675	936.19
299.905	953.19
300.136	928.19
300.366	950.19
300.597	957.19
300.827	975.19
301.057	962.19
301.288	984.19
301.518	975.19
301.748	1000.19
301.979	1000.19
302.209	1012.19
302.439	968.19
302.669	996.19
302.9	990.19
303.13	953.19
303.36	1001.19
303.59	1010.19
303.82	992.19
304.051	974.19
304.281	984.19
304.511	995.19
304.741	1010.19
304.971	998.19
305.201	999.19
305.431	964.19
305.661	989.19
305.891	989.19
306.121	1008.19
306.352	970.19
306.582	997.19
306.812	968.19
307.042	971.19
307.272	966.19
307.502	975.19
307.731	969.19
307.961	995.19
308.191	990.19
308.421	964.19
308.651	986.19
308.881	962.19
309.111	973.19
309.341	964.19
309.571	995.19
309.8	993.19
310.03	969.19
310.26	992.19
310.49	998.19
310.72	962.19
310.949	1020.19
311.179	989.19
311.409	1010.19
311.639	1012.19
311.868	1018.19
312.098	1032.19
312.328	1008.19
312.557	1033.19
312.787	1009.19
313.017	1053.19
313.246	1065.19
313.476	1051.19
313.706	1058.19
313.935	1046.19
314.165	1049.19
314.394	1037.19
314.624	1058.19
314.853	1052.19
315.083	1052.19
315.312	1060.19
315.542	1069.19
315.771	1053.19
316.001	1031.19
316.23	1039.19
316.46	1060.19
316.689	1036.19
316.919	1051.19
317.148	1034.19
317.377	1069.19
317.607	1043.19
317.836	1017.19
318.065	1052.19
318.295	1032.19
318.524	1077.19
318.753	1050.19
318.983	1052.19
319.212	1002.19
319.441	1037.19
319.67	1030.19
319.9	1036.19
320.129	1041.19
320.358	1050.19
320.587	1048.19
320.816	1036.19
321.046	1047.19
321.275	1038.19
321.504	1053.19
321.733	1072.19
321.962	1032.19
322.191	1020.19
322.42	1057.19
322.649	1039.19
322.878	1052.19
323.108	1093.19
323.337	1079.19
323.566	1099.19
323.795	1075.19
324.024	1086.19
324.253	1089.19
324.482	1082.19
324.71	1078.19
324.939	1089.19
325.168	1113.19
325.397	1099.19
325.626	1131.19
325.855	1094.19
326.084	1092.19
326.313	1156.19
326.542	1153.19
326.77	1160.19
326.999	1156.19
327.228	1128.19
327.457	1114.19
327.686	1110.19
327.914	1130.19
328.143	1150.19
328.372	1142.19
328.6	1149.19
328.829	1141.19
329.058	1175.19
329.287	1151.19
329.515	1170.19
329.744	1121.19
329.972	1168.19
330.201	1175.19
330.43	1163.19
330.658	1131.19
330.887	1169.19
331.115	1179.19
331.344	1205.19
331.572	1190.19
331.801	1240.19
332.03	1272.19
332.258	1257.19
332.486	1274.19
332.715	1322.19
332.943	1377.19
333.172	1362.19
333.4	1412.19
333.629	1484.19
333.857	1461.19
334.085	1501.19
334.314	1485.19
334.542	1425.19
334.771	1449.19
334.999	1448.19
335.227	1427.19
335.455	1414.19
335.684	1419.19
335.912	1430.19
336.14	1387.19
336.369	1386.19
336.597	1402.19
336.825	1355.19
337.053	1370.19
337.281	1322.19
337.51	1300.19
337.738	1300.19
337.966	1313.19
338.194	1286.19
338.422	1259.19
338.65	1269.19
338.878	1252.19
339.106	1218.19
339.334	1257.19
339.562	1233.19
339.79	1218.19
340.018	1204.19
340.246	1186.19
340.474	1197.19
340.702	1205.19
340.93	1211.19
341.158	1242.19
341.386	1211.19
341.614	1224.19
341.842	1231.19
342.07	1188.19
342.298	1206.19
342.526	1187.19
342.754	1196.19
342.981	1226.19
343.209	1195.19
343.437	1276.19
343.665	1319.19
343.893	1390.19
344.12	1446.19
344.348	1396.19
344.576	1348.19
344.804	1310.19
345.031	1274.19
345.259	1225.19
345.487	1213.19
345.714	1192.19
345.942	1190.19
346.17	1221.19
346.397	1161.19
346.625	1183.19
346.853	1162.19
347.08	1121.19
347.308	1152.19
347.535	1172.19
347.763	1150.19
347.99	1148.19
348.218	1175.19
348.445	1116.19
348.673	1155.19
348.9	1137.19
349.128	1147.19
349.355	1157.19
349.583	1148.19
349.81	1133.19
350.037	1111.19
350.265	1117.19
350.492	1147.19
350.72	1118.19
350.947	1112.19
351.174	1142.19
351.402	1123.19
351.629	1104.19
351.856	1110.19
352.083	1096.19
352.311	1140.19
352.538	1131.19
352.765	1126.19
352.992	1131.19
353.22	1099.19
353.447	1084.19
353.674	1107.19
353.901	1081.19
354.128	1094.19
354.355	1105.19
354.583	1117.19
354.81	1104.19
355.037	1098.19
355.264	1110.19
355.491	1108.19
355.718	1122.19
355.945	1113.19
356.172	1121.19
356.399	1121.19
356.626	1120.19
356.853	1152.19
357.08	1096.19
357.307	1128.19
357.534	1133.19
357.761	1118.19
357.988	1120.19
358.215	1118.19
358.441	1111.19
358.668	1120.19
358.895	1088.19
359.122	1118.19
359.349	1116.19
359.576	1137.19
359.802	1128.19
360.029	1129.19
360.256	1128.19
360.483	1132.19
360.709	1106.19
360.936	1088.19
361.163	1099.19
361.39	1103.19
361.616	1081.19
361.843	1098.19
362.07	1134.19
362.296	1100.19
362.523	1121.19
362.749	1123.19
362.976	1110.19
363.203	1103.19
363.429	1097.19
363.656	1142.19
363.882	1105.19
364.109	1090.19
364.335	1132.19
364.562	1102.19
364.788	1129.19
365.015	1120.19
365.241	1114.19
365.468	1093.19
365.694	1118.19
365.92	1133.19
366.147	1126.19
366.373	1080.19
366.599	1107.19
366.826	1096.19
367.052	1134.19
367.278	1129.19
367.505	1121.19
367.731	1126.19
367.957	1137.19
368.184	1122.19
368.41	1125.19
368.636	1129.19
368.862	1152.19
369.089	1142.19
369.315	1108.19
369.541	1160.19
369.767	1160.19
369.993	1149.19
370.219	1148.19
370.445	1145.19
370.672	1161.19
370.898	1189.19
371.124	1169.19
371.35	1194.19
371.576	1200.19
371.802	1212.19
372.028	1189.19
372.254	1251.19
372.48	1212.19
372.706	1219.19
372.932	1245.19
373.158	1246.19
373.384	1210.19
373.61	1241.19
373.835	1248.19
374.061	1207.19
374.287	1234.19
374.513	1213.19
374.739	1265.19
374.965	1283.19
375.191	1311.19
375.416	1310.19
375.642	1320.19
375.868	1274.19
376.094	1266.19
376.319	1230.19
376.545	1233.19
376.771	1236.19
376.997	1210.19
377.222	1223.19
377.448	1195.19
377.674	1178.19
377.899	1208.19
378.125	1189.19
378.35	1200.19
378.576	1181.19
378.802	1189.19
379.027	1190.19
379.253	1198.19
379.478	1184.19
379.704	1208.19
379.929	1185.19
380.155	1156.19
380.38	1186.19
380.606	1197.19
380.831	1164.19
381.057	1188.19
381.282	1188.19
381.507	1220.19
381.733	1204.19
381.958	1212.19
382.184	1214.19
382.409	1219.19
382.634	1249.19
382.86	1240.19
383.085	1263.19
383.31	1249.19
383.535	1302.19
383.761	1295.19
383.986	1315.19
384.211	1342.19
384.436	1356.19
384.662	1409.19
384.887	1381.19
385.112	1422.19
385.337	1415.19
385.562	1417.19
385.787	1421.19
386.013	1473.19
386.238	1403.19
386.463	1435.19
386.688	1467.19
386.913	1411.19
387.138	1417.19
387.363	1420.19
387.588	1421.19
387.813	1440.19
388.038	1419.19
388.263	1428.19
388.488	1453.19
388.713	1445.19
388.938	1417.19
389.163	1429.19
389.387	1441.19
389.612	1435.19
389.837	1426.19
390.062	1433.19
390.287	1404.19
390.512	1429.19
390.736	1408.19
390.961	1473.19
391.186	1472.19
391.411	1524.19
391.636	1527.19
391.86	1576.19
392.085	1607.19
392.31	1581.19
392.534	1555.19
392.759	1582.19
392.984	1552.19
393.208	1554.19
393.433	1510.19
393.658	1514.19
393.882	1515.19
394.107	1536.19
394.331	1536.19
394.556	1524.19
394.78	1537.19
395.005	1568.19
395.229	1525.19
395.454	1576.19
395.678	1590.19
395.903	1600.19
396.127	1593.19
396.352	1567.19
396.576	1568.19
396.801	1523.19
397.025	1562.19
397.249	1581.19
397.474	1625.19
397.698	1610.19
397.922	1624.19
398.147	1672.19
398.371	1697.19
398.595	1712.19
398.82	1770.19
399.044	1889.19
399.268	2031.19
399.492	2246.19
399.717	2471.19
399.941	2468.19
400.165	2286.19
400.389	2120.19
400.613	1978.19
400.837	1928.19
401.062	1888.19
401.286	1846.19
401.51	1793.19
401.734	1771.19
401.958	1833.19
402.182	1805.19
402.406	1801.19
402.63	1835.19
402.854	1837.19
403.078	1829.19
403.302	1892.19
403.526	1902.19
403.75	1946.19
403.974	1970.19
404.198	1938.19
404.422	1971.19
404.645	1937.19
404.869	1958.19
405.093	1940.19
405.317	1896.19
405.541	1885.19
405.765	1917.19
405.988	1916.19
406.212	1929.19
406.436	1947.19
406.66	1995.19
406.883	2008.19
407.107	2135.19
407.331	2128.19
407.555	2238.19
407.778	2248.19
408.002	2204.19
408.226	2162.19
408.449	2172.19
408.673	2086.19
408.896	2041.19
409.12	2056.19
409.344	2021.19
409.567	1998.19
409.791	1968.19
410.014	1944.19
410.238	1976.19
410.461	1970.19
410.685	1924.19
410.908	1931.19
411.132	1923.19
411.355	1861.19
411.578	1859.19
411.802	1867.19
412.025	1850.19
412.249	1915.19
412.472	1915.19
412.695	1869.19
412.919	1784.19
413.142	1809.19
413.365	1804.19
413.589	1776.19
413.812	1811.19
414.035	1780.19
414.258	1797.19
414.482	1794.19
414.705	1850.19
414.928	1798.19
415.151	1823.19
415.374	1779.19
415.597	1770.19
415.821	1738.19
416.044	1754.19
416.267	1717.19
416.49	1720.19
416.713	1724.19
416.936	1732.19
417.159	1743.19
417.382	1724.19
417.605	1718.19
417.828	1742.19
418.051	1741.19
418.274	1703.19
418.497	1763.19
418.72	1776.19
418.943	1781.19
419.166	1894.19
419.389	1966.19
419.611	1934.19
419.834	1861.19
420.057	1796.19
420.28	1761.19
420.503	1697.19
420.726	1720.19
420.948	1695.19
421.171	1696.19
421.394	1692.19
421.617	1675.19
421.839	1724.19
422.062	1698.19
422.285	1681.19
422.507	1730.19
422.73	1735.19
422.953	1740.19
423.175	1788.19
423.398	1750.19
423.621	1747.19
423.843	1734.19
424.066	1763.19
424.288	1793.19
424.511	1781.19
424.733	1738.19
424.956	1754.19
425.178	1754.19
425.401	1737.19
425.623	1751.19
425.846	1660.19
426.068	1690.19
426.291	1654.19
426.513	1650.19
426.735	1657.19
426.958	1639.19
427.18	1605.19
427.402	1650.19
427.625	1637.19
427.847	1599.19
428.069	1603.19
428.292	1569.19
428.514	1584.19
428.736	1568.19
428.958	1572.19
429.181	1549.19
429.403	1536.19
429.625	1542.19
429.847	1513.19
430.069	1529.19
430.292	1540.19
430.514	1542.19
430.736	1550.19
430.958	1527.19
431.18	1550.19
431.402	1565.19
431.624	1561.19
431.846	1595.19
432.068	1560.19
432.29	1614.19
432.512	1581.19
432.734	1608.19
432.956	1566.19
433.178	1565.19
433.4	1603.19
433.622	1618.19
433.844	1609.19
434.066	1611.19
434.287	1651.19
434.509	1725.19
434.731	1718.19
434.953	1689.19
435.175	1746.19
435.397	1709.19
435.618	1644.19
435.84	1664.19
436.062	1612.19
436.284	1592.19
436.505	1550.19
436.727	1592.19
436.949	1617.19
437.17	1564.19
437.392	1561.19
437.614	1504.19
437.835	1469.19
438.057	1487.19
438.278	1495.19
438.5	1480.19
438.721	1491.19
438.943	1523.19
439.165	1482.19
439.386	1486.19
439.608	1503.19
439.829	1550.19
440.05	1551.19
440.272	1550.19
440.493	1565.19
440.715	1554.19
440.936	1617.19
441.158	1600.19
441.379	1612.19
441.6	1729.19
441.822	1729.19
442.043	1733.19
442.264	1657.19
442.486	1600.19
442.707	1670.19
442.928	1668.19
443.149	1643.19
443.371	1635.19
443.592	1662.19
443.813	1705.19
444.034	1706.19
444.255	1743.19
444.476	1836.19
444.698	1891.19
444.919	1924.19
445.14	1998.19
445.361	1861.19
445.582	1774.19
445.803	1666.19
446.024	1639.19
446.245	1584.19
446.466	1573.19
446.687	1542.19
446.908	1558.19
447.129	1520.19
447.35	1499.19
447.571	1508.19
447.792	1443.19
448.013	1445.19
448.234	1420.19
448.455	1418.19
448.675	1385.19
448.896	1404.19
449.117	1385.19
449.338	1377.19
449.559	1390.19
449.779	1405.19
450	1382.19
450.221	1406.19
450.442	1430.19
450.662	1400.19
450.883	1414.19
451.104	1422.19
451.324	1420.19
451.545	1440.19
451.766	1424.19
451.986	1370.19
452.207	1413.19
452.428	1368.19
452.648	1401.19
452.869	1318.19
453.089	1312.19
453.31	1379.19
453.53	1363.19
453.751	1345.19
453.971	1362.19
454.192	1358.19
454.412	1325.19
454.633	1330.19
454.853	1337.19
455.073	1272.19
455.294	1309.19
455.514	1297.19
455.734	1340.19
455.955	1278.19
456.175	1313.19
456.395	1295.19
456.616	1282.19
456.836	1353.19
457.056	1295.19
457.276	1317.19
457.497	1329.19
457.717	1304.19
457.937	1322.19
458.157	1337.19
458.377	1376.19
458.598	1394.19
458.818	1418.19
459.038	1445.19
459.258	1464.19
459.478	1526.19
459.698	1541.19
459.918	1637.19
460.138	1635.19
460.358	1734.19
460.578	1733.19
460.798	1758.19
461.018	1792.19
461.238	1761.19
461.458	1778.19
461.678	1764.19
461.898	1813.19
462.118	1782.19
462.338	1882.19
462.558	1914.19
462.777	2027.19
462.997	2140.19
463.217	2201.19
463.437	2182.19
463.657	2147.19
463.876	2028.19
464.096	2035.19
464.316	2006.19
464.536	2019.19
464.755	1932.19
464.975	1875.19
465.195	1860.19
465.414	1736.19
465.634	1644.19
465.854	1593.19
466.073	1587.19
466.293	1553.19
466.512	1495.19
466.732	1450.19
466.951	1486.19
467.171	1466.19
467.391	1457.19
467.61	1478.19
467.829	1462.19
468.049	1463.19
468.268	1412.19
468.488	1406.19
468.707	1369.19
468.927	1430.19
469.146	1402.19
469.365	1413.19
469.585	1440.19
469.804	1458.19
470.023	1491.19
470.243	1481.19
470.462	1492.19
470.681	1480.19
470.901	1523.19
471.12	1514.19
471.339	1468.19
471.558	1454.19
471.777	1467.19
471.997	1427.19
472.216	1416.19
472.435	1420.19
472.654	1415.19
472.873	1408.19
473.092	1395.19
473.311	1385.19
473.53	1422.19
473.749	1400.19
473.968	1392.19
474.187	1389.19
474.406	1386.19
474.625	1421.19
474.844	1404.19
475.063	1429.19
475.282	1441.19
475.501	1445.19
475.72	1435.19
475.939	1445.19
476.158	1468.19
476.377	1448.19
476.596	1449.19
476.814	1485.19
477.033	1493.19
477.252	1529.19
477.471	1552.19
477.69	1624.19
477.908	1610.19
478.127	1672.19
478.346	1612.19
478.564	1667.19
478.783	1718.19
479.002	1737.19
479.22	1761.19
479.439	1761.19
479.658	1752.19
479.876	1795.19
480.095	1778.19
480.313	1848.19
480.532	1902.19
480.751	1881.19
480.969	1828.19
481.188	1768.19
481.406	1714.19
481.624	1756.19
481.843	1676.19
482.061	1656.19
482.28	1692.19
482.498	1701.19
482.717	1655.19
482.935	1684.19
483.153	1734.19
483.372	1752.19
483.59	1684.19
483.808	1727.19
484.027	1755.19
484.245	1765.19
484.463	1774.19
484.681	1844.19
484.9	1846.19
485.118	1848.19
485.336	1861.19
485.554	1869.19
485.772	1869.19
485.99	1870.19
486.209	1886.19
486.427	1872.19
486.645	1850.19
486.863	1876.19
487.081	1874.19
487.299	1861.19
487.517	1789.19
487.735	1829.19
487.953	1824.19
488.171	1847.19
488.389	1765.19
488.607	1776.19
488.825	1793.19
489.043	1740.19
489.261	1750.19
489.479	1747.19
489.696	1753.19
489.914	1767.19
490.132	1754.19
490.35	1755.19
490.568	1777.19
