Data from NiCl2@0.125M.TitratingCurve.Agarose3%dH2O.NegLispCup.LampEnergy10.LIBS07252019_HRD10591_18-29-04-574.txt Node
Date: Thu Jul 25 18:29:04 EDT 2019
User: cochatt
Spectrometer: HR+D1059
Trigger mode: 1
Integration Time (sec): 1.000000E-1
Scans to average: 1
Electric dark correction enabled: true
Nonlinearity correction enabled: false
Boxcar width: 0
XAxis mode: Wavelengths
Number of Pixels in Spectrum: 2048
>>>>>Begin Spectral Data<<<<<
223.165	-14.69
223.4	-14.69
223.635	-14.69
223.869	-14.69
224.104	-26.69
224.338	-16.69
224.573	-14.69
224.808	-19.69
225.042	-0.69
225.277	5.31
225.511	6.31
225.746	6.31
225.98	-6.69
226.215	10.31
226.449	19.31
226.683	0.31
226.918	23.31
227.152	43.31
227.387	28.31
227.621	34.31
227.856	44.31
228.09	43.31
228.324	52.31
228.559	60.31
228.793	53.31
229.027	113.31
229.262	116.31
229.496	115.31
229.73	116.31
229.964	119.31
230.199	113.31
230.433	128.31
230.667	139.31
230.901	135.31
231.136	143.31
231.37	128.31
231.604	138.31
231.838	121.31
232.072	147.31
232.306	157.31
232.541	144.31
232.775	133.31
233.009	134.31
233.243	167.31
233.477	136.31
233.711	162.31
233.945	159.31
234.179	156.31
234.413	137.31
234.647	155.31
234.881	157.31
235.115	139.31
235.349	139.31
235.583	161.31
235.817	168.31
236.051	160.31
236.285	158.31
236.519	168.31
236.753	147.31
236.987	155.31
237.221	142.31
237.455	162.31
237.689	170.31
237.922	161.31
238.156	171.31
238.39	162.31
238.624	170.31
238.858	167.31
239.091	185.31
239.325	179.31
239.559	180.31
239.793	190.31
240.027	178.31
240.26	186.31
240.494	184.31
240.728	175.31
240.961	188.31
241.195	194.31
241.429	193.31
241.662	168.31
241.896	199.31
242.13	193.31
242.363	192.31
242.597	204.31
242.83	206.31
243.064	195.31
243.298	208.31
243.531	199.31
243.765	203.31
243.998	208.31
244.232	208.31
244.465	211.31
244.699	209.31
244.932	219.31
245.166	217.31
245.399	211.31
245.633	210.31
245.866	230.31
246.099	209.31
246.333	228.31
246.566	214.31
246.8	234.31
247.033	239.31
247.266	232.31
247.5	232.31
247.733	227.31
247.966	224.31
248.2	246.31
248.433	244.31
248.666	242.31
248.899	239.31
249.133	236.31
249.366	238.31
249.599	248.31
249.832	248.31
250.066	233.31
250.299	247.31
250.532	262.31
250.765	256.31
250.998	265.31
251.231	251.31
251.465	252.31
251.698	291.31
251.931	265.31
252.164	256.31
252.397	280.31
252.63	268.31
252.863	276.31
253.096	279.31
253.329	279.31
253.562	285.31
253.795	273.31
254.028	291.31
254.261	280.31
254.494	279.31
254.727	279.31
254.96	285.31
255.193	272.31
255.426	289.31
255.659	299.31
255.892	285.31
256.124	295.31
256.357	306.31
256.59	296.31
256.823	303.31
257.056	307.31
257.289	313.31
257.521	291.31
257.754	295.31
257.987	296.31
258.22	298.31
258.452	296.31
258.685	309.31
258.918	324.31
259.151	309.31
259.383	289.31
259.616	323.31
259.849	319.31
260.081	308.31
260.314	326.31
260.547	322.31
260.779	317.31
261.012	315.31
261.244	321.31
261.477	305.31
261.71	330.31
261.942	335.31
262.175	321.31
262.407	331.31
262.64	321.31
262.872	338.31
263.105	327.31
263.337	344.31
263.57	341.31
263.802	332.31
264.035	340.31
264.267	347.31
264.499	334.31
264.732	348.31
264.964	362.31
265.197	362.31
265.429	356.31
265.661	354.31
265.894	356.31
266.126	363.31
266.358	350.31
266.591	364.31
266.823	373.31
267.055	368.31
267.287	362.31
267.52	363.31
267.752	367.31
267.984	379.31
268.216	371.31
268.448	389.31
268.681	372.31
268.913	375.31
269.145	376.31
269.377	370.31
269.609	379.31
269.841	361.31
270.073	372.31
270.306	379.31
270.538	383.31
270.77	378.31
271.002	385.31
271.234	369.31
271.466	386.31
271.698	389.31
271.93	383.31
272.162	390.31
272.394	399.31
272.626	398.31
272.858	391.31
273.09	387.31
273.322	401.31
273.553	391.31
273.785	387.31
274.017	368.31
274.249	434.31
274.481	438.31
274.713	408.31
274.945	413.31
275.176	418.31
275.408	428.31
275.64	442.31
275.872	429.31
276.104	414.31
276.335	423.31
276.567	443.31
276.799	419.31
277.031	430.31
277.262	427.31
277.494	422.31
277.726	424.31
277.957	432.31
278.189	438.31
278.421	435.31
278.652	431.31
278.884	456.31
279.115	419.31
279.347	446.31
279.579	447.31
279.81	450.31
280.042	434.31
280.273	444.31
280.505	466.31
280.736	455.31
280.968	457.31
281.199	450.31
281.431	444.31
281.662	472.31
281.894	453.31
282.125	465.31
282.356	469.31
282.588	459.31
282.819	472.31
283.051	479.31
283.282	472.31
283.513	474.31
283.745	486.31
283.976	477.31
284.207	501.31
284.439	478.31
284.67	489.31
284.901	487.31
285.132	494.31
285.364	492.31
285.595	500.31
285.826	496.31
286.057	481.31
286.288	502.31
286.52	501.31
286.751	477.31
286.982	498.31
287.213	521.31
287.444	505.31
287.675	528.31
287.906	500.31
288.138	495.31
288.369	501.31
288.6	529.31
288.831	533.31
289.062	519.31
289.293	540.31
289.524	522.31
289.755	509.31
289.986	519.31
290.217	510.31
290.448	513.31
290.679	528.31
290.91	528.31
291.141	516.31
291.371	540.31
291.602	525.31
291.833	515.31
292.064	524.31
292.295	520.31
292.526	522.31
292.757	520.31
292.987	532.31
293.218	523.31
293.449	566.31
293.68	523.31
293.91	539.31
294.141	541.31
294.372	540.31
294.603	518.31
294.833	523.31
295.064	543.31
295.295	548.31
295.525	548.31
295.756	570.31
295.987	533.31
296.217	552.31
296.448	536.31
296.679	544.31
296.909	560.31
297.14	563.31
297.37	594.31
297.601	593.31
297.831	577.31
298.062	600.31
298.292	573.31
298.523	593.31
298.753	599.31
298.984	591.31
299.214	588.31
299.445	567.31
299.675	574.31
299.905	577.31
300.136	571.31
300.366	612.31
300.597	594.31
300.827	602.31
301.057	586.31
301.288	608.31
301.518	603.31
301.748	591.31
301.979	617.31
302.209	632.31
302.439	605.31
302.669	602.31
302.9	584.31
303.13	590.31
303.36	586.31
303.59	570.31
303.82	593.31
304.051	608.31
304.281	594.31
304.511	604.31
304.741	586.31
304.971	586.31
305.201	595.31
305.431	586.31
305.661	588.31
305.891	603.31
306.121	587.31
306.352	589.31
306.582	575.31
306.812	579.31
307.042	570.31
307.272	563.31
307.502	566.31
307.731	594.31
307.961	558.31
308.191	582.31
308.421	558.31
308.651	566.31
308.881	580.31
309.111	595.31
309.341	577.31
309.571	572.31
309.8	573.31
310.03	562.31
310.26	552.31
310.49	543.31
310.72	592.31
310.949	601.31
311.179	582.31
311.409	581.31
311.639	587.31
311.868	563.31
312.098	585.31
312.328	597.31
312.557	614.31
312.787	592.31
313.017	604.31
313.246	612.31
313.476	627.31
313.706	615.31
313.935	616.31
314.165	633.31
314.394	607.31
314.624	632.31
314.853	645.31
315.083	596.31
315.312	627.31
315.542	601.31
315.771	612.31
316.001	624.31
316.23	561.31
316.46	601.31
316.689	613.31
316.919	591.31
317.148	604.31
317.377	612.31
317.607	588.31
317.836	599.31
318.065	588.31
318.295	601.31
318.524	605.31
318.753	578.31
318.983	586.31
319.212	589.31
319.441	587.31
319.67	601.31
319.9	604.31
320.129	595.31
320.358	593.31
320.587	602.31
320.816	598.31
321.046	594.31
321.275	617.31
321.504	611.31
321.733	594.31
321.962	603.31
322.191	608.31
322.42	599.31
322.649	611.31
322.878	602.31
323.108	571.31
323.337	596.31
323.566	600.31
323.795	619.31
324.024	606.31
324.253	620.31
324.482	621.31
324.71	624.31
324.939	635.31
325.168	613.31
325.397	618.31
325.626	633.31
325.855	635.31
326.084	660.31
326.313	683.31
326.542	671.31
326.77	683.31
326.999	652.31
327.228	639.31
327.457	669.31
327.686	657.31
327.914	660.31
328.143	654.31
328.372	672.31
328.6	658.31
328.829	650.31
329.058	652.31
329.287	667.31
329.515	663.31
329.744	656.31
329.972	641.31
330.201	661.31
330.43	676.31
330.658	660.31
330.887	700.31
331.115	710.31
331.344	692.31
331.572	709.31
331.801	746.31
332.03	727.31
332.258	745.31
332.486	778.31
332.715	790.31
332.943	849.31
333.172	843.31
333.4	877.31
333.629	932.31
333.857	909.31
334.085	887.31
334.314	886.31
334.542	879.31
334.771	859.31
334.999	836.31
335.227	819.31
335.455	823.31
335.684	823.31
335.912	801.31
336.14	787.31
336.369	791.31
336.597	801.31
336.825	792.31
337.053	804.31
337.281	777.31
337.51	765.31
337.738	755.31
337.966	715.31
338.194	736.31
338.422	721.31
338.65	693.31
338.878	712.31
339.106	717.31
339.334	730.31
339.562	739.31
339.79	675.31
340.018	657.31
340.246	691.31
340.474	652.31
340.702	671.31
340.93	703.31
341.158	707.31
341.386	713.31
341.614	703.31
341.842	677.31
342.07	677.31
342.298	667.31
342.526	647.31
342.754	665.31
342.981	663.31
343.209	687.31
343.437	713.31
343.665	800.31
343.893	797.31
344.12	865.31
344.348	859.31
344.576	773.31
344.804	749.31
345.031	718.31
345.259	721.31
345.487	679.31
345.714	684.31
345.942	676.31
346.17	681.31
346.397	655.31
346.625	666.31
346.853	681.31
347.08	673.31
347.308	652.31
347.535	669.31
347.763	697.31
347.99	677.31
348.218	695.31
348.445	705.31
348.673	671.31
348.9	664.31
349.128	659.31
349.355	659.31
349.583	649.31
349.81	635.31
350.037	648.31
350.265	660.31
350.492	639.31
350.72	639.31
350.947	636.31
351.174	645.31
351.402	624.31
351.629	643.31
351.856	634.31
352.083	639.31
352.311	666.31
352.538	650.31
352.765	610.31
352.992	628.31
353.22	632.31
353.447	614.31
353.674	631.31
353.901	597.31
354.128	629.31
354.355	621.31
354.583	633.31
354.81	653.31
355.037	640.31
355.264	623.31
355.491	640.31
355.718	664.31
355.945	651.31
356.172	666.31
356.399	647.31
356.626	625.31
356.853	629.31
357.08	663.31
357.307	632.31
357.534	664.31
357.761	648.31
357.988	630.31
358.215	632.31
358.441	634.31
358.668	649.31
358.895	636.31
359.122	610.31
359.349	632.31
359.576	632.31
359.802	643.31
360.029	624.31
360.256	657.31
360.483	621.31
360.709	625.31
360.936	653.31
361.163	628.31
361.39	643.31
361.616	627.31
361.843	624.31
362.07	656.31
362.296	637.31
362.523	632.31
362.749	620.31
362.976	617.31
363.203	634.31
363.429	629.31
363.656	644.31
363.882	613.31
364.109	623.31
364.335	623.31
364.562	633.31
364.788	632.31
365.015	629.31
365.241	634.31
365.468	594.31
365.694	618.31
365.92	623.31
366.147	629.31
366.373	634.31
366.599	615.31
366.826	624.31
367.052	621.31
367.278	629.31
367.505	647.31
367.731	620.31
367.957	614.31
368.184	635.31
368.41	636.31
368.636	660.31
368.862	655.31
369.089	649.31
369.315	647.31
369.541	655.31
369.767	643.31
369.993	647.31
370.219	634.31
370.445	678.31
370.672	675.31
370.898	677.31
371.124	680.31
371.35	698.31
371.576	689.31
371.802	697.31
372.028	673.31
372.254	709.31
372.48	668.31
372.706	695.31
372.932	728.31
373.158	709.31
373.384	717.31
373.61	672.31
373.835	700.31
374.061	699.31
374.287	706.31
374.513	724.31
374.739	719.31
374.965	764.31
375.191	782.31
375.416	787.31
375.642	760.31
375.868	748.31
376.094	717.31
376.319	727.31
376.545	696.31
376.771	676.31
376.997	685.31
377.222	707.31
377.448	694.31
377.674	713.31
377.899	679.31
378.125	672.31
378.35	689.31
378.576	655.31
378.802	709.31
379.027	701.31
379.253	693.31
379.478	681.31
379.704	675.31
379.929	687.31
380.155	682.31
380.38	663.31
380.606	684.31
380.831	669.31
381.057	723.31
381.282	682.31
381.507	668.31
381.733	684.31
381.958	732.31
382.184	689.31
382.409	710.31
382.634	703.31
382.86	706.31
383.085	759.31
383.31	747.31
383.535	739.31
383.761	764.31
383.986	775.31
384.211	798.31
384.436	786.31
384.662	829.31
384.887	840.31
385.112	846.31
385.337	851.31
385.562	843.31
385.787	843.31
386.013	860.31
386.238	852.31
386.463	873.31
386.688	853.31
386.913	838.31
387.138	830.31
387.363	824.31
387.588	820.31
387.813	811.31
388.038	821.31
388.263	827.31
388.488	816.31
388.713	806.31
388.938	818.31
389.163	791.31
389.387	821.31
389.612	815.31
389.837	801.31
390.062	827.31
390.287	804.31
390.512	801.31
390.736	813.31
390.961	855.31
391.186	845.31
391.411	875.31
391.636	938.31
391.86	927.31
392.085	955.31
392.31	936.31
392.534	919.31
392.759	929.31
392.984	891.31
393.208	870.31
393.433	893.31
393.658	873.31
393.882	891.31
394.107	899.31
394.331	913.31
394.556	889.31
394.78	898.31
395.005	889.31
395.229	885.31
395.454	932.31
395.678	931.31
395.903	957.31
396.127	954.31
396.352	902.31
396.576	899.31
396.801	888.31
397.025	895.31
397.249	922.31
397.474	917.31
397.698	922.31
397.922	921.31
398.147	916.31
398.371	912.31
398.595	970.31
398.82	1030.31
399.044	1091.31
399.268	1223.31
399.492	1399.31
399.717	1612.31
399.941	1658.31
400.165	1461.31
400.389	1315.31
400.613	1186.31
400.837	1106.31
401.062	1073.31
401.286	1045.31
401.51	1035.31
401.734	1041.31
401.958	1050.31
402.182	1078.31
402.406	1061.31
402.63	1083.31
402.854	1122.31
403.078	1164.31
403.302	1161.31
403.526	1204.31
403.75	1265.31
403.974	1237.31
404.198	1227.31
404.422	1245.31
404.645	1259.31
404.869	1212.31
405.093	1200.31
405.317	1181.31
405.541	1175.31
405.765	1196.31
405.988	1174.31
406.212	1173.31
406.436	1149.31
406.66	1176.31
406.883	1231.31
407.107	1271.31
407.331	1356.31
407.555	1377.31
407.778	1374.31
408.002	1356.31
408.226	1299.31
408.449	1269.31
408.673	1225.31
408.896	1176.31
409.12	1178.31
409.344	1225.31
409.567	1192.31
409.791	1235.31
410.014	1247.31
410.238	1211.31
410.461	1189.31
410.685	1171.31
410.908	1149.31
411.132	1132.31
411.355	1072.31
411.578	1100.31
411.802	1092.31
412.025	1095.31
412.249	1104.31
412.472	1110.31
412.695	1087.31
412.919	1025.31
413.142	1031.31
413.365	1042.31
413.589	1059.31
413.812	1045.31
414.035	1054.31
414.258	1008.31
414.482	1052.31
414.705	1056.31
414.928	1035.31
415.151	1047.31
415.374	1049.31
415.597	1049.31
415.821	1035.31
416.044	1026.31
416.267	1019.31
416.49	1014.31
416.713	1010.31
416.936	1029.31
417.159	1021.31
417.382	1049.31
417.605	1027.31
417.828	1038.31
418.051	1048.31
418.274	1060.31
418.497	1040.31
418.72	1080.31
418.943	1057.31
419.166	1152.31
419.389	1234.31
419.611	1219.31
419.834	1156.31
420.057	1115.31
420.28	1107.31
420.503	1042.31
420.726	1049.31
420.948	1039.31
421.171	1065.31
421.394	1033.31
421.617	1025.31
421.839	1044.31
422.062	1037.31
422.285	1037.31
422.507	1084.31
422.73	1074.31
422.953	1095.31
423.175	1140.31
423.398	1153.31
423.621	1124.31
423.843	1156.31
424.066	1132.31
424.288	1145.31
424.511	1139.31
424.733	1093.31
424.956	1115.31
425.178	1089.31
425.401	1077.31
425.623	1066.31
425.846	1043.31
426.068	1014.31
426.291	1018.31
426.513	1001.31
426.735	953.31
426.958	1001.31
427.18	959.31
427.402	956.31
427.625	996.31
427.847	932.31
428.069	946.31
428.292	961.31
428.514	917.31
428.736	917.31
428.958	934.31
429.181	908.31
429.403	920.31
429.625	908.31
429.847	883.31
430.069	890.31
430.292	905.31
430.514	903.31
430.736	908.31
430.958	893.31
431.18	930.31
431.402	915.31
431.624	901.31
431.846	957.31
432.068	964.31
432.29	952.31
432.512	906.31
432.734	941.31
432.956	907.31
433.178	935.31
433.4	930.31
433.622	961.31
433.844	909.31
434.066	936.31
434.287	938.31
434.509	990.31
434.731	1011.31
434.953	1031.31
435.175	1047.31
435.397	1041.31
435.618	995.31
435.84	965.31
436.062	951.31
436.284	925.31
436.505	969.31
436.727	927.31
436.949	935.31
437.17	947.31
437.392	939.31
437.614	916.31
437.835	913.31
438.057	899.31
438.278	894.31
438.5	927.31
438.721	906.31
438.943	910.31
439.165	897.31
439.386	927.31
439.608	946.31
439.829	914.31
440.05	918.31
440.272	946.31
440.493	966.31
440.715	975.31
440.936	976.31
441.158	973.31
441.379	1029.31
441.6	1081.31
441.822	1105.31
442.043	1116.31
442.264	1058.31
442.486	1010.31
442.707	1035.31
442.928	1033.31
443.149	1063.31
443.371	1078.31
443.592	1064.31
443.813	1064.31
444.034	1065.31
444.255	1137.31
444.476	1156.31
444.698	1266.31
444.919	1323.31
445.14	1400.31
445.361	1209.31
445.582	1138.31
445.803	1040.31
446.024	1003.31
446.245	991.31
446.466	995.31
446.687	949.31
446.908	964.31
447.129	919.31
447.35	913.31
447.571	919.31
447.792	896.31
448.013	890.31
448.234	860.31
448.455	881.31
448.675	884.31
448.896	881.31
449.117	846.31
449.338	851.31
449.559	858.31
449.779	876.31
450	884.31
450.221	868.31
450.442	883.31
450.662	911.31
450.883	909.31
451.104	919.31
451.324	897.31
451.545	933.31
451.766	901.31
451.986	870.31
452.207	884.31
452.428	889.31
452.648	873.31
452.869	874.31
453.089	857.31
453.31	883.31
453.53	837.31
453.751	865.31
453.971	849.31
454.192	855.31
454.412	826.31
454.633	828.31
454.853	836.31
455.073	818.31
455.294	826.31
455.514	811.31
455.734	789.31
455.955	819.31
456.175	800.31
456.395	801.31
456.616	812.31
456.836	807.31
457.056	789.31
457.276	791.31
457.497	830.31
457.717	804.31
457.937	832.31
458.157	848.31
458.377	835.31
458.598	847.31
458.818	857.31
459.038	896.31
459.258	918.31
459.478	947.31
459.698	957.31
459.918	993.31
460.138	1054.31
460.358	1107.31
460.578	1129.31
460.798	1126.31
461.018	1165.31
461.238	1134.31
461.458	1108.31
461.678	1101.31
461.898	1125.31
462.118	1129.31
462.338	1173.31
462.558	1228.31
462.777	1269.31
462.997	1388.31
463.217	1564.31
463.437	1587.31
463.657	1448.31
463.876	1326.31
464.096	1344.31
464.316	1347.31
464.536	1336.31
464.755	1262.31
464.975	1239.31
465.195	1154.31
465.414	1091.31
465.634	1011.31
465.854	966.31
466.073	927.31
466.293	937.31
466.512	931.31
466.732	917.31
466.951	921.31
467.171	904.31
467.391	929.31
467.61	909.31
467.829	919.31
468.049	887.31
468.268	891.31
468.488	851.31
468.707	843.31
468.927	875.31
469.146	870.31
469.365	872.31
469.585	874.31
469.804	899.31
470.023	927.31
470.243	919.31
470.462	952.31
470.681	940.31
470.901	947.31
471.12	913.31
471.339	901.31
471.558	896.31
471.777	872.31
471.997	884.31
472.216	852.31
472.435	873.31
472.654	838.31
472.873	832.31
473.092	851.31
473.311	835.31
473.53	840.31
473.749	858.31
473.968	827.31
474.187	852.31
474.406	833.31
474.625	842.31
474.844	824.31
475.063	846.31
475.282	847.31
475.501	846.31
475.72	840.31
475.939	840.31
476.158	856.31
476.377	890.31
476.596	867.31
476.814	901.31
477.033	872.31
477.252	901.31
477.471	932.31
477.69	922.31
477.908	975.31
478.127	965.31
478.346	996.31
478.564	1031.31
478.783	1015.31
479.002	1040.31
479.22	1056.31
479.439	1033.31
479.658	1042.31
479.876	1045.31
480.095	1047.31
480.313	1134.31
480.532	1121.31
480.751	1162.31
480.969	1089.31
481.188	1027.31
481.406	993.31
481.624	961.31
481.843	959.31
482.061	977.31
482.28	952.31
482.498	949.31
482.717	926.31
482.935	931.31
483.153	950.31
483.372	951.31
483.59	965.31
483.808	923.31
484.027	945.31
484.245	951.31
484.463	967.31
484.681	986.31
484.9	953.31
485.118	949.31
485.336	996.31
485.554	1004.31
485.772	1029.31
485.99	1023.31
486.209	1047.31
486.427	1043.31
486.645	1046.31
486.863	1010.31
487.081	1027.31
487.299	1032.31
487.517	1013.31
487.735	990.31
487.953	981.31
488.171	993.31
488.389	978.31
488.607	991.31
488.825	980.31
489.043	959.31
489.261	949.31
489.479	959.31
489.696	977.31
489.914	984.31
490.132	989.31
490.35	1004.31
490.568	969.31
490.786	1000.31
491.003	1012.31
491.221	991.31
491.439	1029.31
491.657	984.31
491.874	1033.31
492.092	993.31
492.31	1020.31
492.527	1016.31
492.745	1048.31
492.963	996.31
493.18	1021.31
493.398	1025.31
493.615	1048.31
493.833	1017.31
494.05	1044.31
494.268	1065.31
494.485	1061.31
494.703	1066.31
494.92	1042.31
495.138	1038.31
495.355	1065.31
495.573	1057.31
495.79	1045.31
496.008	1057.31
496.225	1078.31
496.442	1055.31
496.66	1091.31
496.877	1100.31
497.094	1107.31
497.312	1128.31
497.529	1128.31
497.746	1175.31
497.963	1201.31
498.181	1249.31
498.398	1322.31
