Data from NiCl2@0.5M.TitratingCurve.Agarose3%dH2O.NegLispCup.LampEnergy10.LIBS07252019_HRD10591_18-21-20-571.txt Node
Date: Thu Jul 25 18:21:20 EDT 2019
User: cochatt
Spectrometer: HR+D1059
Trigger mode: 1
Integration Time (sec): 1.000000E-1
Scans to average: 1
Electric dark correction enabled: true
Nonlinearity correction enabled: false
Boxcar width: 0
XAxis mode: Wavelengths
Number of Pixels in Spectrum: 2048
>>>>>Begin Spectral Data<<<<<
223.165	-15.88
223.4	-15.88
223.635	-15.88
223.869	-9.88
224.104	-4.88
224.338	-5.88
224.573	-21.88
224.808	-8.88
225.042	-1.88
225.277	-13.88
225.511	-8.88
225.746	0.12
225.98	13.12
226.215	-4.88
226.449	7.12
226.683	18.12
226.918	25.12
227.152	33.12
227.387	33.12
227.621	31.12
227.856	23.12
228.09	43.12
228.324	41.12
228.559	55.12
228.793	73.12
229.027	114.12
229.262	110.12
229.496	128.12
229.73	121.12
229.964	136.12
230.199	138.12
230.433	132.12
230.667	135.12
230.901	143.12
231.136	132.12
231.37	122.12
231.604	152.12
231.838	135.12
232.072	134.12
232.306	146.12
232.541	146.12
232.775	135.12
233.009	146.12
233.243	142.12
233.477	154.12
233.711	149.12
233.945	164.12
234.179	164.12
234.413	164.12
234.647	152.12
234.881	146.12
235.115	150.12
235.349	157.12
235.583	148.12
235.817	148.12
236.051	155.12
236.285	158.12
236.519	151.12
236.753	168.12
236.987	172.12
237.221	171.12
237.455	162.12
237.689	159.12
237.922	165.12
238.156	175.12
238.39	182.12
238.624	182.12
238.858	169.12
239.091	188.12
239.325	189.12
239.559	166.12
239.793	175.12
240.027	191.12
240.26	190.12
240.494	196.12
240.728	196.12
240.961	196.12
241.195	186.12
241.429	209.12
241.662	182.12
241.896	208.12
242.13	224.12
242.363	199.12
242.597	201.12
242.83	223.12
243.064	216.12
243.298	214.12
243.531	212.12
243.765	209.12
243.998	222.12
244.232	215.12
244.465	216.12
244.699	235.12
244.932	219.12
245.166	220.12
245.399	237.12
245.633	239.12
245.866	229.12
246.099	230.12
246.333	234.12
246.566	243.12
246.8	226.12
247.033	226.12
247.266	244.12
247.5	250.12
247.733	238.12
247.966	245.12
248.2	244.12
248.433	229.12
248.666	252.12
248.899	260.12
249.133	244.12
249.366	250.12
249.599	269.12
249.832	264.12
250.066	275.12
250.299	287.12
250.532	268.12
250.765	282.12
250.998	274.12
251.231	281.12
251.465	289.12
251.698	281.12
251.931	283.12
252.164	292.12
252.397	271.12
252.63	282.12
252.863	279.12
253.096	290.12
253.329	306.12
253.562	296.12
253.795	283.12
254.028	295.12
254.261	296.12
254.494	288.12
254.727	291.12
254.96	287.12
255.193	310.12
255.426	310.12
255.659	316.12
255.892	341.12
256.124	306.12
256.357	319.12
256.59	313.12
256.823	314.12
257.056	316.12
257.289	298.12
257.521	316.12
257.754	322.12
257.987	329.12
258.22	344.12
258.452	324.12
258.685	321.12
258.918	295.12
259.151	317.12
259.383	346.12
259.616	308.12
259.849	336.12
260.081	343.12
260.314	341.12
260.547	343.12
260.779	348.12
261.012	355.12
261.244	344.12
261.477	347.12
261.71	366.12
261.942	335.12
262.175	342.12
262.407	348.12
262.64	349.12
262.872	364.12
263.105	380.12
263.337	362.12
263.57	363.12
263.802	372.12
264.035	367.12
264.267	360.12
264.499	370.12
264.732	362.12
264.964	386.12
265.197	367.12
265.429	381.12
265.661	378.12
265.894	363.12
266.126	391.12
266.358	393.12
266.591	375.12
266.823	392.12
267.055	397.12
267.287	393.12
267.52	400.12
267.752	404.12
267.984	399.12
268.216	384.12
268.448	409.12
268.681	379.12
268.913	396.12
269.145	412.12
269.377	414.12
269.609	411.12
269.841	403.12
270.073	410.12
270.306	410.12
270.538	406.12
270.77	414.12
271.002	404.12
271.234	403.12
271.466	440.12
271.698	412.12
271.93	413.12
272.162	434.12
272.394	422.12
272.626	430.12
272.858	426.12
273.09	454.12
273.322	425.12
273.553	448.12
273.785	442.12
274.017	445.12
274.249	454.12
274.481	441.12
274.713	439.12
274.945	430.12
275.176	450.12
275.408	427.12
275.64	458.12
275.872	447.12
276.104	463.12
276.335	454.12
276.567	454.12
276.799	458.12
277.031	484.12
277.262	466.12
277.494	461.12
277.726	448.12
277.957	474.12
278.189	468.12
278.421	472.12
278.652	487.12
278.884	488.12
279.115	474.12
279.347	472.12
279.579	490.12
279.81	487.12
280.042	476.12
280.273	486.12
280.505	498.12
280.736	510.12
280.968	496.12
281.199	503.12
281.431	513.12
281.662	517.12
281.894	494.12
282.125	518.12
282.356	527.12
282.588	492.12
282.819	498.12
283.051	521.12
283.282	528.12
283.513	524.12
283.745	520.12
283.976	512.12
284.207	520.12
284.439	528.12
284.67	524.12
284.901	551.12
285.132	546.12
285.364	515.12
285.595	538.12
285.826	525.12
286.057	536.12
286.288	542.12
286.52	545.12
286.751	540.12
286.982	544.12
287.213	549.12
287.444	555.12
287.675	560.12
287.906	574.12
288.138	554.12
288.369	541.12
288.6	571.12
288.831	551.12
289.062	556.12
289.293	574.12
289.524	569.12
289.755	564.12
289.986	583.12
290.217	569.12
290.448	567.12
290.679	582.12
290.91	568.12
291.141	560.12
291.371	568.12
291.602	570.12
291.833	586.12
292.064	575.12
292.295	581.12
292.526	583.12
292.757	572.12
292.987	589.12
293.218	565.12
293.449	587.12
293.68	601.12
293.91	582.12
294.141	593.12
294.372	556.12
294.603	599.12
294.833	578.12
295.064	582.12
295.295	591.12
295.525	602.12
295.756	595.12
295.987	591.12
296.217	613.12
296.448	621.12
296.679	624.12
296.909	614.12
297.14	593.12
297.37	616.12
297.601	630.12
297.831	632.12
298.062	676.12
298.292	640.12
298.523	644.12
298.753	635.12
298.984	624.12
299.214	631.12
299.445	637.12
299.675	626.12
299.905	634.12
300.136	652.12
300.366	638.12
300.597	651.12
300.827	676.12
301.057	700.12
301.288	666.12
301.518	676.12
301.748	690.12
301.979	674.12
302.209	672.12
302.439	670.12
302.669	681.12
302.9	692.12
303.13	646.12
303.36	676.12
303.59	669.12
303.82	656.12
304.051	656.12
304.281	667.12
304.511	659.12
304.741	682.12
304.971	644.12
305.201	689.12
305.431	664.12
305.661	668.12
305.891	670.12
306.121	632.12
306.352	646.12
306.582	657.12
306.812	654.12
307.042	667.12
307.272	642.12
307.502	648.12
307.731	664.12
307.961	665.12
308.191	659.12
308.421	640.12
308.651	672.12
308.881	668.12
309.111	671.12
309.341	677.12
309.571	672.12
309.8	655.12
310.03	661.12
310.26	663.12
310.49	672.12
310.72	680.12
310.949	655.12
311.179	665.12
311.409	678.12
311.639	691.12
311.868	697.12
312.098	695.12
312.328	688.12
312.557	695.12
312.787	698.12
313.017	693.12
313.246	722.12
313.476	713.12
313.706	713.12
313.935	697.12
314.165	734.12
314.394	744.12
314.624	724.12
314.853	735.12
315.083	736.12
315.312	716.12
315.542	698.12
315.771	712.12
316.001	699.12
316.23	712.12
316.46	704.12
316.689	706.12
316.919	699.12
317.148	714.12
317.377	718.12
317.607	713.12
317.836	734.12
318.065	698.12
318.295	703.12
318.524	714.12
318.753	710.12
318.983	706.12
319.212	714.12
319.441	692.12
319.67	697.12
319.9	726.12
320.129	693.12
320.358	709.12
320.587	713.12
320.816	710.12
321.046	715.12
321.275	727.12
321.504	755.12
321.733	721.12
321.962	724.12
322.191	725.12
322.42	740.12
322.649	720.12
322.878	735.12
323.108	715.12
323.337	734.12
323.566	725.12
323.795	712.12
324.024	730.12
324.253	738.12
324.482	716.12
324.71	717.12
324.939	743.12
325.168	739.12
325.397	748.12
325.626	752.12
325.855	772.12
326.084	766.12
326.313	784.12
326.542	772.12
326.77	761.12
326.999	766.12
327.228	778.12
327.457	774.12
327.686	809.12
327.914	816.12
328.143	792.12
328.372	778.12
328.6	765.12
328.829	798.12
329.058	802.12
329.287	773.12
329.515	791.12
329.744	784.12
329.972	766.12
330.201	791.12
330.43	782.12
330.658	780.12
330.887	830.12
331.115	814.12
331.344	821.12
331.572	829.12
331.801	843.12
332.03	868.12
332.258	898.12
332.486	898.12
332.715	913.12
332.943	966.12
333.172	985.12
333.4	1043.12
333.629	1036.12
333.857	1077.12
334.085	1050.12
334.314	1026.12
334.542	1009.12
334.771	995.12
334.999	957.12
335.227	964.12
335.455	982.12
335.684	971.12
335.912	976.12
336.14	944.12
336.369	935.12
336.597	922.12
336.825	934.12
337.053	971.12
337.281	935.12
337.51	884.12
337.738	918.12
337.966	861.12
338.194	858.12
338.422	865.12
338.65	833.12
338.878	828.12
339.106	867.12
339.334	882.12
339.562	849.12
339.79	807.12
340.018	843.12
340.246	816.12
340.474	810.12
340.702	826.12
340.93	829.12
341.158	814.12
341.386	822.12
341.614	836.12
341.842	863.12
342.07	811.12
342.298	798.12
342.526	819.12
342.754	814.12
342.981	813.12
343.209	814.12
343.437	901.12
343.665	944.12
343.893	978.12
344.12	1006.12
344.348	953.12
344.576	873.12
344.804	881.12
345.031	863.12
345.259	840.12
345.487	826.12
345.714	832.12
345.942	820.12
346.17	815.12
346.397	809.12
346.625	811.12
346.853	796.12
347.08	770.12
347.308	776.12
347.535	788.12
347.763	776.12
347.99	788.12
348.218	786.12
348.445	777.12
348.673	762.12
348.9	770.12
349.128	780.12
349.355	788.12
349.583	799.12
349.81	746.12
350.037	756.12
350.265	766.12
350.492	766.12
350.72	762.12
350.947	771.12
351.174	755.12
351.402	780.12
351.629	756.12
351.856	770.12
352.083	740.12
352.311	764.12
352.538	789.12
352.765	750.12
352.992	747.12
353.22	738.12
353.447	737.12
353.674	753.12
353.901	768.12
354.128	744.12
354.355	752.12
354.583	756.12
354.81	748.12
355.037	758.12
355.264	750.12
355.491	774.12
355.718	745.12
355.945	734.12
356.172	756.12
356.399	770.12
356.626	770.12
356.853	776.12
357.08	778.12
357.307	767.12
357.534	758.12
357.761	758.12
357.988	759.12
358.215	745.12
358.441	780.12
358.668	747.12
358.895	762.12
359.122	754.12
359.349	769.12
359.576	747.12
359.802	757.12
360.029	764.12
360.256	752.12
360.483	747.12
360.709	748.12
360.936	759.12
361.163	779.12
361.39	761.12
361.616	747.12
361.843	766.12
362.07	750.12
362.296	786.12
362.523	759.12
362.749	740.12
362.976	753.12
363.203	774.12
363.429	725.12
363.656	736.12
363.882	752.12
364.109	760.12
364.335	711.12
364.562	739.12
364.788	725.12
365.015	716.12
365.241	726.12
365.468	730.12
365.694	747.12
365.92	739.12
366.147	753.12
366.373	771.12
366.599	737.12
366.826	739.12
367.052	751.12
367.278	768.12
367.505	749.12
367.731	757.12
367.957	751.12
368.184	751.12
368.41	738.12
368.636	790.12
368.862	757.12
369.089	752.12
369.315	744.12
369.541	772.12
369.767	790.12
369.993	750.12
370.219	792.12
370.445	787.12
370.672	775.12
370.898	795.12
371.124	788.12
371.35	796.12
371.576	809.12
371.802	802.12
372.028	794.12
372.254	810.12
372.48	790.12
372.706	835.12
372.932	824.12
373.158	830.12
373.384	828.12
373.61	827.12
373.835	818.12
374.061	810.12
374.287	822.12
374.513	795.12
374.739	864.12
374.965	871.12
375.191	894.12
375.416	891.12
375.642	827.12
375.868	823.12
376.094	824.12
376.319	824.12
376.545	815.12
376.771	827.12
376.997	793.12
377.222	791.12
377.448	794.12
377.674	791.12
377.899	800.12
378.125	784.12
378.35	816.12
378.576	792.12
378.802	786.12
379.027	771.12
379.253	797.12
379.478	794.12
379.704	791.12
379.929	795.12
380.155	808.12
380.38	794.12
380.606	759.12
380.831	807.12
381.057	820.12
381.282	820.12
381.507	807.12
381.733	792.12
381.958	823.12
382.184	817.12
382.409	829.12
382.634	835.12
382.86	811.12
383.085	826.12
383.31	841.12
383.535	864.12
383.761	878.12
383.986	891.12
384.211	912.12
384.436	930.12
384.662	931.12
384.887	959.12
385.112	978.12
385.337	978.12
385.562	958.12
385.787	962.12
386.013	945.12
386.238	957.12
386.463	967.12
386.688	963.12
386.913	935.12
387.138	942.12
387.363	960.12
387.588	946.12
387.813	927.12
388.038	962.12
388.263	962.12
388.488	952.12
388.713	952.12
388.938	947.12
389.163	940.12
389.387	936.12
389.612	935.12
389.837	946.12
390.062	931.12
390.287	933.12
390.512	971.12
390.736	968.12
390.961	982.12
391.186	995.12
391.411	1019.12
391.636	1031.12
391.86	1066.12
392.085	1121.12
392.31	1073.12
392.534	1035.12
392.759	1043.12
392.984	1020.12
393.208	1010.12
393.433	1001.12
393.658	1000.12
393.882	1001.12
394.107	1025.12
394.331	1003.12
394.556	1013.12
394.78	1000.12
395.005	1056.12
395.229	1036.12
395.454	1047.12
395.678	1062.12
395.903	1067.12
396.127	1009.12
396.352	1053.12
396.576	1017.12
396.801	994.12
397.025	1010.12
397.249	1050.12
397.474	1058.12
397.698	1083.12
397.922	1080.12
398.147	1067.12
398.371	1087.12
398.595	1093.12
398.82	1139.12
399.044	1251.12
399.268	1401.12
399.492	1627.12
399.717	1800.12
399.941	1754.12
400.165	1572.12
400.389	1440.12
400.613	1301.12
400.837	1252.12
401.062	1226.12
401.286	1196.12
401.51	1203.12
401.734	1144.12
401.958	1215.12
402.182	1220.12
402.406	1214.12
402.63	1225.12
402.854	1291.12
403.078	1327.12
403.302	1314.12
403.526	1349.12
403.75	1353.12
403.974	1420.12
404.198	1371.12
404.422	1388.12
404.645	1387.12
404.869	1343.12
405.093	1368.12
405.317	1314.12
405.541	1298.12
405.765	1314.12
405.988	1276.12
406.212	1306.12
406.436	1269.12
406.66	1341.12
406.883	1382.12
407.107	1479.12
407.331	1523.12
407.555	1569.12
407.778	1554.12
408.002	1531.12
408.226	1435.12
408.449	1440.12
408.673	1354.12
408.896	1330.12
409.12	1346.12
409.344	1344.12
409.567	1318.12
409.791	1384.12
410.014	1339.12
410.238	1298.12
410.461	1316.12
410.685	1286.12
410.908	1285.12
411.132	1254.12
411.355	1265.12
411.578	1224.12
411.802	1236.12
412.025	1232.12
412.249	1308.12
412.472	1256.12
412.695	1193.12
412.919	1214.12
413.142	1202.12
413.365	1217.12
413.589	1189.12
413.812	1219.12
414.035	1183.12
414.258	1227.12
414.482	1208.12
414.705	1223.12
414.928	1218.12
415.151	1227.12
415.374	1200.12
415.597	1210.12
415.821	1191.12
416.044	1211.12
416.267	1160.12
416.49	1160.12
416.713	1184.12
416.936	1175.12
417.159	1165.12
417.382	1185.12
417.605	1200.12
417.828	1203.12
418.051	1193.12
418.274	1173.12
418.497	1208.12
418.72	1202.12
418.943	1224.12
419.166	1270.12
419.389	1350.12
419.611	1319.12
419.834	1258.12
420.057	1238.12
420.28	1175.12
420.503	1193.12
420.726	1158.12
420.948	1169.12
421.171	1227.12
421.394	1198.12
421.617	1163.12
421.839	1202.12
422.062	1170.12
422.285	1179.12
422.507	1199.12
422.73	1211.12
422.953	1216.12
423.175	1226.12
423.398	1251.12
423.621	1254.12
423.843	1273.12
424.066	1268.12
424.288	1245.12
424.511	1253.12
424.733	1264.12
424.956	1204.12
425.178	1185.12
425.401	1188.12
425.623	1198.12
425.846	1150.12
426.068	1151.12
426.291	1127.12
426.513	1117.12
426.735	1119.12
426.958	1105.12
427.18	1100.12
427.402	1076.12
427.625	1107.12
427.847	1048.12
428.069	1067.12
428.292	1097.12
428.514	1062.12
428.736	1039.12
428.958	1042.12
429.181	1043.12
429.403	1053.12
429.625	1049.12
429.847	1028.12
430.069	1010.12
430.292	1004.12
430.514	1056.12
430.736	1024.12
430.958	1042.12
431.18	1035.12
431.402	1029.12
431.624	1058.12
431.846	1062.12
432.068	1064.12
432.29	1086.12
432.512	1055.12
432.734	1071.12
432.956	1060.12
433.178	1067.12
433.4	1084.12
433.622	1097.12
433.844	1098.12
434.066	1122.12
434.287	1080.12
434.509	1120.12
434.731	1192.12
434.953	1219.12
435.175	1221.12
435.397	1206.12
435.618	1113.12
435.84	1119.12
436.062	1066.12
436.284	1065.12
436.505	1037.12
436.727	1070.12
436.949	1070.12
437.17	1076.12
437.392	1042.12
437.614	1052.12
437.835	1047.12
438.057	1040.12
438.278	1005.12
438.5	1036.12
438.721	1029.12
438.943	1070.12
439.165	1034.12
439.386	1014.12
439.608	1029.12
439.829	1050.12
440.05	1098.12
440.272	1091.12
440.493	1087.12
440.715	1099.12
440.936	1096.12
441.158	1107.12
441.379	1162.12
441.6	1194.12
441.822	1225.12
442.043	1196.12
442.264	1162.12
442.486	1146.12
442.707	1184.12
442.928	1194.12
443.149	1195.12
443.371	1189.12
443.592	1187.12
443.813	1234.12
444.034	1225.12
444.255	1280.12
444.476	1282.12
444.698	1363.12
444.919	1419.12
445.14	1438.12
445.361	1342.12
445.582	1244.12
445.803	1158.12
446.024	1142.12
446.245	1132.12
446.466	1106.12
446.687	1092.12
446.908	1083.12
447.129	1091.12
447.35	1064.12
447.571	1060.12
447.792	1010.12
448.013	1010.12
448.234	1020.12
448.455	1004.12
448.675	982.12
448.896	1003.12
449.117	976.12
449.338	996.12
449.559	1000.12
449.779	962.12
450	974.12
450.221	970.12
450.442	944.12
450.662	995.12
450.883	996.12
451.104	1039.12
451.324	999.12
451.545	1006.12
451.766	982.12
451.986	991.12
452.207	986.12
452.428	983.12
452.648	981.12
452.869	966.12
453.089	937.12
453.31	964.12
453.53	952.12
453.751	918.12
453.971	920.12
454.192	942.12
454.412	932.12
454.633	937.12
454.853	947.12
455.073	940.12
455.294	926.12
455.514	914.12
455.734	908.12
455.955	873.12
456.175	910.12
456.395	927.12
456.616	910.12
456.836	939.12
457.056	915.12
457.276	884.12
457.497	936.12
457.717	937.12
457.937	936.12
458.157	945.12
458.377	960.12
458.598	966.12
458.818	977.12
459.038	1027.12
459.258	1082.12
459.478	1112.12
459.698	1148.12
459.918	1111.12
460.138	1171.12
460.358	1283.12
460.578	1266.12
460.798	1289.12
461.018	1290.12
461.238	1240.12
461.458	1257.12
461.678	1243.12
461.898	1278.12
462.118	1257.12
462.338	1323.12
462.558	1374.12
462.777	1447.12
462.997	1579.12
463.217	1690.12
463.437	1676.12
463.657	1555.12
463.876	1459.12
464.096	1464.12
464.316	1456.12
464.536	1483.12
464.755	1399.12
464.975	1413.12
465.195	1316.12
465.414	1241.12
465.634	1148.12
465.854	1143.12
466.073	1090.12
466.293	1070.12
466.512	1080.12
466.732	1043.12
466.951	1055.12
467.171	1058.12
467.391	1054.12
467.61	1047.12
467.829	1009.12
468.049	1056.12
468.268	1018.12
468.488	992.12
468.707	985.12
468.927	1010.12
469.146	1010.12
469.365	1029.12
469.585	1028.12
469.804	1020.12
470.023	1081.12
470.243	1095.12
470.462	1089.12
470.681	1097.12
470.901	1114.12
471.12	1068.12
471.339	1017.12
471.558	1036.12
471.777	1049.12
471.997	1022.12
472.216	1001.12
472.435	1001.12
472.654	997.12
472.873	968.12
473.092	977.12
473.311	969.12
473.53	982.12
473.749	961.12
473.968	971.12
474.187	991.12
474.406	1004.12
474.625	969.12
474.844	982.12
475.063	970.12
475.282	999.12
475.501	995.12
475.72	986.12
475.939	993.12
476.158	1008.12
476.377	1044.12
476.596	1034.12
476.814	1069.12
477.033	1052.12
477.252	1068.12
477.471	1081.12
477.69	1146.12
477.908	1126.12
478.127	1173.12
478.346	1180.12
478.564	1228.12
478.783	1198.12
479.002	1224.12
479.22	1249.12
479.439	1243.12
479.658	1224.12
479.876	1198.12
480.095	1246.12
480.313	1316.12
480.532	1330.12
480.751	1310.12
480.969	1252.12
481.188	1210.12
481.406	1224.12
481.624	1162.12
481.843	1171.12
482.061	1146.12
482.28	1140.12
482.498	1128.12
482.717	1140.12
482.935	1152.12
483.153	1168.12
483.372	1156.12
483.59	1155.12
483.808	1156.12
484.027	1122.12
484.245	1183.12
484.463	1156.12
484.681	1189.12
484.9	1196.12
485.118	1197.12
485.336	1154.12
485.554	1212.12
485.772	1180.12
485.99	1194.12
486.209	1204.12
486.427	1200.12
486.645	1209.12
486.863	1218.12
487.081	1169.12
487.299	1195.12
487.517	1203.12
487.735	1188.12
487.953	1244.12
488.171	1217.12
488.389	1185.12
488.607	1171.12
488.825	1176.12
489.043	1191.12
489.261	1194.12
489.479	1172.12
489.696	1191.12
489.914	1172.12
490.132	1223.12
490.35	1213.12
490.568	1191.12
490.786	1178.12
491.003	1199.12
491.221	1216.12
491.439	1227.12
491.657	1204.12
491.874	1203.12
492.092	1226.12
492.31	1245.12
492.527	1243.12
492.745	1227.12
492.963	1223.12
493.18	1257.12
493.398	1249.12
493.615	1242.12
493.833	1244.12
494.05	1274.12
494.268	1271.12
494.485	1270.12
494.703	1248.12
494.92	1267.12
495.138	1232.12
495.355	1275.12
495.573	1280.12
495.79	1282.12
496.008	1306.12
