Data from NiCl2@0.5M.TitratingCurve.Agarose3%dH2O.NegLispCup.LampEnergy10.LIBS07252019_HRD10591_18-18-41-574.txt Node
Date: Thu Jul 25 18:18:41 EDT 2019
User: cochatt
Spectrometer: HR+D1059
Trigger mode: 1
Integration Time (sec): 1.000000E-1
Scans to average: 1
Electric dark correction enabled: true
Nonlinearity correction enabled: false
Boxcar width: 0
XAxis mode: Wavelengths
Number of Pixels in Spectrum: 2048
>>>>>Begin Spectral Data<<<<<
223.165	-14.62
223.4	-14.62
223.635	-14.62
223.869	-21.62
224.104	-9.62
224.338	-15.62
224.573	-13.62
224.808	-6.62
225.042	-9.62
225.277	0.38
225.511	-1.62
225.746	-3.62
225.98	-3.62
226.215	17.38
226.449	16.38
226.683	18.38
226.918	21.38
227.152	26.38
227.387	52.38
227.621	36.38
227.856	37.38
228.09	45.38
228.324	44.38
228.559	46.38
228.793	60.38
229.027	154.38
229.262	145.38
229.496	157.38
229.73	155.38
229.964	204.38
230.199	186.38
230.433	189.38
230.667	186.38
230.901	208.38
231.136	194.38
231.37	190.38
231.604	196.38
231.838	205.38
232.072	201.38
232.306	205.38
232.541	216.38
232.775	197.38
233.009	200.38
233.243	200.38
233.477	216.38
233.711	219.38
233.945	209.38
234.179	216.38
234.413	212.38
234.647	207.38
234.881	204.38
235.115	213.38
235.349	214.38
235.583	240.38
235.817	218.38
236.051	216.38
236.285	221.38
236.519	227.38
236.753	230.38
236.987	245.38
237.221	233.38
237.455	235.38
237.689	254.38
237.922	240.38
238.156	232.38
238.39	240.38
238.624	240.38
238.858	243.38
239.091	246.38
239.325	258.38
239.559	270.38
239.793	268.38
240.027	280.38
240.26	259.38
240.494	269.38
240.728	262.38
240.961	275.38
241.195	276.38
241.429	268.38
241.662	286.38
241.896	309.38
242.13	306.38
242.363	307.38
242.597	285.38
242.83	293.38
243.064	288.38
243.298	308.38
243.531	312.38
243.765	314.38
243.998	323.38
244.232	314.38
244.465	320.38
244.699	347.38
244.932	330.38
245.166	317.38
245.399	347.38
245.633	323.38
245.866	331.38
246.099	342.38
246.333	346.38
246.566	340.38
246.8	354.38
247.033	345.38
247.266	350.38
247.5	364.38
247.733	360.38
247.966	339.38
248.2	359.38
248.433	375.38
248.666	376.38
248.899	361.38
249.133	370.38
249.366	364.38
249.599	378.38
249.832	371.38
250.066	400.38
250.299	366.38
250.532	392.38
250.765	400.38
250.998	409.38
251.231	403.38
251.465	426.38
251.698	452.38
251.931	420.38
252.164	413.38
252.397	452.38
252.63	422.38
252.863	440.38
253.096	441.38
253.329	440.38
253.562	433.38
253.795	456.38
254.028	438.38
254.261	458.38
254.494	461.38
254.727	452.38
254.96	441.38
255.193	450.38
255.426	434.38
255.659	461.38
255.892	481.38
256.124	485.38
256.357	471.38
256.59	473.38
256.823	454.38
257.056	470.38
257.289	480.38
257.521	481.38
257.754	501.38
257.987	491.38
258.22	480.38
258.452	497.38
258.685	512.38
258.918	490.38
259.151	491.38
259.383	507.38
259.616	531.38
259.849	500.38
260.081	513.38
260.314	507.38
260.547	516.38
260.779	513.38
261.012	501.38
261.244	530.38
261.477	534.38
261.71	516.38
261.942	549.38
262.175	530.38
262.407	530.38
262.64	546.38
262.872	550.38
263.105	533.38
263.337	548.38
263.57	529.38
263.802	556.38
264.035	555.38
264.267	573.38
264.499	560.38
264.732	570.38
264.964	573.38
265.197	567.38
265.429	561.38
265.661	575.38
265.894	569.38
266.126	560.38
266.358	609.38
266.591	607.38
266.823	585.38
267.055	596.38
267.287	593.38
267.52	584.38
267.752	608.38
267.984	622.38
268.216	580.38
268.448	603.38
268.681	603.38
268.913	620.38
269.145	634.38
269.377	625.38
269.609	633.38
269.841	597.38
270.073	634.38
270.306	615.38
270.538	635.38
270.77	640.38
271.002	656.38
271.234	641.38
271.466	666.38
271.698	654.38
271.93	659.38
272.162	652.38
272.394	663.38
272.626	674.38
272.858	672.38
273.09	660.38
273.322	673.38
273.553	663.38
273.785	687.38
274.017	682.38
274.249	676.38
274.481	695.38
274.713	682.38
274.945	701.38
275.176	707.38
275.408	728.38
275.64	699.38
275.872	709.38
276.104	700.38
276.335	686.38
276.567	719.38
276.799	708.38
277.031	716.38
277.262	747.38
277.494	717.38
277.726	730.38
277.957	738.38
278.189	737.38
278.421	725.38
278.652	748.38
278.884	737.38
279.115	743.38
279.347	768.38
279.579	757.38
279.81	762.38
280.042	744.38
280.273	771.38
280.505	752.38
280.736	777.38
280.968	777.38
281.199	784.38
281.431	783.38
281.662	807.38
281.894	803.38
282.125	797.38
282.356	813.38
282.588	800.38
282.819	774.38
283.051	821.38
283.282	805.38
283.513	802.38
283.745	797.38
283.976	800.38
284.207	814.38
284.439	821.38
284.67	804.38
284.901	844.38
285.132	843.38
285.364	827.38
285.595	850.38
285.826	845.38
286.057	864.38
286.288	850.38
286.52	847.38
286.751	829.38
286.982	849.38
287.213	854.38
287.444	862.38
287.675	885.38
287.906	871.38
288.138	886.38
288.369	884.38
288.6	874.38
288.831	853.38
289.062	862.38
289.293	861.38
289.524	924.38
289.755	858.38
289.986	888.38
290.217	875.38
290.448	884.38
290.679	896.38
290.91	890.38
291.141	917.38
291.371	907.38
291.602	916.38
291.833	911.38
292.064	888.38
292.295	888.38
292.526	914.38
292.757	896.38
292.987	907.38
293.218	896.38
293.449	908.38
293.68	914.38
293.91	930.38
294.141	929.38
294.372	924.38
294.603	919.38
294.833	899.38
295.064	912.38
295.295	919.38
295.525	904.38
295.756	945.38
295.987	911.38
296.217	956.38
296.448	942.38
296.679	944.38
296.909	952.38
297.14	959.38
297.37	962.38
297.601	957.38
297.831	974.38
298.062	982.38
298.292	986.38
298.523	1004.38
298.753	1035.38
298.984	969.38
299.214	972.38
299.445	1001.38
299.675	997.38
299.905	1060.38
300.136	993.38
300.366	1052.38
300.597	1058.38
300.827	1044.38
301.057	1044.38
301.288	1046.38
301.518	1066.38
301.748	1051.38
301.979	1039.38
302.209	1048.38
302.439	1034.38
302.669	1036.38
302.9	1035.38
303.13	1028.38
303.36	1048.38
303.59	1035.38
303.82	1061.38
304.051	1064.38
304.281	1058.38
304.511	1062.38
304.741	1061.38
304.971	1062.38
305.201	1069.38
305.431	1063.38
305.661	1064.38
305.891	1046.38
306.121	1034.38
306.352	1028.38
306.582	1042.38
306.812	1010.38
307.042	1041.38
307.272	1036.38
307.502	1013.38
307.731	995.38
307.961	1048.38
308.191	1036.38
308.421	1014.38
308.651	1018.38
308.881	1011.38
309.111	1046.38
309.341	1042.38
309.571	1040.38
309.8	1056.38
310.03	1075.38
310.26	1107.38
310.49	1103.38
310.72	1085.38
310.949	1031.38
311.179	1057.38
311.409	1015.38
311.639	1057.38
311.868	1058.38
312.098	1108.38
312.328	1047.38
312.557	1102.38
312.787	1096.38
313.017	1094.38
313.246	1092.38
313.476	1114.38
313.706	1160.38
313.935	1138.38
314.165	1125.38
314.394	1133.38
314.624	1114.38
314.853	1133.38
315.083	1110.38
315.312	1144.38
315.542	1140.38
315.771	1111.38
316.001	1116.38
316.23	1108.38
316.46	1087.38
316.689	1112.38
316.919	1132.38
317.148	1127.38
317.377	1103.38
317.607	1058.38
317.836	1086.38
318.065	1122.38
318.295	1110.38
318.524	1116.38
318.753	1106.38
318.983	1107.38
319.212	1101.38
319.441	1086.38
319.67	1125.38
319.9	1111.38
320.129	1128.38
320.358	1111.38
320.587	1105.38
320.816	1130.38
321.046	1139.38
321.275	1123.38
321.504	1101.38
321.733	1122.38
321.962	1115.38
322.191	1126.38
322.42	1154.38
322.649	1148.38
322.878	1134.38
323.108	1143.38
323.337	1154.38
323.566	1144.38
323.795	1145.38
324.024	1122.38
324.253	1138.38
324.482	1154.38
324.71	1196.38
324.939	1136.38
325.168	1158.38
325.397	1149.38
325.626	1152.38
325.855	1179.38
326.084	1208.38
326.313	1221.38
326.542	1202.38
326.77	1201.38
326.999	1215.38
327.228	1240.38
327.457	1196.38
327.686	1185.38
327.914	1188.38
328.143	1254.38
328.372	1206.38
328.6	1218.38
328.829	1219.38
329.058	1214.38
329.287	1213.38
329.515	1224.38
329.744	1234.38
329.972	1228.38
330.201	1245.38
330.43	1236.38
330.658	1248.38
330.887	1259.38
331.115	1269.38
331.344	1266.38
331.572	1273.38
331.801	1318.38
332.03	1340.38
332.258	1357.38
332.486	1380.38
332.715	1438.38
332.943	1410.38
333.172	1499.38
333.4	1527.38
333.629	1546.38
333.857	1595.38
334.085	1561.38
334.314	1588.38
334.542	1574.38
334.771	1555.38
334.999	1527.38
335.227	1513.38
335.455	1515.38
335.684	1500.38
335.912	1485.38
336.14	1471.38
336.369	1485.38
336.597	1485.38
336.825	1512.38
337.053	1486.38
337.281	1493.38
337.51	1429.38
337.738	1403.38
337.966	1400.38
338.194	1421.38
338.422	1408.38
338.65	1322.38
338.878	1348.38
339.106	1360.38
339.334	1408.38
339.562	1330.38
339.79	1304.38
340.018	1274.38
340.246	1266.38
340.474	1288.38
340.702	1282.38
340.93	1283.38
341.158	1291.38
341.386	1357.38
341.614	1408.38
341.842	1355.38
342.07	1288.38
342.298	1271.38
342.526	1288.38
342.754	1270.38
342.981	1321.38
343.209	1306.38
343.437	1404.38
343.665	1474.38
343.893	1488.38
344.12	1553.38
344.348	1483.38
344.576	1465.38
344.804	1463.38
345.031	1383.38
345.259	1380.38
345.487	1316.38
345.714	1333.38
345.942	1346.38
346.17	1364.38
346.397	1330.38
346.625	1231.38
346.853	1235.38
347.08	1215.38
347.308	1251.38
347.535	1248.38
347.763	1219.38
347.99	1194.38
348.218	1227.38
348.445	1210.38
348.673	1201.38
348.9	1212.38
349.128	1218.38
349.355	1253.38
349.583	1274.38
349.81	1194.38
350.037	1189.38
350.265	1214.38
350.492	1146.38
350.72	1199.38
350.947	1174.38
351.174	1230.38
351.402	1249.38
351.629	1234.38
351.856	1261.38
352.083	1192.38
352.311	1209.38
352.538	1281.38
352.765	1284.38
352.992	1154.38
353.22	1164.38
353.447	1172.38
353.674	1152.38
353.901	1142.38
354.128	1124.38
354.355	1152.38
354.583	1160.38
354.81	1150.38
355.037	1156.38
355.264	1159.38
355.491	1158.38
355.718	1185.38
355.945	1159.38
356.172	1183.38
356.399	1176.38
356.626	1188.38
356.853	1248.38
357.08	1174.38
357.307	1202.38
357.534	1178.38
357.761	1156.38
357.988	1136.38
358.215	1145.38
358.441	1147.38
358.668	1132.38
358.895	1149.38
359.122	1176.38
359.349	1174.38
359.576	1168.38
359.802	1173.38
360.029	1175.38
360.256	1165.38
360.483	1158.38
360.709	1164.38
360.936	1173.38
361.163	1187.38
361.39	1167.38
361.616	1186.38
361.843	1193.38
362.07	1257.38
362.296	1261.38
362.523	1182.38
362.749	1136.38
362.976	1134.38
363.203	1138.38
363.429	1140.38
363.656	1136.38
363.882	1148.38
364.109	1108.38
364.335	1115.38
364.562	1127.38
364.788	1118.38
365.015	1149.38
365.241	1156.38
365.468	1138.38
365.694	1158.38
365.92	1129.38
366.147	1124.38
366.373	1147.38
366.599	1134.38
366.826	1142.38
367.052	1147.38
367.278	1139.38
367.505	1151.38
367.731	1151.38
367.957	1162.38
368.184	1152.38
368.41	1145.38
368.636	1153.38
368.862	1160.38
369.089	1168.38
369.315	1164.38
369.541	1178.38
369.767	1192.38
369.993	1180.38
370.219	1172.38
370.445	1186.38
370.672	1188.38
370.898	1226.38
371.124	1193.38
371.35	1236.38
371.576	1220.38
371.802	1256.38
372.028	1226.38
372.254	1196.38
372.48	1235.38
372.706	1259.38
372.932	1285.38
373.158	1304.38
373.384	1274.38
373.61	1209.38
373.835	1232.38
374.061	1238.38
374.287	1245.38
374.513	1251.38
374.739	1305.38
374.965	1306.38
375.191	1336.38
375.416	1343.38
375.642	1326.38
375.868	1298.38
376.094	1281.38
376.319	1254.38
376.545	1256.38
376.771	1246.38
376.997	1209.38
377.222	1211.38
377.448	1228.38
377.674	1255.38
377.899	1209.38
378.125	1240.38
378.35	1218.38
378.576	1196.38
378.802	1207.38
379.027	1214.38
379.253	1216.38
379.478	1232.38
379.704	1202.38
379.929	1225.38
380.155	1187.38
380.38	1204.38
380.606	1219.38
380.831	1240.38
381.057	1239.38
381.282	1212.38
381.507	1217.38
381.733	1226.38
381.958	1227.38
382.184	1240.38
382.409	1264.38
382.634	1236.38
382.86	1264.38
383.085	1322.38
383.31	1313.38
383.535	1308.38
383.761	1314.38
383.986	1348.38
384.211	1345.38
384.436	1364.38
384.662	1416.38
384.887	1414.38
385.112	1425.38
385.337	1467.38
385.562	1480.38
385.787	1495.38
386.013	1510.38
386.238	1477.38
386.463	1476.38
386.688	1445.38
386.913	1425.38
387.138	1451.38
387.363	1476.38
387.588	1442.38
387.813	1468.38
388.038	1443.38
388.263	1465.38
388.488	1462.38
388.713	1480.38
388.938	1447.38
389.163	1406.38
389.387	1467.38
389.612	1429.38
389.837	1440.38
390.062	1453.38
390.287	1417.38
390.512	1461.38
390.736	1493.38
390.961	1504.38
391.186	1488.38
391.411	1571.38
391.636	1547.38
391.86	1618.38
392.085	1666.38
392.31	1609.38
392.534	1589.38
392.759	1574.38
392.984	1554.38
393.208	1571.38
393.433	1534.38
393.658	1550.38
393.882	1537.38
394.107	1558.38
394.331	1569.38
394.556	1580.38
394.78	1560.38
395.005	1556.38
395.229	1555.38
395.454	1587.38
395.678	1628.38
395.903	1633.38
396.127	1601.38
396.352	1589.38
396.576	1550.38
396.801	1605.38
397.025	1604.38
397.249	1656.38
397.474	1649.38
397.698	1635.38
397.922	1666.38
398.147	1693.38
398.371	1730.38
398.595	1743.38
398.82	1830.38
399.044	1958.38
399.268	2076.38
399.492	2390.38
399.717	2580.38
399.941	2582.38
400.165	2420.38
400.389	2243.38
400.613	2086.38
400.837	1968.38
401.062	1900.38
401.286	1905.38
401.51	1865.38
401.734	1815.38
401.958	1863.38
402.182	1835.38
402.406	1890.38
402.63	1914.38
402.854	1922.38
403.078	1910.38
403.302	1946.38
403.526	1972.38
403.75	1991.38
403.974	2046.38
404.198	2008.38
404.422	2019.38
404.645	2027.38
404.869	1975.38
405.093	2008.38
405.317	1986.38
405.541	2009.38
405.765	2020.38
405.988	2029.38
406.212	1982.38
406.436	2041.38
406.66	2068.38
406.883	2093.38
407.107	2197.38
407.331	2227.38
407.555	2344.38
407.778	2368.38
408.002	2285.38
408.226	2219.38
408.449	2205.38
408.673	2092.38
408.896	2090.38
409.12	2054.38
409.344	2061.38
409.567	2044.38
409.791	2032.38
410.014	2026.38
410.238	2023.38
410.461	2024.38
410.685	2001.38
410.908	1993.38
411.132	1947.38
411.355	1884.38
411.578	1924.38
411.802	1920.38
412.025	1906.38
412.249	1936.38
412.472	1965.38
412.695	1910.38
412.919	1892.38
413.142	1885.38
413.365	1848.38
413.589	1863.38
413.812	1850.38
414.035	1859.38
414.258	1852.38
414.482	1813.38
414.705	1860.38
414.928	1861.38
415.151	1879.38
415.374	1869.38
415.597	1846.38
415.821	1816.38
416.044	1829.38
416.267	1799.38
416.49	1777.38
416.713	1791.38
416.936	1842.38
417.159	1740.38
417.382	1785.38
417.605	1792.38
417.828	1806.38
418.051	1794.38
418.274	1782.38
418.497	1796.38
418.72	1861.38
418.943	1838.38
419.166	1933.38
419.389	2099.38
419.611	2029.38
419.834	1937.38
420.057	1908.38
420.28	1836.38
420.503	1766.38
420.726	1790.38
420.948	1802.38
421.171	1825.38
421.394	1805.38
421.617	1812.38
421.839	1814.38
422.062	1821.38
422.285	1786.38
422.507	1831.38
422.73	1876.38
422.953	1844.38
423.175	1848.38
423.398	1898.38
423.621	1836.38
423.843	1883.38
424.066	1856.38
424.288	1886.38
424.511	1880.38
424.733	1830.38
424.956	1828.38
425.178	1839.38
425.401	1826.38
425.623	1804.38
425.846	1798.38
426.068	1767.38
426.291	1771.38
426.513	1749.38
426.735	1722.38
426.958	1732.38
427.18	1680.38
427.402	1696.38
427.625	1671.38
427.847	1670.38
428.069	1707.38
428.292	1671.38
428.514	1630.38
428.736	1621.38
428.958	1653.38
429.181	1611.38
429.403	1588.38
429.625	1614.38
429.847	1622.38
430.069	1585.38
430.292	1637.38
430.514	1607.38
430.736	1618.38
430.958	1615.38
431.18	1605.38
431.402	1668.38
431.624	1622.38
431.846	1641.38
432.068	1669.38
432.29	1673.38
432.512	1630.38
432.734	1666.38
432.956	1669.38
433.178	1668.38
433.4	1649.38
433.622	1649.38
433.844	1679.38
434.066	1671.38
434.287	1728.38
434.509	1737.38
434.731	1780.38
434.953	1809.38
435.175	1851.38
435.397	1850.38
435.618	1769.38
435.84	1724.38
436.062	1670.38
436.284	1672.38
436.505	1639.38
436.727	1676.38
436.949	1657.38
437.17	1645.38
437.392	1627.38
437.614	1622.38
437.835	1617.38
438.057	1610.38
438.278	1538.38
438.5	1564.38
438.721	1573.38
438.943	1587.38
439.165	1593.38
439.386	1624.38
439.608	1652.38
439.829	1637.38
440.05	1653.38
440.272	1668.38
440.493	1660.38
440.715	1710.38
440.936	1677.38
441.158	1723.38
441.379	1753.38
441.6	1816.38
441.822	1852.38
442.043	1832.38
442.264	1815.38
442.486	1759.38
442.707	1844.38
442.928	1783.38
443.149	1808.38
443.371	1797.38
443.592	1818.38
443.813	1855.38
444.034	1863.38
444.255	1915.38
444.476	1984.38
444.698	2080.38
444.919	2109.38
445.14	2134.38
445.361	2030.38
445.582	1917.38
445.803	1827.38
446.024	1760.38
446.245	1754.38
446.466	1706.38
446.687	1675.38
446.908	1654.38
447.129	1618.38
447.35	1592.38
447.571	1606.38
447.792	1562.38
448.013	1583.38
448.234	1545.38
448.455	1541.38
448.675	1535.38
448.896	1529.38
449.117	1518.38
449.338	1473.38
449.559	1470.38
449.779	1509.38
450	1488.38
450.221	1487.38
450.442	1517.38
450.662	1520.38
450.883	1512.38
451.104	1568.38
451.324	1526.38
451.545	1516.38
451.766	1512.38
451.986	1502.38
452.207	1487.38
452.428	1471.38
452.648	1512.38
452.869	1410.38
453.089	1444.38
453.31	1492.38
453.53	1431.38
453.751	1458.38
453.971	1441.38
454.192	1454.38
454.412	1415.38
454.633	1436.38
454.853	1440.38
455.073	1405.38
455.294	1449.38
455.514	1395.38
455.734	1430.38
455.955	1361.38
456.175	1403.38
456.395	1426.38
456.616	1403.38
456.836	1403.38
457.056	1417.38
457.276	1391.38
457.497	1449.38
457.717	1451.38
457.937	1457.38
458.157	1460.38
458.377	1473.38
458.598	1489.38
458.818	1508.38
459.038	1564.38
459.258	1641.38
459.478	1644.38
459.698	1741.38
459.918	1751.38
460.138	1850.38
460.358	1911.38
460.578	1922.38
460.798	1933.38
461.018	1987.38
461.238	1948.38
461.458	1914.38
461.678	1883.38
461.898	1961.38
462.118	2010.38
462.338	2017.38
462.558	2177.38
462.777	2214.38
462.997	2375.38
463.217	2476.38
463.437	2522.38
463.657	2349.38
463.876	2300.38
464.096	2275.38
464.316	2270.38
464.536	2242.38
464.755	2135.38
464.975	2118.38
465.195	1971.38
465.414	1940.38
465.634	1817.38
465.854	1770.38
466.073	1704.38
466.293	1679.38
466.512	1656.38
466.732	1627.38
466.951	1621.38
467.171	1612.38
467.391	1601.38
467.61	1595.38
467.829	1571.38
468.049	1579.38
468.268	1581.38
468.488	1540.38
468.707	1564.38
468.927	1561.38
469.146	1539.38
469.365	1554.38
469.585	1571.38
469.804	1597.38
470.023	1641.38
470.243	1635.38
470.462	1648.38
470.681	1631.38
470.901	1621.38
471.12	1644.38
471.339	1620.38
471.558	1632.38
471.777	1596.38
471.997	1548.38
472.216	1554.38
472.435	1561.38
472.654	1534.38
472.873	1530.38
473.092	1536.38
473.311	1522.38
473.53	1541.38
473.749	1533.38
473.968	1512.38
474.187	1480.38
474.406	1471.38
474.625	1503.38
474.844	1559.38
475.063	1512.38
475.282	1520.38
475.501	1542.38
475.72	1567.38
475.939	1572.38
476.158	1598.38
476.377	1634.38
476.596	1618.38
476.814	1621.38
477.033	1630.38
477.252	1680.38
477.471	1700.38
477.69	1735.38
477.908	1761.38
478.127	1828.38
478.346	1812.38
478.564	1834.38
478.783	1840.38
479.002	1947.38
479.22	1924.38
479.439	1900.38
479.658	1876.38
479.876	1893.38
480.095	1929.38
480.313	2010.38
480.532	1991.38
480.751	2004.38
480.969	1946.38
481.188	1889.38
481.406	1894.38
481.624	1806.38
481.843	1816.38
482.061	1764.38
482.28	1779.38
482.498	1780.38
482.717	1784.38
482.935	1786.38
483.153	1813.38
483.372	1780.38
483.59	1870.38
483.808	1800.38
484.027	1794.38
484.245	1801.38
484.463	1816.38
484.681	1839.38
484.9	1893.38
485.118	1885.38
485.336	1885.38
485.554	1865.38
485.772	1879.38
485.99	1887.38
486.209	1920.38
486.427	1899.38
486.645	1922.38
486.863	1895.38
487.081	1871.38
487.299	1882.38
487.517	1917.38
487.735	1911.38
487.953	1931.38
488.171	1908.38
488.389	1864.38
488.607	1861.38
488.825	1855.38
489.043	1811.38
489.261	1834.38
489.479	1857.38
489.696	1867.38
489.914	1830.38
