Data from NiCl2@0.25M.TitratingCurve.Agarose3%dH2O.NegLispCup.LampEnergy10.LIBS07252019_HRD10591_18-24-17-575.txt Node
Date: Thu Jul 25 18:24:17 EDT 2019
User: cochatt
Spectrometer: HR+D1059
Trigger mode: 1
Integration Time (sec): 1.000000E-1
Scans to average: 1
Electric dark correction enabled: true
Nonlinearity correction enabled: false
Boxcar width: 0
XAxis mode: Wavelengths
Number of Pixels in Spectrum: 2048
>>>>>Begin Spectral Data<<<<<
223.165	-25.62
223.4	-25.62
223.635	-25.62
223.869	-26.62
224.104	-24.62
224.338	-9.62
224.573	-21.62
224.808	-5.62
225.042	-0.62
225.277	2.38
225.511	-10.62
225.746	22.38
225.98	9.38
226.215	11.38
226.449	18.38
226.683	20.38
226.918	18.38
227.152	22.38
227.387	37.38
227.621	38.38
227.856	38.38
228.09	51.38
228.324	39.38
228.559	52.38
228.793	79.38
229.027	111.38
229.262	128.38
229.496	131.38
229.73	123.38
229.964	135.38
230.199	144.38
230.433	138.38
230.667	136.38
230.901	154.38
231.136	138.38
231.37	137.38
231.604	161.38
231.838	154.38
232.072	151.38
232.306	148.38
232.541	154.38
232.775	159.38
233.009	157.38
233.243	151.38
233.477	150.38
233.711	172.38
233.945	163.38
234.179	171.38
234.413	167.38
234.647	149.38
234.881	152.38
235.115	174.38
235.349	160.38
235.583	162.38
235.817	167.38
236.051	170.38
236.285	171.38
236.519	164.38
236.753	189.38
236.987	179.38
237.221	156.38
237.455	163.38
237.689	182.38
237.922	180.38
238.156	163.38
238.39	181.38
238.624	188.38
238.858	180.38
239.091	180.38
239.325	185.38
239.559	179.38
239.793	190.38
240.027	204.38
240.26	211.38
240.494	219.38
240.728	211.38
240.961	230.38
241.195	208.38
241.429	213.38
241.662	213.38
241.896	201.38
242.13	219.38
242.363	227.38
242.597	215.38
242.83	208.38
243.064	236.38
243.298	236.38
243.531	235.38
243.765	212.38
243.998	225.38
244.232	231.38
244.465	250.38
244.699	222.38
244.932	242.38
245.166	239.38
245.399	242.38
245.633	226.38
245.866	233.38
246.099	249.38
246.333	243.38
246.566	251.38
246.8	260.38
247.033	246.38
247.266	244.38
247.5	274.38
247.733	284.38
247.966	265.38
248.2	285.38
248.433	276.38
248.666	286.38
248.899	282.38
249.133	285.38
249.366	283.38
249.599	270.38
249.832	276.38
250.066	276.38
250.299	292.38
250.532	285.38
250.765	282.38
250.998	300.38
251.231	292.38
251.465	286.38
251.698	288.38
251.931	298.38
252.164	296.38
252.397	288.38
252.63	318.38
252.863	312.38
253.096	315.38
253.329	322.38
253.562	302.38
253.795	320.38
254.028	335.38
254.261	322.38
254.494	313.38
254.727	311.38
254.96	319.38
255.193	318.38
255.426	328.38
255.659	314.38
255.892	324.38
256.124	326.38
256.357	327.38
256.59	314.38
256.823	314.38
257.056	346.38
257.289	350.38
257.521	340.38
257.754	336.38
257.987	347.38
258.22	336.38
258.452	346.38
258.685	360.38
258.918	351.38
259.151	348.38
259.383	351.38
259.616	361.38
259.849	357.38
260.081	364.38
260.314	349.38
260.547	377.38
260.779	363.38
261.012	368.38
261.244	372.38
261.477	372.38
261.71	371.38
261.942	369.38
262.175	367.38
262.407	361.38
262.64	384.38
262.872	384.38
263.105	391.38
263.337	381.38
263.57	370.38
263.802	386.38
264.035	369.38
264.267	403.38
264.499	399.38
264.732	379.38
264.964	409.38
265.197	406.38
265.429	417.38
265.661	404.38
265.894	397.38
266.126	431.38
266.358	426.38
266.591	417.38
266.823	411.38
267.055	415.38
267.287	421.38
267.52	430.38
267.752	424.38
267.984	426.38
268.216	429.38
268.448	416.38
268.681	421.38
268.913	436.38
269.145	406.38
269.377	425.38
269.609	443.38
269.841	436.38
270.073	455.38
270.306	434.38
270.538	441.38
270.77	427.38
271.002	441.38
271.234	424.38
271.466	448.38
271.698	435.38
271.93	436.38
272.162	463.38
272.394	450.38
272.626	455.38
272.858	459.38
273.09	450.38
273.322	455.38
273.553	454.38
273.785	458.38
274.017	460.38
274.249	468.38
274.481	452.38
274.713	466.38
274.945	480.38
275.176	472.38
275.408	474.38
275.64	495.38
275.872	488.38
276.104	498.38
276.335	499.38
276.567	479.38
276.799	486.38
277.031	487.38
277.262	500.38
277.494	493.38
277.726	510.38
277.957	521.38
278.189	488.38
278.421	514.38
278.652	501.38
278.884	505.38
279.115	508.38
279.347	506.38
279.579	493.38
279.81	510.38
280.042	514.38
280.273	505.38
280.505	523.38
280.736	540.38
280.968	537.38
281.199	542.38
281.431	542.38
281.662	557.38
281.894	555.38
282.125	538.38
282.356	555.38
282.588	574.38
282.819	555.38
283.051	541.38
283.282	543.38
283.513	563.38
283.745	560.38
283.976	562.38
284.207	562.38
284.439	562.38
284.67	550.38
284.901	576.38
285.132	575.38
285.364	560.38
285.595	598.38
285.826	576.38
286.057	580.38
286.288	584.38
286.52	583.38
286.751	566.38
286.982	569.38
287.213	584.38
287.444	596.38
287.675	595.38
287.906	585.38
288.138	598.38
288.369	587.38
288.6	606.38
288.831	603.38
289.062	596.38
289.293	585.38
289.524	615.38
289.755	594.38
289.986	600.38
290.217	586.38
290.448	603.38
290.679	623.38
290.91	615.38
291.141	626.38
291.371	611.38
291.602	635.38
291.833	599.38
292.064	611.38
292.295	607.38
292.526	628.38
292.757	618.38
292.987	610.38
293.218	584.38
293.449	625.38
293.68	633.38
293.91	637.38
294.141	621.38
294.372	619.38
294.603	634.38
294.833	623.38
295.064	612.38
295.295	615.38
295.525	612.38
295.756	642.38
295.987	618.38
296.217	658.38
296.448	644.38
296.679	650.38
296.909	636.38
297.14	645.38
297.37	658.38
297.601	690.38
297.831	674.38
298.062	636.38
298.292	674.38
298.523	672.38
298.753	706.38
298.984	671.38
299.214	679.38
299.445	665.38
299.675	671.38
299.905	690.38
300.136	666.38
300.366	642.38
300.597	667.38
300.827	717.38
301.057	714.38
301.288	721.38
301.518	724.38
301.748	723.38
301.979	707.38
302.209	728.38
302.439	724.38
302.669	717.38
302.9	674.38
303.13	697.38
303.36	693.38
303.59	706.38
303.82	708.38
304.051	715.38
304.281	700.38
304.511	715.38
304.741	732.38
304.971	720.38
305.201	688.38
305.431	713.38
305.661	702.38
305.891	682.38
306.121	696.38
306.352	702.38
306.582	706.38
306.812	681.38
307.042	692.38
307.272	697.38
307.502	680.38
307.731	682.38
307.961	694.38
308.191	663.38
308.421	676.38
308.651	696.38
308.881	680.38
309.111	648.38
309.341	682.38
309.571	660.38
309.8	695.38
310.03	683.38
310.26	673.38
310.49	680.38
310.72	695.38
310.949	672.38
311.179	694.38
311.409	691.38
311.639	690.38
311.868	690.38
312.098	730.38
312.328	720.38
312.557	700.38
312.787	708.38
313.017	707.38
313.246	745.38
313.476	752.38
313.706	732.38
313.935	731.38
314.165	738.38
314.394	734.38
314.624	752.38
314.853	749.38
315.083	713.38
315.312	744.38
315.542	742.38
315.771	728.38
316.001	712.38
316.23	716.38
316.46	714.38
316.689	729.38
316.919	717.38
317.148	750.38
317.377	740.38
317.607	703.38
317.836	721.38
318.065	714.38
318.295	732.38
318.524	739.38
318.753	706.38
318.983	706.38
319.212	723.38
319.441	715.38
319.67	740.38
319.9	696.38
320.129	716.38
320.358	713.38
320.587	723.38
320.816	724.38
321.046	717.38
321.275	723.38
321.504	715.38
321.733	725.38
321.962	727.38
322.191	726.38
322.42	721.38
322.649	740.38
322.878	720.38
323.108	747.38
323.337	721.38
323.566	753.38
323.795	741.38
324.024	746.38
324.253	745.38
324.482	763.38
324.71	763.38
324.939	774.38
325.168	737.38
325.397	746.38
325.626	753.38
325.855	787.38
326.084	770.38
326.313	802.38
326.542	802.38
326.77	809.38
326.999	808.38
327.228	801.38
327.457	786.38
327.686	804.38
327.914	787.38
328.143	786.38
328.372	804.38
328.6	816.38
328.829	851.38
329.058	807.38
329.287	807.38
329.515	778.38
329.744	796.38
329.972	842.38
330.201	838.38
330.43	833.38
330.658	815.38
330.887	822.38
331.115	827.38
331.344	831.38
331.572	861.38
331.801	855.38
332.03	903.38
332.258	901.38
332.486	928.38
332.715	954.38
332.943	978.38
333.172	1029.38
333.4	1087.38
333.629	1119.38
333.857	1121.38
334.085	1106.38
334.314	1055.38
334.542	1057.38
334.771	1078.38
334.999	1055.38
335.227	1014.38
335.455	1036.38
335.684	1004.38
335.912	1022.38
336.14	945.38
336.369	995.38
336.597	973.38
336.825	964.38
337.053	976.38
337.281	951.38
337.51	945.38
337.738	902.38
337.966	875.38
338.194	898.38
338.422	879.38
338.65	850.38
338.878	870.38
339.106	879.38
339.334	887.38
339.562	863.38
339.79	830.38
340.018	821.38
340.246	833.38
340.474	827.38
340.702	830.38
340.93	859.38
341.158	844.38
341.386	823.38
341.614	852.38
341.842	830.38
342.07	824.38
342.298	851.38
342.526	856.38
342.754	823.38
342.981	828.38
343.209	853.38
343.437	889.38
343.665	967.38
343.893	1010.38
344.12	1071.38
344.348	996.38
344.576	948.38
344.804	920.38
345.031	836.38
345.259	871.38
345.487	841.38
345.714	840.38
345.942	836.38
346.17	796.38
346.397	841.38
346.625	829.38
346.853	807.38
347.08	800.38
347.308	779.38
347.535	803.38
347.763	808.38
347.99	826.38
348.218	819.38
348.445	812.38
348.673	806.38
348.9	808.38
349.128	792.38
349.355	790.38
349.583	793.38
349.81	812.38
350.037	782.38
350.265	798.38
350.492	777.38
350.72	774.38
350.947	776.38
351.174	775.38
351.402	802.38
351.629	774.38
351.856	769.38
352.083	785.38
352.311	766.38
352.538	755.38
352.765	780.38
352.992	741.38
353.22	780.38
353.447	766.38
353.674	766.38
353.901	775.38
354.128	762.38
354.355	754.38
354.583	758.38
354.81	828.38
355.037	767.38
355.264	782.38
355.491	782.38
355.718	795.38
355.945	780.38
356.172	777.38
356.399	782.38
356.626	770.38
356.853	784.38
357.08	793.38
357.307	792.38
357.534	769.38
357.761	774.38
357.988	758.38
358.215	756.38
358.441	756.38
358.668	780.38
358.895	768.38
359.122	796.38
359.349	787.38
359.576	773.38
359.802	791.38
360.029	776.38
360.256	775.38
360.483	780.38
360.709	789.38
360.936	788.38
361.163	768.38
361.39	767.38
361.616	784.38
361.843	770.38
362.07	778.38
362.296	811.38
362.523	794.38
362.749	762.38
362.976	771.38
363.203	786.38
363.429	755.38
363.656	761.38
363.882	773.38
364.109	783.38
364.335	784.38
364.562	747.38
364.788	767.38
365.015	776.38
365.241	768.38
365.468	780.38
365.694	754.38
365.92	752.38
366.147	780.38
366.373	781.38
366.599	773.38
366.826	785.38
367.052	760.38
367.278	774.38
367.505	804.38
367.731	780.38
367.957	778.38
368.184	788.38
368.41	784.38
368.636	776.38
368.862	797.38
369.089	789.38
369.315	806.38
369.541	816.38
369.767	806.38
369.993	824.38
370.219	797.38
370.445	818.38
370.672	800.38
370.898	844.38
371.124	839.38
371.35	810.38
371.576	843.38
371.802	838.38
372.028	848.38
372.254	832.38
372.48	848.38
372.706	874.38
372.932	882.38
373.158	868.38
373.384	885.38
373.61	827.38
373.835	829.38
374.061	842.38
374.287	869.38
374.513	882.38
374.739	920.38
374.965	914.38
375.191	951.38
375.416	925.38
375.642	936.38
375.868	891.38
376.094	873.38
376.319	880.38
376.545	872.38
376.771	854.38
376.997	853.38
377.222	854.38
377.448	835.38
377.674	838.38
377.899	865.38
378.125	831.38
378.35	835.38
378.576	844.38
378.802	847.38
379.027	818.38
379.253	821.38
379.478	823.38
379.704	845.38
379.929	834.38
380.155	803.38
380.38	849.38
380.606	844.38
380.831	824.38
381.057	848.38
381.282	830.38
381.507	851.38
381.733	851.38
381.958	820.38
382.184	859.38
382.409	862.38
382.634	874.38
382.86	864.38
383.085	912.38
383.31	908.38
383.535	908.38
383.761	936.38
383.986	934.38
384.211	973.38
384.436	967.38
384.662	978.38
384.887	1017.38
385.112	1012.38
385.337	1041.38
385.562	1018.38
385.787	1051.38
386.013	1044.38
386.238	1041.38
386.463	1049.38
386.688	1077.38
386.913	1029.38
387.138	1026.38
387.363	995.38
387.588	1028.38
387.813	1010.38
388.038	1007.38
388.263	1003.38
388.488	1040.38
388.713	1015.38
388.938	999.38
389.163	1010.38
389.387	1024.38
389.612	1006.38
389.837	998.38
390.062	991.38
390.287	978.38
390.512	1011.38
390.736	1018.38
390.961	1025.38
391.186	1048.38
391.411	1076.38
391.636	1090.38
391.86	1160.38
392.085	1163.38
392.31	1162.38
392.534	1124.38
392.759	1104.38
392.984	1075.38
393.208	1093.38
393.433	1062.38
393.658	1077.38
393.882	1085.38
394.107	1114.38
394.331	1122.38
394.556	1099.38
394.78	1107.38
395.005	1089.38
395.229	1139.38
395.454	1143.38
395.678	1145.38
395.903	1142.38
396.127	1172.38
396.352	1113.38
396.576	1097.38
396.801	1093.38
397.025	1124.38
397.249	1158.38
397.474	1183.38
397.698	1184.38
397.922	1171.38
398.147	1151.38
398.371	1168.38
398.595	1214.38
398.82	1288.38
399.044	1421.38
399.268	1533.38
399.492	1800.38
399.717	1980.38
399.941	2016.38
400.165	1812.38
400.389	1623.38
400.613	1486.38
400.837	1366.38
401.062	1358.38
401.286	1337.38
401.51	1320.38
401.734	1340.38
401.958	1336.38
402.182	1315.38
402.406	1367.38
402.63	1351.38
402.854	1396.38
403.078	1403.38
403.302	1443.38
403.526	1471.38
403.75	1487.38
403.974	1533.38
404.198	1538.38
404.422	1507.38
404.645	1510.38
404.869	1485.38
405.093	1507.38
405.317	1456.38
405.541	1445.38
405.765	1443.38
405.988	1437.38
406.212	1421.38
406.436	1405.38
406.66	1469.38
406.883	1457.38
407.107	1579.38
407.331	1670.38
407.555	1686.38
407.778	1700.38
408.002	1631.38
408.226	1608.38
408.449	1588.38
408.673	1493.38
408.896	1474.38
409.12	1456.38
409.344	1434.38
409.567	1463.38
409.791	1524.38
410.014	1470.38
410.238	1403.38
410.461	1432.38
410.685	1400.38
410.908	1405.38
411.132	1373.38
411.355	1356.38
411.578	1336.38
411.802	1331.38
412.025	1392.38
412.249	1365.38
412.472	1378.38
412.695	1355.38
412.919	1327.38
413.142	1288.38
413.365	1297.38
413.589	1295.38
413.812	1256.38
414.035	1264.38
414.258	1274.38
414.482	1315.38
414.705	1299.38
414.928	1316.38
415.151	1282.38
415.374	1299.38
415.597	1304.38
415.821	1247.38
416.044	1239.38
416.267	1228.38
416.49	1288.38
416.713	1249.38
416.936	1237.38
417.159	1292.38
417.382	1266.38
417.605	1224.38
417.828	1260.38
418.051	1304.38
418.274	1349.38
418.497	1282.38
418.72	1321.38
418.943	1278.38
419.166	1405.38
419.389	1493.38
419.611	1450.38
419.834	1418.38
420.057	1345.38
420.28	1316.38
420.503	1275.38
420.726	1242.38
420.948	1266.38
421.171	1267.38
421.394	1279.38
421.617	1262.38
421.839	1298.38
422.062	1293.38
422.285	1245.38
422.507	1307.38
422.73	1305.38
422.953	1327.38
423.175	1351.38
423.398	1348.38
423.621	1336.38
423.843	1352.38
424.066	1371.38
424.288	1332.38
424.511	1319.38
424.733	1314.38
424.956	1296.38
425.178	1316.38
425.401	1300.38
425.623	1300.38
425.846	1225.38
426.068	1234.38
426.291	1228.38
426.513	1222.38
426.735	1194.38
426.958	1186.38
427.18	1210.38
427.402	1170.38
427.625	1186.38
427.847	1149.38
428.069	1151.38
428.292	1136.38
428.514	1128.38
428.736	1142.38
428.958	1141.38
429.181	1071.38
429.403	1127.38
429.625	1099.38
429.847	1088.38
430.069	1094.38
430.292	1093.38
430.514	1117.38
430.736	1120.38
430.958	1119.38
431.18	1121.38
431.402	1104.38
431.624	1091.38
431.846	1120.38
432.068	1138.38
432.29	1131.38
432.512	1149.38
432.734	1163.38
432.956	1118.38
433.178	1154.38
433.4	1129.38
433.622	1095.38
433.844	1138.38
434.066	1125.38
434.287	1134.38
434.509	1177.38
434.731	1280.38
434.953	1280.38
435.175	1271.38
435.397	1269.38
435.618	1212.38
435.84	1146.38
436.062	1145.38
436.284	1111.38
436.505	1118.38
436.727	1132.38
436.949	1132.38
437.17	1113.38
437.392	1103.38
437.614	1062.38
437.835	1049.38
438.057	1079.38
438.278	1058.38
438.5	1092.38
438.721	1068.38
438.943	1042.38
439.165	1087.38
439.386	1096.38
439.608	1097.38
439.829	1110.38
440.05	1122.38
440.272	1101.38
440.493	1140.38
440.715	1128.38
440.936	1165.38
441.158	1154.38
441.379	1206.38
441.6	1279.38
441.822	1266.38
442.043	1298.38
442.264	1237.38
442.486	1242.38
442.707	1254.38
442.928	1245.38
443.149	1235.38
443.371	1260.38
443.592	1237.38
443.813	1271.38
444.034	1266.38
444.255	1350.38
444.476	1390.38
444.698	1484.38
444.919	1538.38
445.14	1594.38
445.361	1441.38
445.582	1352.38
445.803	1248.38
446.024	1214.38
446.245	1175.38
446.466	1162.38
446.687	1122.38
446.908	1142.38
447.129	1112.38
447.35	1082.38
447.571	1091.38
447.792	1040.38
448.013	1034.38
448.234	1036.38
448.455	1038.38
448.675	1046.38
448.896	1000.38
449.117	997.38
449.338	1024.38
449.559	1032.38
449.779	1024.38
450	995.38
450.221	985.38
450.442	1036.38
450.662	1020.38
450.883	1042.38
451.104	1023.38
451.324	1068.38
451.545	1044.38
451.766	1052.38
451.986	1031.38
452.207	1019.38
452.428	1009.38
452.648	1024.38
452.869	984.38
453.089	978.38
453.31	970.38
453.53	992.38
453.751	1004.38
453.971	978.38
454.192	1016.38
454.412	954.38
454.633	956.38
454.853	990.38
455.073	949.38
455.294	948.38
455.514	933.38
455.734	941.38
455.955	948.38
456.175	913.38
456.395	942.38
456.616	945.38
456.836	948.38
457.056	955.38
457.276	939.38
457.497	986.38
457.717	949.38
457.937	957.38
458.157	971.38
458.377	1004.38
458.598	1015.38
458.818	1043.38
459.038	1063.38
459.258	1129.38
459.478	1124.38
459.698	1170.38
459.918	1227.38
460.138	1259.38
460.358	1320.38
460.578	1334.38
460.798	1375.38
461.018	1390.38
461.238	1321.38
461.458	1353.38
461.678	1327.38
461.898	1334.38
462.118	1384.38
462.338	1461.38
462.558	1512.38
462.777	1542.38
462.997	1674.38
463.217	1770.38
463.437	1773.38
463.657	1694.38
463.876	1607.38
464.096	1618.38
464.316	1618.38
464.536	1584.38
464.755	1513.38
464.975	1470.38
465.195	1353.38
465.414	1312.38
465.634	1214.38
465.854	1175.38
466.073	1162.38
466.293	1123.38
466.512	1114.38
466.732	1089.38
466.951	1050.38
467.171	1080.38
467.391	1090.38
467.61	1077.38
467.829	1072.38
468.049	1060.38
468.268	1076.38
468.488	1022.38
468.707	1018.38
468.927	1024.38
469.146	1009.38
469.365	1027.38
469.585	1055.38
469.804	1076.38
470.023	1091.38
470.243	1135.38
470.462	1107.38
470.681	1127.38
470.901	1122.38
471.12	1107.38
471.339	1088.38
471.558	1061.38
471.777	1065.38
471.997	1022.38
472.216	1053.38
472.435	1037.38
472.654	1003.38
472.873	1044.38
473.092	1003.38
473.311	989.38
473.53	1010.38
473.749	1001.38
473.968	996.38
474.187	998.38
474.406	1010.38
474.625	1002.38
474.844	1010.38
475.063	998.38
475.282	1010.38
475.501	1010.38
475.72	1019.38
475.939	1031.38
476.158	1030.38
476.377	1054.38
476.596	1043.38
476.814	1058.38
477.033	1085.38
477.252	1074.38
477.471	1097.38
477.69	1118.38
477.908	1165.38
478.127	1182.38
478.346	1228.38
478.564	1214.38
478.783	1241.38
479.002	1265.38
479.22	1243.38
479.439	1241.38
479.658	1281.38
479.876	1248.38
480.095	1292.38
480.313	1363.38
480.532	1334.38
480.751	1367.38
480.969	1295.38
481.188	1284.38
481.406	1236.38
481.624	1179.38
481.843	1162.38
482.061	1139.38
482.28	1146.38
482.498	1141.38
482.717	1143.38
482.935	1119.38
483.153	1142.38
483.372	1142.38
483.59	1171.38
483.808	1158.38
484.027	1129.38
484.245	1154.38
484.463	1144.38
484.681	1153.38
484.9	1184.38
485.118	1180.38
485.336	1177.38
485.554	1170.38
485.772	1208.38
485.99	1213.38
486.209	1226.38
486.427	1211.38
486.645	1210.38
486.863	1214.38
487.081	1223.38
487.299	1184.38
487.517	1209.38
487.735	1186.38
487.953	1198.38
488.171	1204.38
488.389	1179.38
488.607	1195.38
488.825	1215.38
489.043	1180.38
489.261	1200.38
489.479	1215.38
489.696	1198.38
489.914	1166.38
490.132	1194.38
490.35	1231.38
490.568	1228.38
490.786	1207.38
491.003	1219.38
491.221	1225.38
491.439	1207.38
491.657	1170.38
491.874	1212.38
492.092	1225.38
492.31	1235.38
492.527	1232.38
492.745	1256.38
492.963	1249.38
493.18	1236.38
493.398	1257.38
493.615	1262.38
493.833	1254.38
494.05	1271.38
494.268	1296.38
494.485	1304.38
494.703	1277.38
494.92	1263.38
495.138	1264.38
