Data from NiCl2@0.5M.TitratingCurve.Agarose3%dH2O.NegLispCup.LampEnergy10.LIBS07252019_HRD10591_18-20-04-572.txt Node
Date: Thu Jul 25 18:20:04 EDT 2019
User: cochatt
Spectrometer: HR+D1059
Trigger mode: 1
Integration Time (sec): 1.000000E-1
Scans to average: 1
Electric dark correction enabled: true
Nonlinearity correction enabled: false
Boxcar width: 0
XAxis mode: Wavelengths
Number of Pixels in Spectrum: 2048
>>>>>Begin Spectral Data<<<<<
223.165	-22.25
223.4	-22.25
223.635	-22.25
223.869	-23.25
224.104	-19.25
224.338	-11.25
224.573	-12.25
224.808	-9.25
225.042	-15.25
225.277	1.75
225.511	4.75
225.746	-6.25
225.98	8.75
226.215	12.75
226.449	7.75
226.683	12.75
226.918	36.75
227.152	33.75
227.387	35.75
227.621	47.75
227.856	50.75
228.09	38.75
228.324	53.75
228.559	61.75
228.793	75.75
229.027	121.75
229.262	118.75
229.496	127.75
229.73	121.75
229.964	136.75
230.199	150.75
230.433	151.75
230.667	154.75
230.901	151.75
231.136	166.75
231.37	151.75
231.604	155.75
231.838	154.75
232.072	160.75
232.306	168.75
232.541	159.75
232.775	161.75
233.009	160.75
233.243	149.75
233.477	153.75
233.711	163.75
233.945	161.75
234.179	180.75
234.413	167.75
234.647	166.75
234.881	171.75
235.115	151.75
235.349	179.75
235.583	160.75
235.817	152.75
236.051	150.75
236.285	156.75
236.519	171.75
236.753	180.75
236.987	171.75
237.221	174.75
237.455	175.75
237.689	162.75
237.922	181.75
238.156	167.75
238.39	168.75
238.624	187.75
238.858	165.75
239.091	194.75
239.325	195.75
239.559	211.75
239.793	211.75
240.027	206.75
240.26	212.75
240.494	190.75
240.728	201.75
240.961	178.75
241.195	215.75
241.429	194.75
241.662	205.75
241.896	214.75
242.13	216.75
242.363	206.75
242.597	185.75
242.83	215.75
243.064	209.75
243.298	206.75
243.531	233.75
243.765	209.75
243.998	227.75
244.232	226.75
244.465	238.75
244.699	214.75
244.932	236.75
245.166	233.75
245.399	248.75
245.633	234.75
245.866	230.75
246.099	230.75
246.333	246.75
246.566	234.75
246.8	233.75
247.033	230.75
247.266	235.75
247.5	241.75
247.733	235.75
247.966	256.75
248.2	248.75
248.433	279.75
248.666	251.75
248.899	261.75
249.133	249.75
249.366	269.75
249.599	273.75
249.832	278.75
250.066	255.75
250.299	274.75
250.532	265.75
250.765	272.75
250.998	287.75
251.231	292.75
251.465	289.75
251.698	291.75
251.931	294.75
252.164	289.75
252.397	295.75
252.63	292.75
252.863	287.75
253.096	298.75
253.329	288.75
253.562	298.75
253.795	292.75
254.028	293.75
254.261	321.75
254.494	283.75
254.727	306.75
254.96	314.75
255.193	296.75
255.426	308.75
255.659	296.75
255.892	296.75
256.124	330.75
256.357	308.75
256.59	329.75
256.823	307.75
257.056	335.75
257.289	315.75
257.521	321.75
257.754	314.75
257.987	321.75
258.22	319.75
258.452	329.75
258.685	342.75
258.918	347.75
259.151	326.75
259.383	361.75
259.616	321.75
259.849	331.75
260.081	346.75
260.314	347.75
260.547	341.75
260.779	339.75
261.012	334.75
261.244	346.75
261.477	363.75
261.71	373.75
261.942	349.75
262.175	359.75
262.407	359.75
262.64	377.75
262.872	337.75
263.105	354.75
263.337	378.75
263.57	385.75
263.802	377.75
264.035	366.75
264.267	367.75
264.499	367.75
264.732	380.75
264.964	397.75
265.197	375.75
265.429	395.75
265.661	373.75
265.894	410.75
266.126	399.75
266.358	395.75
266.591	378.75
266.823	406.75
267.055	369.75
267.287	406.75
267.52	386.75
267.752	398.75
267.984	417.75
268.216	412.75
268.448	418.75
268.681	399.75
268.913	409.75
269.145	421.75
269.377	417.75
269.609	418.75
269.841	411.75
270.073	413.75
270.306	397.75
270.538	428.75
270.77	413.75
271.002	394.75
271.234	402.75
271.466	438.75
271.698	427.75
271.93	421.75
272.162	433.75
272.394	421.75
272.626	427.75
272.858	444.75
273.09	433.75
273.322	449.75
273.553	435.75
273.785	428.75
274.017	449.75
274.249	468.75
274.481	471.75
274.713	424.75
274.945	429.75
275.176	456.75
275.408	469.75
275.64	462.75
275.872	457.75
276.104	457.75
276.335	468.75
276.567	467.75
276.799	468.75
277.031	474.75
277.262	459.75
277.494	463.75
277.726	476.75
277.957	480.75
278.189	474.75
278.421	471.75
278.652	493.75
278.884	474.75
279.115	495.75
279.347	489.75
279.579	478.75
279.81	498.75
280.042	491.75
280.273	490.75
280.505	499.75
280.736	490.75
280.968	488.75
281.199	493.75
281.431	507.75
281.662	497.75
281.894	535.75
282.125	511.75
282.356	500.75
282.588	523.75
282.819	519.75
283.051	524.75
283.282	507.75
283.513	515.75
283.745	552.75
283.976	542.75
284.207	518.75
284.439	541.75
284.67	547.75
284.901	569.75
285.132	544.75
285.364	539.75
285.595	539.75
285.826	566.75
286.057	548.75
286.288	540.75
286.52	558.75
286.751	555.75
286.982	564.75
287.213	545.75
287.444	565.75
287.675	567.75
287.906	596.75
288.138	563.75
288.369	566.75
288.6	554.75
288.831	581.75
289.062	569.75
289.293	563.75
289.524	577.75
289.755	588.75
289.986	579.75
290.217	562.75
290.448	565.75
290.679	583.75
290.91	569.75
291.141	590.75
291.371	573.75
291.602	578.75
291.833	579.75
292.064	581.75
292.295	593.75
292.526	578.75
292.757	594.75
292.987	582.75
293.218	572.75
293.449	577.75
293.68	589.75
293.91	584.75
294.141	588.75
294.372	599.75
294.603	593.75
294.833	596.75
295.064	585.75
295.295	614.75
295.525	626.75
295.756	601.75
295.987	598.75
296.217	603.75
296.448	611.75
296.679	621.75
296.909	627.75
297.14	614.75
297.37	637.75
297.601	648.75
297.831	657.75
298.062	601.75
298.292	645.75
298.523	637.75
298.753	639.75
298.984	647.75
299.214	659.75
299.445	636.75
299.675	627.75
299.905	640.75
300.136	643.75
300.366	671.75
300.597	677.75
300.827	693.75
301.057	673.75
301.288	684.75
301.518	677.75
301.748	675.75
301.979	702.75
302.209	712.75
302.439	681.75
302.669	679.75
302.9	678.75
303.13	680.75
303.36	685.75
303.59	670.75
303.82	711.75
304.051	681.75
304.281	666.75
304.511	683.75
304.741	675.75
304.971	679.75
305.201	707.75
305.431	723.75
305.661	684.75
305.891	697.75
306.121	692.75
306.352	677.75
306.582	674.75
306.812	683.75
307.042	693.75
307.272	681.75
307.502	661.75
307.731	655.75
307.961	668.75
308.191	674.75
308.421	676.75
308.651	670.75
308.881	663.75
309.111	695.75
309.341	667.75
309.571	671.75
309.8	693.75
310.03	725.75
310.26	715.75
310.49	742.75
310.72	702.75
310.949	697.75
311.179	692.75
311.409	694.75
311.639	711.75
311.868	676.75
312.098	689.75
312.328	727.75
312.557	701.75
312.787	726.75
313.017	722.75
313.246	727.75
313.476	743.75
313.706	718.75
313.935	742.75
314.165	743.75
314.394	722.75
314.624	704.75
314.853	735.75
315.083	718.75
315.312	748.75
315.542	742.75
315.771	736.75
316.001	709.75
316.23	712.75
316.46	723.75
316.689	717.75
316.919	720.75
317.148	718.75
317.377	716.75
317.607	721.75
317.836	703.75
318.065	737.75
318.295	742.75
318.524	725.75
318.753	719.75
318.983	728.75
319.212	724.75
319.441	730.75
319.67	726.75
319.9	727.75
320.129	717.75
320.358	731.75
320.587	762.75
320.816	747.75
321.046	741.75
321.275	742.75
321.504	737.75
321.733	744.75
321.962	711.75
322.191	750.75
322.42	749.75
322.649	737.75
322.878	758.75
323.108	735.75
323.337	752.75
323.566	767.75
323.795	754.75
324.024	776.75
324.253	767.75
324.482	773.75
324.71	759.75
324.939	753.75
325.168	771.75
325.397	759.75
325.626	761.75
325.855	796.75
326.084	791.75
326.313	814.75
326.542	810.75
326.77	800.75
326.999	793.75
327.228	761.75
327.457	787.75
327.686	792.75
327.914	775.75
328.143	810.75
328.372	781.75
328.6	809.75
328.829	791.75
329.058	773.75
329.287	810.75
329.515	807.75
329.744	807.75
329.972	833.75
330.201	814.75
330.43	810.75
330.658	825.75
330.887	815.75
331.115	818.75
331.344	845.75
331.572	816.75
331.801	825.75
332.03	857.75
332.258	846.75
332.486	871.75
332.715	921.75
332.943	859.75
333.172	915.75
333.4	962.75
333.629	968.75
333.857	952.75
334.085	967.75
334.314	921.75
334.542	968.75
334.771	965.75
334.999	953.75
335.227	935.75
335.455	946.75
335.684	978.75
335.912	957.75
336.14	961.75
336.369	959.75
336.597	963.75
336.825	979.75
337.053	970.75
337.281	951.75
337.51	913.75
337.738	900.75
337.966	900.75
338.194	934.75
338.422	908.75
338.65	846.75
338.878	891.75
339.106	858.75
339.334	885.75
339.562	853.75
339.79	838.75
340.018	827.75
340.246	835.75
340.474	838.75
340.702	837.75
340.93	822.75
341.158	832.75
341.386	869.75
341.614	868.75
341.842	885.75
342.07	823.75
342.298	813.75
342.526	832.75
342.754	858.75
342.981	851.75
343.209	833.75
343.437	869.75
343.665	884.75
343.893	925.75
344.12	923.75
344.348	940.75
344.576	919.75
344.804	921.75
345.031	882.75
345.259	860.75
345.487	843.75
345.714	850.75
345.942	876.75
346.17	873.75
346.397	865.75
346.625	831.75
346.853	811.75
347.08	817.75
347.308	789.75
347.535	829.75
347.763	824.75
347.99	820.75
348.218	799.75
348.445	811.75
348.673	804.75
348.9	779.75
349.128	801.75
349.355	824.75
349.583	817.75
349.81	808.75
350.037	775.75
350.265	750.75
350.492	769.75
350.72	767.75
350.947	767.75
351.174	794.75
351.402	801.75
351.629	809.75
351.856	810.75
352.083	771.75
352.311	786.75
352.538	798.75
352.765	823.75
352.992	790.75
353.22	765.75
353.447	737.75
353.674	736.75
353.901	753.75
354.128	742.75
354.355	762.75
354.583	725.75
354.81	745.75
355.037	747.75
355.264	743.75
355.491	739.75
355.718	731.75
355.945	721.75
356.172	757.75
356.399	737.75
356.626	793.75
356.853	814.75
357.08	796.75
357.307	767.75
357.534	756.75
357.761	750.75
357.988	747.75
358.215	735.75
358.441	755.75
358.668	743.75
358.895	755.75
359.122	746.75
359.349	741.75
359.576	747.75
359.802	766.75
360.029	756.75
360.256	735.75
360.483	729.75
360.709	753.75
360.936	759.75
361.163	745.75
361.39	749.75
361.616	779.75
361.843	771.75
362.07	798.75
362.296	791.75
362.523	746.75
362.749	729.75
362.976	733.75
363.203	754.75
363.429	731.75
363.656	739.75
363.882	738.75
364.109	742.75
364.335	726.75
364.562	733.75
364.788	734.75
365.015	723.75
365.241	718.75
365.468	735.75
365.694	704.75
365.92	702.75
366.147	726.75
366.373	710.75
366.599	735.75
366.826	707.75
367.052	723.75
367.278	719.75
367.505	731.75
367.731	759.75
367.957	725.75
368.184	757.75
368.41	742.75
368.636	740.75
368.862	738.75
369.089	724.75
369.315	728.75
369.541	728.75
369.767	753.75
369.993	739.75
370.219	743.75
370.445	749.75
370.672	769.75
370.898	736.75
371.124	734.75
371.35	771.75
371.576	781.75
371.802	773.75
372.028	783.75
372.254	732.75
372.48	753.75
372.706	774.75
372.932	795.75
373.158	777.75
373.384	778.75
373.61	771.75
373.835	770.75
374.061	791.75
374.287	782.75
374.513	783.75
374.739	830.75
374.965	808.75
375.191	819.75
375.416	817.75
375.642	801.75
375.868	806.75
376.094	764.75
376.319	767.75
376.545	731.75
376.771	769.75
376.997	747.75
377.222	749.75
377.448	766.75
377.674	756.75
377.899	751.75
378.125	723.75
378.35	740.75
378.576	717.75
378.802	744.75
379.027	743.75
379.253	741.75
379.478	746.75
379.704	727.75
379.929	742.75
380.155	721.75
380.38	741.75
380.606	740.75
380.831	724.75
381.057	742.75
381.282	742.75
381.507	733.75
381.733	723.75
381.958	734.75
382.184	778.75
382.409	742.75
382.634	769.75
382.86	761.75
383.085	786.75
383.31	771.75
383.535	776.75
383.761	788.75
383.986	786.75
384.211	812.75
384.436	790.75
384.662	802.75
384.887	830.75
385.112	823.75
385.337	865.75
385.562	856.75
385.787	846.75
386.013	885.75
386.238	857.75
386.463	865.75
386.688	859.75
386.913	819.75
387.138	856.75
387.363	830.75
387.588	838.75
387.813	824.75
388.038	850.75
388.263	842.75
388.488	898.75
388.713	852.75
388.938	843.75
389.163	834.75
389.387	826.75
389.612	859.75
389.837	831.75
390.062	851.75
390.287	847.75
390.512	836.75
390.736	856.75
390.961	856.75
391.186	870.75
391.411	887.75
391.636	893.75
391.86	918.75
392.085	947.75
392.31	930.75
392.534	909.75
392.759	888.75
392.984	913.75
393.208	900.75
393.433	895.75
393.658	911.75
393.882	923.75
394.107	919.75
394.331	920.75
394.556	914.75
394.78	894.75
395.005	922.75
395.229	906.75
395.454	924.75
395.678	946.75
395.903	943.75
396.127	951.75
396.352	907.75
396.576	921.75
396.801	878.75
397.025	931.75
397.249	927.75
397.474	965.75
397.698	952.75
397.922	955.75
398.147	955.75
398.371	991.75
398.595	1000.75
398.82	1050.75
399.044	1062.75
399.268	1156.75
399.492	1230.75
399.717	1359.75
399.941	1362.75
400.165	1285.75
400.389	1207.75
400.613	1121.75
400.837	1091.75
401.062	1086.75
401.286	1056.75
401.51	1054.75
401.734	1057.75
401.958	1061.75
402.182	1058.75
402.406	1048.75
402.63	1063.75
402.854	1063.75
403.078	1087.75
403.302	1094.75
403.526	1115.75
403.75	1121.75
403.974	1148.75
404.198	1091.75
404.422	1110.75
404.645	1151.75
404.869	1108.75
405.093	1137.75
405.317	1147.75
405.541	1159.75
405.765	1118.75
405.988	1106.75
406.212	1153.75
406.436	1118.75
406.66	1164.75
406.883	1124.75
407.107	1181.75
407.331	1244.75
407.555	1282.75
407.778	1275.75
408.002	1268.75
408.226	1245.75
408.449	1230.75
408.673	1204.75
408.896	1176.75
409.12	1190.75
409.344	1179.75
409.567	1157.75
409.791	1193.75
410.014	1147.75
410.238	1157.75
410.461	1143.75
410.685	1165.75
410.908	1146.75
411.132	1121.75
411.355	1107.75
411.578	1092.75
411.802	1100.75
412.025	1086.75
412.249	1131.75
412.472	1119.75
412.695	1096.75
412.919	1100.75
413.142	1087.75
413.365	1074.75
413.589	1094.75
413.812	1070.75
414.035	1096.75
414.258	1070.75
414.482	1087.75
414.705	1068.75
414.928	1057.75
415.151	1087.75
415.374	1089.75
415.597	1052.75
415.821	1061.75
416.044	1062.75
416.267	1053.75
416.49	1028.75
416.713	1055.75
416.936	1057.75
417.159	1061.75
417.382	1056.75
417.605	1031.75
417.828	1067.75
418.051	1060.75
418.274	1039.75
418.497	1027.75
418.72	1053.75
418.943	1109.75
419.166	1118.75
419.389	1213.75
419.611	1205.75
419.834	1130.75
420.057	1106.75
420.28	1069.75
420.503	1085.75
420.726	1086.75
420.948	1065.75
421.171	1047.75
421.394	1036.75
421.617	1043.75
421.839	1072.75
422.062	1093.75
422.285	1058.75
422.507	1036.75
422.73	1094.75
422.953	1086.75
423.175	1099.75
423.398	1077.75
423.621	1093.75
423.843	1103.75
424.066	1130.75
424.288	1137.75
424.511	1102.75
424.733	1124.75
424.956	1078.75
425.178	1090.75
425.401	1093.75
425.623	1076.75
425.846	1063.75
426.068	1066.75
426.291	1064.75
426.513	1061.75
426.735	1045.75
426.958	1044.75
427.18	1044.75
427.402	1036.75
427.625	1053.75
427.847	1017.75
428.069	1027.75
428.292	1034.75
428.514	1035.75
428.736	997.75
428.958	1015.75
429.181	991.75
429.403	1027.75
429.625	1046.75
429.847	986.75
430.069	990.75
430.292	997.75
430.514	1007.75
430.736	1010.75
430.958	1036.75
431.18	997.75
431.402	1050.75
431.624	1021.75
431.846	1008.75
432.068	1034.75
432.29	1096.75
432.512	1005.75
432.734	1051.75
432.956	1006.75
433.178	1069.75
433.4	1041.75
433.622	1052.75
433.844	1051.75
434.066	1061.75
434.287	1086.75
434.509	1100.75
434.731	1096.75
434.953	1115.75
435.175	1152.75
435.397	1100.75
435.618	1093.75
435.84	1051.75
436.062	1052.75
436.284	1060.75
436.505	1045.75
436.727	1081.75
436.949	1062.75
437.17	1047.75
437.392	1040.75
437.614	1021.75
437.835	982.75
438.057	1006.75
438.278	1039.75
438.5	1006.75
438.721	1017.75
438.943	1039.75
439.165	1033.75
439.386	1036.75
439.608	1028.75
439.829	1017.75
440.05	1071.75
440.272	1054.75
440.493	1078.75
440.715	1064.75
440.936	1077.75
441.158	1057.75
441.379	1109.75
441.6	1119.75
441.822	1117.75
442.043	1128.75
442.264	1140.75
442.486	1132.75
442.707	1145.75
442.928	1118.75
443.149	1130.75
443.371	1147.75
443.592	1153.75
443.813	1164.75
444.034	1158.75
444.255	1178.75
444.476	1211.75
444.698	1233.75
444.919	1272.75
445.14	1373.75
445.361	1276.75
445.582	1188.75
445.803	1136.75
446.024	1090.75
446.245	1086.75
446.466	1085.75
446.687	1044.75
446.908	1057.75
447.129	1047.75
447.35	1060.75
447.571	1034.75
447.792	1004.75
448.013	1016.75
448.234	1003.75
448.455	980.75
448.675	1014.75
448.896	977.75
449.117	972.75
449.338	969.75
449.559	977.75
449.779	949.75
450	947.75
450.221	1023.75
450.442	982.75
450.662	1013.75
450.883	1002.75
451.104	1011.75
451.324	1030.75
451.545	980.75
451.766	974.75
451.986	983.75
452.207	990.75
452.428	989.75
452.648	967.75
452.869	921.75
453.089	941.75
453.31	995.75
453.53	934.75
453.751	964.75
453.971	938.75
454.192	927.75
454.412	936.75
454.633	913.75
454.853	947.75
455.073	941.75
455.294	961.75
455.514	945.75
455.734	932.75
455.955	949.75
456.175	960.75
456.395	914.75
456.616	916.75
456.836	926.75
457.056	943.75
457.276	901.75
457.497	936.75
457.717	941.75
457.937	954.75
458.157	953.75
458.377	959.75
458.598	964.75
458.818	1029.75
459.038	1034.75
459.258	1013.75
459.478	1063.75
459.698	1110.75
459.918	1126.75
460.138	1157.75
460.358	1187.75
460.578	1174.75
460.798	1220.75
461.018	1243.75
461.238	1193.75
461.458	1158.75
461.678	1180.75
461.898	1220.75
462.118	1221.75
462.338	1275.75
462.558	1316.75
462.777	1344.75
462.997	1433.75
463.217	1478.75
463.437	1483.75
463.657	1414.75
463.876	1388.75
464.096	1389.75
464.316	1350.75
464.536	1353.75
464.755	1310.75
464.975	1266.75
465.195	1227.75
465.414	1192.75
465.634	1143.75
465.854	1131.75
466.073	1117.75
466.293	1095.75
466.512	1060.75
466.732	1039.75
466.951	1054.75
467.171	1059.75
467.391	1056.75
467.61	1064.75
467.829	1033.75
468.049	1015.75
468.268	1020.75
468.488	993.75
468.707	1027.75
468.927	1009.75
469.146	1045.75
469.365	1051.75
469.585	1037.75
469.804	1028.75
470.023	1069.75
470.243	1049.75
470.462	1065.75
470.681	1077.75
470.901	1092.75
471.12	1085.75
471.339	1062.75
471.558	1057.75
471.777	1065.75
471.997	1027.75
472.216	1020.75
472.435	1013.75
472.654	1014.75
472.873	1022.75
473.092	998.75
473.311	989.75
473.53	1010.75
473.749	1006.75
473.968	997.75
474.187	1033.75
474.406	1023.75
474.625	1045.75
474.844	1029.75
475.063	1002.75
475.282	1048.75
475.501	1031.75
475.72	1053.75
475.939	1057.75
476.158	1083.75
476.377	1066.75
476.596	1052.75
476.814	1079.75
477.033	1081.75
477.252	1081.75
477.471	1125.75
477.69	1160.75
477.908	1159.75
478.127	1186.75
478.346	1187.75
478.564	1207.75
478.783	1223.75
479.002	1226.75
479.22	1271.75
479.439	1213.75
479.658	1205.75
479.876	1203.75
480.095	1225.75
480.313	1258.75
480.532	1271.75
480.751	1262.75
480.969	1267.75
481.188	1203.75
481.406	1210.75
481.624	1187.75
481.843	1213.75
482.061	1203.75
482.28	1171.75
482.498	1167.75
482.717	1167.75
482.935	1217.75
483.153	1177.75
483.372	1195.75
483.59	1194.75
483.808	1203.75
484.027	1217.75
484.245	1180.75
484.463	1176.75
484.681	1179.75
484.9	1186.75
485.118	1222.75
485.336	1247.75
485.554	1195.75
485.772	1214.75
485.99	1208.75
486.209	1209.75
486.427	1218.75
486.645	1226.75
486.863	1229.75
487.081	1237.75
487.299	1242.75
487.517	1223.75
487.735	1231.75
487.953	1266.75
488.171	1250.75
488.389	1182.75
488.607	1204.75
488.825	1256.75
489.043	1197.75
489.261	1219.75
489.479	1215.75
489.696	1239.75
489.914	1228.75
490.132	1261.75
490.35	1238.75
490.568	1238.75
490.786	1231.75
491.003	1261.75
491.221	1250.75
491.439	1253.75
491.657	1268.75
491.874	1284.75
492.092	1281.75
492.31	1257.75
492.527	1293.75
492.745	1300.75
492.963	1301.75
493.18	1263.75
493.398	1296.75
493.615	1319.75
493.833	1336.75
494.05	1285.75
494.268	1346.75
494.485	1300.75
494.703	1301.75
494.92	1322.75
495.138	1326.75
495.355	1342.75
495.573	1367.75
495.79	1324.75
496.008	1353.75
496.225	1348.75
