Data from NiCl2@0.25M.TitratingCurve.Agarose3%dH2O.NegLispCup.LampEnergy10.LIBS07252019_HRD10591_18-25-22-573.txt Node
Date: Thu Jul 25 18:25:22 EDT 2019
User: cochatt
Spectrometer: HR+D1059
Trigger mode: 1
Integration Time (sec): 1.000000E-1
Scans to average: 1
Electric dark correction enabled: true
Nonlinearity correction enabled: false
Boxcar width: 0
XAxis mode: Wavelengths
Number of Pixels in Spectrum: 2048
>>>>>Begin Spectral Data<<<<<
223.165	-4.12
223.4	-4.12
223.635	-4.12
223.869	-9.12
224.104	-16.12
224.338	-23.12
224.573	-17.12
224.808	-14.12
225.042	5.88
225.277	-9.12
225.511	-11.12
225.746	1.88
225.98	-12.12
226.215	18.88
226.449	16.88
226.683	18.88
226.918	25.88
227.152	27.88
227.387	23.88
227.621	24.88
227.856	51.88
228.09	34.88
228.324	49.88
228.559	66.88
228.793	57.88
229.027	118.88
229.262	118.88
229.496	143.88
229.73	120.88
229.964	137.88
230.199	132.88
230.433	143.88
230.667	163.88
230.901	160.88
231.136	148.88
231.37	156.88
231.604	154.88
231.838	176.88
232.072	158.88
232.306	156.88
232.541	166.88
232.775	167.88
233.009	169.88
233.243	164.88
233.477	169.88
233.711	175.88
233.945	178.88
234.179	164.88
234.413	185.88
234.647	173.88
234.881	185.88
235.115	176.88
235.349	184.88
235.583	193.88
235.817	186.88
236.051	180.88
236.285	165.88
236.519	176.88
236.753	182.88
236.987	183.88
237.221	173.88
237.455	190.88
237.689	202.88
237.922	198.88
238.156	198.88
238.39	202.88
238.624	189.88
238.858	194.88
239.091	209.88
239.325	220.88
239.559	219.88
239.793	209.88
240.027	207.88
240.26	209.88
240.494	208.88
240.728	208.88
240.961	214.88
241.195	218.88
241.429	211.88
241.662	228.88
241.896	232.88
242.13	241.88
242.363	233.88
242.597	264.88
242.83	241.88
243.064	256.88
243.298	242.88
243.531	263.88
243.765	248.88
243.998	243.88
244.232	250.88
244.465	265.88
244.699	267.88
244.932	256.88
245.166	269.88
245.399	267.88
245.633	256.88
245.866	260.88
246.099	243.88
246.333	265.88
246.566	276.88
246.8	271.88
247.033	266.88
247.266	270.88
247.5	280.88
247.733	274.88
247.966	276.88
248.2	310.88
248.433	273.88
248.666	302.88
248.899	306.88
249.133	291.88
249.366	292.88
249.599	285.88
249.832	312.88
250.066	314.88
250.299	314.88
250.532	313.88
250.765	311.88
250.998	326.88
251.231	305.88
251.465	311.88
251.698	322.88
251.931	320.88
252.164	325.88
252.397	345.88
252.63	324.88
252.863	326.88
253.096	355.88
253.329	369.88
253.562	343.88
253.795	337.88
254.028	347.88
254.261	339.88
254.494	353.88
254.727	350.88
254.96	377.88
255.193	356.88
255.426	351.88
255.659	368.88
255.892	372.88
256.124	376.88
256.357	363.88
256.59	368.88
256.823	366.88
257.056	355.88
257.289	355.88
257.521	371.88
257.754	367.88
257.987	379.88
258.22	378.88
258.452	380.88
258.685	369.88
258.918	379.88
259.151	366.88
259.383	381.88
259.616	386.88
259.849	369.88
260.081	393.88
260.314	394.88
260.547	410.88
260.779	403.88
261.012	392.88
261.244	406.88
261.477	396.88
261.71	407.88
261.942	413.88
262.175	411.88
262.407	425.88
262.64	424.88
262.872	428.88
263.105	417.88
263.337	419.88
263.57	425.88
263.802	425.88
264.035	422.88
264.267	426.88
264.499	416.88
264.732	427.88
264.964	425.88
265.197	460.88
265.429	424.88
265.661	435.88
265.894	424.88
266.126	443.88
266.358	430.88
266.591	442.88
266.823	447.88
267.055	473.88
267.287	464.88
267.52	466.88
267.752	474.88
267.984	467.88
268.216	466.88
268.448	449.88
268.681	470.88
268.913	465.88
269.145	476.88
269.377	464.88
269.609	463.88
269.841	442.88
270.073	459.88
270.306	456.88
270.538	474.88
270.77	491.88
271.002	487.88
271.234	494.88
271.466	507.88
271.698	488.88
271.93	499.88
272.162	483.88
272.394	518.88
272.626	502.88
272.858	488.88
273.09	516.88
273.322	542.88
273.553	515.88
273.785	520.88
274.017	520.88
274.249	514.88
274.481	516.88
274.713	499.88
274.945	527.88
275.176	521.88
275.408	522.88
275.64	522.88
275.872	522.88
276.104	544.88
276.335	565.88
276.567	532.88
276.799	551.88
277.031	549.88
277.262	550.88
277.494	539.88
277.726	552.88
277.957	568.88
278.189	558.88
278.421	546.88
278.652	562.88
278.884	549.88
279.115	562.88
279.347	551.88
279.579	568.88
279.81	583.88
280.042	586.88
280.273	574.88
280.505	571.88
280.736	592.88
280.968	571.88
281.199	587.88
281.431	602.88
281.662	598.88
281.894	600.88
282.125	595.88
282.356	621.88
282.588	580.88
282.819	606.88
283.051	602.88
283.282	606.88
283.513	598.88
283.745	604.88
283.976	608.88
284.207	601.88
284.439	618.88
284.67	605.88
284.901	623.88
285.132	626.88
285.364	624.88
285.595	621.88
285.826	635.88
286.057	629.88
286.288	626.88
286.52	628.88
286.751	625.88
286.982	639.88
287.213	656.88
287.444	667.88
287.675	648.88
287.906	633.88
288.138	674.88
288.369	646.88
288.6	648.88
288.831	658.88
289.062	652.88
289.293	667.88
289.524	656.88
289.755	670.88
289.986	660.88
290.217	667.88
290.448	668.88
290.679	676.88
290.91	660.88
291.141	678.88
291.371	698.88
291.602	688.88
291.833	698.88
292.064	674.88
292.295	677.88
292.526	668.88
292.757	676.88
292.987	686.88
293.218	686.88
293.449	712.88
293.68	701.88
293.91	702.88
294.141	679.88
294.372	690.88
294.603	688.88
294.833	695.88
295.064	691.88
295.295	706.88
295.525	690.88
295.756	700.88
295.987	675.88
296.217	672.88
296.448	701.88
296.679	691.88
296.909	691.88
297.14	719.88
297.37	722.88
297.601	719.88
297.831	736.88
298.062	734.88
298.292	754.88
298.523	767.88
298.753	746.88
298.984	734.88
299.214	746.88
299.445	731.88
299.675	768.88
299.905	753.88
300.136	738.88
300.366	736.88
300.597	747.88
300.827	752.88
301.057	796.88
301.288	785.88
301.518	767.88
301.748	783.88
301.979	793.88
302.209	806.88
302.439	790.88
302.669	789.88
302.9	775.88
303.13	732.88
303.36	774.88
303.59	742.88
303.82	795.88
304.051	780.88
304.281	764.88
304.511	769.88
304.741	772.88
304.971	764.88
305.201	791.88
305.431	778.88
305.661	741.88
305.891	752.88
306.121	772.88
306.352	755.88
306.582	738.88
306.812	764.88
307.042	744.88
307.272	760.88
307.502	758.88
307.731	784.88
307.961	746.88
308.191	739.88
308.421	755.88
308.651	736.88
308.881	745.88
309.111	741.88
309.341	751.88
309.571	764.88
309.8	758.88
310.03	758.88
310.26	770.88
310.49	751.88
310.72	752.88
310.949	746.88
311.179	784.88
311.409	770.88
311.639	767.88
311.868	790.88
312.098	773.88
312.328	778.88
312.557	790.88
312.787	790.88
313.017	803.88
313.246	806.88
313.476	819.88
313.706	820.88
313.935	836.88
314.165	813.88
314.394	808.88
314.624	826.88
314.853	804.88
315.083	817.88
315.312	810.88
315.542	799.88
315.771	809.88
316.001	794.88
316.23	804.88
316.46	804.88
316.689	800.88
316.919	783.88
317.148	803.88
317.377	783.88
317.607	792.88
317.836	785.88
318.065	793.88
318.295	776.88
318.524	788.88
318.753	775.88
318.983	781.88
319.212	784.88
319.441	815.88
319.67	795.88
319.9	788.88
320.129	794.88
320.358	816.88
320.587	794.88
320.816	765.88
321.046	790.88
321.275	801.88
321.504	800.88
321.733	779.88
321.962	804.88
322.191	803.88
322.42	820.88
322.649	804.88
322.878	797.88
323.108	798.88
323.337	802.88
323.566	817.88
323.795	816.88
324.024	791.88
324.253	812.88
324.482	817.88
324.71	805.88
324.939	842.88
325.168	838.88
325.397	835.88
325.626	843.88
325.855	848.88
326.084	867.88
326.313	918.88
326.542	900.88
326.77	886.88
326.999	857.88
327.228	869.88
327.457	845.88
327.686	866.88
327.914	895.88
328.143	863.88
328.372	882.88
328.6	877.88
328.829	827.88
329.058	890.88
329.287	886.88
329.515	875.88
329.744	888.88
329.972	926.88
330.201	890.88
330.43	904.88
330.658	902.88
330.887	867.88
331.115	892.88
331.344	910.88
331.572	933.88
331.801	935.88
332.03	952.88
332.258	988.88
332.486	1011.88
332.715	1036.88
332.943	1080.88
333.172	1108.88
333.4	1155.88
333.629	1152.88
333.857	1215.88
334.085	1215.88
334.314	1197.88
334.542	1170.88
334.771	1154.88
334.999	1148.88
335.227	1101.88
335.455	1095.88
335.684	1102.88
335.912	1074.88
336.14	1089.88
336.369	1051.88
336.597	1082.88
336.825	1064.88
337.053	1040.88
337.281	1027.88
337.51	990.88
337.738	1029.88
337.966	1013.88
338.194	958.88
338.422	959.88
338.65	950.88
338.878	933.88
339.106	932.88
339.334	965.88
339.562	955.88
339.79	918.88
340.018	923.88
340.246	913.88
340.474	940.88
340.702	919.88
340.93	929.88
341.158	900.88
341.386	904.88
341.614	907.88
341.842	941.88
342.07	898.88
342.298	906.88
342.526	916.88
342.754	921.88
342.981	938.88
343.209	951.88
343.437	982.88
343.665	1020.88
343.893	1067.88
344.12	1137.88
344.348	1118.88
344.576	1050.88
344.804	1024.88
345.031	960.88
345.259	937.88
345.487	966.88
345.714	942.88
345.942	922.88
346.17	900.88
346.397	900.88
346.625	895.88
346.853	899.88
347.08	875.88
347.308	875.88
347.535	901.88
347.763	884.88
347.99	883.88
348.218	904.88
348.445	891.88
348.673	863.88
348.9	882.88
349.128	878.88
349.355	849.88
349.583	880.88
349.81	862.88
350.037	850.88
350.265	856.88
350.492	841.88
350.72	835.88
350.947	854.88
351.174	834.88
351.402	851.88
351.629	850.88
351.856	842.88
352.083	837.88
352.311	828.88
352.538	844.88
352.765	849.88
352.992	832.88
353.22	840.88
353.447	817.88
353.674	850.88
353.901	852.88
354.128	841.88
354.355	837.88
354.583	842.88
354.81	871.88
355.037	845.88
355.264	850.88
355.491	864.88
355.718	864.88
355.945	849.88
356.172	859.88
356.399	869.88
356.626	859.88
356.853	847.88
357.08	837.88
357.307	869.88
357.534	824.88
357.761	868.88
357.988	846.88
358.215	852.88
358.441	858.88
358.668	855.88
358.895	859.88
359.122	844.88
359.349	843.88
359.576	841.88
359.802	850.88
360.029	816.88
360.256	860.88
360.483	862.88
360.709	814.88
360.936	850.88
361.163	838.88
361.39	822.88
361.616	858.88
361.843	860.88
362.07	867.88
362.296	844.88
362.523	833.88
362.749	850.88
362.976	853.88
363.203	840.88
363.429	851.88
363.656	867.88
363.882	881.88
364.109	856.88
364.335	853.88
364.562	843.88
364.788	823.88
365.015	835.88
365.241	790.88
365.468	822.88
365.694	865.88
365.92	871.88
366.147	852.88
366.373	836.88
366.599	872.88
366.826	857.88
367.052	834.88
367.278	841.88
367.505	845.88
367.731	839.88
367.957	864.88
368.184	869.88
368.41	816.88
368.636	844.88
368.862	851.88
369.089	868.88
369.315	867.88
369.541	870.88
369.767	891.88
369.993	887.88
370.219	889.88
370.445	863.88
370.672	874.88
370.898	878.88
371.124	937.88
371.35	891.88
371.576	911.88
371.802	934.88
372.028	911.88
372.254	914.88
372.48	926.88
372.706	963.88
372.932	979.88
373.158	961.88
373.384	934.88
373.61	931.88
373.835	948.88
374.061	914.88
374.287	947.88
374.513	945.88
374.739	974.88
374.965	1026.88
375.191	1024.88
375.416	1031.88
375.642	983.88
375.868	951.88
376.094	957.88
376.319	928.88
376.545	937.88
376.771	939.88
376.997	926.88
377.222	947.88
377.448	910.88
377.674	944.88
377.899	943.88
378.125	938.88
378.35	903.88
378.576	926.88
378.802	885.88
379.027	889.88
379.253	910.88
379.478	883.88
379.704	914.88
379.929	946.88
380.155	911.88
380.38	904.88
380.606	887.88
380.831	918.88
381.057	916.88
381.282	922.88
381.507	931.88
381.733	922.88
381.958	930.88
382.184	927.88
382.409	1000.88
382.634	981.88
382.86	950.88
383.085	971.88
383.31	972.88
383.535	998.88
383.761	1022.88
383.986	1039.88
384.211	1036.88
384.436	1062.88
384.662	1098.88
384.887	1088.88
385.112	1098.88
385.337	1136.88
385.562	1125.88
385.787	1124.88
386.013	1154.88
386.238	1136.88
386.463	1143.88
386.688	1146.88
386.913	1097.88
387.138	1124.88
387.363	1125.88
387.588	1128.88
387.813	1121.88
388.038	1118.88
388.263	1129.88
388.488	1136.88
388.713	1140.88
388.938	1114.88
389.163	1094.88
389.387	1093.88
389.612	1104.88
389.837	1108.88
390.062	1105.88
390.287	1115.88
390.512	1089.88
390.736	1104.88
390.961	1138.88
391.186	1143.88
391.411	1218.88
391.636	1228.88
391.86	1258.88
392.085	1329.88
392.31	1268.88
392.534	1264.88
392.759	1238.88
392.984	1226.88
393.208	1193.88
393.433	1187.88
393.658	1200.88
393.882	1200.88
394.107	1212.88
394.331	1234.88
394.556	1182.88
394.78	1191.88
395.005	1218.88
395.229	1186.88
395.454	1215.88
395.678	1257.88
395.903	1243.88
396.127	1246.88
396.352	1242.88
396.576	1215.88
396.801	1205.88
397.025	1222.88
397.249	1239.88
397.474	1295.88
397.698	1273.88
397.922	1271.88
398.147	1289.88
398.371	1329.88
398.595	1366.88
398.82	1419.88
399.044	1526.88
399.268	1670.88
399.492	1887.88
399.717	2096.88
399.941	2175.88
400.165	1974.88
400.389	1803.88
400.613	1644.88
400.837	1543.88
401.062	1518.88
401.286	1493.88
401.51	1450.88
401.734	1448.88
401.958	1466.88
402.182	1433.88
402.406	1511.88
402.63	1484.88
402.854	1526.88
403.078	1548.88
403.302	1565.88
403.526	1588.88
403.75	1652.88
403.974	1630.88
404.198	1598.88
404.422	1636.88
404.645	1615.88
404.869	1582.88
405.093	1621.88
405.317	1554.88
405.541	1590.88
405.765	1600.88
405.988	1556.88
406.212	1602.88
406.436	1602.88
406.66	1624.88
406.883	1636.88
407.107	1728.88
407.331	1799.88
407.555	1861.88
407.778	1888.88
408.002	1833.88
408.226	1760.88
408.449	1790.88
408.673	1656.88
408.896	1638.88
409.12	1596.88
409.344	1627.88
409.567	1627.88
409.791	1633.88
410.014	1603.88
410.238	1588.88
410.461	1554.88
410.685	1552.88
410.908	1552.88
411.132	1515.88
411.355	1461.88
411.578	1474.88
411.802	1486.88
412.025	1495.88
412.249	1542.88
412.472	1553.88
412.695	1461.88
412.919	1398.88
413.142	1443.88
413.365	1434.88
413.589	1447.88
413.812	1430.88
414.035	1408.88
414.258	1413.88
414.482	1440.88
414.705	1451.88
414.928	1403.88
415.151	1444.88
415.374	1443.88
415.597	1420.88
415.821	1400.88
416.044	1392.88
416.267	1367.88
416.49	1394.88
416.713	1346.88
416.936	1408.88
417.159	1440.88
417.382	1364.88
417.605	1381.88
417.828	1374.88
418.051	1401.88
418.274	1397.88
418.497	1437.88
418.72	1449.88
418.943	1443.88
419.166	1560.88
419.389	1642.88
419.611	1622.88
419.834	1503.88
420.057	1487.88
420.28	1443.88
420.503	1394.88
420.726	1406.88
420.948	1393.88
421.171	1416.88
421.394	1374.88
421.617	1375.88
421.839	1416.88
422.062	1424.88
422.285	1351.88
422.507	1424.88
422.73	1417.88
422.953	1447.88
423.175	1459.88
423.398	1460.88
423.621	1451.88
423.843	1449.88
424.066	1446.88
424.288	1485.88
424.511	1436.88
424.733	1480.88
424.956	1417.88
425.178	1397.88
425.401	1427.88
425.623	1415.88
425.846	1378.88
426.068	1342.88
426.291	1356.88
426.513	1346.88
426.735	1314.88
426.958	1314.88
427.18	1264.88
427.402	1249.88
427.625	1263.88
427.847	1244.88
428.069	1259.88
428.292	1256.88
428.514	1270.88
428.736	1230.88
428.958	1271.88
429.181	1220.88
429.403	1213.88
429.625	1228.88
429.847	1199.88
430.069	1221.88
430.292	1214.88
430.514	1183.88
430.736	1184.88
430.958	1188.88
431.18	1221.88
431.402	1234.88
431.624	1192.88
431.846	1246.88
432.068	1245.88
432.29	1283.88
432.512	1228.88
432.734	1224.88
432.956	1208.88
433.178	1218.88
433.4	1247.88
433.622	1230.88
433.844	1257.88
434.066	1243.88
434.287	1251.88
434.509	1297.88
434.731	1364.88
434.953	1395.88
435.175	1397.88
435.397	1369.88
435.618	1318.88
435.84	1289.88
436.062	1251.88
436.284	1238.88
436.505	1226.88
436.727	1234.88
436.949	1222.88
437.17	1190.88
437.392	1168.88
437.614	1237.88
437.835	1191.88
438.057	1187.88
438.278	1157.88
438.5	1196.88
438.721	1198.88
438.943	1215.88
439.165	1182.88
439.386	1212.88
439.608	1206.88
439.829	1214.88
440.05	1219.88
440.272	1261.88
440.493	1194.88
440.715	1232.88
440.936	1246.88
441.158	1279.88
441.379	1318.88
441.6	1388.88
441.822	1418.88
442.043	1392.88
442.264	1358.88
442.486	1334.88
442.707	1346.88
442.928	1334.88
443.149	1343.88
443.371	1337.88
443.592	1377.88
443.813	1379.88
444.034	1393.88
444.255	1452.88
444.476	1503.88
444.698	1584.88
444.919	1612.88
445.14	1680.88
445.361	1559.88
445.582	1464.88
445.803	1365.88
446.024	1328.88
446.245	1289.88
446.466	1270.88
446.687	1240.88
446.908	1237.88
447.129	1198.88
447.35	1181.88
447.571	1168.88
447.792	1154.88
448.013	1193.88
448.234	1136.88
448.455	1128.88
448.675	1141.88
448.896	1108.88
449.117	1125.88
449.338	1092.88
449.559	1090.88
449.779	1098.88
450	1104.88
450.221	1112.88
450.442	1113.88
450.662	1108.88
450.883	1114.88
451.104	1146.88
451.324	1135.88
451.545	1129.88
451.766	1160.88
451.986	1106.88
452.207	1130.88
452.428	1120.88
452.648	1124.88
452.869	1074.88
453.089	1077.88
453.31	1086.88
453.53	1061.88
453.751	1092.88
453.971	1107.88
454.192	1077.88
454.412	1048.88
454.633	1062.88
454.853	1085.88
455.073	1042.88
455.294	1058.88
455.514	1060.88
455.734	1051.88
455.955	1023.88
456.175	1037.88
456.395	1028.88
456.616	1026.88
456.836	1052.88
457.056	1045.88
457.276	1046.88
457.497	1029.88
457.717	1055.88
457.937	1063.88
458.157	1066.88
458.377	1074.88
458.598	1109.88
458.818	1152.88
459.038	1180.88
459.258	1214.88
459.478	1242.88
459.698	1307.88
459.918	1330.88
460.138	1400.88
460.358	1454.88
460.578	1485.88
460.798	1536.88
461.018	1540.88
461.238	1471.88
461.458	1454.88
461.678	1465.88
461.898	1501.88
462.118	1547.88
462.338	1570.88
462.558	1612.88
462.777	1691.88
462.997	1780.88
463.217	1941.88
463.437	1984.88
463.657	1859.88
463.876	1790.88
464.096	1713.88
464.316	1704.88
464.536	1724.88
464.755	1653.88
464.975	1590.88
465.195	1554.88
465.414	1464.88
465.634	1345.88
465.854	1284.88
466.073	1252.88
466.293	1234.88
466.512	1247.88
466.732	1211.88
466.951	1199.88
467.171	1163.88
467.391	1202.88
467.61	1175.88
467.829	1128.88
468.049	1166.88
468.268	1122.88
468.488	1144.88
468.707	1125.88
468.927	1124.88
469.146	1146.88
469.365	1136.88
469.585	1155.88
469.804	1191.88
470.023	1240.88
470.243	1203.88
470.462	1207.88
470.681	1231.88
470.901	1242.88
471.12	1237.88
471.339	1179.88
471.558	1178.88
471.777	1181.88
471.997	1146.88
472.216	1146.88
472.435	1131.88
472.654	1108.88
472.873	1103.88
473.092	1062.88
473.311	1096.88
473.53	1105.88
473.749	1110.88
473.968	1087.88
474.187	1077.88
474.406	1095.88
474.625	1114.88
474.844	1074.88
475.063	1102.88
475.282	1132.88
475.501	1104.88
475.72	1143.88
475.939	1121.88
476.158	1115.88
476.377	1116.88
476.596	1162.88
476.814	1186.88
477.033	1160.88
477.252	1198.88
477.471	1226.88
477.69	1255.88
477.908	1264.88
478.127	1264.88
478.346	1307.88
478.564	1378.88
478.783	1358.88
479.002	1355.88
479.22	1406.88
479.439	1400.88
479.658	1385.88
479.876	1406.88
480.095	1429.88
480.313	1459.88
480.532	1502.88
480.751	1495.88
480.969	1455.88
481.188	1411.88
481.406	1362.88
481.624	1352.88
481.843	1276.88
482.061	1259.88
482.28	1280.88
482.498	1257.88
482.717	1254.88
482.935	1217.88
483.153	1238.88
483.372	1255.88
483.59	1250.88
483.808	1257.88
484.027	1264.88
484.245	1258.88
484.463	1302.88
484.681	1281.88
484.9	1313.88
485.118	1268.88
485.336	1320.88
485.554	1346.88
485.772	1344.88
485.99	1313.88
486.209	1335.88
486.427	1359.88
486.645	1348.88
486.863	1340.88
487.081	1350.88
487.299	1295.88
487.517	1323.88
487.735	1312.88
487.953	1333.88
488.171	1316.88
488.389	1332.88
488.607	1308.88
488.825	1315.88
489.043	1317.88
489.261	1280.88
489.479	1305.88
489.696	1317.88
489.914	1340.88
490.132	1313.88
490.35	1349.88
490.568	1287.88
490.786	1350.88
491.003	1320.88
491.221	1326.88
491.439	1348.88
491.657	1339.88
491.874	1348.88
492.092	1343.88
492.31	1368.88
492.527	1392.88
492.745	1387.88
492.963	1365.88
493.18	1378.88
493.398	1377.88
493.615	1396.88
493.833	1374.88
494.05	1377.88
494.268	1395.88
