Data from NiCl2@0.25M.TitratingCurve.Agarose3%dH2O.NegLispCup.LampEnergy10.LIBS07252019_HRD10591_18-23-13-572.txt Node
Date: Thu Jul 25 18:23:13 EDT 2019
User: cochatt
Spectrometer: HR+D1059
Trigger mode: 1
Integration Time (sec): 1.000000E-1
Scans to average: 1
Electric dark correction enabled: true
Nonlinearity correction enabled: false
Boxcar width: 0
XAxis mode: Wavelengths
Number of Pixels in Spectrum: 2048
>>>>>Begin Spectral Data<<<<<
223.165	-14.06
223.4	-14.06
223.635	-14.06
223.869	-25.06
224.104	-30.06
224.338	3.94
224.573	-21.06
224.808	-19.06
225.042	-12.06
225.277	-12.06
225.511	-26.06
225.746	5.94
225.98	9.94
226.215	28.94
226.449	12.94
226.683	25.94
226.918	29.94
227.152	41.94
227.387	32.94
227.621	39.94
227.856	42.94
228.09	49.94
228.324	52.94
228.559	64.94
228.793	73.94
229.027	82.94
229.262	83.94
229.496	93.94
229.73	108.94
229.964	96.94
230.199	115.94
230.433	111.94
230.667	100.94
230.901	114.94
231.136	113.94
231.37	117.94
231.604	115.94
231.838	121.94
232.072	120.94
232.306	124.94
232.541	122.94
232.775	120.94
233.009	131.94
233.243	129.94
233.477	126.94
233.711	108.94
233.945	118.94
234.179	125.94
234.413	131.94
234.647	124.94
234.881	125.94
235.115	116.94
235.349	126.94
235.583	142.94
235.817	131.94
236.051	117.94
236.285	123.94
236.519	111.94
236.753	136.94
236.987	133.94
237.221	133.94
237.455	138.94
237.689	140.94
237.922	133.94
238.156	137.94
238.39	131.94
238.624	132.94
238.858	147.94
239.091	125.94
239.325	125.94
239.559	136.94
239.793	141.94
240.027	144.94
240.26	128.94
240.494	137.94
240.728	132.94
240.961	130.94
241.195	151.94
241.429	154.94
241.662	147.94
241.896	142.94
242.13	139.94
242.363	154.94
242.597	149.94
242.83	144.94
243.064	155.94
243.298	160.94
243.531	135.94
243.765	158.94
243.998	158.94
244.232	153.94
244.465	151.94
244.699	143.94
244.932	167.94
245.166	154.94
245.399	153.94
245.633	157.94
245.866	157.94
246.099	164.94
246.333	151.94
246.566	157.94
246.8	162.94
247.033	165.94
247.266	138.94
247.5	155.94
247.733	167.94
247.966	161.94
248.2	154.94
248.433	168.94
248.666	168.94
248.899	186.94
249.133	166.94
249.366	162.94
249.599	189.94
249.832	193.94
250.066	186.94
250.299	197.94
250.532	175.94
250.765	167.94
250.998	188.94
251.231	198.94
251.465	200.94
251.698	187.94
251.931	189.94
252.164	193.94
252.397	200.94
252.63	196.94
252.863	189.94
253.096	194.94
253.329	195.94
253.562	189.94
253.795	187.94
254.028	201.94
254.261	182.94
254.494	202.94
254.727	198.94
254.96	198.94
255.193	203.94
255.426	194.94
255.659	204.94
255.892	193.94
256.124	198.94
256.357	207.94
256.59	215.94
256.823	199.94
257.056	209.94
257.289	213.94
257.521	229.94
257.754	212.94
257.987	217.94
258.22	214.94
258.452	219.94
258.685	215.94
258.918	218.94
259.151	213.94
259.383	221.94
259.616	202.94
259.849	222.94
260.081	220.94
260.314	228.94
260.547	229.94
260.779	231.94
261.012	219.94
261.244	224.94
261.477	229.94
261.71	227.94
261.942	233.94
262.175	222.94
262.407	219.94
262.64	218.94
262.872	232.94
263.105	218.94
263.337	225.94
263.57	220.94
263.802	231.94
264.035	232.94
264.267	236.94
264.499	254.94
264.732	244.94
264.964	244.94
265.197	242.94
265.429	244.94
265.661	225.94
265.894	259.94
266.126	253.94
266.358	238.94
266.591	232.94
266.823	257.94
267.055	253.94
267.287	234.94
267.52	268.94
267.752	249.94
267.984	256.94
268.216	269.94
268.448	246.94
268.681	253.94
268.913	268.94
269.145	264.94
269.377	250.94
269.609	251.94
269.841	259.94
270.073	252.94
270.306	267.94
270.538	268.94
270.77	256.94
271.002	262.94
271.234	260.94
271.466	281.94
271.698	272.94
271.93	277.94
272.162	263.94
272.394	288.94
272.626	271.94
272.858	272.94
273.09	269.94
273.322	277.94
273.553	274.94
273.785	290.94
274.017	274.94
274.249	290.94
274.481	283.94
274.713	269.94
274.945	301.94
275.176	280.94
275.408	280.94
275.64	283.94
275.872	305.94
276.104	289.94
276.335	292.94
276.567	281.94
276.799	282.94
277.031	294.94
277.262	286.94
277.494	290.94
277.726	300.94
277.957	295.94
278.189	303.94
278.421	300.94
278.652	314.94
278.884	324.94
279.115	302.94
279.347	299.94
279.579	285.94
279.81	316.94
280.042	294.94
280.273	323.94
280.505	311.94
280.736	315.94
280.968	315.94
281.199	326.94
281.431	334.94
281.662	306.94
281.894	327.94
282.125	330.94
282.356	324.94
282.588	332.94
282.819	316.94
283.051	331.94
283.282	319.94
283.513	313.94
283.745	326.94
283.976	305.94
284.207	325.94
284.439	333.94
284.67	331.94
284.901	334.94
285.132	344.94
285.364	326.94
285.595	325.94
285.826	314.94
286.057	346.94
286.288	316.94
286.52	328.94
286.751	338.94
286.982	326.94
287.213	328.94
287.444	342.94
287.675	343.94
287.906	349.94
288.138	356.94
288.369	357.94
288.6	349.94
288.831	349.94
289.062	341.94
289.293	353.94
289.524	353.94
289.755	343.94
289.986	355.94
290.217	344.94
290.448	359.94
290.679	363.94
290.91	357.94
291.141	361.94
291.371	355.94
291.602	369.94
291.833	381.94
292.064	376.94
292.295	363.94
292.526	357.94
292.757	361.94
292.987	364.94
293.218	355.94
293.449	369.94
293.68	369.94
293.91	366.94
294.141	371.94
294.372	349.94
294.603	356.94
294.833	353.94
295.064	366.94
295.295	361.94
295.525	375.94
295.756	360.94
295.987	363.94
296.217	365.94
296.448	379.94
296.679	351.94
296.909	359.94
297.14	358.94
297.37	363.94
297.601	381.94
297.831	385.94
298.062	394.94
298.292	375.94
298.523	384.94
298.753	379.94
298.984	385.94
299.214	409.94
299.445	410.94
299.675	376.94
299.905	380.94
300.136	383.94
300.366	394.94
300.597	401.94
300.827	410.94
301.057	399.94
301.288	401.94
301.518	417.94
301.748	401.94
301.979	413.94
302.209	408.94
302.439	404.94
302.669	403.94
302.9	392.94
303.13	406.94
303.36	419.94
303.59	425.94
303.82	407.94
304.051	419.94
304.281	389.94
304.511	393.94
304.741	404.94
304.971	415.94
305.201	397.94
305.431	411.94
305.661	409.94
305.891	405.94
306.121	426.94
306.352	395.94
306.582	398.94
306.812	391.94
307.042	414.94
307.272	405.94
307.502	413.94
307.731	408.94
307.961	408.94
308.191	385.94
308.421	391.94
308.651	413.94
308.881	403.94
309.111	413.94
309.341	404.94
309.571	403.94
309.8	405.94
310.03	405.94
310.26	413.94
310.49	419.94
310.72	400.94
310.949	407.94
311.179	407.94
311.409	403.94
311.639	430.94
311.868	419.94
312.098	432.94
312.328	421.94
312.557	406.94
312.787	431.94
313.017	418.94
313.246	424.94
313.476	406.94
313.706	429.94
313.935	427.94
314.165	428.94
314.394	445.94
314.624	442.94
314.853	431.94
315.083	429.94
315.312	440.94
315.542	426.94
315.771	430.94
316.001	429.94
316.23	423.94
316.46	415.94
316.689	423.94
316.919	419.94
317.148	445.94
317.377	446.94
317.607	424.94
317.836	421.94
318.065	436.94
318.295	429.94
318.524	433.94
318.753	436.94
318.983	415.94
319.212	421.94
319.441	420.94
319.67	422.94
319.9	441.94
320.129	429.94
320.358	429.94
320.587	422.94
320.816	455.94
321.046	419.94
321.275	449.94
321.504	447.94
321.733	438.94
321.962	449.94
322.191	437.94
322.42	439.94
322.649	462.94
322.878	448.94
323.108	444.94
323.337	443.94
323.566	455.94
323.795	453.94
324.024	445.94
324.253	420.94
324.482	445.94
324.71	450.94
324.939	463.94
325.168	443.94
325.397	471.94
325.626	448.94
325.855	477.94
326.084	458.94
326.313	485.94
326.542	462.94
326.77	480.94
326.999	489.94
327.228	460.94
327.457	451.94
327.686	461.94
327.914	461.94
328.143	467.94
328.372	465.94
328.6	493.94
328.829	455.94
329.058	464.94
329.287	447.94
329.515	479.94
329.744	490.94
329.972	478.94
330.201	475.94
330.43	490.94
330.658	492.94
330.887	481.94
331.115	489.94
331.344	485.94
331.572	491.94
331.801	497.94
332.03	526.94
332.258	521.94
332.486	543.94
332.715	539.94
332.943	559.94
333.172	584.94
333.4	604.94
333.629	617.94
333.857	625.94
334.085	617.94
334.314	579.94
334.542	599.94
334.771	594.94
334.999	601.94
335.227	571.94
335.455	612.94
335.684	574.94
335.912	553.94
336.14	563.94
336.369	569.94
336.597	570.94
336.825	595.94
337.053	573.94
337.281	565.94
337.51	549.94
337.738	549.94
337.966	540.94
338.194	541.94
338.422	523.94
338.65	514.94
338.878	527.94
339.106	506.94
339.334	517.94
339.562	507.94
339.79	486.94
340.018	486.94
340.246	493.94
340.474	480.94
340.702	484.94
340.93	503.94
341.158	489.94
341.386	483.94
341.614	482.94
341.842	499.94
342.07	526.94
342.298	490.94
342.526	494.94
342.754	485.94
342.981	514.94
343.209	521.94
343.437	531.94
343.665	557.94
343.893	587.94
344.12	595.94
344.348	564.94
344.576	535.94
344.804	532.94
345.031	533.94
345.259	505.94
345.487	488.94
345.714	492.94
345.942	497.94
346.17	509.94
346.397	482.94
346.625	494.94
346.853	491.94
347.08	493.94
347.308	485.94
347.535	494.94
347.763	485.94
347.99	477.94
348.218	492.94
348.445	492.94
348.673	467.94
348.9	499.94
349.128	489.94
349.355	468.94
349.583	468.94
349.81	468.94
350.037	459.94
350.265	471.94
350.492	467.94
350.72	458.94
350.947	449.94
351.174	494.94
351.402	463.94
351.629	462.94
351.856	469.94
352.083	473.94
352.311	465.94
352.538	460.94
352.765	480.94
352.992	473.94
353.22	449.94
353.447	449.94
353.674	458.94
353.901	478.94
354.128	480.94
354.355	480.94
354.583	462.94
354.81	478.94
355.037	463.94
355.264	478.94
355.491	459.94
355.718	489.94
355.945	474.94
356.172	482.94
356.399	449.94
356.626	485.94
356.853	486.94
357.08	469.94
357.307	463.94
357.534	469.94
357.761	458.94
357.988	489.94
358.215	474.94
358.441	477.94
358.668	464.94
358.895	469.94
359.122	476.94
359.349	477.94
359.576	457.94
359.802	468.94
360.029	473.94
360.256	457.94
360.483	467.94
360.709	476.94
360.936	480.94
361.163	477.94
361.39	470.94
361.616	474.94
361.843	463.94
362.07	487.94
362.296	466.94
362.523	486.94
362.749	469.94
362.976	448.94
363.203	480.94
363.429	463.94
363.656	464.94
363.882	450.94
364.109	449.94
364.335	454.94
364.562	461.94
364.788	469.94
365.015	461.94
365.241	471.94
365.468	467.94
365.694	463.94
365.92	457.94
366.147	462.94
366.373	462.94
366.599	474.94
366.826	484.94
367.052	462.94
367.278	474.94
367.505	473.94
367.731	461.94
367.957	467.94
368.184	504.94
368.41	478.94
368.636	486.94
368.862	491.94
369.089	482.94
369.315	488.94
369.541	481.94
369.767	482.94
369.993	470.94
370.219	498.94
370.445	503.94
370.672	497.94
370.898	498.94
371.124	519.94
371.35	512.94
371.576	501.94
371.802	513.94
372.028	494.94
372.254	517.94
372.48	500.94
372.706	504.94
372.932	543.94
373.158	535.94
373.384	509.94
373.61	492.94
373.835	505.94
374.061	509.94
374.287	525.94
374.513	548.94
374.739	529.94
374.965	578.94
375.191	574.94
375.416	555.94
375.642	541.94
375.868	521.94
376.094	531.94
376.319	522.94
376.545	533.94
376.771	505.94
376.997	525.94
377.222	513.94
377.448	505.94
377.674	516.94
377.899	492.94
378.125	518.94
378.35	513.94
378.576	525.94
378.802	483.94
379.027	501.94
379.253	513.94
379.478	499.94
379.704	501.94
379.929	501.94
380.155	519.94
380.38	493.94
380.606	511.94
380.831	504.94
381.057	507.94
381.282	517.94
381.507	530.94
381.733	511.94
381.958	525.94
382.184	536.94
382.409	516.94
382.634	512.94
382.86	548.94
383.085	543.94
383.31	553.94
383.535	560.94
383.761	564.94
383.986	571.94
384.211	566.94
384.436	593.94
384.662	586.94
384.887	595.94
385.112	594.94
385.337	606.94
385.562	611.94
385.787	610.94
386.013	618.94
386.238	611.94
386.463	623.94
386.688	613.94
386.913	601.94
387.138	577.94
387.363	615.94
387.588	612.94
387.813	575.94
388.038	599.94
388.263	607.94
388.488	603.94
388.713	617.94
388.938	605.94
389.163	594.94
389.387	601.94
389.612	582.94
389.837	600.94
390.062	605.94
390.287	596.94
390.512	595.94
390.736	578.94
390.961	613.94
391.186	599.94
391.411	645.94
391.636	637.94
391.86	663.94
392.085	667.94
392.31	650.94
392.534	672.94
392.759	660.94
392.984	640.94
393.208	633.94
393.433	610.94
393.658	653.94
393.882	617.94
394.107	653.94
394.331	651.94
394.556	660.94
394.78	653.94
395.005	640.94
395.229	663.94
395.454	676.94
395.678	661.94
395.903	698.94
396.127	675.94
396.352	634.94
396.576	622.94
396.801	663.94
397.025	664.94
397.249	635.94
397.474	686.94
397.698	693.94
397.922	687.94
398.147	707.94
398.371	681.94
398.595	721.94
398.82	732.94
399.044	782.94
399.268	875.94
399.492	972.94
399.717	1054.94
399.941	1052.94
400.165	971.94
400.389	851.94
400.613	831.94
400.837	795.94
401.062	781.94
401.286	753.94
401.51	750.94
401.734	763.94
401.958	743.94
402.182	754.94
402.406	764.94
402.63	764.94
402.854	787.94
403.078	802.94
403.302	834.94
403.526	813.94
403.75	798.94
403.974	823.94
404.198	819.94
404.422	852.94
404.645	839.94
404.869	810.94
405.093	860.94
405.317	841.94
405.541	811.94
405.765	809.94
405.988	804.94
406.212	827.94
406.436	841.94
406.66	853.94
406.883	838.94
407.107	869.94
407.331	903.94
407.555	948.94
407.778	935.94
408.002	917.94
408.226	888.94
408.449	870.94
408.673	857.94
408.896	853.94
409.12	842.94
409.344	845.94
409.567	825.94
409.791	858.94
410.014	844.94
410.238	831.94
410.461	821.94
410.685	810.94
410.908	812.94
411.132	800.94
411.355	743.94
411.578	782.94
411.802	764.94
412.025	774.94
412.249	782.94
412.472	768.94
412.695	747.94
412.919	741.94
413.142	769.94
413.365	724.94
413.589	783.94
413.812	747.94
414.035	734.94
414.258	757.94
414.482	754.94
414.705	757.94
414.928	775.94
415.151	767.94
415.374	748.94
415.597	743.94
415.821	737.94
416.044	718.94
416.267	709.94
416.49	743.94
416.713	740.94
416.936	759.94
417.159	750.94
417.382	721.94
417.605	734.94
417.828	714.94
418.051	724.94
418.274	761.94
418.497	739.94
418.72	735.94
418.943	741.94
419.166	806.94
419.389	815.94
419.611	818.94
419.834	776.94
420.057	761.94
420.28	746.94
420.503	730.94
420.726	746.94
420.948	727.94
421.171	734.94
421.394	741.94
421.617	742.94
421.839	733.94
422.062	732.94
422.285	718.94
422.507	745.94
422.73	726.94
422.953	759.94
423.175	785.94
423.398	778.94
423.621	785.94
423.843	763.94
424.066	763.94
424.288	774.94
424.511	782.94
424.733	758.94
424.956	773.94
425.178	750.94
425.401	739.94
425.623	747.94
425.846	703.94
426.068	725.94
426.291	707.94
426.513	701.94
426.735	703.94
426.958	680.94
427.18	671.94
427.402	679.94
427.625	661.94
427.847	667.94
428.069	673.94
428.292	685.94
428.514	659.94
428.736	663.94
428.958	646.94
429.181	649.94
429.403	640.94
429.625	641.94
429.847	638.94
430.069	645.94
430.292	687.94
430.514	666.94
430.736	678.94
430.958	633.94
431.18	647.94
431.402	649.94
431.624	643.94
431.846	662.94
432.068	648.94
432.29	656.94
432.512	634.94
432.734	686.94
432.956	653.94
433.178	662.94
433.4	663.94
433.622	669.94
433.844	702.94
434.066	691.94
434.287	693.94
434.509	712.94
434.731	721.94
434.953	742.94
435.175	728.94
435.397	730.94
435.618	706.94
435.84	706.94
436.062	696.94
436.284	649.94
436.505	661.94
436.727	692.94
436.949	673.94
437.17	665.94
437.392	675.94
437.614	650.94
437.835	627.94
438.057	651.94
438.278	651.94
438.5	642.94
438.721	661.94
438.943	645.94
439.165	643.94
439.386	649.94
439.608	636.94
439.829	648.94
440.05	652.94
440.272	667.94
440.493	672.94
440.715	677.94
440.936	673.94
441.158	690.94
441.379	715.94
441.6	733.94
441.822	745.94
442.043	745.94
442.264	732.94
442.486	723.94
442.707	718.94
442.928	742.94
443.149	719.94
443.371	726.94
443.592	730.94
443.813	755.94
444.034	726.94
444.255	772.94
444.476	798.94
444.698	823.94
444.919	857.94
445.14	937.94
445.361	835.94
445.582	736.94
445.803	717.94
446.024	687.94
446.245	663.94
446.466	684.94
446.687	670.94
446.908	666.94
447.129	653.94
447.35	647.94
447.571	639.94
447.792	617.94
448.013	622.94
448.234	631.94
448.455	627.94
448.675	621.94
448.896	630.94
449.117	620.94
449.338	581.94
449.559	613.94
449.779	615.94
450	596.94
450.221	632.94
450.442	611.94
450.662	613.94
450.883	617.94
451.104	631.94
451.324	619.94
451.545	606.94
451.766	625.94
451.986	595.94
452.207	601.94
452.428	601.94
452.648	618.94
452.869	595.94
453.089	607.94
453.31	584.94
453.53	595.94
453.751	590.94
453.971	593.94
454.192	590.94
454.412	593.94
454.633	567.94
454.853	593.94
455.073	567.94
455.294	562.94
455.514	593.94
455.734	573.94
455.955	568.94
456.175	583.94
456.395	551.94
456.616	567.94
456.836	570.94
457.056	590.94
457.276	565.94
457.497	593.94
457.717	570.94
457.937	587.94
458.157	592.94
458.377	600.94
458.598	592.94
458.818	614.94
459.038	619.94
459.258	670.94
459.478	663.94
459.698	689.94
459.918	692.94
460.138	711.94
460.358	751.94
460.578	770.94
460.798	782.94
461.018	769.94
461.238	773.94
461.458	765.94
461.678	772.94
461.898	765.94
462.118	782.94
462.338	798.94
462.558	843.94
462.777	857.94
462.997	887.94
463.217	1011.94
463.437	1002.94
463.657	963.94
463.876	886.94
464.096	886.94
464.316	890.94
464.536	892.94
464.755	881.94
464.975	844.94
465.195	799.94
465.414	773.94
465.634	702.94
465.854	697.94
466.073	688.94
466.293	654.94
466.512	661.94
466.732	669.94
466.951	661.94
467.171	630.94
467.391	666.94
467.61	637.94
467.829	641.94
468.049	647.94
468.268	623.94
468.488	630.94
468.707	624.94
468.927	604.94
469.146	594.94
469.365	641.94
469.585	651.94
469.804	647.94
470.023	654.94
470.243	676.94
470.462	637.94
470.681	664.94
470.901	647.94
471.12	652.94
471.339	645.94
471.558	626.94
471.777	641.94
471.997	636.94
472.216	637.94
472.435	618.94
472.654	623.94
472.873	612.94
473.092	608.94
473.311	619.94
473.53	605.94
473.749	602.94
473.968	626.94
474.187	601.94
474.406	619.94
474.625	646.94
474.844	607.94
475.063	610.94
475.282	621.94
475.501	620.94
475.72	616.94
475.939	630.94
476.158	643.94
476.377	645.94
476.596	634.94
476.814	632.94
477.033	629.94
477.252	640.94
477.471	673.94
477.69	698.94
477.908	707.94
478.127	702.94
478.346	720.94
478.564	725.94
478.783	706.94
479.002	753.94
479.22	746.94
479.439	744.94
479.658	750.94
479.876	716.94
480.095	745.94
480.313	795.94
480.532	772.94
480.751	782.94
480.969	783.94
481.188	722.94
481.406	751.94
481.624	710.94
481.843	710.94
482.061	710.94
482.28	699.94
482.498	716.94
482.717	689.94
482.935	704.94
483.153	717.94
483.372	715.94
483.59	703.94
483.808	678.94
484.027	713.94
484.245	729.94
484.463	690.94
484.681	691.94
484.9	747.94
485.118	719.94
485.336	719.94
485.554	723.94
485.772	719.94
485.99	741.94
486.209	744.94
486.427	745.94
486.645	719.94
486.863	735.94
487.081	749.94
487.299	694.94
487.517	705.94
487.735	730.94
487.953	739.94
488.171	718.94
488.389	726.94
488.607	719.94
488.825	741.94
489.043	731.94
489.261	706.94
489.479	696.94
489.696	738.94
489.914	732.94
490.132	727.94
490.35	717.94
490.568	728.94
490.786	756.94
491.003	733.94
491.221	714.94
491.439	747.94
491.657	739.94
491.874	756.94
492.092	742.94
492.31	782.94
492.527	779.94
492.745	755.94
492.963	777.94
493.18	766.94
493.398	770.94
493.615	743.94
493.833	771.94
494.05	769.94
494.268	775.94
494.485	777.94
494.703	797.94
494.92	766.94
495.138	795.94
495.355	767.94
495.573	797.94
495.79	776.94
496.008	779.94
496.225	793.94
496.442	819.94
496.66	841.94
496.877	830.94
497.094	817.94
497.312	851.94
497.529	860.94
497.746	914.94
497.963	913.94
498.181	950.94
498.398	994.94
498.615	1016.94
498.832	1102.94
499.049	1167.94
499.267	1247.94
499.484	1365.94
499.701	1527.94
499.918	1619.94
500.135	1804.94
500.352	2021.94
500.569	2103.94
500.786	2075.94
501.003	1914.94
501.22	1792.94
501.437	1562.94
