Data from NiCl2@0.25M.TitratingCurve.Agarose3%dH2O.NegLispCup.LampEnergy10.LIBS07252019_HRD10591_18-24-51-573.txt Node
Date: Thu Jul 25 18:24:51 EDT 2019
User: cochatt
Spectrometer: HR+D1059
Trigger mode: 1
Integration Time (sec): 1.000000E-1
Scans to average: 1
Electric dark correction enabled: true
Nonlinearity correction enabled: false
Boxcar width: 0
XAxis mode: Wavelengths
Number of Pixels in Spectrum: 2048
>>>>>Begin Spectral Data<<<<<
223.165	-11.94
223.4	-11.94
223.635	-11.94
223.869	-15.94
224.104	-7.94
224.338	-15.94
224.573	-21.94
224.808	-9.94
225.042	-7.94
225.277	-9.94
225.511	-3.94
225.746	21.06
225.98	6.06
226.215	3.06
226.449	12.06
226.683	8.06
226.918	24.06
227.152	31.06
227.387	38.06
227.621	40.06
227.856	36.06
228.09	43.06
228.324	53.06
228.559	53.06
228.793	53.06
229.027	91.06
229.262	102.06
229.496	107.06
229.73	110.06
229.964	130.06
230.199	105.06
230.433	136.06
230.667	112.06
230.901	123.06
231.136	124.06
231.37	120.06
231.604	111.06
231.838	125.06
232.072	149.06
232.306	131.06
232.541	134.06
232.775	154.06
233.009	134.06
233.243	137.06
233.477	130.06
233.711	131.06
233.945	142.06
234.179	148.06
234.413	136.06
234.647	130.06
234.881	139.06
235.115	120.06
235.349	130.06
235.583	154.06
235.817	140.06
236.051	154.06
236.285	157.06
236.519	143.06
236.753	148.06
236.987	157.06
237.221	140.06
237.455	148.06
237.689	131.06
237.922	140.06
238.156	133.06
238.39	154.06
238.624	140.06
238.858	150.06
239.091	151.06
239.325	153.06
239.559	162.06
239.793	169.06
240.027	151.06
240.26	170.06
240.494	157.06
240.728	158.06
240.961	159.06
241.195	168.06
241.429	158.06
241.662	180.06
241.896	170.06
242.13	173.06
242.363	171.06
242.597	165.06
242.83	182.06
243.064	170.06
243.298	182.06
243.531	178.06
243.765	174.06
243.998	190.06
244.232	173.06
244.465	192.06
244.699	194.06
244.932	191.06
245.166	186.06
245.399	189.06
245.633	201.06
245.866	203.06
246.099	188.06
246.333	193.06
246.566	200.06
246.8	195.06
247.033	201.06
247.266	187.06
247.5	192.06
247.733	212.06
247.966	217.06
248.2	191.06
248.433	188.06
248.666	204.06
248.899	204.06
249.133	222.06
249.366	205.06
249.599	213.06
249.832	210.06
250.066	224.06
250.299	225.06
250.532	214.06
250.765	205.06
250.998	214.06
251.231	223.06
251.465	225.06
251.698	254.06
251.931	225.06
252.164	244.06
252.397	222.06
252.63	222.06
252.863	224.06
253.096	229.06
253.329	255.06
253.562	238.06
253.795	242.06
254.028	229.06
254.261	243.06
254.494	257.06
254.727	239.06
254.96	243.06
255.193	255.06
255.426	246.06
255.659	249.06
255.892	236.06
256.124	243.06
256.357	264.06
256.59	263.06
256.823	250.06
257.056	248.06
257.289	264.06
257.521	262.06
257.754	259.06
257.987	260.06
258.22	283.06
258.452	280.06
258.685	274.06
258.918	264.06
259.151	235.06
259.383	287.06
259.616	272.06
259.849	270.06
260.081	286.06
260.314	263.06
260.547	260.06
260.779	285.06
261.012	281.06
261.244	280.06
261.477	286.06
261.71	273.06
261.942	277.06
262.175	302.06
262.407	293.06
262.64	278.06
262.872	288.06
263.105	284.06
263.337	288.06
263.57	295.06
263.802	286.06
264.035	310.06
264.267	285.06
264.499	293.06
264.732	298.06
264.964	316.06
265.197	316.06
265.429	300.06
265.661	311.06
265.894	312.06
266.126	299.06
266.358	288.06
266.591	289.06
266.823	298.06
267.055	326.06
267.287	305.06
267.52	307.06
267.752	312.06
267.984	323.06
268.216	304.06
268.448	285.06
268.681	319.06
268.913	306.06
269.145	332.06
269.377	315.06
269.609	305.06
269.841	328.06
270.073	340.06
270.306	323.06
270.538	336.06
270.77	329.06
271.002	324.06
271.234	329.06
271.466	316.06
271.698	344.06
271.93	337.06
272.162	338.06
272.394	320.06
272.626	305.06
272.858	332.06
273.09	345.06
273.322	340.06
273.553	346.06
273.785	349.06
274.017	335.06
274.249	344.06
274.481	351.06
274.713	340.06
274.945	347.06
275.176	353.06
275.408	353.06
275.64	362.06
275.872	345.06
276.104	365.06
276.335	336.06
276.567	372.06
276.799	366.06
277.031	375.06
277.262	346.06
277.494	372.06
277.726	372.06
277.957	357.06
278.189	378.06
278.421	363.06
278.652	392.06
278.884	406.06
279.115	389.06
279.347	391.06
279.579	387.06
279.81	381.06
280.042	376.06
280.273	398.06
280.505	384.06
280.736	394.06
280.968	391.06
281.199	401.06
281.431	390.06
281.662	387.06
281.894	403.06
282.125	406.06
282.356	406.06
282.588	424.06
282.819	399.06
283.051	410.06
283.282	402.06
283.513	415.06
283.745	400.06
283.976	404.06
284.207	377.06
284.439	425.06
284.67	407.06
284.901	418.06
285.132	422.06
285.364	422.06
285.595	405.06
285.826	417.06
286.057	413.06
286.288	416.06
286.52	442.06
286.751	428.06
286.982	433.06
287.213	445.06
287.444	428.06
287.675	434.06
287.906	438.06
288.138	428.06
288.369	430.06
288.6	436.06
288.831	435.06
289.062	436.06
289.293	427.06
289.524	444.06
289.755	444.06
289.986	438.06
290.217	424.06
290.448	427.06
290.679	425.06
290.91	441.06
291.141	419.06
291.371	440.06
291.602	436.06
291.833	454.06
292.064	460.06
292.295	433.06
292.526	465.06
292.757	427.06
292.987	443.06
293.218	439.06
293.449	461.06
293.68	457.06
293.91	459.06
294.141	442.06
294.372	441.06
294.603	461.06
294.833	432.06
295.064	457.06
295.295	445.06
295.525	428.06
295.756	457.06
295.987	464.06
296.217	457.06
296.448	475.06
296.679	449.06
296.909	466.06
297.14	476.06
297.37	477.06
297.601	475.06
297.831	468.06
298.062	476.06
298.292	497.06
298.523	474.06
298.753	496.06
298.984	484.06
299.214	485.06
299.445	503.06
299.675	489.06
299.905	488.06
300.136	493.06
300.366	493.06
300.597	491.06
300.827	502.06
301.057	519.06
301.288	516.06
301.518	503.06
301.748	510.06
301.979	509.06
302.209	515.06
302.439	518.06
302.669	503.06
302.9	516.06
303.13	494.06
303.36	518.06
303.59	502.06
303.82	534.06
304.051	536.06
304.281	541.06
304.511	520.06
304.741	510.06
304.971	502.06
305.201	486.06
305.431	512.06
305.661	508.06
305.891	499.06
306.121	523.06
306.352	493.06
306.582	485.06
306.812	482.06
307.042	502.06
307.272	490.06
307.502	490.06
307.731	498.06
307.961	486.06
308.191	511.06
308.421	493.06
308.651	485.06
308.881	498.06
309.111	495.06
309.341	503.06
309.571	493.06
309.8	507.06
310.03	500.06
310.26	512.06
310.49	489.06
310.72	519.06
310.949	520.06
311.179	509.06
311.409	502.06
311.639	532.06
311.868	523.06
312.098	501.06
312.328	534.06
312.557	521.06
312.787	524.06
313.017	532.06
313.246	523.06
313.476	530.06
313.706	541.06
313.935	548.06
314.165	529.06
314.394	532.06
314.624	551.06
314.853	522.06
315.083	534.06
315.312	526.06
315.542	522.06
315.771	548.06
316.001	543.06
316.23	516.06
316.46	536.06
316.689	533.06
316.919	522.06
317.148	516.06
317.377	513.06
317.607	531.06
317.836	517.06
318.065	522.06
318.295	528.06
318.524	540.06
318.753	524.06
318.983	508.06
319.212	534.06
319.441	544.06
319.67	520.06
319.9	515.06
320.129	534.06
320.358	546.06
320.587	541.06
320.816	517.06
321.046	525.06
321.275	538.06
321.504	552.06
321.733	497.06
321.962	518.06
322.191	536.06
322.42	523.06
322.649	545.06
322.878	549.06
323.108	542.06
323.337	528.06
323.566	551.06
323.795	514.06
324.024	528.06
324.253	550.06
324.482	538.06
324.71	545.06
324.939	545.06
325.168	545.06
325.397	553.06
325.626	550.06
325.855	562.06
326.084	582.06
326.313	582.06
326.542	580.06
326.77	611.06
326.999	569.06
327.228	576.06
327.457	584.06
327.686	571.06
327.914	554.06
328.143	565.06
328.372	597.06
328.6	570.06
328.829	580.06
329.058	578.06
329.287	574.06
329.515	580.06
329.744	594.06
329.972	594.06
330.201	571.06
330.43	586.06
330.658	582.06
330.887	617.06
331.115	610.06
331.344	600.06
331.572	590.06
331.801	620.06
332.03	620.06
332.258	646.06
332.486	663.06
332.715	665.06
332.943	718.06
333.172	746.06
333.4	750.06
333.629	758.06
333.857	796.06
334.085	760.06
334.314	775.06
334.542	730.06
334.771	745.06
334.999	745.06
335.227	736.06
335.455	716.06
335.684	722.06
335.912	712.06
336.14	688.06
336.369	688.06
336.597	695.06
336.825	695.06
337.053	700.06
337.281	677.06
337.51	664.06
337.738	662.06
337.966	648.06
338.194	649.06
338.422	654.06
338.65	644.06
338.878	628.06
339.106	627.06
339.334	637.06
339.562	600.06
339.79	591.06
340.018	609.06
340.246	622.06
340.474	628.06
340.702	606.06
340.93	610.06
341.158	599.06
341.386	594.06
341.614	600.06
341.842	598.06
342.07	589.06
342.298	603.06
342.526	591.06
342.754	586.06
342.981	603.06
343.209	613.06
343.437	646.06
343.665	683.06
343.893	710.06
344.12	737.06
344.348	711.06
344.576	677.06
344.804	658.06
345.031	648.06
345.259	618.06
345.487	612.06
345.714	606.06
345.942	599.06
346.17	583.06
346.397	604.06
346.625	598.06
346.853	600.06
347.08	590.06
347.308	617.06
347.535	589.06
347.763	609.06
347.99	588.06
348.218	601.06
348.445	582.06
348.673	586.06
348.9	585.06
349.128	603.06
349.355	596.06
349.583	600.06
349.81	560.06
350.037	570.06
350.265	583.06
350.492	541.06
350.72	574.06
350.947	591.06
351.174	562.06
351.402	552.06
351.629	554.06
351.856	541.06
352.083	550.06
352.311	551.06
352.538	541.06
352.765	578.06
352.992	567.06
353.22	556.06
353.447	557.06
353.674	552.06
353.901	566.06
354.128	566.06
354.355	548.06
354.583	570.06
354.81	572.06
355.037	562.06
355.264	570.06
355.491	565.06
355.718	554.06
355.945	568.06
356.172	564.06
356.399	569.06
356.626	590.06
356.853	567.06
357.08	553.06
357.307	570.06
357.534	552.06
357.761	582.06
357.988	563.06
358.215	549.06
358.441	563.06
358.668	571.06
358.895	550.06
359.122	570.06
359.349	561.06
359.576	557.06
359.802	562.06
360.029	560.06
360.256	588.06
360.483	565.06
360.709	557.06
360.936	552.06
361.163	592.06
361.39	553.06
361.616	567.06
361.843	567.06
362.07	553.06
362.296	557.06
362.523	539.06
362.749	564.06
362.976	563.06
363.203	572.06
363.429	577.06
363.656	566.06
363.882	555.06
364.109	562.06
364.335	570.06
364.562	581.06
364.788	564.06
365.015	566.06
365.241	567.06
365.468	582.06
365.694	551.06
365.92	602.06
366.147	572.06
366.373	580.06
366.599	556.06
366.826	581.06
367.052	558.06
367.278	574.06
367.505	579.06
367.731	567.06
367.957	553.06
368.184	576.06
368.41	601.06
368.636	562.06
368.862	581.06
369.089	556.06
369.315	578.06
369.541	600.06
369.767	588.06
369.993	576.06
370.219	563.06
370.445	594.06
370.672	602.06
370.898	591.06
371.124	620.06
371.35	634.06
371.576	621.06
371.802	596.06
372.028	605.06
372.254	611.06
372.48	632.06
372.706	626.06
372.932	633.06
373.158	644.06
373.384	624.06
373.61	643.06
373.835	619.06
374.061	624.06
374.287	641.06
374.513	636.06
374.739	677.06
374.965	681.06
375.191	671.06
375.416	666.06
375.642	642.06
375.868	658.06
376.094	645.06
376.319	632.06
376.545	649.06
376.771	628.06
376.997	632.06
377.222	623.06
377.448	621.06
377.674	616.06
377.899	626.06
378.125	628.06
378.35	609.06
378.576	620.06
378.802	624.06
379.027	625.06
379.253	602.06
379.478	612.06
379.704	570.06
379.929	611.06
380.155	613.06
380.38	614.06
380.606	609.06
380.831	608.06
381.057	626.06
381.282	626.06
381.507	600.06
381.733	636.06
381.958	612.06
382.184	617.06
382.409	645.06
382.634	653.06
382.86	637.06
383.085	650.06
383.31	660.06
383.535	663.06
383.761	691.06
383.986	691.06
384.211	736.06
384.436	719.06
384.662	715.06
384.887	717.06
385.112	733.06
385.337	741.06
385.562	730.06
385.787	730.06
386.013	756.06
386.238	740.06
386.463	732.06
386.688	755.06
386.913	708.06
387.138	762.06
387.363	724.06
387.588	738.06
387.813	721.06
388.038	737.06
388.263	724.06
388.488	733.06
388.713	752.06
388.938	698.06
389.163	713.06
389.387	754.06
389.612	732.06
389.837	700.06
390.062	716.06
390.287	713.06
390.512	692.06
390.736	716.06
390.961	746.06
391.186	747.06
391.411	770.06
391.636	793.06
391.86	810.06
392.085	833.06
392.31	833.06
392.534	809.06
392.759	789.06
392.984	763.06
393.208	782.06
393.433	786.06
393.658	763.06
393.882	790.06
394.107	778.06
394.331	802.06
394.556	790.06
394.78	800.06
395.005	786.06
395.229	773.06
395.454	824.06
395.678	822.06
395.903	835.06
396.127	826.06
396.352	794.06
396.576	768.06
396.801	780.06
397.025	807.06
397.249	819.06
397.474	832.06
397.698	829.06
397.922	812.06
398.147	826.06
398.371	826.06
398.595	866.06
398.82	914.06
399.044	968.06
399.268	1056.06
399.492	1191.06
399.717	1380.06
399.941	1363.06
400.165	1213.06
400.389	1104.06
400.613	1012.06
400.837	952.06
401.062	912.06
401.286	919.06
401.51	905.06
401.734	903.06
401.958	902.06
402.182	952.06
402.406	959.06
402.63	987.06
402.854	1006.06
403.078	984.06
403.302	992.06
403.526	1049.06
403.75	1052.06
403.974	1053.06
404.198	1037.06
404.422	1058.06
404.645	1090.06
404.869	1038.06
405.093	1045.06
405.317	992.06
405.541	1030.06
405.765	1014.06
405.988	1000.06
406.212	1012.06
406.436	1005.06
406.66	1039.06
406.883	1018.06
407.107	1121.06
407.331	1155.06
407.555	1202.06
407.778	1179.06
408.002	1131.06
408.226	1116.06
408.449	1124.06
408.673	1058.06
408.896	1037.06
409.12	1047.06
409.344	1061.06
409.567	1041.06
409.791	1068.06
410.014	1053.06
410.238	1017.06
410.461	1014.06
410.685	1017.06
410.908	988.06
411.132	976.06
411.355	974.06
411.578	963.06
411.802	972.06
412.025	948.06
412.249	955.06
412.472	957.06
412.695	958.06
412.919	936.06
413.142	920.06
413.365	911.06
413.589	937.06
413.812	930.06
414.035	916.06
414.258	899.06
414.482	941.06
414.705	926.06
414.928	944.06
415.151	904.06
415.374	913.06
415.597	922.06
415.821	914.06
416.044	899.06
416.267	902.06
416.49	894.06
416.713	904.06
416.936	914.06
417.159	876.06
417.382	902.06
417.605	906.06
417.828	916.06
418.051	885.06
418.274	891.06
418.497	911.06
418.72	940.06
418.943	943.06
419.166	982.06
419.389	1048.06
419.611	1018.06
419.834	976.06
420.057	946.06
420.28	904.06
420.503	891.06
420.726	897.06
420.948	880.06
421.171	920.06
421.394	894.06
421.617	902.06
421.839	896.06
422.062	902.06
422.285	897.06
422.507	920.06
422.73	924.06
422.953	907.06
423.175	972.06
423.398	940.06
423.621	952.06
423.843	973.06
424.066	941.06
424.288	950.06
424.511	960.06
424.733	935.06
424.956	937.06
425.178	912.06
425.401	908.06
425.623	893.06
425.846	875.06
426.068	866.06
426.291	869.06
426.513	840.06
426.735	861.06
426.958	861.06
427.18	825.06
427.402	828.06
427.625	825.06
427.847	795.06
428.069	811.06
428.292	817.06
428.514	806.06
428.736	799.06
428.958	830.06
429.181	836.06
429.403	804.06
429.625	805.06
429.847	807.06
430.069	781.06
430.292	771.06
430.514	790.06
430.736	795.06
430.958	791.06
431.18	802.06
431.402	813.06
431.624	786.06
431.846	822.06
432.068	816.06
432.29	846.06
432.512	797.06
432.734	797.06
432.956	798.06
433.178	816.06
433.4	798.06
433.622	830.06
433.844	843.06
434.066	821.06
434.287	818.06
434.509	878.06
434.731	899.06
434.953	902.06
435.175	902.06
435.397	877.06
435.618	852.06
435.84	835.06
436.062	822.06
436.284	817.06
436.505	820.06
436.727	812.06
436.949	808.06
437.17	792.06
437.392	767.06
437.614	814.06
437.835	772.06
438.057	787.06
438.278	766.06
438.5	777.06
438.721	780.06
438.943	750.06
439.165	777.06
439.386	798.06
439.608	800.06
439.829	787.06
440.05	800.06
440.272	796.06
440.493	818.06
440.715	810.06
440.936	828.06
441.158	840.06
441.379	835.06
441.6	911.06
441.822	911.06
442.043	901.06
442.264	882.06
442.486	891.06
442.707	862.06
442.928	866.06
443.149	896.06
443.371	865.06
443.592	886.06
443.813	918.06
444.034	917.06
444.255	952.06
444.476	954.06
444.698	1022.06
444.919	1079.06
445.14	1172.06
445.361	1030.06
445.582	917.06
445.803	873.06
446.024	844.06
446.245	850.06
446.466	835.06
446.687	805.06
446.908	800.06
447.129	796.06
447.35	796.06
447.571	759.06
447.792	739.06
448.013	755.06
448.234	776.06
448.455	758.06
448.675	767.06
448.896	734.06
449.117	738.06
449.338	737.06
449.559	752.06
449.779	732.06
450	754.06
450.221	728.06
450.442	776.06
450.662	751.06
450.883	739.06
451.104	776.06
451.324	752.06
451.545	738.06
451.766	754.06
451.986	747.06
452.207	754.06
452.428	746.06
452.648	749.06
452.869	685.06
453.089	726.06
453.31	720.06
453.53	727.06
453.751	716.06
453.971	724.06
454.192	716.06
454.412	716.06
454.633	716.06
454.853	697.06
455.073	697.06
455.294	680.06
455.514	710.06
455.734	719.06
455.955	708.06
456.175	691.06
456.395	706.06
456.616	713.06
456.836	683.06
457.056	701.06
457.276	681.06
457.497	711.06
457.717	702.06
457.937	694.06
458.157	701.06
458.377	693.06
458.598	732.06
458.818	738.06
459.038	760.06
459.258	780.06
459.478	788.06
459.698	836.06
459.918	851.06
460.138	868.06
460.358	945.06
460.578	941.06
460.798	924.06
461.018	962.06
461.238	912.06
461.458	927.06
461.678	916.06
461.898	936.06
462.118	939.06
462.338	1001.06
462.558	1009.06
462.777	1038.06
462.997	1141.06
463.217	1267.06
463.437	1266.06
463.657	1123.06
463.876	1090.06
464.096	1082.06
464.316	1102.06
464.536	1100.06
464.755	1059.06
464.975	1033.06
465.195	966.06
465.414	934.06
465.634	866.06
465.854	832.06
466.073	822.06
466.293	840.06
466.512	820.06
466.732	796.06
466.951	780.06
467.171	781.06
467.391	757.06
467.61	771.06
467.829	775.06
468.049	770.06
468.268	749.06
468.488	742.06
468.707	745.06
468.927	768.06
469.146	716.06
469.365	764.06
469.585	754.06
469.804	788.06
470.023	784.06
470.243	794.06
470.462	814.06
470.681	816.06
470.901	802.06
471.12	820.06
471.339	796.06
471.558	777.06
471.777	766.06
471.997	771.06
472.216	717.06
472.435	741.06
472.654	714.06
472.873	729.06
473.092	733.06
473.311	730.06
473.53	736.06
473.749	718.06
473.968	728.06
474.187	738.06
474.406	705.06
474.625	723.06
474.844	725.06
475.063	730.06
475.282	733.06
475.501	737.06
475.72	738.06
475.939	729.06
476.158	731.06
476.377	770.06
476.596	752.06
476.814	760.06
477.033	781.06
477.252	794.06
477.471	821.06
477.69	804.06
477.908	838.06
478.127	844.06
478.346	856.06
478.564	874.06
478.783	901.06
479.002	886.06
479.22	898.06
479.439	921.06
479.658	880.06
479.876	893.06
480.095	934.06
480.313	957.06
480.532	998.06
480.751	967.06
480.969	928.06
481.188	899.06
481.406	881.06
481.624	869.06
481.843	825.06
482.061	829.06
482.28	829.06
482.498	829.06
482.717	806.06
482.935	853.06
483.153	834.06
483.372	833.06
483.59	840.06
483.808	829.06
484.027	845.06
484.245	846.06
484.463	843.06
484.681	838.06
484.9	845.06
485.118	859.06
485.336	848.06
485.554	880.06
485.772	873.06
485.99	867.06
486.209	880.06
486.427	859.06
486.645	860.06
486.863	877.06
487.081	853.06
487.299	850.06
487.517	883.06
487.735	900.06
487.953	875.06
488.171	920.06
488.389	873.06
488.607	855.06
488.825	864.06
489.043	839.06
489.261	874.06
489.479	871.06
489.696	873.06
489.914	873.06
490.132	896.06
490.35	882.06
490.568	876.06
490.786	876.06
491.003	887.06
491.221	891.06
491.439	894.06
491.657	875.06
491.874	908.06
492.092	892.06
492.31	923.06
492.527	916.06
492.745	900.06
492.963	892.06
493.18	938.06
493.398	905.06
493.615	922.06
493.833	898.06
494.05	937.06
494.268	930.06
494.485	957.06
494.703	934.06
494.92	938.06
495.138	935.06
495.355	938.06
495.573	952.06
495.79	942.06
496.008	964.06
496.225	947.06
496.442	948.06
496.66	984.06
496.877	966.06
497.094	1020.06
497.312	1044.06
497.529	1034.06
497.746	1048.06
497.963	1083.06
498.181	1088.06
498.398	1180.06
498.615	1221.06
498.832	1336.06
499.049	1414.06
499.267	1516.06
499.484	1699.06
499.701	1858.06
499.918	2062.06
500.135	2290.06
500.352	2657.06
500.569	2773.06
