Data from NiCl2@0.5M.TitratingCurve.Agarose3%dH2O.NegLispCup.LampEnergy10.LIBS07252019_HRD10591_18-19-54-571.txt Node
Date: Thu Jul 25 18:19:54 EDT 2019
User: cochatt
Spectrometer: HR+D1059
Trigger mode: 1
Integration Time (sec): 1.000000E-1
Scans to average: 1
Electric dark correction enabled: true
Nonlinearity correction enabled: false
Boxcar width: 0
XAxis mode: Wavelengths
Number of Pixels in Spectrum: 2048
>>>>>Begin Spectral Data<<<<<
223.165	-9.75
223.4	-9.75
223.635	-9.75
223.869	-9.75
224.104	-5.75
224.338	-31.75
224.573	-23.75
224.808	-4.75
225.042	-3.75
225.277	8.25
225.511	3.25
225.746	-10.75
225.98	9.25
226.215	7.25
226.449	6.25
226.683	26.25
226.918	14.25
227.152	25.25
227.387	39.25
227.621	37.25
227.856	41.25
228.09	54.25
228.324	54.25
228.559	58.25
228.793	63.25
229.027	114.25
229.262	112.25
229.496	94.25
229.73	101.25
229.964	114.25
230.199	98.25
230.433	116.25
230.667	115.25
230.901	115.25
231.136	116.25
231.37	122.25
231.604	125.25
231.838	125.25
232.072	133.25
232.306	132.25
232.541	138.25
232.775	128.25
233.009	134.25
233.243	124.25
233.477	136.25
233.711	137.25
233.945	120.25
234.179	134.25
234.413	126.25
234.647	128.25
234.881	148.25
235.115	141.25
235.349	113.25
235.583	129.25
235.817	141.25
236.051	123.25
236.285	140.25
236.519	136.25
236.753	126.25
236.987	129.25
237.221	128.25
237.455	126.25
237.689	136.25
237.922	129.25
238.156	137.25
238.39	153.25
238.624	153.25
238.858	127.25
239.091	156.25
239.325	151.25
239.559	139.25
239.793	141.25
240.027	150.25
240.26	152.25
240.494	132.25
240.728	128.25
240.961	137.25
241.195	155.25
241.429	149.25
241.662	150.25
241.896	153.25
242.13	168.25
242.363	148.25
242.597	160.25
242.83	164.25
243.064	154.25
243.298	152.25
243.531	171.25
243.765	176.25
243.998	171.25
244.232	176.25
244.465	173.25
244.699	169.25
244.932	170.25
245.166	172.25
245.399	168.25
245.633	159.25
245.866	179.25
246.099	183.25
246.333	204.25
246.566	182.25
246.8	185.25
247.033	176.25
247.266	195.25
247.5	177.25
247.733	185.25
247.966	170.25
248.2	194.25
248.433	201.25
248.666	184.25
248.899	210.25
249.133	190.25
249.366	192.25
249.599	194.25
249.832	195.25
250.066	207.25
250.299	191.25
250.532	204.25
250.765	211.25
250.998	187.25
251.231	196.25
251.465	196.25
251.698	197.25
251.931	188.25
252.164	198.25
252.397	194.25
252.63	209.25
252.863	222.25
253.096	209.25
253.329	216.25
253.562	208.25
253.795	218.25
254.028	213.25
254.261	214.25
254.494	210.25
254.727	197.25
254.96	218.25
255.193	214.25
255.426	225.25
255.659	222.25
255.892	222.25
256.124	216.25
256.357	234.25
256.59	234.25
256.823	246.25
257.056	244.25
257.289	226.25
257.521	227.25
257.754	237.25
257.987	248.25
258.22	261.25
258.452	248.25
258.685	237.25
258.918	240.25
259.151	229.25
259.383	229.25
259.616	207.25
259.849	230.25
260.081	242.25
260.314	252.25
260.547	248.25
260.779	254.25
261.012	236.25
261.244	266.25
261.477	257.25
261.71	258.25
261.942	253.25
262.175	230.25
262.407	244.25
262.64	264.25
262.872	257.25
263.105	243.25
263.337	256.25
263.57	269.25
263.802	283.25
264.035	274.25
264.267	272.25
264.499	266.25
264.732	272.25
264.964	270.25
265.197	274.25
265.429	286.25
265.661	269.25
265.894	280.25
266.126	265.25
266.358	271.25
266.591	258.25
266.823	260.25
267.055	270.25
267.287	296.25
267.52	281.25
267.752	275.25
267.984	277.25
268.216	281.25
268.448	299.25
268.681	269.25
268.913	288.25
269.145	295.25
269.377	298.25
269.609	299.25
269.841	278.25
270.073	294.25
270.306	288.25
270.538	286.25
270.77	298.25
271.002	306.25
271.234	294.25
271.466	304.25
271.698	312.25
271.93	296.25
272.162	317.25
272.394	297.25
272.626	310.25
272.858	301.25
273.09	303.25
273.322	312.25
273.553	320.25
273.785	309.25
274.017	292.25
274.249	324.25
274.481	321.25
274.713	321.25
274.945	316.25
275.176	320.25
275.408	304.25
275.64	306.25
275.872	326.25
276.104	337.25
276.335	326.25
276.567	333.25
276.799	317.25
277.031	325.25
277.262	341.25
277.494	328.25
277.726	324.25
277.957	331.25
278.189	330.25
278.421	330.25
278.652	357.25
278.884	341.25
279.115	338.25
279.347	338.25
279.579	342.25
279.81	338.25
280.042	357.25
280.273	337.25
280.505	349.25
280.736	351.25
280.968	330.25
281.199	353.25
281.431	353.25
281.662	374.25
281.894	384.25
282.125	349.25
282.356	370.25
282.588	372.25
282.819	363.25
283.051	360.25
283.282	360.25
283.513	379.25
283.745	354.25
283.976	359.25
284.207	356.25
284.439	378.25
284.67	370.25
284.901	398.25
285.132	374.25
285.364	385.25
285.595	390.25
285.826	379.25
286.057	384.25
286.288	388.25
286.52	389.25
286.751	378.25
286.982	377.25
287.213	381.25
287.444	383.25
287.675	384.25
287.906	385.25
288.138	378.25
288.369	399.25
288.6	401.25
288.831	401.25
289.062	398.25
289.293	413.25
289.524	396.25
289.755	398.25
289.986	388.25
290.217	407.25
290.448	405.25
290.679	421.25
290.91	395.25
291.141	404.25
291.371	400.25
291.602	416.25
291.833	400.25
292.064	426.25
292.295	430.25
292.526	411.25
292.757	398.25
292.987	399.25
293.218	400.25
293.449	427.25
293.68	401.25
293.91	411.25
294.141	420.25
294.372	404.25
294.603	416.25
294.833	408.25
295.064	426.25
295.295	437.25
295.525	437.25
295.756	411.25
295.987	408.25
296.217	416.25
296.448	423.25
296.679	430.25
296.909	430.25
297.14	410.25
297.37	420.25
297.601	449.25
297.831	441.25
298.062	443.25
298.292	451.25
298.523	447.25
298.753	456.25
298.984	448.25
299.214	452.25
299.445	439.25
299.675	457.25
299.905	440.25
300.136	449.25
300.366	469.25
300.597	457.25
300.827	469.25
301.057	490.25
301.288	465.25
301.518	473.25
301.748	461.25
301.979	477.25
302.209	471.25
302.439	460.25
302.669	468.25
302.9	474.25
303.13	459.25
303.36	467.25
303.59	467.25
303.82	480.25
304.051	470.25
304.281	465.25
304.511	475.25
304.741	473.25
304.971	490.25
305.201	490.25
305.431	506.25
305.661	473.25
305.891	480.25
306.121	473.25
306.352	465.25
306.582	463.25
306.812	477.25
307.042	464.25
307.272	460.25
307.502	467.25
307.731	482.25
307.961	460.25
308.191	456.25
308.421	458.25
308.651	460.25
308.881	463.25
309.111	450.25
309.341	462.25
309.571	463.25
309.8	468.25
310.03	465.25
310.26	494.25
310.49	478.25
310.72	482.25
310.949	484.25
311.179	481.25
311.409	480.25
311.639	470.25
311.868	478.25
312.098	499.25
312.328	501.25
312.557	485.25
312.787	481.25
313.017	505.25
313.246	484.25
313.476	518.25
313.706	516.25
313.935	487.25
314.165	492.25
314.394	532.25
314.624	498.25
314.853	507.25
315.083	493.25
315.312	507.25
315.542	532.25
315.771	493.25
316.001	514.25
316.23	509.25
316.46	498.25
316.689	502.25
316.919	509.25
317.148	504.25
317.377	488.25
317.607	474.25
317.836	483.25
318.065	520.25
318.295	513.25
318.524	502.25
318.753	494.25
318.983	518.25
319.212	497.25
319.441	493.25
319.67	494.25
319.9	483.25
320.129	477.25
320.358	522.25
320.587	500.25
320.816	485.25
321.046	482.25
321.275	472.25
321.504	499.25
321.733	491.25
321.962	507.25
322.191	491.25
322.42	500.25
322.649	500.25
322.878	526.25
323.108	487.25
323.337	510.25
323.566	535.25
323.795	513.25
324.024	525.25
324.253	520.25
324.482	525.25
324.71	515.25
324.939	519.25
325.168	537.25
325.397	526.25
325.626	535.25
325.855	550.25
326.084	540.25
326.313	545.25
326.542	524.25
326.77	560.25
326.999	549.25
327.228	542.25
327.457	561.25
327.686	546.25
327.914	546.25
328.143	537.25
328.372	572.25
328.6	540.25
328.829	547.25
329.058	536.25
329.287	551.25
329.515	549.25
329.744	550.25
329.972	565.25
330.201	563.25
330.43	553.25
330.658	550.25
330.887	553.25
331.115	554.25
331.344	569.25
331.572	593.25
331.801	576.25
332.03	576.25
332.258	618.25
332.486	598.25
332.715	628.25
332.943	649.25
333.172	680.25
333.4	693.25
333.629	726.25
333.857	737.25
334.085	708.25
334.314	732.25
334.542	682.25
334.771	705.25
334.999	689.25
335.227	660.25
335.455	681.25
335.684	668.25
335.912	637.25
336.14	661.25
336.369	671.25
336.597	638.25
336.825	660.25
337.053	666.25
337.281	660.25
337.51	630.25
337.738	639.25
337.966	613.25
338.194	638.25
338.422	631.25
338.65	610.25
338.878	599.25
339.106	602.25
339.334	621.25
339.562	611.25
339.79	571.25
340.018	565.25
340.246	551.25
340.474	589.25
340.702	584.25
340.93	578.25
341.158	591.25
341.386	594.25
341.614	604.25
341.842	604.25
342.07	558.25
342.298	569.25
342.526	591.25
342.754	557.25
342.981	594.25
343.209	572.25
343.437	648.25
343.665	673.25
343.893	650.25
344.12	665.25
344.348	653.25
344.576	656.25
344.804	636.25
345.031	601.25
345.259	592.25
345.487	608.25
345.714	585.25
345.942	578.25
346.17	601.25
346.397	569.25
346.625	566.25
346.853	541.25
347.08	566.25
347.308	574.25
347.535	547.25
347.763	568.25
347.99	561.25
348.218	560.25
348.445	546.25
348.673	557.25
348.9	546.25
349.128	531.25
349.355	562.25
349.583	560.25
349.81	525.25
350.037	549.25
350.265	558.25
350.492	552.25
350.72	526.25
350.947	531.25
351.174	545.25
351.402	553.25
351.629	542.25
351.856	550.25
352.083	561.25
352.311	554.25
352.538	577.25
352.765	543.25
352.992	538.25
353.22	532.25
353.447	518.25
353.674	512.25
353.901	531.25
354.128	517.25
354.355	518.25
354.583	548.25
354.81	531.25
355.037	526.25
355.264	522.25
355.491	530.25
355.718	520.25
355.945	564.25
356.172	516.25
356.399	541.25
356.626	533.25
356.853	552.25
357.08	538.25
357.307	525.25
357.534	536.25
357.761	528.25
357.988	532.25
358.215	531.25
358.441	532.25
358.668	505.25
358.895	525.25
359.122	544.25
359.349	536.25
359.576	521.25
359.802	521.25
360.029	510.25
360.256	538.25
360.483	547.25
360.709	539.25
360.936	546.25
361.163	504.25
361.39	532.25
361.616	516.25
361.843	533.25
362.07	568.25
362.296	535.25
362.523	527.25
362.749	519.25
362.976	500.25
363.203	532.25
363.429	509.25
363.656	522.25
363.882	537.25
364.109	505.25
364.335	523.25
364.562	513.25
364.788	501.25
365.015	526.25
365.241	539.25
365.468	503.25
365.694	534.25
365.92	510.25
366.147	505.25
366.373	491.25
366.599	524.25
366.826	514.25
367.052	517.25
367.278	518.25
367.505	521.25
367.731	533.25
367.957	525.25
368.184	499.25
368.41	525.25
368.636	528.25
368.862	520.25
369.089	524.25
369.315	533.25
369.541	527.25
369.767	533.25
369.993	540.25
370.219	520.25
370.445	539.25
370.672	526.25
370.898	538.25
371.124	552.25
371.35	557.25
371.576	544.25
371.802	573.25
372.028	555.25
372.254	562.25
372.48	562.25
372.706	556.25
372.932	594.25
373.158	560.25
373.384	571.25
373.61	556.25
373.835	557.25
374.061	552.25
374.287	542.25
374.513	584.25
374.739	605.25
374.965	589.25
375.191	618.25
375.416	589.25
375.642	574.25
375.868	591.25
376.094	564.25
376.319	572.25
376.545	551.25
376.771	532.25
376.997	557.25
377.222	547.25
377.448	533.25
377.674	546.25
377.899	554.25
378.125	537.25
378.35	555.25
378.576	547.25
378.802	531.25
379.027	567.25
379.253	547.25
379.478	541.25
379.704	539.25
379.929	538.25
380.155	536.25
380.38	548.25
380.606	534.25
380.831	546.25
381.057	542.25
381.282	547.25
381.507	540.25
381.733	539.25
381.958	556.25
382.184	568.25
382.409	576.25
382.634	556.25
382.86	558.25
383.085	588.25
383.31	595.25
383.535	592.25
383.761	598.25
383.986	596.25
384.211	607.25
384.436	620.25
384.662	613.25
384.887	634.25
385.112	657.25
385.337	638.25
385.562	639.25
385.787	642.25
386.013	669.25
386.238	650.25
386.463	636.25
386.688	671.25
386.913	658.25
387.138	629.25
387.363	627.25
387.588	617.25
387.813	636.25
388.038	631.25
388.263	628.25
388.488	619.25
388.713	644.25
388.938	620.25
389.163	608.25
389.387	625.25
389.612	624.25
389.837	622.25
390.062	606.25
390.287	636.25
390.512	625.25
390.736	620.25
390.961	639.25
391.186	658.25
391.411	674.25
391.636	673.25
391.86	706.25
392.085	697.25
392.31	724.25
392.534	692.25
392.759	672.25
392.984	676.25
393.208	696.25
393.433	679.25
393.658	678.25
393.882	680.25
394.107	676.25
394.331	675.25
394.556	674.25
394.78	698.25
395.005	689.25
395.229	686.25
395.454	704.25
395.678	709.25
395.903	722.25
396.127	721.25
396.352	689.25
396.576	708.25
396.801	692.25
397.025	706.25
397.249	716.25
397.474	717.25
397.698	732.25
397.922	712.25
398.147	719.25
398.371	723.25
398.595	772.25
398.82	806.25
399.044	828.25
399.268	924.25
399.492	1028.25
399.717	1157.25
399.941	1126.25
400.165	1018.25
400.389	949.25
400.613	888.25
400.837	825.25
401.062	820.25
401.286	794.25
401.51	782.25
401.734	782.25
401.958	797.25
402.182	841.25
402.406	822.25
402.63	843.25
402.854	829.25
403.078	851.25
403.302	882.25
403.526	870.25
403.75	888.25
403.974	916.25
404.198	896.25
404.422	885.25
404.645	907.25
404.869	866.25
405.093	866.25
405.317	870.25
405.541	880.25
405.765	875.25
405.988	873.25
406.212	883.25
406.436	874.25
406.66	888.25
406.883	886.25
407.107	958.25
407.331	989.25
407.555	1039.25
407.778	998.25
408.002	1013.25
408.226	946.25
408.449	972.25
408.673	926.25
408.896	899.25
409.12	900.25
409.344	915.25
409.567	893.25
409.791	918.25
410.014	911.25
410.238	899.25
410.461	914.25
410.685	872.25
410.908	890.25
411.132	882.25
411.355	850.25
411.578	858.25
411.802	856.25
412.025	855.25
412.249	884.25
412.472	856.25
412.695	846.25
412.919	837.25
413.142	836.25
413.365	805.25
413.589	797.25
413.812	828.25
414.035	811.25
414.258	798.25
414.482	822.25
414.705	829.25
414.928	825.25
415.151	833.25
415.374	825.25
415.597	798.25
415.821	790.25
416.044	810.25
416.267	804.25
416.49	794.25
416.713	811.25
416.936	820.25
417.159	808.25
417.382	784.25
417.605	802.25
417.828	788.25
418.051	849.25
418.274	824.25
418.497	838.25
418.72	823.25
418.943	834.25
419.166	857.25
419.389	945.25
419.611	900.25
419.834	881.25
420.057	842.25
420.28	813.25
420.503	808.25
420.726	783.25
420.948	793.25
421.171	807.25
421.394	841.25
421.617	798.25
421.839	798.25
422.062	824.25
422.285	808.25
422.507	840.25
422.73	830.25
422.953	809.25
423.175	848.25
423.398	842.25
423.621	845.25
423.843	847.25
424.066	876.25
424.288	838.25
424.511	836.25
424.733	829.25
424.956	817.25
425.178	829.25
425.401	840.25
425.623	804.25
425.846	797.25
426.068	781.25
426.291	798.25
426.513	785.25
426.735	773.25
426.958	789.25
427.18	746.25
427.402	781.25
427.625	758.25
427.847	749.25
428.069	741.25
428.292	777.25
428.514	752.25
428.736	754.25
428.958	755.25
429.181	735.25
429.403	734.25
429.625	748.25
429.847	728.25
430.069	719.25
430.292	725.25
430.514	691.25
430.736	741.25
430.958	729.25
431.18	736.25
431.402	730.25
431.624	732.25
431.846	718.25
432.068	737.25
432.29	736.25
432.512	737.25
432.734	753.25
432.956	746.25
433.178	742.25
433.4	745.25
433.622	780.25
433.844	758.25
434.066	758.25
434.287	774.25
434.509	813.25
434.731	809.25
434.953	834.25
435.175	854.25
435.397	834.25
435.618	788.25
435.84	770.25
436.062	764.25
436.284	741.25
436.505	764.25
436.727	796.25
436.949	760.25
437.17	739.25
437.392	739.25
437.614	712.25
437.835	740.25
438.057	730.25
438.278	737.25
438.5	733.25
438.721	721.25
438.943	744.25
439.165	718.25
439.386	736.25
439.608	749.25
439.829	741.25
440.05	748.25
440.272	758.25
440.493	754.25
440.715	743.25
440.936	800.25
441.158	814.25
441.379	827.25
441.6	856.25
441.822	846.25
442.043	846.25
442.264	851.25
442.486	854.25
442.707	833.25
442.928	842.25
443.149	839.25
443.371	819.25
443.592	859.25
443.813	855.25
444.034	841.25
444.255	883.25
444.476	904.25
444.698	914.25
444.919	973.25
445.14	1053.25
445.361	942.25
445.582	888.25
445.803	841.25
446.024	824.25
446.245	832.25
446.466	794.25
446.687	772.25
446.908	772.25
447.129	754.25
447.35	757.25
447.571	779.25
447.792	730.25
448.013	725.25
448.234	743.25
448.455	717.25
448.675	684.25
448.896	738.25
449.117	681.25
449.338	690.25
449.559	702.25
449.779	706.25
450	692.25
450.221	704.25
450.442	712.25
450.662	733.25
450.883	712.25
451.104	720.25
451.324	721.25
451.545	737.25
451.766	726.25
451.986	694.25
452.207	700.25
452.428	700.25
452.648	680.25
452.869	664.25
453.089	679.25
453.31	680.25
453.53	672.25
453.751	647.25
453.971	669.25
454.192	680.25
454.412	663.25
454.633	671.25
454.853	680.25
455.073	657.25
455.294	664.25
455.514	674.25
455.734	668.25
455.955	670.25
456.175	652.25
456.395	662.25
456.616	651.25
456.836	652.25
457.056	656.25
457.276	642.25
457.497	670.25
457.717	662.25
457.937	681.25
458.157	689.25
458.377	697.25
458.598	699.25
458.818	702.25
459.038	736.25
459.258	736.25
459.478	774.25
459.698	818.25
459.918	805.25
460.138	831.25
460.358	891.25
460.578	867.25
460.798	888.25
461.018	900.25
461.238	902.25
461.458	893.25
461.678	894.25
461.898	886.25
462.118	888.25
462.338	941.25
462.558	952.25
462.777	1003.25
462.997	1066.25
463.217	1151.25
463.437	1155.25
463.657	1079.25
463.876	1052.25
464.096	1001.25
464.316	1005.25
464.536	1019.25
464.755	983.25
464.975	976.25
465.195	920.25
465.414	862.25
465.634	812.25
465.854	817.25
466.073	790.25
466.293	770.25
466.512	730.25
466.732	771.25
466.951	750.25
467.171	749.25
467.391	726.25
467.61	729.25
467.829	741.25
468.049	737.25
468.268	725.25
468.488	738.25
468.707	740.25
468.927	715.25
469.146	726.25
469.365	713.25
469.585	734.25
469.804	762.25
470.023	781.25
470.243	774.25
470.462	786.25
470.681	766.25
470.901	764.25
471.12	774.25
471.339	749.25
471.558	755.25
471.777	769.25
471.997	716.25
472.216	739.25
472.435	710.25
472.654	702.25
472.873	725.25
473.092	717.25
473.311	694.25
473.53	716.25
473.749	730.25
473.968	707.25
474.187	691.25
474.406	677.25
474.625	701.25
474.844	713.25
475.063	710.25
475.282	701.25
475.501	732.25
475.72	681.25
475.939	710.25
476.158	743.25
476.377	770.25
476.596	733.25
476.814	716.25
477.033	759.25
477.252	749.25
477.471	796.25
477.69	808.25
477.908	820.25
478.127	828.25
478.346	830.25
478.564	844.25
478.783	857.25
479.002	894.25
479.22	885.25
479.439	903.25
479.658	889.25
479.876	865.25
480.095	889.25
480.313	932.25
480.532	914.25
480.751	915.25
480.969	910.25
481.188	877.25
481.406	856.25
481.624	813.25
481.843	843.25
482.061	839.25
482.28	804.25
482.498	827.25
482.717	815.25
482.935	811.25
483.153	812.25
483.372	849.25
483.59	859.25
483.808	857.25
484.027	858.25
484.245	844.25
484.463	862.25
484.681	866.25
484.9	834.25
485.118	871.25
485.336	862.25
485.554	864.25
485.772	867.25
485.99	846.25
486.209	842.25
486.427	876.25
486.645	853.25
486.863	858.25
487.081	856.25
487.299	859.25
487.517	874.25
487.735	841.25
487.953	874.25
488.171	886.25
488.389	867.25
488.607	835.25
488.825	820.25
489.043	835.25
489.261	841.25
489.479	852.25
489.696	856.25
489.914	851.25
490.132	841.25
490.35	863.25
490.568	864.25
490.786	857.25
491.003	895.25
491.221	873.25
491.439	861.25
491.657	886.25
491.874	910.25
492.092	890.25
492.31	897.25
492.527	909.25
492.745	880.25
492.963	946.25
493.18	909.25
493.398	916.25
493.615	894.25
493.833	904.25
494.05	897.25
494.268	921.25
494.485	923.25
494.703	920.25
494.92	923.25
495.138	924.25
495.355	928.25
495.573	923.25
495.79	913.25
496.008	919.25
496.225	913.25
496.442	925.25
496.66	967.25
496.877	979.25
497.094	972.25
497.312	985.25
497.529	988.25
497.746	1023.25
497.963	1085.25
498.181	1087.25
498.398	1139.25
498.615	1190.25
498.832	1237.25
499.049	1347.25
499.267	1424.25
499.484	1546.25
499.701	1730.25
499.918	1849.25
500.135	2120.25
500.352	2323.25
500.569	2356.25
500.786	2405.25
501.003	2211.25
501.22	2053.25
