Data from NiCl2@0.5M.TitratingCurve.Agarose3%dH2O.NegLispCup.LampEnergy10.LIBS07252019_HRD10591_18-19-20-570.txt Node
Date: Thu Jul 25 18:19:20 EDT 2019
User: cochatt
Spectrometer: HR+D1059
Trigger mode: 1
Integration Time (sec): 1.000000E-1
Scans to average: 1
Electric dark correction enabled: true
Nonlinearity correction enabled: false
Boxcar width: 0
XAxis mode: Wavelengths
Number of Pixels in Spectrum: 2048
>>>>>Begin Spectral Data<<<<<
223.165	-6.44
223.4	-6.44
223.635	-6.44
223.869	-20.44
224.104	-6.44
224.338	-10.44
224.573	-20.44
224.808	-24.44
225.042	-9.44
225.277	-6.44
225.511	-6.44
225.746	13.56
225.98	-0.44
226.215	8.56
226.449	14.56
226.683	20.56
226.918	33.56
227.152	20.56
227.387	20.56
227.621	52.56
227.856	46.56
228.09	44.56
228.324	49.56
228.559	53.56
228.793	72.56
229.027	98.56
229.262	123.56
229.496	96.56
229.73	111.56
229.964	138.56
230.199	139.56
230.433	131.56
230.667	134.56
230.901	138.56
231.136	146.56
231.37	145.56
231.604	155.56
231.838	137.56
232.072	145.56
232.306	142.56
232.541	134.56
232.775	142.56
233.009	146.56
233.243	123.56
233.477	149.56
233.711	132.56
233.945	149.56
234.179	144.56
234.413	146.56
234.647	156.56
234.881	140.56
235.115	139.56
235.349	130.56
235.583	145.56
235.817	157.56
236.051	143.56
236.285	139.56
236.519	152.56
236.753	167.56
236.987	148.56
237.221	145.56
237.455	150.56
237.689	168.56
237.922	160.56
238.156	154.56
238.39	157.56
238.624	157.56
238.858	157.56
239.091	133.56
239.325	161.56
239.559	168.56
239.793	169.56
240.027	168.56
240.26	163.56
240.494	182.56
240.728	183.56
240.961	178.56
241.195	171.56
241.429	169.56
241.662	181.56
241.896	178.56
242.13	180.56
242.363	181.56
242.597	180.56
242.83	178.56
243.064	166.56
243.298	170.56
243.531	180.56
243.765	179.56
243.998	198.56
244.232	185.56
244.465	191.56
244.699	176.56
244.932	192.56
245.166	200.56
245.399	203.56
245.633	205.56
245.866	193.56
246.099	203.56
246.333	189.56
246.566	200.56
246.8	201.56
247.033	204.56
247.266	195.56
247.5	189.56
247.733	205.56
247.966	215.56
248.2	216.56
248.433	212.56
248.666	214.56
248.899	200.56
249.133	220.56
249.366	206.56
249.599	224.56
249.832	203.56
250.066	221.56
250.299	210.56
250.532	221.56
250.765	219.56
250.998	231.56
251.231	233.56
251.465	238.56
251.698	234.56
251.931	239.56
252.164	227.56
252.397	242.56
252.63	237.56
252.863	241.56
253.096	231.56
253.329	246.56
253.562	236.56
253.795	260.56
254.028	242.56
254.261	238.56
254.494	236.56
254.727	240.56
254.96	261.56
255.193	264.56
255.426	261.56
255.659	241.56
255.892	264.56
256.124	252.56
256.357	258.56
256.59	266.56
256.823	264.56
257.056	292.56
257.289	268.56
257.521	276.56
257.754	275.56
257.987	266.56
258.22	280.56
258.452	259.56
258.685	260.56
258.918	258.56
259.151	281.56
259.383	274.56
259.616	274.56
259.849	274.56
260.081	273.56
260.314	290.56
260.547	260.56
260.779	298.56
261.012	291.56
261.244	302.56
261.477	297.56
261.71	285.56
261.942	293.56
262.175	300.56
262.407	284.56
262.64	304.56
262.872	296.56
263.105	304.56
263.337	314.56
263.57	302.56
263.802	299.56
264.035	302.56
264.267	292.56
264.499	309.56
264.732	301.56
264.964	301.56
265.197	328.56
265.429	308.56
265.661	306.56
265.894	320.56
266.126	310.56
266.358	311.56
266.591	330.56
266.823	322.56
267.055	318.56
267.287	330.56
267.52	312.56
267.752	318.56
267.984	320.56
268.216	341.56
268.448	325.56
268.681	332.56
268.913	325.56
269.145	328.56
269.377	335.56
269.609	326.56
269.841	343.56
270.073	315.56
270.306	338.56
270.538	334.56
270.77	358.56
271.002	361.56
271.234	347.56
271.466	352.56
271.698	341.56
271.93	361.56
272.162	362.56
272.394	352.56
272.626	339.56
272.858	349.56
273.09	355.56
273.322	376.56
273.553	370.56
273.785	345.56
274.017	335.56
274.249	358.56
274.481	384.56
274.713	373.56
274.945	365.56
275.176	378.56
275.408	348.56
275.64	374.56
275.872	374.56
276.104	374.56
276.335	361.56
276.567	370.56
276.799	394.56
277.031	388.56
277.262	391.56
277.494	389.56
277.726	389.56
277.957	392.56
278.189	401.56
278.421	376.56
278.652	379.56
278.884	390.56
279.115	396.56
279.347	393.56
279.579	382.56
279.81	392.56
280.042	405.56
280.273	408.56
280.505	404.56
280.736	410.56
280.968	387.56
281.199	405.56
281.431	418.56
281.662	416.56
281.894	442.56
282.125	408.56
282.356	397.56
282.588	414.56
282.819	411.56
283.051	433.56
283.282	397.56
283.513	404.56
283.745	412.56
283.976	421.56
284.207	416.56
284.439	430.56
284.67	441.56
284.901	424.56
285.132	437.56
285.364	434.56
285.595	443.56
285.826	424.56
286.057	442.56
286.288	429.56
286.52	416.56
286.751	432.56
286.982	427.56
287.213	450.56
287.444	464.56
287.675	432.56
287.906	467.56
288.138	444.56
288.369	463.56
288.6	451.56
288.831	443.56
289.062	446.56
289.293	467.56
289.524	451.56
289.755	461.56
289.986	474.56
290.217	467.56
290.448	457.56
290.679	455.56
290.91	454.56
291.141	470.56
291.371	457.56
291.602	433.56
291.833	468.56
292.064	458.56
292.295	457.56
292.526	469.56
292.757	468.56
292.987	461.56
293.218	459.56
293.449	470.56
293.68	454.56
293.91	478.56
294.141	466.56
294.372	459.56
294.603	470.56
294.833	479.56
295.064	482.56
295.295	493.56
295.525	474.56
295.756	485.56
295.987	462.56
296.217	493.56
296.448	478.56
296.679	483.56
296.909	489.56
297.14	478.56
297.37	486.56
297.601	493.56
297.831	492.56
298.062	498.56
298.292	480.56
298.523	515.56
298.753	511.56
298.984	491.56
299.214	495.56
299.445	508.56
299.675	524.56
299.905	537.56
300.136	530.56
300.366	534.56
300.597	530.56
300.827	549.56
301.057	519.56
301.288	524.56
301.518	510.56
301.748	533.56
301.979	536.56
302.209	523.56
302.439	542.56
302.669	532.56
302.9	526.56
303.13	544.56
303.36	534.56
303.59	540.56
303.82	537.56
304.051	555.56
304.281	564.56
304.511	540.56
304.741	551.56
304.971	562.56
305.201	557.56
305.431	574.56
305.661	574.56
305.891	546.56
306.121	540.56
306.352	540.56
306.582	535.56
306.812	525.56
307.042	543.56
307.272	514.56
307.502	539.56
307.731	532.56
307.961	527.56
308.191	553.56
308.421	535.56
308.651	564.56
308.881	540.56
309.111	532.56
309.341	528.56
309.571	510.56
309.8	554.56
310.03	562.56
310.26	568.56
310.49	548.56
310.72	553.56
310.949	538.56
311.179	543.56
311.409	549.56
311.639	550.56
311.868	540.56
312.098	572.56
312.328	582.56
312.557	569.56
312.787	566.56
313.017	577.56
313.246	585.56
313.476	585.56
313.706	571.56
313.935	581.56
314.165	570.56
314.394	582.56
314.624	576.56
314.853	574.56
315.083	586.56
315.312	578.56
315.542	589.56
315.771	566.56
316.001	587.56
316.23	574.56
316.46	578.56
316.689	570.56
316.919	580.56
317.148	593.56
317.377	586.56
317.607	570.56
317.836	584.56
318.065	580.56
318.295	576.56
318.524	572.56
318.753	605.56
318.983	601.56
319.212	581.56
319.441	568.56
319.67	601.56
319.9	587.56
320.129	586.56
320.358	581.56
320.587	604.56
320.816	579.56
321.046	611.56
321.275	574.56
321.504	593.56
321.733	586.56
321.962	613.56
322.191	596.56
322.42	577.56
322.649	597.56
322.878	580.56
323.108	593.56
323.337	596.56
323.566	602.56
323.795	613.56
324.024	603.56
324.253	601.56
324.482	603.56
324.71	629.56
324.939	644.56
325.168	616.56
325.397	596.56
325.626	626.56
325.855	624.56
326.084	629.56
326.313	634.56
326.542	619.56
326.77	625.56
326.999	626.56
327.228	628.56
327.457	643.56
327.686	630.56
327.914	618.56
328.143	656.56
328.372	632.56
328.6	669.56
328.829	617.56
329.058	641.56
329.287	632.56
329.515	644.56
329.744	622.56
329.972	620.56
330.201	627.56
330.43	628.56
330.658	621.56
330.887	651.56
331.115	640.56
331.344	664.56
331.572	664.56
331.801	664.56
332.03	657.56
332.258	677.56
332.486	676.56
332.715	704.56
332.943	722.56
333.172	724.56
333.4	741.56
333.629	733.56
333.857	729.56
334.085	746.56
334.314	755.56
334.542	742.56
334.771	756.56
334.999	729.56
335.227	775.56
335.455	752.56
335.684	732.56
335.912	749.56
336.14	745.56
336.369	740.56
336.597	741.56
336.825	737.56
337.053	765.56
337.281	738.56
337.51	746.56
337.738	723.56
337.966	714.56
338.194	705.56
338.422	701.56
338.65	702.56
338.878	696.56
339.106	683.56
339.334	694.56
339.562	690.56
339.79	673.56
340.018	660.56
340.246	678.56
340.474	670.56
340.702	651.56
340.93	644.56
341.158	680.56
341.386	660.56
341.614	718.56
341.842	702.56
342.07	675.56
342.298	662.56
342.526	684.56
342.754	678.56
342.981	661.56
343.209	670.56
343.437	700.56
343.665	711.56
343.893	725.56
344.12	769.56
344.348	702.56
344.576	715.56
344.804	725.56
345.031	686.56
345.259	681.56
345.487	662.56
345.714	679.56
345.942	692.56
346.17	708.56
346.397	674.56
346.625	664.56
346.853	643.56
347.08	642.56
347.308	631.56
347.535	634.56
347.763	614.56
347.99	649.56
348.218	628.56
348.445	646.56
348.673	633.56
348.9	643.56
349.128	640.56
349.355	637.56
349.583	650.56
349.81	641.56
350.037	644.56
350.265	634.56
350.492	615.56
350.72	624.56
350.947	633.56
351.174	639.56
351.402	640.56
351.629	666.56
351.856	650.56
352.083	634.56
352.311	616.56
352.538	658.56
352.765	653.56
352.992	604.56
353.22	598.56
353.447	596.56
353.674	597.56
353.901	615.56
354.128	615.56
354.355	595.56
354.583	601.56
354.81	596.56
355.037	617.56
355.264	622.56
355.491	623.56
355.718	588.56
355.945	600.56
356.172	624.56
356.399	582.56
356.626	624.56
356.853	638.56
357.08	606.56
357.307	617.56
357.534	623.56
357.761	610.56
357.988	602.56
358.215	597.56
358.441	614.56
358.668	582.56
358.895	615.56
359.122	594.56
359.349	590.56
359.576	612.56
359.802	605.56
360.029	612.56
360.256	572.56
360.483	591.56
360.709	604.56
360.936	613.56
361.163	608.56
361.39	613.56
361.616	619.56
361.843	621.56
362.07	645.56
362.296	640.56
362.523	610.56
362.749	590.56
362.976	596.56
363.203	585.56
363.429	594.56
363.656	626.56
363.882	601.56
364.109	609.56
364.335	587.56
364.562	579.56
364.788	606.56
365.015	589.56
365.241	583.56
365.468	617.56
365.694	574.56
365.92	596.56
366.147	600.56
366.373	578.56
366.599	593.56
366.826	578.56
367.052	589.56
367.278	604.56
367.505	594.56
367.731	609.56
367.957	601.56
368.184	583.56
368.41	566.56
368.636	581.56
368.862	580.56
369.089	608.56
369.315	621.56
369.541	599.56
369.767	598.56
369.993	613.56
370.219	618.56
370.445	616.56
370.672	592.56
370.898	630.56
371.124	620.56
371.35	644.56
371.576	624.56
371.802	612.56
372.028	621.56
372.254	612.56
372.48	624.56
372.706	621.56
372.932	631.56
373.158	636.56
373.384	637.56
373.61	631.56
373.835	617.56
374.061	625.56
374.287	608.56
374.513	635.56
374.739	664.56
374.965	658.56
375.191	675.56
375.416	666.56
375.642	637.56
375.868	635.56
376.094	639.56
376.319	608.56
376.545	626.56
376.771	604.56
376.997	640.56
377.222	630.56
377.448	621.56
377.674	605.56
377.899	636.56
378.125	605.56
378.35	627.56
378.576	638.56
378.802	618.56
379.027	599.56
379.253	627.56
379.478	615.56
379.704	586.56
379.929	608.56
380.155	616.56
380.38	605.56
380.606	604.56
380.831	587.56
381.057	624.56
381.282	581.56
381.507	621.56
381.733	605.56
381.958	621.56
382.184	621.56
382.409	640.56
382.634	636.56
382.86	599.56
383.085	644.56
383.31	623.56
383.535	660.56
383.761	651.56
383.986	640.56
384.211	650.56
384.436	650.56
384.662	678.56
384.887	647.56
385.112	692.56
385.337	685.56
385.562	664.56
385.787	689.56
386.013	705.56
386.238	703.56
386.463	663.56
386.688	673.56
386.913	691.56
387.138	704.56
387.363	696.56
387.588	665.56
387.813	706.56
388.038	690.56
388.263	701.56
388.488	674.56
388.713	678.56
388.938	686.56
389.163	686.56
389.387	685.56
389.612	701.56
389.837	713.56
390.062	684.56
390.287	680.56
390.512	696.56
390.736	688.56
390.961	698.56
391.186	716.56
391.411	709.56
391.636	767.56
391.86	741.56
392.085	745.56
392.31	784.56
392.534	746.56
392.759	768.56
392.984	742.56
393.208	743.56
393.433	717.56
393.658	694.56
393.882	713.56
394.107	716.56
394.331	724.56
394.556	723.56
394.78	724.56
395.005	732.56
395.229	747.56
395.454	755.56
395.678	734.56
395.903	748.56
396.127	760.56
396.352	745.56
396.576	737.56
396.801	749.56
397.025	757.56
397.249	773.56
397.474	771.56
397.698	773.56
397.922	763.56
398.147	750.56
398.371	794.56
398.595	824.56
398.82	828.56
399.044	852.56
399.268	934.56
399.492	995.56
399.717	1067.56
399.941	1058.56
400.165	1005.56
400.389	952.56
400.613	891.56
400.837	844.56
401.062	859.56
401.286	843.56
401.51	825.56
401.734	817.56
401.958	833.56
402.182	866.56
402.406	846.56
402.63	823.56
402.854	865.56
403.078	872.56
403.302	884.56
403.526	887.56
403.75	889.56
403.974	897.56
404.198	888.56
404.422	907.56
404.645	911.56
404.869	877.56
405.093	898.56
405.317	893.56
405.541	892.56
405.765	885.56
405.988	897.56
406.212	892.56
406.436	920.56
406.66	930.56
406.883	953.56
407.107	978.56
407.331	1007.56
407.555	1001.56
407.778	1023.56
408.002	989.56
408.226	976.56
408.449	965.56
408.673	980.56
408.896	953.56
409.12	940.56
409.344	924.56
409.567	952.56
409.791	952.56
410.014	919.56
410.238	904.56
410.461	932.56
410.685	906.56
410.908	910.56
411.132	923.56
411.355	910.56
411.578	878.56
411.802	877.56
412.025	909.56
412.249	906.56
412.472	919.56
412.695	876.56
412.919	848.56
413.142	866.56
413.365	880.56
413.589	852.56
413.812	855.56
414.035	844.56
414.258	866.56
414.482	860.56
414.705	867.56
414.928	870.56
415.151	871.56
415.374	889.56
415.597	867.56
415.821	833.56
416.044	834.56
416.267	834.56
416.49	861.56
416.713	844.56
416.936	853.56
417.159	818.56
417.382	794.56
417.605	830.56
417.828	837.56
418.051	860.56
418.274	858.56
418.497	842.56
418.72	842.56
418.943	860.56
419.166	896.56
419.389	966.56
419.611	935.56
419.834	902.56
420.057	898.56
420.28	874.56
420.503	836.56
420.726	832.56
420.948	827.56
421.171	837.56
421.394	839.56
421.617	850.56
421.839	845.56
422.062	872.56
422.285	820.56
422.507	898.56
422.73	871.56
422.953	866.56
423.175	892.56
423.398	869.56
423.621	868.56
423.843	877.56
424.066	864.56
424.288	866.56
424.511	852.56
424.733	877.56
424.956	861.56
425.178	855.56
425.401	859.56
425.623	902.56
425.846	847.56
426.068	864.56
426.291	856.56
426.513	851.56
426.735	837.56
426.958	825.56
427.18	802.56
427.402	834.56
427.625	814.56
427.847	785.56
428.069	810.56
428.292	821.56
428.514	808.56
428.736	840.56
428.958	819.56
429.181	809.56
429.403	802.56
429.625	833.56
429.847	797.56
430.069	823.56
430.292	813.56
430.514	787.56
430.736	820.56
430.958	820.56
431.18	820.56
431.402	819.56
431.624	821.56
431.846	785.56
432.068	804.56
432.29	829.56
432.512	836.56
432.734	814.56
432.956	814.56
433.178	845.56
433.4	866.56
433.622	857.56
433.844	862.56
434.066	868.56
434.287	826.56
434.509	842.56
434.731	892.56
434.953	887.56
435.175	896.56
435.397	925.56
435.618	861.56
435.84	848.56
436.062	824.56
436.284	845.56
436.505	814.56
436.727	861.56
436.949	816.56
437.17	820.56
437.392	839.56
437.614	820.56
437.835	824.56
438.057	795.56
438.278	796.56
438.5	823.56
438.721	803.56
438.943	838.56
439.165	830.56
439.386	818.56
439.608	814.56
439.829	824.56
440.05	828.56
440.272	828.56
440.493	846.56
440.715	832.56
440.936	856.56
441.158	874.56
441.379	864.56
441.6	916.56
441.822	907.56
442.043	913.56
442.264	890.56
442.486	871.56
442.707	896.56
442.928	854.56
443.149	905.56
443.371	880.56
443.592	926.56
443.813	921.56
444.034	905.56
444.255	934.56
444.476	955.56
444.698	993.56
444.919	1027.56
445.14	1106.56
445.361	1036.56
445.582	951.56
445.803	895.56
446.024	899.56
446.245	875.56
446.466	851.56
446.687	828.56
446.908	851.56
447.129	855.56
447.35	828.56
447.571	824.56
447.792	809.56
448.013	828.56
448.234	797.56
448.455	803.56
448.675	785.56
448.896	789.56
449.117	778.56
449.338	803.56
449.559	787.56
449.779	761.56
450	780.56
450.221	807.56
450.442	788.56
450.662	799.56
450.883	818.56
451.104	818.56
451.324	800.56
451.545	788.56
451.766	773.56
451.986	766.56
452.207	778.56
452.428	772.56
452.648	767.56
452.869	780.56
453.089	763.56
453.31	772.56
453.53	769.56
453.751	759.56
453.971	758.56
454.192	757.56
454.412	773.56
454.633	760.56
454.853	756.56
455.073	739.56
455.294	754.56
455.514	752.56
455.734	756.56
455.955	736.56
456.175	764.56
456.395	729.56
456.616	747.56
456.836	739.56
457.056	746.56
457.276	728.56
457.497	752.56
457.717	785.56
457.937	786.56
458.157	757.56
458.377	779.56
458.598	770.56
458.818	768.56
459.038	812.56
459.258	803.56
459.478	868.56
459.698	919.56
459.918	900.56
460.138	892.56
460.358	898.56
460.578	927.56
460.798	940.56
461.018	963.56
461.238	936.56
461.458	957.56
461.678	932.56
461.898	963.56
462.118	974.56
462.338	1005.56
462.558	1000.56
462.777	1081.56
462.997	1102.56
463.217	1158.56
463.437	1155.56
463.657	1086.56
463.876	1078.56
464.096	1051.56
464.316	1034.56
464.536	1076.56
464.755	1022.56
464.975	1004.56
465.195	970.56
465.414	944.56
465.634	889.56
465.854	877.56
466.073	874.56
466.293	856.56
466.512	842.56
466.732	839.56
466.951	833.56
467.171	844.56
467.391	833.56
467.61	825.56
467.829	833.56
468.049	818.56
468.268	794.56
468.488	812.56
468.707	834.56
468.927	806.56
469.146	807.56
469.365	827.56
469.585	832.56
469.804	858.56
470.023	870.56
470.243	837.56
470.462	845.56
470.681	881.56
470.901	855.56
471.12	832.56
471.339	838.56
471.558	850.56
471.777	868.56
471.997	826.56
472.216	819.56
472.435	824.56
472.654	802.56
472.873	804.56
473.092	799.56
473.311	786.56
473.53	830.56
473.749	825.56
473.968	815.56
474.187	818.56
474.406	817.56
474.625	839.56
474.844	812.56
475.063	814.56
475.282	845.56
475.501	827.56
475.72	832.56
475.939	848.56
476.158	859.56
476.377	848.56
476.596	859.56
476.814	868.56
477.033	850.56
477.252	871.56
477.471	880.56
477.69	872.56
477.908	943.56
478.127	935.56
478.346	960.56
478.564	955.56
478.783	988.56
479.002	980.56
479.22	983.56
479.439	974.56
479.658	985.56
479.876	989.56
480.095	970.56
480.313	1002.56
480.532	1025.56
480.751	1020.56
480.969	984.56
481.188	965.56
481.406	941.56
481.624	963.56
481.843	960.56
482.061	973.56
482.28	931.56
482.498	926.56
482.717	953.56
482.935	950.56
483.153	963.56
483.372	953.56
483.59	950.56
483.808	982.56
484.027	951.56
484.245	943.56
484.463	960.56
484.681	984.56
484.9	964.56
485.118	989.56
485.336	941.56
485.554	965.56
485.772	997.56
485.99	995.56
486.209	984.56
486.427	986.56
486.645	977.56
486.863	981.56
487.081	999.56
487.299	979.56
487.517	1003.56
487.735	990.56
487.953	1001.56
488.171	999.56
488.389	989.56
488.607	980.56
488.825	967.56
489.043	950.56
489.261	974.56
489.479	992.56
489.696	985.56
489.914	969.56
490.132	969.56
490.35	994.56
490.568	1032.56
490.786	1005.56
491.003	1032.56
491.221	1021.56
491.439	1021.56
491.657	1045.56
491.874	1042.56
492.092	1052.56
492.31	1058.56
492.527	1039.56
492.745	1046.56
492.963	1048.56
493.18	1027.56
493.398	1059.56
493.615	1046.56
493.833	1058.56
494.05	1066.56
494.268	1047.56
494.485	1034.56
494.703	1056.56
494.92	1052.56
495.138	1069.56
495.355	1078.56
495.573	1042.56
495.79	1064.56
496.008	1104.56
496.225	1089.56
496.442	1078.56
496.66	1130.56
496.877	1131.56
497.094	1120.56
497.312	1151.56
497.529	1153.56
497.746	1145.56
497.963	1202.56
498.181	1244.56
498.398	1240.56
498.615	1313.56
498.832	1372.56
499.049	1447.56
499.267	1502.56
499.484	1588.56
499.701	1683.56
499.918	1828.56
500.135	1978.56
500.352	2070.56
500.569	2135.56
