Data from NiCl2@0.125M.TitratingCurve.Agarose3%dH2O.NegLispCup.LampEnergy10.LIBS07252019_HRD10591_18-27-35-574.txt Node
Date: Thu Jul 25 18:27:35 EDT 2019
User: cochatt
Spectrometer: HR+D1059
Trigger mode: 1
Integration Time (sec): 1.000000E-1
Scans to average: 1
Electric dark correction enabled: true
Nonlinearity correction enabled: false
Boxcar width: 0
XAxis mode: Wavelengths
Number of Pixels in Spectrum: 2048
>>>>>Begin Spectral Data<<<<<
223.165	-19.69
223.4	-19.69
223.635	-19.69
223.869	-6.69
224.104	-7.69
224.338	-18.69
224.573	-14.69
224.808	-14.69
225.042	-2.69
225.277	-21.69
225.511	8.31
225.746	-2.69
225.98	5.31
226.215	3.31
226.449	21.31
226.683	18.31
226.918	30.31
227.152	22.31
227.387	30.31
227.621	36.31
227.856	45.31
228.09	45.31
228.324	58.31
228.559	43.31
228.793	63.31
229.027	101.31
229.262	101.31
229.496	100.31
229.73	110.31
229.964	103.31
230.199	111.31
230.433	120.31
230.667	121.31
230.901	95.31
231.136	120.31
231.37	124.31
231.604	127.31
231.838	129.31
232.072	115.31
232.306	139.31
232.541	114.31
232.775	127.31
233.009	121.31
233.243	133.31
233.477	120.31
233.711	126.31
233.945	151.31
234.179	135.31
234.413	145.31
234.647	129.31
234.881	126.31
235.115	135.31
235.349	129.31
235.583	133.31
235.817	131.31
236.051	117.31
236.285	115.31
236.519	134.31
236.753	151.31
236.987	137.31
237.221	139.31
237.455	147.31
237.689	124.31
237.922	119.31
238.156	139.31
238.39	153.31
238.624	141.31
238.858	148.31
239.091	137.31
239.325	147.31
239.559	161.31
239.793	149.31
240.027	146.31
240.26	152.31
240.494	156.31
240.728	171.31
240.961	160.31
241.195	153.31
241.429	150.31
241.662	153.31
241.896	170.31
242.13	167.31
242.363	152.31
242.597	177.31
242.83	167.31
243.064	155.31
243.298	175.31
243.531	166.31
243.765	164.31
243.998	172.31
244.232	175.31
244.465	183.31
244.699	180.31
244.932	186.31
245.166	173.31
245.399	189.31
245.633	186.31
245.866	175.31
246.099	183.31
246.333	177.31
246.566	170.31
246.8	180.31
247.033	181.31
247.266	187.31
247.5	177.31
247.733	191.31
247.966	174.31
248.2	187.31
248.433	203.31
248.666	202.31
248.899	197.31
249.133	181.31
249.366	214.31
249.599	211.31
249.832	211.31
250.066	205.31
250.299	199.31
250.532	210.31
250.765	219.31
250.998	200.31
251.231	198.31
251.465	209.31
251.698	228.31
251.931	209.31
252.164	212.31
252.397	227.31
252.63	234.31
252.863	221.31
253.096	223.31
253.329	218.31
253.562	219.31
253.795	234.31
254.028	247.31
254.261	228.31
254.494	232.31
254.727	236.31
254.96	248.31
255.193	233.31
255.426	233.31
255.659	225.31
255.892	215.31
256.124	226.31
256.357	227.31
256.59	243.31
256.823	244.31
257.056	253.31
257.289	251.31
257.521	245.31
257.754	238.31
257.987	241.31
258.22	245.31
258.452	235.31
258.685	245.31
258.918	256.31
259.151	229.31
259.383	229.31
259.616	243.31
259.849	236.31
260.081	239.31
260.314	252.31
260.547	247.31
260.779	270.31
261.012	261.31
261.244	267.31
261.477	269.31
261.71	251.31
261.942	272.31
262.175	272.31
262.407	264.31
262.64	273.31
262.872	275.31
263.105	260.31
263.337	266.31
263.57	273.31
263.802	261.31
264.035	273.31
264.267	271.31
264.499	290.31
264.732	278.31
264.964	269.31
265.197	293.31
265.429	281.31
265.661	274.31
265.894	281.31
266.126	270.31
266.358	285.31
266.591	288.31
266.823	304.31
267.055	279.31
267.287	281.31
267.52	282.31
267.752	298.31
267.984	286.31
268.216	312.31
268.448	295.31
268.681	309.31
268.913	296.31
269.145	289.31
269.377	313.31
269.609	297.31
269.841	305.31
270.073	290.31
270.306	291.31
270.538	310.31
270.77	311.31
271.002	302.31
271.234	307.31
271.466	299.31
271.698	291.31
271.93	321.31
272.162	322.31
272.394	323.31
272.626	316.31
272.858	310.31
273.09	309.31
273.322	329.31
273.553	316.31
273.785	303.31
274.017	316.31
274.249	339.31
274.481	337.31
274.713	332.31
274.945	318.31
275.176	322.31
275.408	340.31
275.64	323.31
275.872	339.31
276.104	349.31
276.335	330.31
276.567	345.31
276.799	336.31
277.031	343.31
277.262	348.31
277.494	350.31
277.726	345.31
277.957	343.31
278.189	335.31
278.421	335.31
278.652	345.31
278.884	350.31
279.115	342.31
279.347	383.31
279.579	347.31
279.81	350.31
280.042	339.31
280.273	355.31
280.505	368.31
280.736	349.31
280.968	373.31
281.199	361.31
281.431	356.31
281.662	355.31
281.894	363.31
282.125	363.31
282.356	377.31
282.588	370.31
282.819	377.31
283.051	381.31
283.282	378.31
283.513	365.31
283.745	356.31
283.976	381.31
284.207	391.31
284.439	373.31
284.67	382.31
284.901	409.31
285.132	394.31
285.364	402.31
285.595	416.31
285.826	393.31
286.057	414.31
286.288	379.31
286.52	396.31
286.751	391.31
286.982	417.31
287.213	406.31
287.444	407.31
287.675	419.31
287.906	411.31
288.138	404.31
288.369	412.31
288.6	401.31
288.831	420.31
289.062	390.31
289.293	420.31
289.524	395.31
289.755	409.31
289.986	407.31
290.217	413.31
290.448	417.31
290.679	411.31
290.91	400.31
291.141	408.31
291.371	394.31
291.602	417.31
291.833	415.31
292.064	417.31
292.295	412.31
292.526	444.31
292.757	427.31
292.987	427.31
293.218	429.31
293.449	436.31
293.68	439.31
293.91	421.31
294.141	408.31
294.372	435.31
294.603	435.31
294.833	431.31
295.064	435.31
295.295	419.31
295.525	430.31
295.756	438.31
295.987	431.31
296.217	435.31
296.448	437.31
296.679	454.31
296.909	427.31
297.14	420.31
297.37	472.31
297.601	448.31
297.831	428.31
298.062	464.31
298.292	447.31
298.523	467.31
298.753	482.31
298.984	480.31
299.214	459.31
299.445	469.31
299.675	462.31
299.905	465.31
300.136	458.31
300.366	472.31
300.597	448.31
300.827	469.31
301.057	459.31
301.288	481.31
301.518	467.31
301.748	484.31
301.979	504.31
302.209	488.31
302.439	482.31
302.669	474.31
302.9	484.31
303.13	489.31
303.36	481.31
303.59	478.31
303.82	453.31
304.051	486.31
304.281	469.31
304.511	496.31
304.741	476.31
304.971	478.31
305.201	490.31
305.431	455.31
305.661	460.31
305.891	462.31
306.121	475.31
306.352	498.31
306.582	484.31
306.812	453.31
307.042	468.31
307.272	458.31
307.502	478.31
307.731	474.31
307.961	461.31
308.191	471.31
308.421	461.31
308.651	463.31
308.881	456.31
309.111	459.31
309.341	481.31
309.571	473.31
309.8	459.31
310.03	462.31
310.26	482.31
310.49	478.31
310.72	476.31
310.949	462.31
311.179	468.31
311.409	484.31
311.639	491.31
311.868	478.31
312.098	494.31
312.328	513.31
312.557	482.31
312.787	476.31
313.017	483.31
313.246	480.31
313.476	491.31
313.706	506.31
313.935	486.31
314.165	501.31
314.394	501.31
314.624	515.31
314.853	478.31
315.083	515.31
315.312	489.31
315.542	494.31
315.771	499.31
316.001	513.31
316.23	513.31
316.46	503.31
316.689	489.31
316.919	490.31
317.148	493.31
317.377	497.31
317.607	485.31
317.836	511.31
318.065	485.31
318.295	493.31
318.524	479.31
318.753	486.31
318.983	482.31
319.212	518.31
319.441	480.31
319.67	485.31
319.9	508.31
320.129	498.31
320.358	514.31
320.587	492.31
320.816	481.31
321.046	489.31
321.275	478.31
321.504	509.31
321.733	494.31
321.962	517.31
322.191	514.31
322.42	535.31
322.649	502.31
322.878	491.31
323.108	491.31
323.337	500.31
323.566	509.31
323.795	517.31
324.024	514.31
324.253	499.31
324.482	515.31
324.71	505.31
324.939	522.31
325.168	535.31
325.397	519.31
325.626	518.31
325.855	526.31
326.084	555.31
326.313	537.31
326.542	528.31
326.77	533.31
326.999	515.31
327.228	534.31
327.457	519.31
327.686	530.31
327.914	527.31
328.143	558.31
328.372	562.31
328.6	543.31
328.829	527.31
329.058	539.31
329.287	563.31
329.515	555.31
329.744	531.31
329.972	564.31
330.201	557.31
330.43	557.31
330.658	549.31
330.887	577.31
331.115	562.31
331.344	553.31
331.572	579.31
331.801	570.31
332.03	576.31
332.258	590.31
332.486	636.31
332.715	618.31
332.943	663.31
333.172	656.31
333.4	691.31
333.629	729.31
333.857	729.31
334.085	737.31
334.314	713.31
334.542	735.31
334.771	680.31
334.999	682.31
335.227	690.31
335.455	684.31
335.684	675.31
335.912	645.31
336.14	669.31
336.369	653.31
336.597	654.31
336.825	649.31
337.053	654.31
337.281	635.31
337.51	633.31
337.738	628.31
337.966	598.31
338.194	585.31
338.422	594.31
338.65	580.31
338.878	573.31
339.106	591.31
339.334	597.31
339.562	592.31
339.79	575.31
340.018	572.31
340.246	565.31
340.474	556.31
340.702	571.31
340.93	574.31
341.158	567.31
341.386	572.31
341.614	568.31
341.842	575.31
342.07	569.31
342.298	567.31
342.526	569.31
342.754	566.31
342.981	558.31
343.209	573.31
343.437	613.31
343.665	634.31
343.893	677.31
344.12	697.31
344.348	691.31
344.576	645.31
344.804	636.31
345.031	601.31
345.259	582.31
345.487	591.31
345.714	572.31
345.942	577.31
346.17	555.31
346.397	550.31
346.625	561.31
346.853	552.31
347.08	535.31
347.308	557.31
347.535	550.31
347.763	564.31
347.99	563.31
348.218	565.31
348.445	556.31
348.673	534.31
348.9	540.31
349.128	574.31
349.355	557.31
349.583	556.31
349.81	533.31
350.037	550.31
350.265	525.31
350.492	563.31
350.72	528.31
350.947	533.31
351.174	535.31
351.402	541.31
351.629	527.31
351.856	544.31
352.083	518.31
352.311	516.31
352.538	547.31
352.765	530.31
352.992	518.31
353.22	515.31
353.447	521.31
353.674	529.31
353.901	524.31
354.128	497.31
354.355	511.31
354.583	532.31
354.81	547.31
355.037	533.31
355.264	535.31
355.491	523.31
355.718	519.31
355.945	523.31
356.172	540.31
356.399	515.31
356.626	533.31
356.853	541.31
357.08	546.31
357.307	533.31
357.534	547.31
357.761	541.31
357.988	531.31
358.215	531.31
358.441	543.31
358.668	533.31
358.895	535.31
359.122	514.31
359.349	527.31
359.576	539.31
359.802	536.31
360.029	554.31
360.256	561.31
360.483	541.31
360.709	530.31
360.936	555.31
361.163	539.31
361.39	524.31
361.616	531.31
361.843	545.31
362.07	544.31
362.296	576.31
362.523	548.31
362.749	540.31
362.976	522.31
363.203	530.31
363.429	543.31
363.656	532.31
363.882	541.31
364.109	514.31
364.335	547.31
364.562	525.31
364.788	554.31
365.015	550.31
365.241	540.31
365.468	531.31
365.694	527.31
365.92	528.31
366.147	516.31
366.373	540.31
366.599	521.31
366.826	519.31
367.052	519.31
367.278	527.31
367.505	530.31
367.731	526.31
367.957	541.31
368.184	532.31
368.41	535.31
368.636	543.31
368.862	562.31
369.089	537.31
369.315	541.31
369.541	568.31
369.767	541.31
369.993	561.31
370.219	563.31
370.445	559.31
370.672	556.31
370.898	572.31
371.124	561.31
371.35	583.31
371.576	562.31
371.802	579.31
372.028	580.31
372.254	597.31
372.48	575.31
372.706	583.31
372.932	593.31
373.158	604.31
373.384	572.31
373.61	583.31
373.835	573.31
374.061	573.31
374.287	589.31
374.513	612.31
374.739	611.31
374.965	632.31
375.191	659.31
375.416	626.31
375.642	613.31
375.868	627.31
376.094	613.31
376.319	599.31
376.545	589.31
376.771	588.31
376.997	591.31
377.222	569.31
377.448	559.31
377.674	579.31
377.899	577.31
378.125	540.31
378.35	554.31
378.576	551.31
378.802	573.31
379.027	567.31
379.253	557.31
379.478	567.31
379.704	561.31
379.929	575.31
380.155	570.31
380.38	597.31
380.606	585.31
380.831	559.31
381.057	606.31
381.282	598.31
381.507	577.31
381.733	569.31
381.958	584.31
382.184	568.31
382.409	599.31
382.634	604.31
382.86	601.31
383.085	622.31
383.31	600.31
383.535	610.31
383.761	601.31
383.986	616.31
384.211	642.31
384.436	672.31
384.662	675.31
384.887	659.31
385.112	678.31
385.337	691.31
385.562	705.31
385.787	705.31
386.013	693.31
386.238	694.31
386.463	704.31
386.688	715.31
386.913	678.31
387.138	665.31
387.363	690.31
387.588	695.31
387.813	686.31
388.038	697.31
388.263	704.31
388.488	700.31
388.713	675.31
388.938	698.31
389.163	678.31
389.387	662.31
389.612	675.31
389.837	684.31
390.062	669.31
390.287	671.31
390.512	675.31
390.736	669.31
390.961	712.31
391.186	730.31
391.411	727.31
391.636	748.31
391.86	741.31
392.085	777.31
392.31	793.31
392.534	758.31
392.759	784.31
392.984	748.31
393.208	741.31
393.433	727.31
393.658	749.31
393.882	730.31
394.107	729.31
394.331	759.31
394.556	729.31
394.78	748.31
395.005	739.31
395.229	739.31
395.454	757.31
395.678	773.31
395.903	777.31
396.127	752.31
396.352	783.31
396.576	746.31
396.801	766.31
397.025	742.31
397.249	777.31
397.474	765.31
397.698	769.31
397.922	795.31
398.147	814.31
398.371	791.31
398.595	827.31
398.82	878.31
399.044	929.31
399.268	982.31
399.492	1142.31
399.717	1238.31
399.941	1245.31
400.165	1225.31
400.389	1107.31
400.613	1003.31
400.837	1001.31
401.062	938.31
401.286	919.31
401.51	852.31
401.734	866.31
401.958	878.31
402.182	901.31
402.406	919.31
402.63	898.31
402.854	910.31
403.078	952.31
403.302	947.31
403.526	940.31
403.75	969.31
403.974	998.31
404.198	963.31
404.422	982.31
404.645	967.31
404.869	975.31
405.093	967.31
405.317	965.31
405.541	949.31
405.765	962.31
405.988	964.31
406.212	964.31
406.436	978.31
406.66	1013.31
406.883	1017.31
407.107	1022.31
407.331	1097.31
407.555	1123.31
407.778	1093.31
408.002	1095.31
408.226	1073.31
408.449	1041.31
408.673	1014.31
408.896	987.31
409.12	961.31
409.344	996.31
409.567	974.31
409.791	985.31
410.014	947.31
410.238	966.31
410.461	957.31
410.685	956.31
410.908	924.31
411.132	936.31
411.355	914.31
411.578	887.31
411.802	914.31
412.025	923.31
412.249	948.31
412.472	929.31
412.695	898.31
412.919	887.31
413.142	901.31
413.365	909.31
413.589	889.31
413.812	862.31
414.035	856.31
414.258	882.31
414.482	861.31
414.705	897.31
414.928	897.31
415.151	885.31
415.374	897.31
415.597	892.31
415.821	848.31
416.044	835.31
416.267	863.31
416.49	877.31
416.713	854.31
416.936	840.31
417.159	860.31
417.382	850.31
417.605	834.31
417.828	851.31
418.051	873.31
418.274	888.31
418.497	866.31
418.72	906.31
418.943	902.31
419.166	941.31
419.389	1031.31
419.611	1004.31
419.834	961.31
420.057	931.31
420.28	892.31
420.503	886.31
420.726	874.31
420.948	893.31
421.171	864.31
421.394	871.31
421.617	851.31
421.839	875.31
422.062	876.31
422.285	879.31
422.507	873.31
422.73	887.31
422.953	895.31
423.175	890.31
423.398	871.31
423.621	899.31
423.843	895.31
424.066	875.31
424.288	885.31
424.511	875.31
424.733	894.31
424.956	881.31
425.178	871.31
425.401	879.31
425.623	845.31
425.846	849.31
426.068	864.31
426.291	861.31
426.513	850.31
426.735	830.31
426.958	820.31
427.18	783.31
427.402	835.31
427.625	835.31
427.847	817.31
428.069	810.31
428.292	807.31
428.514	790.31
428.736	762.31
428.958	801.31
429.181	785.31
429.403	777.31
429.625	777.31
429.847	773.31
430.069	767.31
430.292	759.31
430.514	792.31
430.736	765.31
430.958	774.31
431.18	753.31
431.402	774.31
431.624	748.31
431.846	772.31
432.068	779.31
432.29	789.31
432.512	776.31
432.734	791.31
432.956	790.31
433.178	788.31
433.4	786.31
433.622	800.31
433.844	820.31
434.066	814.31
434.287	819.31
434.509	831.31
434.731	873.31
434.953	869.31
435.175	857.31
435.397	876.31
435.618	856.31
435.84	825.31
436.062	797.31
436.284	805.31
436.505	797.31
436.727	799.31
436.949	789.31
437.17	794.31
437.392	758.31
437.614	773.31
437.835	777.31
438.057	747.31
438.278	737.31
438.5	756.31
438.721	763.31
438.943	759.31
439.165	748.31
439.386	765.31
439.608	795.31
439.829	767.31
440.05	794.31
440.272	794.31
440.493	814.31
440.715	836.31
440.936	837.31
441.158	834.31
441.379	867.31
441.6	873.31
441.822	883.31
442.043	889.31
442.264	915.31
442.486	866.31
442.707	877.31
442.928	866.31
443.149	835.31
443.371	875.31
443.592	895.31
443.813	913.31
444.034	886.31
444.255	920.31
444.476	981.31
444.698	994.31
444.919	1029.31
445.14	1133.31
445.361	1019.31
445.582	959.31
445.803	877.31
446.024	863.31
446.245	852.31
446.466	871.31
446.687	820.31
446.908	812.31
447.129	804.31
447.35	800.31
447.571	784.31
447.792	756.31
448.013	761.31
448.234	765.31
448.455	765.31
448.675	774.31
448.896	735.31
449.117	725.31
449.338	739.31
449.559	724.31
449.779	728.31
450	726.31
450.221	756.31
450.442	734.31
450.662	733.31
450.883	767.31
451.104	753.31
451.324	719.31
451.545	718.31
451.766	761.31
451.986	749.31
452.207	743.31
452.428	716.31
452.648	721.31
452.869	691.31
453.089	695.31
453.31	704.31
453.53	715.31
453.751	701.31
453.971	715.31
454.192	691.31
454.412	706.31
454.633	725.31
454.853	713.31
455.073	695.31
455.294	693.31
455.514	677.31
455.734	697.31
455.955	681.31
456.175	679.31
456.395	674.31
456.616	656.31
456.836	685.31
457.056	698.31
457.276	680.31
457.497	699.31
457.717	679.31
457.937	668.31
458.157	707.31
458.377	691.31
458.598	713.31
458.818	723.31
459.038	764.31
459.258	805.31
459.478	791.31
459.698	829.31
459.918	861.31
460.138	882.31
460.358	901.31
460.578	934.31
460.798	918.31
461.018	965.31
461.238	941.31
461.458	931.31
461.678	939.31
461.898	970.31
462.118	980.31
462.338	970.31
462.558	1038.31
462.777	1045.31
462.997	1153.31
463.217	1182.31
463.437	1208.31
463.657	1147.31
463.876	1115.31
464.096	1124.31
464.316	1094.31
464.536	1070.31
464.755	1078.31
464.975	1036.31
465.195	985.31
465.414	918.31
465.634	871.31
465.854	858.31
466.073	813.31
466.293	821.31
466.512	774.31
466.732	763.31
466.951	763.31
467.171	787.31
467.391	780.31
467.61	773.31
467.829	783.31
468.049	766.31
468.268	731.31
468.488	727.31
468.707	749.31
468.927	757.31
469.146	749.31
469.365	749.31
469.585	751.31
469.804	762.31
470.023	763.31
470.243	816.31
470.462	802.31
470.681	796.31
470.901	779.31
471.12	780.31
471.339	779.31
471.558	773.31
471.777	777.31
471.997	742.31
472.216	743.31
472.435	723.31
472.654	740.31
472.873	724.31
473.092	729.31
473.311	731.31
473.53	749.31
473.749	755.31
473.968	710.31
474.187	702.31
474.406	730.31
474.625	722.31
474.844	706.31
475.063	717.31
475.282	725.31
475.501	707.31
475.72	724.31
475.939	749.31
476.158	744.31
476.377	768.31
476.596	721.31
476.814	777.31
477.033	774.31
477.252	770.31
477.471	786.31
477.69	813.31
477.908	833.31
478.127	870.31
478.346	874.31
478.564	878.31
478.783	917.31
479.002	924.31
479.22	930.31
479.439	902.31
479.658	938.31
479.876	931.31
480.095	912.31
480.313	923.31
480.532	951.31
480.751	965.31
480.969	906.31
481.188	898.31
481.406	871.31
481.624	857.31
481.843	835.31
482.061	837.31
482.28	814.31
482.498	828.31
482.717	830.31
482.935	826.31
483.153	850.31
483.372	853.31
483.59	847.31
483.808	843.31
484.027	837.31
484.245	843.31
484.463	868.31
484.681	867.31
484.9	858.31
485.118	872.31
485.336	857.31
485.554	856.31
485.772	880.31
485.99	867.31
486.209	877.31
486.427	857.31
486.645	882.31
486.863	867.31
487.081	883.31
487.299	889.31
487.517	860.31
487.735	857.31
487.953	865.31
488.171	868.31
488.389	855.31
488.607	873.31
488.825	850.31
489.043	865.31
489.261	843.31
489.479	831.31
489.696	861.31
489.914	881.31
490.132	869.31
490.35	877.31
490.568	861.31
490.786	899.31
491.003	895.31
491.221	875.31
491.439	869.31
491.657	901.31
491.874	911.31
492.092	892.31
492.31	894.31
492.527	922.31
492.745	901.31
492.963	922.31
493.18	927.31
493.398	906.31
493.615	929.31
493.833	914.31
494.05	934.31
494.268	905.31
494.485	937.31
494.703	896.31
494.92	946.31
495.138	967.31
495.355	932.31
495.573	938.31
495.79	937.31
496.008	966.31
496.225	971.31
496.442	949.31
496.66	990.31
496.877	990.31
497.094	977.31
497.312	1001.31
497.529	1065.31
497.746	1079.31
497.963	1096.31
498.181	1138.31
498.398	1159.31
498.615	1261.31
498.832	1323.31
499.049	1441.31
499.267	1532.31
499.484	1663.31
499.701	1836.31
499.918	1994.31
500.135	2221.31
500.352	2367.31
500.569	2447.31
500.786	2484.31
501.003	2363.31
