Data from NiCl2@0.125M.TitratingCurve.Agarose3%dH2O.NegLispCup.LampEnergy10.LIBS07252019_HRD10591_18-28-30-574.txt Node
Date: Thu Jul 25 18:28:30 EDT 2019
User: cochatt
Spectrometer: HR+D1059
Trigger mode: 1
Integration Time (sec): 1.000000E-1
Scans to average: 1
Electric dark correction enabled: true
Nonlinearity correction enabled: false
Boxcar width: 0
XAxis mode: Wavelengths
Number of Pixels in Spectrum: 2048
>>>>>Begin Spectral Data<<<<<
223.165	-10.94
223.4	-10.94
223.635	-10.94
223.869	-14.94
224.104	-20.94
224.338	-23.94
224.573	-18.94
224.808	-9.94
225.042	-11.94
225.277	-18.94
225.511	15.06
225.746	-4.94
225.98	15.06
226.215	17.06
226.449	23.06
226.683	12.06
226.918	27.06
227.152	26.06
227.387	46.06
227.621	32.06
227.856	42.06
228.09	40.06
228.324	49.06
228.559	62.06
228.793	79.06
229.027	99.06
229.262	117.06
229.496	120.06
229.73	123.06
229.964	136.06
230.199	132.06
230.433	141.06
230.667	138.06
230.901	133.06
231.136	154.06
231.37	153.06
231.604	146.06
231.838	161.06
232.072	150.06
232.306	169.06
232.541	154.06
232.775	140.06
233.009	155.06
233.243	164.06
233.477	159.06
233.711	149.06
233.945	171.06
234.179	162.06
234.413	154.06
234.647	156.06
234.881	165.06
235.115	168.06
235.349	159.06
235.583	156.06
235.817	158.06
236.051	160.06
236.285	158.06
236.519	174.06
236.753	164.06
236.987	153.06
237.221	169.06
237.455	166.06
237.689	177.06
237.922	180.06
238.156	169.06
238.39	172.06
238.624	164.06
238.858	184.06
239.091	182.06
239.325	198.06
239.559	192.06
239.793	184.06
240.027	191.06
240.26	199.06
240.494	191.06
240.728	198.06
240.961	211.06
241.195	212.06
241.429	221.06
241.662	191.06
241.896	201.06
242.13	212.06
242.363	221.06
242.597	206.06
242.83	208.06
243.064	203.06
243.298	223.06
243.531	216.06
243.765	222.06
243.998	218.06
244.232	210.06
244.465	219.06
244.699	224.06
244.932	244.06
245.166	247.06
245.399	233.06
245.633	230.06
245.866	229.06
246.099	239.06
246.333	237.06
246.566	237.06
246.8	253.06
247.033	240.06
247.266	249.06
247.5	244.06
247.733	244.06
247.966	260.06
248.2	261.06
248.433	258.06
248.666	257.06
248.899	248.06
249.133	245.06
249.366	269.06
249.599	266.06
249.832	266.06
250.066	282.06
250.299	272.06
250.532	254.06
250.765	272.06
250.998	288.06
251.231	302.06
251.465	276.06
251.698	288.06
251.931	278.06
252.164	281.06
252.397	287.06
252.63	284.06
252.863	300.06
253.096	304.06
253.329	299.06
253.562	282.06
253.795	312.06
254.028	300.06
254.261	297.06
254.494	304.06
254.727	294.06
254.96	312.06
255.193	308.06
255.426	313.06
255.659	321.06
255.892	316.06
256.124	320.06
256.357	316.06
256.59	312.06
256.823	296.06
257.056	317.06
257.289	334.06
257.521	313.06
257.754	318.06
257.987	324.06
258.22	325.06
258.452	321.06
258.685	333.06
258.918	341.06
259.151	339.06
259.383	335.06
259.616	329.06
259.849	345.06
260.081	346.06
260.314	350.06
260.547	337.06
260.779	338.06
261.012	343.06
261.244	354.06
261.477	328.06
261.71	343.06
261.942	353.06
262.175	341.06
262.407	364.06
262.64	361.06
262.872	360.06
263.105	353.06
263.337	372.06
263.57	357.06
263.802	335.06
264.035	368.06
264.267	366.06
264.499	362.06
264.732	385.06
264.964	394.06
265.197	369.06
265.429	388.06
265.661	365.06
265.894	372.06
266.126	392.06
266.358	388.06
266.591	384.06
266.823	392.06
267.055	392.06
267.287	382.06
267.52	413.06
267.752	401.06
267.984	393.06
268.216	409.06
268.448	384.06
268.681	394.06
268.913	410.06
269.145	401.06
269.377	408.06
269.609	390.06
269.841	393.06
270.073	426.06
270.306	402.06
270.538	403.06
270.77	412.06
271.002	391.06
271.234	384.06
271.466	415.06
271.698	408.06
271.93	428.06
272.162	412.06
272.394	425.06
272.626	421.06
272.858	415.06
273.09	440.06
273.322	421.06
273.553	425.06
273.785	417.06
274.017	426.06
274.249	433.06
274.481	432.06
274.713	429.06
274.945	448.06
275.176	458.06
275.408	457.06
275.64	446.06
275.872	471.06
276.104	468.06
276.335	451.06
276.567	456.06
276.799	445.06
277.031	437.06
277.262	438.06
277.494	470.06
277.726	460.06
277.957	483.06
278.189	460.06
278.421	464.06
278.652	465.06
278.884	477.06
279.115	482.06
279.347	468.06
279.579	469.06
279.81	477.06
280.042	467.06
280.273	497.06
280.505	490.06
280.736	455.06
280.968	469.06
281.199	507.06
281.431	504.06
281.662	501.06
281.894	496.06
282.125	503.06
282.356	494.06
282.588	500.06
282.819	486.06
283.051	493.06
283.282	521.06
283.513	486.06
283.745	505.06
283.976	516.06
284.207	518.06
284.439	504.06
284.67	518.06
284.901	522.06
285.132	526.06
285.364	509.06
285.595	511.06
285.826	516.06
286.057	504.06
286.288	504.06
286.52	541.06
286.751	534.06
286.982	542.06
287.213	539.06
287.444	527.06
287.675	553.06
287.906	558.06
288.138	569.06
288.369	546.06
288.6	566.06
288.831	540.06
289.062	551.06
289.293	545.06
289.524	553.06
289.755	543.06
289.986	547.06
290.217	559.06
290.448	564.06
290.679	592.06
290.91	561.06
291.141	553.06
291.371	558.06
291.602	566.06
291.833	556.06
292.064	577.06
292.295	553.06
292.526	585.06
292.757	571.06
292.987	572.06
293.218	539.06
293.449	576.06
293.68	573.06
293.91	586.06
294.141	562.06
294.372	589.06
294.603	557.06
294.833	585.06
295.064	568.06
295.295	575.06
295.525	571.06
295.756	591.06
295.987	579.06
296.217	590.06
296.448	603.06
296.679	583.06
296.909	586.06
297.14	599.06
297.37	612.06
297.601	621.06
297.831	588.06
298.062	603.06
298.292	612.06
298.523	640.06
298.753	635.06
298.984	620.06
299.214	612.06
299.445	611.06
299.675	601.06
299.905	604.06
300.136	615.06
300.366	608.06
300.597	606.06
300.827	642.06
301.057	662.06
301.288	649.06
301.518	641.06
301.748	653.06
301.979	656.06
302.209	646.06
302.439	634.06
302.669	664.06
302.9	642.06
303.13	645.06
303.36	640.06
303.59	650.06
303.82	639.06
304.051	658.06
304.281	634.06
304.511	633.06
304.741	625.06
304.971	670.06
305.201	644.06
305.431	604.06
305.661	638.06
305.891	642.06
306.121	618.06
306.352	641.06
306.582	623.06
306.812	634.06
307.042	626.06
307.272	629.06
307.502	610.06
307.731	627.06
307.961	623.06
308.191	636.06
308.421	612.06
308.651	630.06
308.881	644.06
309.111	601.06
309.341	619.06
309.571	636.06
309.8	614.06
310.03	606.06
310.26	638.06
310.49	613.06
310.72	631.06
310.949	631.06
311.179	629.06
311.409	638.06
311.639	654.06
311.868	624.06
312.098	648.06
312.328	636.06
312.557	655.06
312.787	633.06
313.017	652.06
313.246	661.06
313.476	646.06
313.706	689.06
313.935	677.06
314.165	668.06
314.394	671.06
314.624	675.06
314.853	699.06
315.083	645.06
315.312	676.06
315.542	662.06
315.771	689.06
316.001	650.06
316.23	669.06
316.46	679.06
316.689	664.06
316.919	655.06
317.148	659.06
317.377	667.06
317.607	636.06
317.836	633.06
318.065	645.06
318.295	652.06
318.524	659.06
318.753	660.06
318.983	653.06
319.212	644.06
319.441	643.06
319.67	636.06
319.9	668.06
320.129	648.06
320.358	643.06
320.587	654.06
320.816	658.06
321.046	645.06
321.275	681.06
321.504	657.06
321.733	664.06
321.962	642.06
322.191	658.06
322.42	681.06
322.649	670.06
322.878	670.06
323.108	679.06
323.337	661.06
323.566	685.06
323.795	705.06
324.024	674.06
324.253	677.06
324.482	681.06
324.71	684.06
324.939	692.06
325.168	687.06
325.397	703.06
325.626	725.06
325.855	717.06
326.084	730.06
326.313	732.06
326.542	709.06
326.77	735.06
326.999	718.06
327.228	705.06
327.457	730.06
327.686	722.06
327.914	721.06
328.143	746.06
328.372	752.06
328.6	734.06
328.829	720.06
329.058	702.06
329.287	717.06
329.515	730.06
329.744	722.06
329.972	726.06
330.201	735.06
330.43	716.06
330.658	736.06
330.887	754.06
331.115	765.06
331.344	737.06
331.572	746.06
331.801	796.06
332.03	784.06
332.258	832.06
332.486	840.06
332.715	860.06
332.943	904.06
333.172	934.06
333.4	948.06
333.629	972.06
333.857	979.06
334.085	964.06
334.314	961.06
334.542	954.06
334.771	936.06
334.999	890.06
335.227	892.06
335.455	885.06
335.684	894.06
335.912	872.06
336.14	897.06
336.369	866.06
336.597	871.06
336.825	868.06
337.053	854.06
337.281	854.06
337.51	812.06
337.738	843.06
337.966	802.06
338.194	786.06
338.422	790.06
338.65	798.06
338.878	792.06
339.106	769.06
339.334	801.06
339.562	768.06
339.79	743.06
340.018	768.06
340.246	740.06
340.474	731.06
340.702	743.06
340.93	755.06
341.158	757.06
341.386	757.06
341.614	760.06
341.842	744.06
342.07	712.06
342.298	726.06
342.526	731.06
342.754	721.06
342.981	734.06
343.209	775.06
343.437	804.06
343.665	845.06
343.893	896.06
344.12	952.06
344.348	889.06
344.576	846.06
344.804	851.06
345.031	796.06
345.259	770.06
345.487	770.06
345.714	737.06
345.942	757.06
346.17	756.06
346.397	713.06
346.625	741.06
346.853	726.06
347.08	727.06
347.308	745.06
347.535	743.06
347.763	705.06
347.99	723.06
348.218	770.06
348.445	721.06
348.673	704.06
348.9	712.06
349.128	732.06
349.355	732.06
349.583	730.06
349.81	728.06
350.037	687.06
350.265	704.06
350.492	715.06
350.72	704.06
350.947	715.06
351.174	712.06
351.402	703.06
351.629	690.06
351.856	728.06
352.083	693.06
352.311	698.06
352.538	726.06
352.765	703.06
352.992	717.06
353.22	699.06
353.447	688.06
353.674	688.06
353.901	686.06
354.128	698.06
354.355	704.06
354.583	719.06
354.81	704.06
355.037	733.06
355.264	712.06
355.491	713.06
355.718	726.06
355.945	701.06
356.172	697.06
356.399	678.06
356.626	717.06
356.853	716.06
357.08	695.06
357.307	676.06
357.534	699.06
357.761	701.06
357.988	709.06
358.215	670.06
358.441	664.06
358.668	697.06
358.895	714.06
359.122	697.06
359.349	726.06
359.576	705.06
359.802	696.06
360.029	688.06
360.256	684.06
360.483	713.06
360.709	703.06
360.936	707.06
361.163	719.06
361.39	690.06
361.616	712.06
361.843	716.06
362.07	699.06
362.296	702.06
362.523	711.06
362.749	698.06
362.976	705.06
363.203	706.06
363.429	698.06
363.656	701.06
363.882	670.06
364.109	688.06
364.335	674.06
364.562	714.06
364.788	723.06
365.015	690.06
365.241	708.06
365.468	720.06
365.694	685.06
365.92	698.06
366.147	678.06
366.373	692.06
366.599	696.06
366.826	682.06
367.052	722.06
367.278	706.06
367.505	682.06
367.731	718.06
367.957	717.06
368.184	722.06
368.41	722.06
368.636	712.06
368.862	686.06
369.089	711.06
369.315	719.06
369.541	732.06
369.767	732.06
369.993	722.06
370.219	739.06
370.445	770.06
370.672	745.06
370.898	771.06
371.124	752.06
371.35	760.06
371.576	760.06
371.802	776.06
372.028	735.06
372.254	761.06
372.48	771.06
372.706	784.06
372.932	811.06
373.158	782.06
373.384	789.06
373.61	751.06
373.835	746.06
374.061	761.06
374.287	774.06
374.513	797.06
374.739	806.06
374.965	826.06
375.191	853.06
375.416	834.06
375.642	810.06
375.868	800.06
376.094	817.06
376.319	797.06
376.545	773.06
376.771	772.06
376.997	788.06
377.222	762.06
377.448	742.06
377.674	768.06
377.899	762.06
378.125	746.06
378.35	749.06
378.576	758.06
378.802	724.06
379.027	757.06
379.253	781.06
379.478	745.06
379.704	741.06
379.929	733.06
380.155	745.06
380.38	757.06
380.606	774.06
380.831	736.06
381.057	756.06
381.282	768.06
381.507	779.06
381.733	773.06
381.958	757.06
382.184	774.06
382.409	787.06
382.634	799.06
382.86	805.06
383.085	812.06
383.31	800.06
383.535	841.06
383.761	836.06
383.986	894.06
384.211	876.06
384.436	884.06
384.662	911.06
384.887	922.06
385.112	932.06
385.337	938.06
385.562	916.06
385.787	929.06
386.013	949.06
386.238	936.06
386.463	916.06
386.688	906.06
386.913	904.06
387.138	916.06
387.363	902.06
387.588	895.06
387.813	913.06
388.038	894.06
388.263	915.06
388.488	908.06
388.713	893.06
388.938	885.06
389.163	921.06
389.387	892.06
389.612	875.06
389.837	897.06
390.062	879.06
390.287	862.06
390.512	914.06
390.736	919.06
390.961	904.06
391.186	933.06
391.411	944.06
391.636	994.06
391.86	1008.06
392.085	1060.06
392.31	1049.06
392.534	1021.06
392.759	985.06
392.984	958.06
393.208	972.06
393.433	982.06
393.658	963.06
393.882	953.06
394.107	977.06
394.331	994.06
394.556	992.06
394.78	991.06
395.005	997.06
395.229	1006.06
395.454	989.06
395.678	1026.06
395.903	1043.06
396.127	1012.06
396.352	969.06
396.576	982.06
396.801	976.06
397.025	981.06
397.249	992.06
397.474	988.06
397.698	1023.06
397.922	1033.06
398.147	993.06
398.371	1013.06
398.595	1069.06
398.82	1102.06
399.044	1191.06
399.268	1321.06
399.492	1589.06
399.717	1737.06
399.941	1752.06
400.165	1557.06
400.389	1378.06
400.613	1271.06
400.837	1193.06
401.062	1156.06
401.286	1144.06
401.51	1126.06
401.734	1136.06
401.958	1177.06
402.182	1160.06
402.406	1171.06
402.63	1205.06
402.854	1248.06
403.078	1290.06
403.302	1244.06
403.526	1270.06
403.75	1320.06
403.974	1373.06
404.198	1327.06
404.422	1352.06
404.645	1344.06
404.869	1316.06
405.093	1300.06
405.317	1248.06
405.541	1278.06
405.765	1257.06
405.988	1253.06
406.212	1265.06
406.436	1263.06
406.66	1293.06
406.883	1306.06
407.107	1355.06
407.331	1446.06
407.555	1504.06
407.778	1485.06
408.002	1451.06
408.226	1415.06
408.449	1373.06
408.673	1332.06
408.896	1315.06
409.12	1277.06
409.344	1308.06
409.567	1321.06
409.791	1321.06
410.014	1340.06
410.238	1294.06
410.461	1310.06
410.685	1265.06
410.908	1253.06
411.132	1222.06
411.355	1200.06
411.578	1174.06
411.802	1162.06
412.025	1174.06
412.249	1182.06
412.472	1207.06
412.695	1178.06
412.919	1146.06
413.142	1167.06
413.365	1167.06
413.589	1143.06
413.812	1134.06
414.035	1094.06
414.258	1128.06
414.482	1138.06
414.705	1187.06
414.928	1186.06
415.151	1172.06
415.374	1143.06
415.597	1148.06
415.821	1124.06
416.044	1135.06
416.267	1142.06
416.49	1122.06
416.713	1120.06
416.936	1129.06
417.159	1146.06
417.382	1127.06
417.605	1118.06
417.828	1124.06
418.051	1148.06
418.274	1133.06
418.497	1132.06
418.72	1194.06
418.943	1146.06
419.166	1239.06
419.389	1332.06
419.611	1282.06
419.834	1234.06
420.057	1186.06
420.28	1172.06
420.503	1129.06
420.726	1138.06
420.948	1115.06
421.171	1117.06
421.394	1146.06
421.617	1143.06
421.839	1137.06
422.062	1136.06
422.285	1137.06
422.507	1164.06
422.73	1170.06
422.953	1199.06
423.175	1184.06
423.398	1197.06
423.621	1206.06
423.843	1228.06
424.066	1238.06
424.288	1233.06
424.511	1201.06
424.733	1220.06
424.956	1179.06
425.178	1168.06
425.401	1134.06
425.623	1151.06
425.846	1131.06
426.068	1077.06
426.291	1073.06
426.513	1096.06
426.735	1022.06
426.958	1071.06
427.18	1052.06
427.402	1048.06
427.625	1016.06
427.847	1021.06
428.069	1005.06
428.292	1014.06
428.514	1032.06
428.736	1024.06
428.958	1051.06
429.181	988.06
429.403	982.06
429.625	991.06
429.847	991.06
430.069	969.06
430.292	991.06
430.514	978.06
430.736	997.06
430.958	988.06
431.18	992.06
431.402	982.06
431.624	1008.06
431.846	1030.06
432.068	1030.06
432.29	1040.06
432.512	991.06
432.734	1036.06
432.956	1007.06
433.178	1042.06
433.4	1009.06
433.622	1017.06
433.844	998.06
434.066	1052.06
434.287	1041.06
434.509	1055.06
434.731	1105.06
434.953	1156.06
435.175	1185.06
435.397	1152.06
435.618	1096.06
435.84	1085.06
436.062	1022.06
436.284	1016.06
436.505	1009.06
436.727	1008.06
436.949	1037.06
437.17	1040.06
437.392	992.06
437.614	989.06
437.835	974.06
438.057	980.06
438.278	942.06
438.5	975.06
438.721	985.06
438.943	991.06
439.165	976.06
439.386	1008.06
439.608	998.06
439.829	1023.06
440.05	1048.06
440.272	1029.06
440.493	1049.06
440.715	1031.06
440.936	1081.06
441.158	1076.06
441.379	1097.06
441.6	1136.06
441.822	1184.06
442.043	1179.06
442.264	1114.06
442.486	1129.06
442.707	1125.06
442.928	1139.06
443.149	1150.06
443.371	1107.06
443.592	1125.06
443.813	1160.06
444.034	1154.06
444.255	1228.06
444.476	1294.06
444.698	1314.06
444.919	1394.06
445.14	1457.06
445.361	1309.06
445.582	1176.06
445.803	1116.06
446.024	1095.06
446.245	1096.06
446.466	1063.06
446.687	1031.06
446.908	1040.06
447.129	993.06
447.35	987.06
447.571	974.06
447.792	972.06
448.013	976.06
448.234	976.06
448.455	961.06
448.675	954.06
448.896	949.06
449.117	914.06
449.338	952.06
449.559	922.06
449.779	928.06
450	943.06
450.221	936.06
450.442	951.06
450.662	941.06
450.883	968.06
451.104	952.06
451.324	936.06
451.545	944.06
451.766	944.06
451.986	952.06
452.207	940.06
452.428	926.06
452.648	937.06
452.869	936.06
453.089	907.06
453.31	917.06
453.53	919.06
453.751	874.06
453.971	892.06
454.192	936.06
454.412	897.06
454.633	905.06
454.853	892.06
455.073	912.06
455.294	894.06
455.514	893.06
455.734	871.06
455.955	844.06
456.175	890.06
456.395	861.06
456.616	840.06
456.836	877.06
457.056	878.06
457.276	871.06
457.497	893.06
457.717	886.06
457.937	877.06
458.157	887.06
458.377	913.06
458.598	913.06
458.818	964.06
459.038	940.06
459.258	967.06
459.478	1019.06
459.698	1070.06
459.918	1091.06
460.138	1130.06
460.358	1152.06
460.578	1200.06
460.798	1208.06
461.018	1192.06
461.238	1186.06
461.458	1175.06
461.678	1168.06
461.898	1222.06
462.118	1233.06
462.338	1277.06
462.558	1293.06
462.777	1344.06
462.997	1500.06
463.217	1634.06
463.437	1670.06
463.657	1522.06
463.876	1432.06
464.096	1394.06
464.316	1435.06
464.536	1404.06
464.755	1349.06
464.975	1311.06
465.195	1259.06
465.414	1188.06
465.634	1088.06
465.854	1084.06
466.073	1037.06
466.293	1028.06
466.512	976.06
466.732	993.06
466.951	970.06
467.171	977.06
467.391	966.06
467.61	970.06
467.829	968.06
468.049	957.06
468.268	933.06
468.488	916.06
468.707	912.06
468.927	951.06
469.146	946.06
469.365	950.06
469.585	939.06
469.804	975.06
470.023	985.06
470.243	1019.06
470.462	1024.06
470.681	996.06
470.901	1000.06
471.12	1005.06
471.339	984.06
471.558	968.06
471.777	972.06
471.997	920.06
472.216	903.06
472.435	913.06
472.654	891.06
472.873	922.06
473.092	909.06
473.311	888.06
473.53	912.06
473.749	928.06
473.968	896.06
474.187	893.06
474.406	877.06
474.625	912.06
474.844	922.06
475.063	916.06
475.282	908.06
475.501	916.06
475.72	956.06
475.939	951.06
476.158	920.06
476.377	926.06
476.596	921.06
476.814	943.06
477.033	945.06
477.252	1009.06
477.471	1009.06
477.69	1031.06
477.908	1047.06
478.127	1062.06
478.346	1067.06
478.564	1117.06
478.783	1098.06
479.002	1149.06
479.22	1142.06
479.439	1146.06
479.658	1126.06
479.876	1135.06
480.095	1144.06
480.313	1213.06
480.532	1236.06
480.751	1222.06
480.969	1156.06
481.188	1145.06
481.406	1101.06
481.624	1066.06
481.843	1065.06
482.061	1040.06
482.28	1031.06
482.498	1030.06
482.717	1017.06
482.935	1054.06
483.153	1036.06
483.372	1006.06
483.59	1055.06
483.808	1012.06
484.027	1045.06
484.245	1047.06
484.463	1065.06
484.681	1082.06
484.9	1077.06
485.118	1078.06
485.336	1083.06
485.554	1098.06
485.772	1114.06
485.99	1098.06
486.209	1091.06
486.427	1103.06
486.645	1096.06
486.863	1067.06
487.081	1060.06
487.299	1072.06
487.517	1102.06
487.735	1081.06
487.953	1086.06
488.171	1099.06
488.389	1049.06
488.607	1036.06
488.825	1044.06
489.043	1049.06
489.261	1082.06
489.479	1087.06
489.696	1080.06
489.914	1098.06
490.132	1069.06
490.35	1093.06
490.568	1073.06
490.786	1106.06
491.003	1082.06
491.221	1073.06
491.439	1120.06
491.657	1117.06
491.874	1109.06
492.092	1105.06
492.31	1120.06
492.527	1132.06
492.745	1103.06
492.963	1133.06
493.18	1136.06
493.398	1135.06
493.615	1136.06
493.833	1100.06
494.05	1124.06
494.268	1122.06
494.485	1156.06
494.703	1172.06
494.92	1173.06
495.138	1156.06
495.355	1150.06
495.573	1158.06
495.79	1156.06
496.008	1164.06
496.225	1167.06
496.442	1173.06
496.66	1175.06
496.877	1200.06
497.094	1217.06
