Data from NiCl2@0.25M.TitratingCurve.Agarose3%dH2O.NegLispCup.LampEnergy10.LIBS07252019_HRD10591_18-26-03-573.txt Node
Date: Thu Jul 25 18:26:03 EDT 2019
User: cochatt
Spectrometer: HR+D1059
Trigger mode: 1
Integration Time (sec): 1.000000E-1
Scans to average: 1
Electric dark correction enabled: true
Nonlinearity correction enabled: false
Boxcar width: 0
XAxis mode: Wavelengths
Number of Pixels in Spectrum: 2048
>>>>>Begin Spectral Data<<<<<
223.165	-10.81
223.4	-10.81
223.635	-10.81
223.869	-39.81
224.104	-26.81
224.338	-20.81
224.573	-17.81
224.808	-6.81
225.042	6.19
225.277	-7.81
225.511	-13.81
225.746	-1.81
225.98	20.19
226.215	20.19
226.449	27.19
226.683	20.19
226.918	26.19
227.152	26.19
227.387	30.19
227.621	26.19
227.856	35.19
228.09	33.19
228.324	53.19
228.559	49.19
228.793	75.19
229.027	114.19
229.262	118.19
229.496	118.19
229.73	112.19
229.964	134.19
230.199	125.19
230.433	130.19
230.667	121.19
230.901	145.19
231.136	147.19
231.37	147.19
231.604	136.19
231.838	163.19
232.072	146.19
232.306	143.19
232.541	140.19
232.775	140.19
233.009	157.19
233.243	150.19
233.477	165.19
233.711	159.19
233.945	149.19
234.179	166.19
234.413	163.19
234.647	155.19
234.881	171.19
235.115	157.19
235.349	153.19
235.583	174.19
235.817	157.19
236.051	150.19
236.285	160.19
236.519	165.19
236.753	154.19
236.987	152.19
237.221	163.19
237.455	166.19
237.689	161.19
237.922	171.19
238.156	167.19
238.39	164.19
238.624	171.19
238.858	163.19
239.091	178.19
239.325	177.19
239.559	168.19
239.793	162.19
240.027	185.19
240.26	178.19
240.494	176.19
240.728	196.19
240.961	171.19
241.195	204.19
241.429	200.19
241.662	193.19
241.896	198.19
242.13	184.19
242.363	191.19
242.597	180.19
242.83	195.19
243.064	185.19
243.298	211.19
243.531	207.19
243.765	223.19
243.998	194.19
244.232	212.19
244.465	225.19
244.699	224.19
244.932	210.19
245.166	219.19
245.399	243.19
245.633	225.19
245.866	219.19
246.099	219.19
246.333	234.19
246.566	228.19
246.8	239.19
247.033	233.19
247.266	224.19
247.5	225.19
247.733	233.19
247.966	226.19
248.2	242.19
248.433	234.19
248.666	224.19
248.899	224.19
249.133	258.19
249.366	254.19
249.599	258.19
249.832	256.19
250.066	251.19
250.299	263.19
250.532	260.19
250.765	249.19
250.998	257.19
251.231	278.19
251.465	280.19
251.698	272.19
251.931	275.19
252.164	263.19
252.397	279.19
252.63	268.19
252.863	268.19
253.096	272.19
253.329	292.19
253.562	275.19
253.795	283.19
254.028	306.19
254.261	297.19
254.494	305.19
254.727	294.19
254.96	272.19
255.193	283.19
255.426	282.19
255.659	293.19
255.892	300.19
256.124	290.19
256.357	295.19
256.59	310.19
256.823	290.19
257.056	300.19
257.289	317.19
257.521	299.19
257.754	296.19
257.987	297.19
258.22	319.19
258.452	319.19
258.685	300.19
258.918	321.19
259.151	326.19
259.383	306.19
259.616	310.19
259.849	322.19
260.081	337.19
260.314	322.19
260.547	323.19
260.779	323.19
261.012	308.19
261.244	314.19
261.477	329.19
261.71	310.19
261.942	321.19
262.175	328.19
262.407	338.19
262.64	326.19
262.872	342.19
263.105	335.19
263.337	343.19
263.57	349.19
263.802	355.19
264.035	343.19
264.267	349.19
264.499	338.19
264.732	375.19
264.964	366.19
265.197	356.19
265.429	358.19
265.661	356.19
265.894	375.19
266.126	377.19
266.358	381.19
266.591	371.19
266.823	353.19
267.055	385.19
267.287	370.19
267.52	383.19
267.752	370.19
267.984	355.19
268.216	360.19
268.448	380.19
268.681	390.19
268.913	390.19
269.145	384.19
269.377	378.19
269.609	387.19
269.841	381.19
270.073	394.19
270.306	388.19
270.538	408.19
270.77	377.19
271.002	400.19
271.234	407.19
271.466	391.19
271.698	419.19
271.93	377.19
272.162	379.19
272.394	375.19
272.626	414.19
272.858	402.19
273.09	405.19
273.322	399.19
273.553	419.19
273.785	404.19
274.017	410.19
274.249	427.19
274.481	433.19
274.713	424.19
274.945	442.19
275.176	434.19
275.408	434.19
275.64	448.19
275.872	440.19
276.104	424.19
276.335	424.19
276.567	437.19
276.799	440.19
277.031	442.19
277.262	443.19
277.494	432.19
277.726	424.19
277.957	434.19
278.189	443.19
278.421	452.19
278.652	461.19
278.884	450.19
279.115	467.19
279.347	456.19
279.579	466.19
279.81	475.19
280.042	466.19
280.273	475.19
280.505	474.19
280.736	462.19
280.968	454.19
281.199	483.19
281.431	479.19
281.662	464.19
281.894	463.19
282.125	487.19
282.356	481.19
282.588	480.19
282.819	498.19
283.051	462.19
283.282	494.19
283.513	476.19
283.745	479.19
283.976	499.19
284.207	474.19
284.439	516.19
284.67	484.19
284.901	491.19
285.132	488.19
285.364	478.19
285.595	487.19
285.826	511.19
286.057	501.19
286.288	518.19
286.52	520.19
286.751	516.19
286.982	520.19
287.213	515.19
287.444	544.19
287.675	518.19
287.906	502.19
288.138	540.19
288.369	513.19
288.6	562.19
288.831	530.19
289.062	540.19
289.293	553.19
289.524	545.19
289.755	544.19
289.986	532.19
290.217	536.19
290.448	544.19
290.679	520.19
290.91	538.19
291.141	533.19
291.371	528.19
291.602	548.19
291.833	543.19
292.064	545.19
292.295	527.19
292.526	539.19
292.757	549.19
292.987	538.19
293.218	544.19
293.449	551.19
293.68	557.19
293.91	567.19
294.141	544.19
294.372	565.19
294.603	539.19
294.833	545.19
295.064	543.19
295.295	575.19
295.525	548.19
295.756	577.19
295.987	562.19
296.217	570.19
296.448	579.19
296.679	576.19
296.909	583.19
297.14	588.19
297.37	572.19
297.601	584.19
297.831	595.19
298.062	580.19
298.292	611.19
298.523	613.19
298.753	614.19
298.984	611.19
299.214	610.19
299.445	587.19
299.675	600.19
299.905	599.19
300.136	580.19
300.366	623.19
300.597	634.19
300.827	602.19
301.057	615.19
301.288	624.19
301.518	609.19
301.748	622.19
301.979	639.19
302.209	635.19
302.439	637.19
302.669	623.19
302.9	629.19
303.13	630.19
303.36	638.19
303.59	607.19
303.82	590.19
304.051	615.19
304.281	620.19
304.511	614.19
304.741	606.19
304.971	611.19
305.201	636.19
305.431	640.19
305.661	601.19
305.891	622.19
306.121	604.19
306.352	587.19
306.582	619.19
306.812	593.19
307.042	610.19
307.272	635.19
307.502	619.19
307.731	608.19
307.961	607.19
308.191	603.19
308.421	589.19
308.651	583.19
308.881	607.19
309.111	628.19
309.341	571.19
309.571	608.19
309.8	602.19
310.03	622.19
310.26	620.19
310.49	614.19
310.72	613.19
310.949	613.19
311.179	611.19
311.409	607.19
311.639	609.19
311.868	617.19
312.098	635.19
312.328	635.19
312.557	635.19
312.787	647.19
313.017	660.19
313.246	622.19
313.476	625.19
313.706	671.19
313.935	661.19
314.165	651.19
314.394	639.19
314.624	650.19
314.853	662.19
315.083	658.19
315.312	658.19
315.542	661.19
315.771	638.19
316.001	675.19
316.23	634.19
316.46	607.19
316.689	626.19
316.919	623.19
317.148	636.19
317.377	634.19
317.607	634.19
317.836	628.19
318.065	634.19
318.295	636.19
318.524	655.19
318.753	643.19
318.983	632.19
319.212	631.19
319.441	622.19
319.67	648.19
319.9	635.19
320.129	653.19
320.358	625.19
320.587	641.19
320.816	657.19
321.046	635.19
321.275	631.19
321.504	644.19
321.733	657.19
321.962	654.19
322.191	651.19
322.42	635.19
322.649	636.19
322.878	674.19
323.108	651.19
323.337	651.19
323.566	647.19
323.795	665.19
324.024	688.19
324.253	666.19
324.482	672.19
324.71	656.19
324.939	681.19
325.168	677.19
325.397	671.19
325.626	691.19
325.855	700.19
326.084	694.19
326.313	708.19
326.542	688.19
326.77	723.19
326.999	703.19
327.228	706.19
327.457	712.19
327.686	718.19
327.914	682.19
328.143	690.19
328.372	729.19
328.6	711.19
328.829	705.19
329.058	734.19
329.287	703.19
329.515	712.19
329.744	725.19
329.972	711.19
330.201	707.19
330.43	719.19
330.658	729.19
330.887	732.19
331.115	726.19
331.344	747.19
331.572	782.19
331.801	792.19
332.03	773.19
332.258	804.19
332.486	806.19
332.715	839.19
332.943	861.19
333.172	901.19
333.4	926.19
333.629	946.19
333.857	962.19
334.085	995.19
334.314	952.19
334.542	883.19
334.771	918.19
334.999	919.19
335.227	881.19
335.455	898.19
335.684	888.19
335.912	878.19
336.14	876.19
336.369	853.19
336.597	852.19
336.825	820.19
337.053	837.19
337.281	834.19
337.51	811.19
337.738	834.19
337.966	788.19
338.194	788.19
338.422	806.19
338.65	773.19
338.878	786.19
339.106	776.19
339.334	766.19
339.562	781.19
339.79	744.19
340.018	780.19
340.246	738.19
340.474	744.19
340.702	759.19
340.93	755.19
341.158	728.19
341.386	770.19
341.614	741.19
341.842	736.19
342.07	703.19
342.298	734.19
342.526	741.19
342.754	756.19
342.981	757.19
343.209	763.19
343.437	809.19
343.665	849.19
343.893	900.19
344.12	921.19
344.348	894.19
344.576	836.19
344.804	807.19
345.031	769.19
345.259	755.19
345.487	747.19
345.714	731.19
345.942	750.19
346.17	732.19
346.397	741.19
346.625	723.19
346.853	738.19
347.08	719.19
347.308	720.19
347.535	722.19
347.763	715.19
347.99	716.19
348.218	718.19
348.445	715.19
348.673	720.19
348.9	720.19
349.128	719.19
349.355	727.19
349.583	703.19
349.81	697.19
350.037	687.19
350.265	692.19
350.492	703.19
350.72	676.19
350.947	686.19
351.174	722.19
351.402	691.19
351.629	682.19
351.856	684.19
352.083	695.19
352.311	690.19
352.538	670.19
352.765	677.19
352.992	673.19
353.22	683.19
353.447	693.19
353.674	700.19
353.901	680.19
354.128	680.19
354.355	671.19
354.583	686.19
354.81	688.19
355.037	692.19
355.264	709.19
355.491	692.19
355.718	678.19
355.945	707.19
356.172	694.19
356.399	697.19
356.626	711.19
356.853	735.19
357.08	702.19
357.307	674.19
357.534	699.19
357.761	683.19
357.988	699.19
358.215	723.19
358.441	702.19
358.668	670.19
358.895	703.19
359.122	659.19
359.349	715.19
359.576	674.19
359.802	686.19
360.029	677.19
360.256	688.19
360.483	714.19
360.709	679.19
360.936	686.19
361.163	676.19
361.39	688.19
361.616	675.19
361.843	694.19
362.07	706.19
362.296	703.19
362.523	672.19
362.749	694.19
362.976	694.19
363.203	676.19
363.429	686.19
363.656	696.19
363.882	688.19
364.109	706.19
364.335	691.19
364.562	673.19
364.788	718.19
365.015	683.19
365.241	678.19
365.468	705.19
365.694	700.19
365.92	672.19
366.147	675.19
366.373	682.19
366.599	675.19
366.826	698.19
367.052	662.19
367.278	689.19
367.505	713.19
367.731	689.19
367.957	690.19
368.184	709.19
368.41	681.19
368.636	706.19
368.862	728.19
369.089	695.19
369.315	726.19
369.541	724.19
369.767	721.19
369.993	726.19
370.219	707.19
370.445	759.19
370.672	732.19
370.898	741.19
371.124	747.19
371.35	741.19
371.576	752.19
371.802	734.19
372.028	732.19
372.254	735.19
372.48	760.19
372.706	766.19
372.932	790.19
373.158	762.19
373.384	740.19
373.61	769.19
373.835	751.19
374.061	792.19
374.287	755.19
374.513	774.19
374.739	795.19
374.965	818.19
375.191	826.19
375.416	822.19
375.642	827.19
375.868	827.19
376.094	790.19
376.319	764.19
376.545	745.19
376.771	757.19
376.997	770.19
377.222	761.19
377.448	747.19
377.674	738.19
377.899	758.19
378.125	771.19
378.35	738.19
378.576	745.19
378.802	718.19
379.027	758.19
379.253	728.19
379.478	731.19
379.704	739.19
379.929	754.19
380.155	741.19
380.38	735.19
380.606	735.19
380.831	749.19
381.057	726.19
381.282	746.19
381.507	759.19
381.733	740.19
381.958	781.19
382.184	770.19
382.409	772.19
382.634	796.19
382.86	779.19
383.085	796.19
383.31	833.19
383.535	808.19
383.761	838.19
383.986	846.19
384.211	866.19
384.436	871.19
384.662	889.19
384.887	895.19
385.112	886.19
385.337	910.19
385.562	881.19
385.787	888.19
386.013	904.19
386.238	914.19
386.463	912.19
386.688	927.19
386.913	908.19
387.138	928.19
387.363	899.19
387.588	887.19
387.813	874.19
388.038	895.19
388.263	906.19
388.488	890.19
388.713	905.19
388.938	894.19
389.163	882.19
389.387	891.19
389.612	880.19
389.837	872.19
390.062	894.19
390.287	884.19
390.512	869.19
390.736	902.19
390.961	917.19
391.186	915.19
391.411	937.19
391.636	1011.19
391.86	1010.19
392.085	1027.19
392.31	1032.19
392.534	997.19
392.759	964.19
392.984	973.19
393.208	963.19
393.433	947.19
393.658	982.19
393.882	972.19
394.107	1003.19
394.331	1014.19
394.556	1006.19
394.78	957.19
395.005	979.19
395.229	994.19
395.454	1028.19
395.678	1041.19
395.903	1035.19
396.127	998.19
396.352	1010.19
396.576	946.19
396.801	940.19
397.025	978.19
397.249	997.19
397.474	1007.19
397.698	1002.19
397.922	1018.19
398.147	1053.19
398.371	1058.19
398.595	1084.19
398.82	1117.19
399.044	1200.19
399.268	1313.19
399.492	1520.19
399.717	1673.19
399.941	1746.19
400.165	1539.19
400.389	1385.19
400.613	1286.19
400.837	1230.19
401.062	1198.19
401.286	1156.19
401.51	1169.19
401.734	1170.19
401.958	1146.19
402.182	1155.19
402.406	1169.19
402.63	1202.19
402.854	1216.19
403.078	1244.19
403.302	1243.19
403.526	1282.19
403.75	1289.19
403.974	1334.19
404.198	1291.19
404.422	1344.19
404.645	1293.19
404.869	1300.19
405.093	1315.19
405.317	1254.19
405.541	1292.19
405.765	1273.19
405.988	1262.19
406.212	1239.19
406.436	1273.19
406.66	1270.19
406.883	1298.19
407.107	1410.19
407.331	1406.19
407.555	1513.19
407.778	1472.19
408.002	1456.19
408.226	1407.19
408.449	1417.19
408.673	1323.19
408.896	1315.19
409.12	1306.19
409.344	1332.19
409.567	1261.19
409.791	1296.19
410.014	1275.19
410.238	1255.19
410.461	1239.19
410.685	1267.19
410.908	1237.19
411.132	1204.19
411.355	1203.19
411.578	1173.19
411.802	1195.19
412.025	1209.19
412.249	1205.19
412.472	1178.19
412.695	1179.19
412.919	1148.19
413.142	1145.19
413.365	1139.19
413.589	1142.19
413.812	1160.19
414.035	1150.19
414.258	1119.19
414.482	1129.19
414.705	1158.19
414.928	1152.19
415.151	1150.19
415.374	1126.19
415.597	1107.19
415.821	1124.19
416.044	1103.19
416.267	1106.19
416.49	1114.19
416.713	1136.19
416.936	1120.19
417.159	1107.19
417.382	1084.19
417.605	1110.19
417.828	1110.19
418.051	1131.19
418.274	1136.19
418.497	1134.19
418.72	1169.19
418.943	1184.19
419.166	1202.19
419.389	1332.19
419.611	1262.19
419.834	1224.19
420.057	1223.19
420.28	1189.19
420.503	1162.19
420.726	1134.19
420.948	1131.19
421.171	1112.19
421.394	1102.19
421.617	1136.19
421.839	1120.19
422.062	1130.19
422.285	1100.19
422.507	1138.19
422.73	1160.19
422.953	1164.19
423.175	1168.19
423.398	1216.19
423.621	1162.19
423.843	1175.19
424.066	1137.19
424.288	1160.19
424.511	1198.19
424.733	1164.19
424.956	1160.19
425.178	1139.19
425.401	1114.19
425.623	1106.19
425.846	1090.19
426.068	1068.19
426.291	1061.19
426.513	1073.19
426.735	1035.19
426.958	1065.19
427.18	1007.19
427.402	1032.19
427.625	997.19
427.847	974.19
428.069	994.19
428.292	1001.19
428.514	984.19
428.736	1019.19
428.958	1025.19
429.181	966.19
429.403	951.19
429.625	992.19
429.847	961.19
430.069	972.19
430.292	974.19
430.514	967.19
430.736	968.19
430.958	944.19
431.18	958.19
431.402	990.19
431.624	955.19
431.846	1032.19
432.068	996.19
432.29	1033.19
432.512	984.19
432.734	993.19
432.956	975.19
433.178	986.19
433.4	1016.19
433.622	1007.19
433.844	1011.19
434.066	1015.19
434.287	1002.19
434.509	1042.19
434.731	1087.19
434.953	1137.19
435.175	1151.19
435.397	1117.19
435.618	1064.19
435.84	1042.19
436.062	987.19
436.284	1013.19
436.505	994.19
436.727	997.19
436.949	993.19
437.17	960.19
437.392	961.19
437.614	943.19
437.835	942.19
438.057	961.19
438.278	958.19
438.5	939.19
438.721	944.19
438.943	930.19
439.165	950.19
439.386	944.19
439.608	967.19
439.829	977.19
440.05	983.19
440.272	1012.19
440.493	994.19
440.715	991.19
440.936	1022.19
441.158	1062.19
441.379	1064.19
441.6	1094.19
441.822	1143.19
442.043	1103.19
442.264	1096.19
442.486	1073.19
442.707	1080.19
442.928	1068.19
443.149	1083.19
443.371	1084.19
443.592	1124.19
443.813	1089.19
444.034	1108.19
444.255	1182.19
444.476	1227.19
444.698	1317.19
444.919	1352.19
445.14	1382.19
445.361	1252.19
445.582	1165.19
445.803	1086.19
446.024	1054.19
446.245	1048.19
446.466	1030.19
446.687	1003.19
446.908	992.19
447.129	961.19
447.35	978.19
447.571	974.19
447.792	954.19
448.013	957.19
448.234	919.19
448.455	908.19
448.675	932.19
448.896	894.19
449.117	884.19
449.338	897.19
449.559	880.19
449.779	886.19
450	891.19
450.221	894.19
450.442	907.19
450.662	900.19
450.883	920.19
451.104	934.19
451.324	896.19
451.545	917.19
451.766	911.19
451.986	912.19
452.207	901.19
452.428	900.19
452.648	924.19
452.869	865.19
453.089	854.19
453.31	885.19
453.53	874.19
453.751	891.19
453.971	881.19
454.192	882.19
454.412	877.19
454.633	867.19
454.853	848.19
455.073	865.19
455.294	846.19
455.514	855.19
455.734	850.19
455.955	806.19
456.175	868.19
456.395	853.19
456.616	820.19
456.836	823.19
457.056	822.19
457.276	840.19
457.497	840.19
457.717	843.19
457.937	839.19
458.157	879.19
458.377	870.19
458.598	874.19
458.818	909.19
459.038	946.19
459.258	982.19
459.478	1022.19
459.698	999.19
459.918	1063.19
460.138	1078.19
460.358	1146.19
460.578	1151.19
460.798	1184.19
461.018	1208.19
461.238	1149.19
461.458	1152.19
461.678	1144.19
461.898	1149.19
462.118	1210.19
462.338	1250.19
462.558	1314.19
462.777	1337.19
462.997	1419.19
463.217	1579.19
463.437	1607.19
463.657	1474.19
463.876	1363.19
464.096	1398.19
464.316	1394.19
464.536	1350.19
464.755	1344.19
464.975	1295.19
465.195	1214.19
465.414	1135.19
465.634	1060.19
465.854	1011.19
466.073	1018.19
466.293	1026.19
466.512	984.19
466.732	934.19
466.951	954.19
467.171	947.19
467.391	964.19
467.61	966.19
467.829	938.19
468.049	930.19
468.268	907.19
468.488	929.19
468.707	900.19
468.927	945.19
469.146	915.19
469.365	944.19
469.585	928.19
469.804	942.19
470.023	964.19
470.243	951.19
470.462	968.19
470.681	982.19
470.901	988.19
471.12	964.19
471.339	955.19
471.558	960.19
471.777	955.19
471.997	942.19
472.216	906.19
472.435	929.19
472.654	901.19
472.873	885.19
473.092	897.19
473.311	903.19
473.53	902.19
473.749	878.19
473.968	856.19
474.187	901.19
474.406	863.19
474.625	874.19
474.844	896.19
475.063	904.19
475.282	911.19
475.501	918.19
475.72	917.19
475.939	892.19
476.158	919.19
476.377	927.19
476.596	943.19
476.814	962.19
477.033	946.19
477.252	968.19
477.471	986.19
477.69	993.19
477.908	1037.19
478.127	1072.19
478.346	1055.19
478.564	1086.19
478.783	1087.19
479.002	1107.19
479.22	1102.19
479.439	1059.19
479.658	1118.19
479.876	1105.19
480.095	1138.19
480.313	1170.19
480.532	1206.19
480.751	1204.19
480.969	1142.19
481.188	1121.19
481.406	1051.19
481.624	1052.19
481.843	1018.19
482.061	1021.19
482.28	1011.19
482.498	1018.19
482.717	995.19
482.935	1004.19
483.153	1003.19
483.372	1015.19
483.59	1018.19
483.808	987.19
484.027	1011.19
484.245	1045.19
484.463	1008.19
484.681	1075.19
484.9	1058.19
485.118	1073.19
485.336	1034.19
485.554	1064.19
485.772	1076.19
485.99	1091.19
486.209	1088.19
486.427	1087.19
486.645	1073.19
486.863	1076.19
487.081	1066.19
487.299	1080.19
487.517	1070.19
487.735	1060.19
487.953	1074.19
488.171	1067.19
488.389	1040.19
488.607	1037.19
488.825	1024.19
489.043	1048.19
489.261	1036.19
489.479	1062.19
489.696	1072.19
489.914	1094.19
490.132	1081.19
490.35	1066.19
490.568	1099.19
490.786	1072.19
491.003	1099.19
491.221	1094.19
491.439	1094.19
491.657	1090.19
491.874	1082.19
492.092	1080.19
492.31	1091.19
492.527	1091.19
492.745	1088.19
492.963	1108.19
493.18	1123.19
493.398	1120.19
493.615	1129.19
493.833	1111.19
494.05	1135.19
494.268	1147.19
494.485	1153.19
494.703	1138.19
494.92	1132.19
495.138	1168.19
495.355	1131.19
495.573	1172.19
495.79	1134.19
496.008	1150.19
496.225	1151.19
496.442	1178.19
496.66	1195.19
496.877	1225.19
497.094	1231.19
497.312	1237.19
