Data from NiCl2@0.125M.TitratingCurve.Agarose3%dH2O.NegLispCup.LampEnergy10.LIBS07252019_HRD10591_18-29-11-575.txt Node
Date: Thu Jul 25 18:29:11 EDT 2019
User: cochatt
Spectrometer: HR+D1059
Trigger mode: 1
Integration Time (sec): 1.000000E-1
Scans to average: 1
Electric dark correction enabled: true
Nonlinearity correction enabled: false
Boxcar width: 0
XAxis mode: Wavelengths
Number of Pixels in Spectrum: 2048
>>>>>Begin Spectral Data<<<<<
223.165	-19.88
223.4	-19.88
223.635	-19.88
223.869	-16.88
224.104	-15.88
224.338	-4.88
224.573	-24.88
224.808	-10.88
225.042	-14.88
225.277	-8.88
225.511	8.12
225.746	-0.88
225.98	7.12
226.215	10.12
226.449	18.12
226.683	24.12
226.918	27.12
227.152	23.12
227.387	31.12
227.621	28.12
227.856	49.12
228.09	44.12
228.324	52.12
228.559	47.12
228.793	53.12
229.027	92.12
229.262	125.12
229.496	126.12
229.73	105.12
229.964	119.12
230.199	119.12
230.433	117.12
230.667	125.12
230.901	131.12
231.136	125.12
231.37	122.12
231.604	143.12
231.838	139.12
232.072	139.12
232.306	155.12
232.541	146.12
232.775	148.12
233.009	142.12
233.243	146.12
233.477	139.12
233.711	136.12
233.945	147.12
234.179	154.12
234.413	147.12
234.647	151.12
234.881	143.12
235.115	147.12
235.349	141.12
235.583	154.12
235.817	147.12
236.051	162.12
236.285	145.12
236.519	156.12
236.753	137.12
236.987	147.12
237.221	158.12
237.455	164.12
237.689	167.12
237.922	167.12
238.156	167.12
238.39	152.12
238.624	160.12
238.858	172.12
239.091	155.12
239.325	183.12
239.559	160.12
239.793	170.12
240.027	174.12
240.26	182.12
240.494	168.12
240.728	177.12
240.961	172.12
241.195	187.12
241.429	176.12
241.662	196.12
241.896	169.12
242.13	194.12
242.363	171.12
242.597	183.12
242.83	191.12
243.064	189.12
243.298	192.12
243.531	201.12
243.765	193.12
243.998	201.12
244.232	209.12
244.465	217.12
244.699	217.12
244.932	212.12
245.166	217.12
245.399	215.12
245.633	212.12
245.866	215.12
246.099	202.12
246.333	225.12
246.566	209.12
246.8	220.12
247.033	235.12
247.266	237.12
247.5	236.12
247.733	222.12
247.966	229.12
248.2	229.12
248.433	227.12
248.666	231.12
248.899	246.12
249.133	236.12
249.366	247.12
249.599	242.12
249.832	245.12
250.066	256.12
250.299	225.12
250.532	245.12
250.765	249.12
250.998	253.12
251.231	255.12
251.465	249.12
251.698	277.12
251.931	274.12
252.164	265.12
252.397	267.12
252.63	265.12
252.863	270.12
253.096	252.12
253.329	261.12
253.562	264.12
253.795	294.12
254.028	261.12
254.261	275.12
254.494	273.12
254.727	267.12
254.96	279.12
255.193	271.12
255.426	274.12
255.659	285.12
255.892	283.12
256.124	294.12
256.357	292.12
256.59	304.12
256.823	287.12
257.056	303.12
257.289	297.12
257.521	313.12
257.754	303.12
257.987	282.12
258.22	305.12
258.452	300.12
258.685	313.12
258.918	297.12
259.151	294.12
259.383	293.12
259.616	324.12
259.849	311.12
260.081	325.12
260.314	315.12
260.547	293.12
260.779	312.12
261.012	317.12
261.244	314.12
261.477	324.12
261.71	312.12
261.942	312.12
262.175	307.12
262.407	344.12
262.64	326.12
262.872	324.12
263.105	339.12
263.337	335.12
263.57	320.12
263.802	348.12
264.035	336.12
264.267	337.12
264.499	339.12
264.732	332.12
264.964	321.12
265.197	333.12
265.429	372.12
265.661	339.12
265.894	347.12
266.126	358.12
266.358	347.12
266.591	347.12
266.823	368.12
267.055	371.12
267.287	343.12
267.52	366.12
267.752	359.12
267.984	353.12
268.216	370.12
268.448	395.12
268.681	377.12
268.913	370.12
269.145	371.12
269.377	380.12
269.609	365.12
269.841	357.12
270.073	372.12
270.306	379.12
270.538	379.12
270.77	373.12
271.002	388.12
271.234	376.12
271.466	391.12
271.698	364.12
271.93	381.12
272.162	395.12
272.394	383.12
272.626	384.12
272.858	391.12
273.09	383.12
273.322	388.12
273.553	389.12
273.785	388.12
274.017	397.12
274.249	373.12
274.481	397.12
274.713	391.12
274.945	421.12
275.176	420.12
275.408	407.12
275.64	411.12
275.872	398.12
276.104	407.12
276.335	392.12
276.567	402.12
276.799	403.12
277.031	418.12
277.262	413.12
277.494	422.12
277.726	399.12
277.957	413.12
278.189	422.12
278.421	415.12
278.652	418.12
278.884	406.12
279.115	445.12
279.347	433.12
279.579	465.12
279.81	426.12
280.042	423.12
280.273	452.12
280.505	442.12
280.736	435.12
280.968	439.12
281.199	445.12
281.431	463.12
281.662	460.12
281.894	461.12
282.125	433.12
282.356	431.12
282.588	465.12
282.819	461.12
283.051	463.12
283.282	455.12
283.513	473.12
283.745	465.12
283.976	474.12
284.207	490.12
284.439	464.12
284.67	449.12
284.901	475.12
285.132	462.12
285.364	474.12
285.595	480.12
285.826	468.12
286.057	487.12
286.288	465.12
286.52	485.12
286.751	489.12
286.982	513.12
287.213	486.12
287.444	504.12
287.675	498.12
287.906	481.12
288.138	509.12
288.369	515.12
288.6	502.12
288.831	497.12
289.062	490.12
289.293	505.12
289.524	511.12
289.755	503.12
289.986	508.12
290.217	505.12
290.448	510.12
290.679	492.12
290.91	492.12
291.141	524.12
291.371	531.12
291.602	520.12
291.833	524.12
292.064	518.12
292.295	517.12
292.526	528.12
292.757	519.12
292.987	513.12
293.218	508.12
293.449	525.12
293.68	539.12
293.91	529.12
294.141	534.12
294.372	525.12
294.603	516.12
294.833	521.12
295.064	536.12
295.295	534.12
295.525	550.12
295.756	532.12
295.987	524.12
296.217	540.12
296.448	547.12
296.679	537.12
296.909	539.12
297.14	551.12
297.37	579.12
297.601	588.12
297.831	562.12
298.062	560.12
298.292	575.12
298.523	612.12
298.753	597.12
298.984	569.12
299.214	575.12
299.445	555.12
299.675	570.12
299.905	557.12
300.136	583.12
300.366	563.12
300.597	575.12
300.827	589.12
301.057	585.12
301.288	602.12
301.518	601.12
301.748	615.12
301.979	595.12
302.209	615.12
302.439	588.12
302.669	587.12
302.9	583.12
303.13	557.12
303.36	583.12
303.59	569.12
303.82	572.12
304.051	601.12
304.281	587.12
304.511	578.12
304.741	574.12
304.971	593.12
305.201	593.12
305.431	556.12
305.661	597.12
305.891	577.12
306.121	575.12
306.352	575.12
306.582	578.12
306.812	559.12
307.042	571.12
307.272	565.12
307.502	575.12
307.731	592.12
307.961	554.12
308.191	569.12
308.421	549.12
308.651	567.12
308.881	561.12
309.111	568.12
309.341	562.12
309.571	554.12
309.8	556.12
310.03	570.12
310.26	576.12
310.49	571.12
310.72	553.12
310.949	578.12
311.179	571.12
311.409	581.12
311.639	579.12
311.868	581.12
312.098	583.12
312.328	603.12
312.557	605.12
312.787	594.12
313.017	585.12
313.246	606.12
313.476	592.12
313.706	594.12
313.935	628.12
314.165	613.12
314.394	608.12
314.624	613.12
314.853	607.12
315.083	586.12
315.312	612.12
315.542	596.12
315.771	600.12
316.001	583.12
316.23	598.12
316.46	582.12
316.689	606.12
316.919	571.12
317.148	594.12
317.377	599.12
317.607	582.12
317.836	596.12
318.065	562.12
318.295	590.12
318.524	563.12
318.753	586.12
318.983	574.12
319.212	582.12
319.441	593.12
319.67	574.12
319.9	585.12
320.129	582.12
320.358	599.12
320.587	573.12
320.816	574.12
321.046	583.12
321.275	598.12
321.504	584.12
321.733	596.12
321.962	595.12
322.191	582.12
322.42	615.12
322.649	587.12
322.878	600.12
323.108	591.12
323.337	617.12
323.566	604.12
323.795	596.12
324.024	583.12
324.253	604.12
324.482	612.12
324.71	601.12
324.939	615.12
325.168	620.12
325.397	617.12
325.626	625.12
325.855	629.12
326.084	617.12
326.313	645.12
326.542	650.12
326.77	672.12
326.999	644.12
327.228	633.12
327.457	625.12
327.686	614.12
327.914	627.12
328.143	653.12
328.372	630.12
328.6	655.12
328.829	679.12
329.058	616.12
329.287	636.12
329.515	669.12
329.744	647.12
329.972	667.12
330.201	641.12
330.43	647.12
330.658	674.12
330.887	655.12
331.115	658.12
331.344	683.12
331.572	659.12
331.801	688.12
332.03	697.12
332.258	715.12
332.486	742.12
332.715	765.12
332.943	799.12
333.172	823.12
333.4	891.12
333.629	891.12
333.857	913.12
334.085	869.12
334.314	869.12
334.542	860.12
334.771	835.12
334.999	837.12
335.227	787.12
335.455	809.12
335.684	802.12
335.912	805.12
336.14	782.12
336.369	793.12
336.597	790.12
336.825	778.12
337.053	776.12
337.281	753.12
337.51	736.12
337.738	737.12
337.966	731.12
338.194	714.12
338.422	690.12
338.65	703.12
338.878	690.12
339.106	677.12
339.334	703.12
339.562	682.12
339.79	667.12
340.018	669.12
340.246	644.12
340.474	671.12
340.702	663.12
340.93	676.12
341.158	683.12
341.386	680.12
341.614	667.12
341.842	674.12
342.07	650.12
342.298	674.12
342.526	684.12
342.754	663.12
342.981	674.12
343.209	669.12
343.437	732.12
343.665	764.12
343.893	798.12
344.12	848.12
344.348	835.12
344.576	767.12
344.804	751.12
345.031	712.12
345.259	684.12
345.487	671.12
345.714	682.12
345.942	663.12
346.17	635.12
346.397	665.12
346.625	673.12
346.853	651.12
347.08	643.12
347.308	650.12
347.535	669.12
347.763	666.12
347.99	676.12
348.218	665.12
348.445	657.12
348.673	655.12
348.9	646.12
349.128	653.12
349.355	635.12
349.583	648.12
349.81	643.12
350.037	609.12
350.265	623.12
350.492	639.12
350.72	629.12
350.947	638.12
351.174	599.12
351.402	625.12
351.629	632.12
351.856	629.12
352.083	613.12
352.311	626.12
352.538	620.12
352.765	608.12
352.992	624.12
353.22	609.12
353.447	617.12
353.674	608.12
353.901	602.12
354.128	618.12
354.355	617.12
354.583	625.12
354.81	618.12
355.037	615.12
355.264	617.12
355.491	618.12
355.718	627.12
355.945	637.12
356.172	644.12
356.399	600.12
356.626	599.12
356.853	636.12
357.08	630.12
357.307	613.12
357.534	607.12
357.761	623.12
357.988	635.12
358.215	603.12
358.441	605.12
358.668	612.12
358.895	614.12
359.122	624.12
359.349	625.12
359.576	615.12
359.802	609.12
360.029	620.12
360.256	635.12
360.483	641.12
360.709	618.12
360.936	627.12
361.163	617.12
361.39	593.12
361.616	604.12
361.843	623.12
362.07	633.12
362.296	643.12
362.523	607.12
362.749	611.12
362.976	632.12
363.203	588.12
363.429	601.12
363.656	600.12
363.882	628.12
364.109	616.12
364.335	617.12
364.562	597.12
364.788	623.12
365.015	623.12
365.241	596.12
365.468	605.12
365.694	624.12
365.92	626.12
366.147	610.12
366.373	616.12
366.599	614.12
366.826	632.12
367.052	616.12
367.278	630.12
367.505	639.12
367.731	612.12
367.957	601.12
368.184	604.12
368.41	593.12
368.636	609.12
368.862	627.12
369.089	634.12
369.315	628.12
369.541	626.12
369.767	617.12
369.993	667.12
370.219	664.12
370.445	650.12
370.672	667.12
370.898	673.12
371.124	668.12
371.35	691.12
371.576	707.12
371.802	680.12
372.028	675.12
372.254	682.12
372.48	681.12
372.706	689.12
372.932	699.12
373.158	666.12
373.384	669.12
373.61	656.12
373.835	682.12
374.061	705.12
374.287	695.12
374.513	673.12
374.739	700.12
374.965	765.12
375.191	774.12
375.416	753.12
375.642	715.12
375.868	714.12
376.094	695.12
376.319	683.12
376.545	719.12
376.771	688.12
376.997	711.12
377.222	681.12
377.448	673.12
377.674	678.12
377.899	670.12
378.125	659.12
378.35	695.12
378.576	645.12
378.802	659.12
379.027	662.12
379.253	679.12
379.478	666.12
379.704	659.12
379.929	669.12
380.155	663.12
380.38	679.12
380.606	644.12
380.831	649.12
381.057	676.12
381.282	674.12
381.507	681.12
381.733	669.12
381.958	683.12
382.184	691.12
382.409	684.12
382.634	708.12
382.86	692.12
383.085	721.12
383.31	736.12
383.535	730.12
383.761	757.12
383.986	756.12
384.211	767.12
384.436	773.12
384.662	829.12
384.887	795.12
385.112	836.12
385.337	849.12
385.562	852.12
385.787	823.12
386.013	843.12
386.238	819.12
386.463	848.12
386.688	843.12
386.913	801.12
387.138	818.12
387.363	782.12
387.588	811.12
387.813	793.12
388.038	793.12
388.263	794.12
388.488	803.12
388.713	794.12
388.938	780.12
389.163	796.12
389.387	807.12
389.612	765.12
389.837	825.12
390.062	788.12
390.287	795.12
390.512	774.12
390.736	800.12
390.961	826.12
391.186	817.12
391.411	831.12
391.636	891.12
391.86	901.12
392.085	944.12
392.31	912.12
392.534	908.12
392.759	883.12
392.984	838.12
393.208	850.12
393.433	864.12
393.658	869.12
393.882	871.12
394.107	857.12
394.331	864.12
394.556	868.12
394.78	850.12
395.005	869.12
395.229	869.12
395.454	892.12
395.678	911.12
395.903	947.12
396.127	904.12
396.352	853.12
396.576	863.12
396.801	840.12
397.025	878.12
397.249	876.12
397.474	915.12
397.698	891.12
397.922	934.12
398.147	897.12
398.371	917.12
398.595	957.12
398.82	969.12
399.044	1066.12
399.268	1186.12
399.492	1373.12
399.717	1593.12
399.941	1650.12
400.165	1386.12
400.389	1239.12
400.613	1136.12
400.837	1058.12
401.062	1068.12
401.286	1047.12
401.51	1010.12
401.734	994.12
401.958	1042.12
402.182	1035.12
402.406	1055.12
402.63	1100.12
402.854	1122.12
403.078	1126.12
403.302	1124.12
403.526	1171.12
403.75	1197.12
403.974	1235.12
404.198	1235.12
404.422	1233.12
404.645	1218.12
404.869	1206.12
405.093	1180.12
405.317	1195.12
405.541	1182.12
405.765	1155.12
405.988	1127.12
406.212	1122.12
406.436	1138.12
406.66	1154.12
406.883	1186.12
407.107	1256.12
407.331	1343.12
407.555	1352.12
407.778	1367.12
408.002	1316.12
408.226	1290.12
408.449	1249.12
408.673	1178.12
408.896	1155.12
409.12	1163.12
409.344	1184.12
409.567	1196.12
409.791	1202.12
410.014	1217.12
410.238	1163.12
410.461	1159.12
410.685	1136.12
410.908	1104.12
411.132	1084.12
411.355	1035.12
411.578	1062.12
411.802	1044.12
412.025	1040.12
412.249	1077.12
412.472	1063.12
412.695	1075.12
412.919	1040.12
413.142	995.12
413.365	1031.12
413.589	1050.12
413.812	1019.12
414.035	1006.12
414.258	978.12
414.482	1014.12
414.705	1047.12
414.928	1066.12
415.151	1020.12
415.374	1016.12
415.597	1044.12
415.821	991.12
416.044	997.12
416.267	979.12
416.49	989.12
416.713	1008.12
416.936	1035.12
417.159	982.12
417.382	1014.12
417.605	1009.12
417.828	1002.12
418.051	1028.12
418.274	1030.12
418.497	1025.12
418.72	1077.12
418.943	1085.12
419.166	1118.12
419.389	1220.12
419.611	1181.12
419.834	1110.12
420.057	1091.12
420.28	1058.12
420.503	1017.12
420.726	1045.12
420.948	997.12
421.171	994.12
421.394	1079.12
421.617	1016.12
421.839	1047.12
422.062	1020.12
422.285	991.12
422.507	1038.12
422.73	992.12
422.953	1045.12
423.175	1091.12
423.398	1088.12
423.621	1091.12
423.843	1115.12
424.066	1116.12
424.288	1117.12
424.511	1098.12
424.733	1091.12
424.956	1047.12
425.178	1031.12
425.401	1045.12
425.623	1041.12
425.846	1013.12
426.068	1008.12
426.291	994.12
426.513	975.12
426.735	956.12
426.958	964.12
427.18	924.12
427.402	960.12
427.625	931.12
427.847	935.12
428.069	915.12
428.292	914.12
428.514	903.12
428.736	908.12
428.958	893.12
429.181	885.12
429.403	889.12
429.625	886.12
429.847	901.12
430.069	854.12
430.292	888.12
430.514	889.12
430.736	900.12
430.958	869.12
431.18	876.12
431.402	889.12
431.624	883.12
431.846	883.12
432.068	923.12
432.29	940.12
432.512	907.12
432.734	937.12
432.956	908.12
433.178	939.12
433.4	918.12
433.622	909.12
433.844	924.12
434.066	918.12
434.287	915.12
434.509	979.12
434.731	961.12
434.953	1042.12
435.175	1071.12
435.397	1024.12
435.618	965.12
435.84	935.12
436.062	910.12
436.284	932.12
436.505	932.12
436.727	958.12
436.949	910.12
437.17	914.12
437.392	913.12
437.614	891.12
437.835	901.12
438.057	872.12
438.278	864.12
438.5	871.12
438.721	883.12
438.943	893.12
439.165	909.12
439.386	903.12
439.608	894.12
439.829	950.12
440.05	905.12
440.272	924.12
440.493	915.12
440.715	942.12
440.936	981.12
441.158	970.12
441.379	1011.12
441.6	1064.12
441.822	1061.12
442.043	1061.12
442.264	1044.12
442.486	1012.12
442.707	1017.12
442.928	999.12
443.149	978.12
443.371	1035.12
443.592	992.12
443.813	1029.12
444.034	1025.12
444.255	1087.12
444.476	1139.12
444.698	1228.12
444.919	1285.12
445.14	1383.12
445.361	1197.12
445.582	1093.12
445.803	1034.12
446.024	1009.12
446.245	972.12
446.466	949.12
446.687	943.12
446.908	913.12
447.129	912.12
447.35	904.12
447.571	890.12
447.792	903.12
448.013	886.12
448.234	881.12
448.455	848.12
448.675	867.12
448.896	860.12
449.117	853.12
449.338	832.12
449.559	824.12
449.779	816.12
450	817.12
450.221	865.12
450.442	863.12
450.662	879.12
450.883	860.12
451.104	901.12
451.324	885.12
451.545	887.12
451.766	891.12
451.986	845.12
452.207	871.12
452.428	847.12
452.648	856.12
452.869	847.12
453.089	837.12
453.31	852.12
453.53	844.12
453.751	812.12
453.971	826.12
454.192	831.12
454.412	799.12
454.633	839.12
454.853	828.12
455.073	780.12
455.294	790.12
455.514	808.12
455.734	796.12
455.955	796.12
456.175	780.12
456.395	804.12
456.616	799.12
456.836	811.12
457.056	802.12
457.276	771.12
457.497	789.12
457.717	785.12
457.937	816.12
458.157	825.12
458.377	805.12
458.598	826.12
458.818	844.12
459.038	870.12
459.258	879.12
459.478	951.12
459.698	907.12
459.918	960.12
460.138	1043.12
460.358	1116.12
460.578	1109.12
460.798	1099.12
461.018	1120.12
461.238	1086.12
461.458	1107.12
461.678	1097.12
461.898	1099.12
462.118	1109.12
462.338	1180.12
462.558	1149.12
462.777	1279.12
462.997	1380.12
463.217	1511.12
463.437	1498.12
463.657	1410.12
463.876	1330.12
464.096	1333.12
464.316	1301.12
464.536	1311.12
464.755	1290.12
464.975	1221.12
465.195	1133.12
465.414	1047.12
465.634	1011.12
465.854	973.12
466.073	952.12
466.293	910.12
466.512	924.12
466.732	902.12
466.951	913.12
467.171	886.12
467.391	898.12
467.61	878.12
467.829	877.12
468.049	880.12
468.268	839.12
468.488	831.12
468.707	797.12
468.927	848.12
469.146	836.12
469.365	831.12
469.585	847.12
469.804	893.12
470.023	897.12
470.243	899.12
470.462	924.12
470.681	936.12
470.901	911.12
471.12	891.12
471.339	916.12
471.558	852.12
471.777	866.12
471.997	855.12
472.216	843.12
472.435	825.12
472.654	804.12
472.873	825.12
473.092	823.12
473.311	798.12
473.53	806.12
473.749	805.12
473.968	807.12
474.187	787.12
474.406	795.12
474.625	830.12
474.844	812.12
475.063	819.12
475.282	835.12
475.501	819.12
475.72	829.12
475.939	812.12
476.158	851.12
476.377	858.12
476.596	893.12
476.814	844.12
477.033	877.12
477.252	880.12
477.471	891.12
477.69	892.12
477.908	958.12
478.127	970.12
478.346	985.12
478.564	997.12
478.783	1000.12
479.002	1038.12
479.22	1037.12
479.439	1067.12
479.658	1028.12
479.876	1005.12
480.095	1042.12
480.313	1098.12
480.532	1107.12
480.751	1099.12
480.969	1059.12
481.188	1001.12
481.406	971.12
481.624	951.12
481.843	915.12
482.061	936.12
482.28	961.12
482.498	951.12
482.717	901.12
482.935	899.12
483.153	901.12
483.372	908.12
483.59	921.12
483.808	955.12
484.027	957.12
484.245	918.12
484.463	929.12
484.681	945.12
484.9	951.12
485.118	985.12
485.336	949.12
485.554	951.12
485.772	982.12
485.99	999.12
486.209	979.12
486.427	1000.12
486.645	1001.12
486.863	969.12
487.081	965.12
487.299	972.12
487.517	972.12
487.735	948.12
487.953	981.12
488.171	989.12
488.389	940.12
488.607	940.12
488.825	951.12
489.043	952.12
489.261	964.12
489.479	963.12
489.696	981.12
489.914	963.12
490.132	958.12
490.35	937.12
490.568	985.12
490.786	997.12
491.003	963.12
491.221	974.12
491.439	983.12
491.657	940.12
491.874	966.12
492.092	992.12
492.31	978.12
492.527	989.12
492.745	985.12
492.963	988.12
493.18	979.12
493.398	1017.12
493.615	988.12
493.833	1013.12
494.05	1027.12
494.268	1023.12
494.485	998.12
494.703	1029.12
494.92	1019.12
495.138	1043.12
495.355	1044.12
495.573	1058.12
495.79	1028.12
496.008	1059.12
496.225	1047.12
496.442	1053.12
496.66	1074.12
496.877	1101.12
497.094	1109.12
497.312	1096.12
497.529	1099.12
497.746	1126.12
497.963	1177.12
498.181	1215.12
498.398	1285.12
498.615	1367.12
498.832	1438.12
