Data from NiCl2@0.0625M.TitratingCurve.Agarose3%dH2O.NegLispCup.LampEnergy10.LIBS07252019_HRD10591_18-34-57-576.txt Node
Date: Thu Jul 25 18:34:57 EDT 2019
User: cochatt
Spectrometer: HR+D1059
Trigger mode: 1
Integration Time (sec): 1.000000E-1
Scans to average: 1
Electric dark correction enabled: true
Nonlinearity correction enabled: false
Boxcar width: 0
XAxis mode: Wavelengths
Number of Pixels in Spectrum: 2048
>>>>>Begin Spectral Data<<<<<
223.165	-33.19
223.4	-33.19
223.635	-33.19
223.869	7.81
224.104	-11.19
224.338	-8.19
224.573	-15.19
224.808	-14.19
225.042	-7.19
225.277	-17.19
225.511	-7.19
225.746	6.81
225.98	14.81
226.215	10.81
226.449	-3.19
226.683	18.81
226.918	29.81
227.152	27.81
227.387	32.81
227.621	37.81
227.856	46.81
228.09	42.81
228.324	52.81
228.559	61.81
228.793	82.81
229.027	134.81
229.262	132.81
229.496	124.81
229.73	154.81
229.964	165.81
230.199	168.81
230.433	162.81
230.667	169.81
230.901	176.81
231.136	169.81
231.37	190.81
231.604	182.81
231.838	179.81
232.072	180.81
232.306	175.81
232.541	208.81
232.775	182.81
233.009	200.81
233.243	194.81
233.477	205.81
233.711	184.81
233.945	200.81
234.179	193.81
234.413	201.81
234.647	194.81
234.881	189.81
235.115	198.81
235.349	203.81
235.583	199.81
235.817	209.81
236.051	197.81
236.285	194.81
236.519	209.81
236.753	195.81
236.987	206.81
237.221	210.81
237.455	224.81
237.689	210.81
237.922	225.81
238.156	233.81
238.39	228.81
238.624	222.81
238.858	233.81
239.091	224.81
239.325	225.81
239.559	231.81
239.793	238.81
240.027	240.81
240.26	244.81
240.494	267.81
240.728	248.81
240.961	273.81
241.195	266.81
241.429	260.81
241.662	265.81
241.896	286.81
242.13	277.81
242.363	273.81
242.597	292.81
242.83	269.81
243.064	297.81
243.298	278.81
243.531	276.81
243.765	285.81
243.998	278.81
244.232	301.81
244.465	306.81
244.699	307.81
244.932	308.81
245.166	329.81
245.399	308.81
245.633	316.81
245.866	297.81
246.099	317.81
246.333	324.81
246.566	334.81
246.8	322.81
247.033	330.81
247.266	324.81
247.5	344.81
247.733	317.81
247.966	349.81
248.2	352.81
248.433	322.81
248.666	340.81
248.899	347.81
249.133	362.81
249.366	373.81
249.599	364.81
249.832	363.81
250.066	358.81
250.299	367.81
250.532	360.81
250.765	375.81
250.998	378.81
251.231	396.81
251.465	389.81
251.698	390.81
251.931	406.81
252.164	384.81
252.397	397.81
252.63	388.81
252.863	403.81
253.096	394.81
253.329	393.81
253.562	402.81
253.795	392.81
254.028	391.81
254.261	413.81
254.494	412.81
254.727	414.81
254.96	401.81
255.193	416.81
255.426	421.81
255.659	432.81
255.892	434.81
256.124	403.81
256.357	434.81
256.59	424.81
256.823	442.81
257.056	432.81
257.289	442.81
257.521	452.81
257.754	429.81
257.987	473.81
258.22	426.81
258.452	453.81
258.685	461.81
258.918	458.81
259.151	458.81
259.383	457.81
259.616	452.81
259.849	461.81
260.081	481.81
260.314	463.81
260.547	466.81
260.779	468.81
261.012	474.81
261.244	496.81
261.477	494.81
261.71	490.81
261.942	472.81
262.175	488.81
262.407	501.81
262.64	490.81
262.872	503.81
263.105	491.81
263.337	512.81
263.57	536.81
263.802	536.81
264.035	512.81
264.267	505.81
264.499	511.81
264.732	515.81
264.964	545.81
265.197	542.81
265.429	528.81
265.661	506.81
265.894	543.81
266.126	540.81
266.358	538.81
266.591	522.81
266.823	545.81
267.055	565.81
267.287	559.81
267.52	553.81
267.752	563.81
267.984	541.81
268.216	564.81
268.448	580.81
268.681	568.81
268.913	555.81
269.145	570.81
269.377	567.81
269.609	566.81
269.841	584.81
270.073	586.81
270.306	588.81
270.538	569.81
270.77	577.81
271.002	591.81
271.234	578.81
271.466	582.81
271.698	610.81
271.93	589.81
272.162	601.81
272.394	594.81
272.626	610.81
272.858	613.81
273.09	600.81
273.322	616.81
273.553	614.81
273.785	650.81
274.017	630.81
274.249	626.81
274.481	636.81
274.713	626.81
274.945	650.81
275.176	628.81
275.408	638.81
275.64	649.81
275.872	644.81
276.104	654.81
276.335	633.81
276.567	649.81
276.799	663.81
277.031	671.81
277.262	660.81
277.494	656.81
277.726	644.81
277.957	671.81
278.189	658.81
278.421	670.81
278.652	666.81
278.884	675.81
279.115	700.81
279.347	672.81
279.579	684.81
279.81	688.81
280.042	687.81
280.273	670.81
280.505	702.81
280.736	681.81
280.968	701.81
281.199	697.81
281.431	714.81
281.662	701.81
281.894	714.81
282.125	722.81
282.356	746.81
282.588	718.81
282.819	736.81
283.051	713.81
283.282	694.81
283.513	715.81
283.745	755.81
283.976	725.81
284.207	718.81
284.439	721.81
284.67	758.81
284.901	753.81
285.132	752.81
285.364	744.81
285.595	736.81
285.826	736.81
286.057	779.81
286.288	780.81
286.52	764.81
286.751	794.81
286.982	780.81
287.213	784.81
287.444	776.81
287.675	790.81
287.906	764.81
288.138	805.81
288.369	796.81
288.6	786.81
288.831	810.81
289.062	803.81
289.293	815.81
289.524	804.81
289.755	802.81
289.986	806.81
290.217	795.81
290.448	807.81
290.679	829.81
290.91	797.81
291.141	812.81
291.371	774.81
291.602	827.81
291.833	821.81
292.064	807.81
292.295	814.81
292.526	813.81
292.757	813.81
292.987	800.81
293.218	820.81
293.449	824.81
293.68	806.81
293.91	855.81
294.141	809.81
294.372	819.81
294.603	817.81
294.833	799.81
295.064	797.81
295.295	823.81
295.525	837.81
295.756	828.81
295.987	844.81
296.217	849.81
296.448	828.81
296.679	828.81
296.909	840.81
297.14	829.81
297.37	865.81
297.601	893.81
297.831	861.81
298.062	852.81
298.292	888.81
298.523	880.81
298.753	902.81
298.984	888.81
299.214	868.81
299.445	898.81
299.675	870.81
299.905	888.81
300.136	858.81
300.366	904.81
300.597	885.81
300.827	893.81
301.057	944.81
301.288	900.81
301.518	932.81
301.748	908.81
301.979	955.81
302.209	919.81
302.439	914.81
302.669	927.81
302.9	908.81
303.13	904.81
303.36	923.81
303.59	904.81
303.82	903.81
304.051	919.81
304.281	956.81
304.511	936.81
304.741	914.81
304.971	921.81
305.201	925.81
305.431	900.81
305.661	922.81
305.891	900.81
306.121	934.81
306.352	903.81
306.582	928.81
306.812	915.81
307.042	914.81
307.272	945.81
307.502	898.81
307.731	919.81
307.961	914.81
308.191	926.81
308.421	896.81
308.651	916.81
308.881	918.81
309.111	921.81
309.341	909.81
309.571	917.81
309.8	916.81
310.03	909.81
310.26	938.81
310.49	929.81
310.72	942.81
310.949	901.81
311.179	927.81
311.409	920.81
311.639	941.81
311.868	949.81
312.098	969.81
312.328	934.81
312.557	968.81
312.787	950.81
313.017	947.81
313.246	965.81
313.476	978.81
313.706	984.81
313.935	991.81
314.165	977.81
314.394	969.81
314.624	1009.81
314.853	986.81
315.083	973.81
315.312	977.81
315.542	976.81
315.771	970.81
316.001	973.81
316.23	978.81
316.46	961.81
316.689	965.81
316.919	973.81
317.148	980.81
317.377	982.81
317.607	974.81
317.836	980.81
318.065	960.81
318.295	966.81
318.524	973.81
318.753	956.81
318.983	981.81
319.212	951.81
319.441	972.81
319.67	947.81
319.9	988.81
320.129	1011.81
320.358	982.81
320.587	950.81
320.816	978.81
321.046	995.81
321.275	993.81
321.504	976.81
321.733	962.81
321.962	1018.81
322.191	1002.81
322.42	995.81
322.649	991.81
322.878	1000.81
323.108	1022.81
323.337	1008.81
323.566	1011.81
323.795	1003.81
324.024	1026.81
324.253	1017.81
324.482	1026.81
324.71	997.81
324.939	1006.81
325.168	1010.81
325.397	1001.81
325.626	1044.81
325.855	1053.81
326.084	1054.81
326.313	1068.81
326.542	1018.81
326.77	1090.81
326.999	1042.81
327.228	1052.81
327.457	1061.81
327.686	1053.81
327.914	1054.81
328.143	1044.81
328.372	1090.81
328.6	1078.81
328.829	1074.81
329.058	1062.81
329.287	1072.81
329.515	1066.81
329.744	1085.81
329.972	1108.81
330.201	1085.81
330.43	1093.81
330.658	1098.81
330.887	1120.81
331.115	1135.81
331.344	1098.81
331.572	1129.81
331.801	1134.81
332.03	1179.81
332.258	1167.81
332.486	1192.81
332.715	1214.81
332.943	1268.81
333.172	1298.81
333.4	1340.81
333.629	1333.81
333.857	1401.81
334.085	1376.81
334.314	1354.81
334.542	1343.81
334.771	1340.81
334.999	1318.81
335.227	1303.81
335.455	1306.81
335.684	1312.81
335.912	1310.81
336.14	1285.81
336.369	1290.81
336.597	1286.81
336.825	1287.81
337.053	1291.81
337.281	1292.81
337.51	1241.81
337.738	1230.81
337.966	1206.81
338.194	1230.81
338.422	1188.81
338.65	1185.81
338.878	1168.81
339.106	1131.81
339.334	1166.81
339.562	1139.81
339.79	1136.81
340.018	1141.81
340.246	1096.81
340.474	1140.81
340.702	1124.81
340.93	1150.81
341.158	1146.81
341.386	1123.81
341.614	1144.81
341.842	1108.81
342.07	1105.81
342.298	1137.81
342.526	1127.81
342.754	1128.81
342.981	1101.81
343.209	1162.81
343.437	1196.81
343.665	1269.81
343.893	1304.81
344.12	1332.81
344.348	1287.81
344.576	1247.81
344.804	1220.81
345.031	1189.81
345.259	1180.81
345.487	1130.81
345.714	1121.81
345.942	1120.81
346.17	1116.81
346.397	1093.81
346.625	1098.81
346.853	1081.81
347.08	1097.81
347.308	1103.81
347.535	1078.81
347.763	1078.81
347.99	1082.81
348.218	1062.81
348.445	1064.81
348.673	1054.81
348.9	1081.81
349.128	1089.81
349.355	1058.81
349.583	1064.81
349.81	1051.81
350.037	1067.81
350.265	1039.81
350.492	1034.81
350.72	1051.81
350.947	1021.81
351.174	1016.81
351.402	1079.81
351.629	1051.81
351.856	1010.81
352.083	1046.81
352.311	1023.81
352.538	1026.81
352.765	1018.81
352.992	1032.81
353.22	1038.81
353.447	1034.81
353.674	1006.81
353.901	1012.81
354.128	999.81
354.355	1043.81
354.583	1041.81
354.81	1032.81
355.037	1013.81
355.264	1050.81
355.491	1032.81
355.718	1036.81
355.945	1048.81
356.172	1030.81
356.399	1048.81
356.626	1072.81
356.853	1050.81
357.08	1053.81
357.307	1062.81
357.534	1032.81
357.761	1054.81
357.988	1051.81
358.215	1027.81
358.441	1034.81
358.668	1026.81
358.895	1043.81
359.122	1038.81
359.349	1032.81
359.576	1041.81
359.802	1042.81
360.029	1025.81
360.256	1027.81
360.483	1022.81
360.709	1053.81
360.936	1052.81
361.163	999.81
361.39	1032.81
361.616	1034.81
361.843	1028.81
362.07	1034.81
362.296	1027.81
362.523	1027.81
362.749	1061.81
362.976	1049.81
363.203	1008.81
363.429	1036.81
363.656	1053.81
363.882	1055.81
364.109	1037.81
364.335	1059.81
364.562	1039.81
364.788	1029.81
365.015	1044.81
365.241	1034.81
365.468	1041.81
365.694	1029.81
365.92	1058.81
366.147	1052.81
366.373	1051.81
366.599	1029.81
366.826	1008.81
367.052	1037.81
367.278	1036.81
367.505	1057.81
367.731	1048.81
367.957	1044.81
368.184	1061.81
368.41	1071.81
368.636	1046.81
368.862	1088.81
369.089	1048.81
369.315	1061.81
369.541	1066.81
369.767	1068.81
369.993	1067.81
370.219	1059.81
370.445	1109.81
370.672	1104.81
370.898	1069.81
371.124	1123.81
371.35	1120.81
371.576	1122.81
371.802	1149.81
372.028	1093.81
372.254	1124.81
372.48	1114.81
372.706	1144.81
372.932	1152.81
373.158	1150.81
373.384	1139.81
373.61	1138.81
373.835	1176.81
374.061	1121.81
374.287	1146.81
374.513	1145.81
374.739	1175.81
374.965	1197.81
375.191	1241.81
375.416	1230.81
375.642	1194.81
375.868	1177.81
376.094	1170.81
376.319	1179.81
376.545	1153.81
376.771	1148.81
376.997	1120.81
377.222	1157.81
377.448	1108.81
377.674	1133.81
377.899	1106.81
378.125	1108.81
378.35	1112.81
378.576	1090.81
378.802	1125.81
379.027	1126.81
379.253	1106.81
379.478	1125.81
379.704	1106.81
379.929	1132.81
380.155	1126.81
380.38	1098.81
380.606	1125.81
380.831	1100.81
381.057	1122.81
381.282	1124.81
381.507	1123.81
381.733	1120.81
381.958	1150.81
382.184	1133.81
382.409	1166.81
382.634	1170.81
382.86	1173.81
383.085	1184.81
383.31	1164.81
383.535	1235.81
383.761	1208.81
383.986	1222.81
384.211	1246.81
384.436	1273.81
384.662	1314.81
384.887	1308.81
385.112	1295.81
385.337	1348.81
385.562	1323.81
385.787	1347.81
386.013	1339.81
386.238	1349.81
386.463	1317.81
386.688	1354.81
386.913	1344.81
387.138	1340.81
387.363	1330.81
387.588	1334.81
387.813	1312.81
388.038	1370.81
388.263	1320.81
388.488	1326.81
388.713	1338.81
388.938	1325.81
389.163	1314.81
389.387	1316.81
389.612	1307.81
389.837	1305.81
390.062	1332.81
390.287	1349.81
390.512	1307.81
390.736	1374.81
390.961	1341.81
391.186	1396.81
391.411	1400.81
391.636	1443.81
391.86	1450.81
392.085	1493.81
392.31	1526.81
392.534	1462.81
392.759	1451.81
392.984	1432.81
393.208	1409.81
393.433	1404.81
393.658	1435.81
393.882	1435.81
394.107	1427.81
394.331	1408.81
394.556	1426.81
394.78	1434.81
395.005	1435.81
395.229	1467.81
395.454	1498.81
395.678	1530.81
395.903	1497.81
396.127	1470.81
396.352	1462.81
396.576	1429.81
396.801	1459.81
397.025	1477.81
397.249	1489.81
397.474	1543.81
397.698	1532.81
397.922	1520.81
398.147	1512.81
398.371	1566.81
398.595	1600.81
398.82	1656.81
399.044	1766.81
399.268	1882.81
399.492	2104.81
399.717	2335.81
399.941	2346.81
400.165	2171.81
400.389	2009.81
400.613	1875.81
400.837	1753.81
401.062	1741.81
401.286	1669.81
401.51	1678.81
401.734	1667.81
401.958	1694.81
402.182	1664.81
402.406	1692.81
402.63	1734.81
402.854	1746.81
403.078	1758.81
403.302	1770.81
403.526	1798.81
403.75	1762.81
403.974	1835.81
404.198	1835.81
404.422	1862.81
404.645	1829.81
404.869	1822.81
405.093	1824.81
405.317	1800.81
405.541	1787.81
405.765	1817.81
405.988	1804.81
406.212	1828.81
406.436	1795.81
406.66	1865.81
406.883	1869.81
407.107	1989.81
407.331	2076.81
407.555	2096.81
407.778	2099.81
408.002	2029.81
408.226	1987.81
408.449	1990.81
408.673	1893.81
408.896	1928.81
409.12	1870.81
409.344	1904.81
409.567	1841.81
409.791	1858.81
410.014	1853.81
410.238	1814.81
410.461	1820.81
410.685	1820.81
410.908	1840.81
411.132	1765.81
411.355	1790.81
411.578	1720.81
411.802	1760.81
412.025	1761.81
412.249	1739.81
412.472	1760.81
412.695	1691.81
412.919	1678.81
413.142	1703.81
413.365	1713.81
413.589	1696.81
413.812	1631.81
414.035	1658.81
414.258	1661.81
414.482	1612.81
414.705	1716.81
414.928	1689.81
415.151	1678.81
415.374	1686.81
415.597	1681.81
415.821	1619.81
416.044	1638.81
416.267	1590.81
416.49	1668.81
416.713	1622.81
416.936	1610.81
417.159	1597.81
417.382	1578.81
417.605	1588.81
417.828	1560.81
418.051	1602.81
418.274	1634.81
418.497	1607.81
418.72	1657.81
418.943	1637.81
419.166	1768.81
419.389	1861.81
419.611	1852.81
419.834	1699.81
420.057	1693.81
420.28	1633.81
420.503	1584.81
420.726	1561.81
420.948	1579.81
421.171	1603.81
421.394	1591.81
421.617	1613.81
421.839	1618.81
422.062	1592.81
422.285	1585.81
422.507	1619.81
422.73	1610.81
422.953	1662.81
423.175	1651.81
423.398	1626.81
423.621	1651.81
423.843	1656.81
424.066	1660.81
424.288	1643.81
424.511	1600.81
424.733	1656.81
424.956	1634.81
425.178	1627.81
425.401	1668.81
425.623	1596.81
425.846	1553.81
426.068	1573.81
426.291	1571.81
426.513	1578.81
426.735	1548.81
426.958	1520.81
427.18	1485.81
427.402	1474.81
427.625	1503.81
427.847	1460.81
428.069	1492.81
428.292	1517.81
428.514	1458.81
428.736	1477.81
428.958	1463.81
429.181	1430.81
429.403	1410.81
429.625	1460.81
429.847	1434.81
430.069	1464.81
430.292	1463.81
430.514	1429.81
430.736	1427.81
430.958	1464.81
431.18	1501.81
431.402	1461.81
431.624	1428.81
431.846	1477.81
432.068	1500.81
432.29	1522.81
432.512	1462.81
432.734	1492.81
432.956	1454.81
433.178	1459.81
433.4	1510.81
433.622	1504.81
433.844	1505.81
434.066	1505.81
434.287	1516.81
434.509	1579.81
434.731	1598.81
434.953	1606.81
435.175	1630.81
435.397	1588.81
435.618	1557.81
435.84	1509.81
436.062	1493.81
436.284	1446.81
436.505	1477.81
436.727	1514.81
436.949	1458.81
437.17	1485.81
437.392	1411.81
437.614	1425.81
437.835	1388.81
438.057	1412.81
438.278	1376.81
438.5	1430.81
438.721	1404.81
438.943	1407.81
439.165	1412.81
439.386	1438.81
439.608	1462.81
439.829	1440.81
440.05	1426.81
440.272	1453.81
440.493	1447.81
440.715	1483.81
440.936	1478.81
441.158	1477.81
441.379	1548.81
441.6	1602.81
441.822	1596.81
442.043	1607.81
442.264	1597.81
442.486	1544.81
442.707	1576.81
442.928	1552.81
443.149	1591.81
443.371	1556.81
443.592	1575.81
443.813	1614.81
444.034	1602.81
444.255	1625.81
444.476	1728.81
444.698	1772.81
444.919	1789.81
445.14	1897.81
445.361	1765.81
445.582	1642.81
445.803	1580.81
446.024	1556.81
446.245	1478.81
446.466	1498.81
446.687	1421.81
446.908	1437.81
447.129	1407.81
447.35	1405.81
447.571	1387.81
447.792	1376.81
448.013	1392.81
448.234	1337.81
448.455	1336.81
448.675	1331.81
448.896	1321.81
449.117	1331.81
449.338	1322.81
449.559	1295.81
449.779	1303.81
450	1287.81
450.221	1274.81
450.442	1321.81
450.662	1289.81
450.883	1322.81
451.104	1328.81
451.324	1323.81
451.545	1304.81
451.766	1315.81
451.986	1313.81
452.207	1290.81
452.428	1283.81
452.648	1284.81
452.869	1267.81
453.089	1226.81
453.31	1306.81
453.53	1238.81
453.751	1240.81
453.971	1218.81
454.192	1235.81
454.412	1246.81
454.633	1226.81
454.853	1237.81
455.073	1214.81
455.294	1244.81
455.514	1228.81
455.734	1251.81
455.955	1207.81
456.175	1228.81
456.395	1220.81
456.616	1228.81
456.836	1227.81
457.056	1231.81
457.276	1213.81
457.497	1261.81
457.717	1210.81
457.937	1247.81
458.157	1281.81
458.377	1274.81
458.598	1317.81
458.818	1348.81
459.038	1368.81
459.258	1372.81
459.478	1438.81
459.698	1488.81
459.918	1516.81
460.138	1558.81
460.358	1580.81
460.578	1601.81
460.798	1641.81
461.018	1688.81
461.238	1659.81
461.458	1652.81
461.678	1610.81
461.898	1686.81
462.118	1694.81
462.338	1767.81
462.558	1804.81
462.777	1894.81
462.997	1925.81
463.217	2061.81
463.437	2123.81
463.657	2022.81
463.876	1914.81
464.096	1891.81
464.316	1824.81
464.536	1896.81
464.755	1840.81
464.975	1780.81
465.195	1695.81
465.414	1657.81
465.634	1554.81
465.854	1518.81
466.073	1472.81
466.293	1428.81
466.512	1412.81
466.732	1372.81
466.951	1391.81
467.171	1404.81
467.391	1404.81
467.61	1365.81
467.829	1323.81
468.049	1388.81
468.268	1325.81
468.488	1328.81
468.707	1316.81
468.927	1343.81
469.146	1336.81
469.365	1340.81
469.585	1356.81
469.804	1401.81
470.023	1389.81
470.243	1410.81
470.462	1390.81
470.681	1412.81
470.901	1428.81
471.12	1400.81
471.339	1396.81
471.558	1383.81
471.777	1362.81
471.997	1343.81
472.216	1319.81
472.435	1300.81
472.654	1328.81
472.873	1294.81
473.092	1340.81
473.311	1305.81
473.53	1333.81
473.749	1287.81
473.968	1333.81
474.187	1319.81
474.406	1292.81
474.625	1313.81
474.844	1298.81
475.063	1330.81
475.282	1343.81
475.501	1326.81
475.72	1312.81
475.939	1334.81
476.158	1365.81
476.377	1399.81
476.596	1392.81
476.814	1403.81
477.033	1426.81
477.252	1414.81
477.471	1432.81
477.69	1438.81
477.908	1495.81
478.127	1511.81
478.346	1565.81
478.564	1603.81
478.783	1635.81
479.002	1643.81
479.22	1631.81
479.439	1622.81
479.658	1676.81
479.876	1638.81
480.095	1658.81
480.313	1716.81
480.532	1740.81
480.751	1721.81
480.969	1703.81
481.188	1672.81
481.406	1596.81
481.624	1579.81
481.843	1581.81
482.061	1573.81
482.28	1579.81
482.498	1560.81
482.717	1556.81
482.935	1592.81
483.153	1548.81
483.372	1573.81
483.59	1604.81
483.808	1586.81
484.027	1624.81
484.245	1623.81
484.463	1662.81
484.681	1701.81
484.9	1697.81
485.118	1681.81
485.336	1706.81
485.554	1704.81
485.772	1751.81
485.99	1737.81
486.209	1749.81
486.427	1725.81
486.645	1703.81
486.863	1737.81
487.081	1684.81
487.299	1708.81
487.517	1709.81
487.735	1683.81
487.953	1712.81
488.171	1714.81
488.389	1700.81
488.607	1673.81
488.825	1620.81
489.043	1638.81
489.261	1645.81
489.479	1636.81
489.696	1638.81
489.914	1662.81
490.132	1638.81
490.35	1654.81
490.568	1652.81
490.786	1644.81
491.003	1612.81
491.221	1656.81
