Data from NiCl2@0.25M.TitratingCurve.Agarose3%dH2O.NegLispCup.LampEnergy10.LIBS07252019_HRD10591_18-26-14-574.txt Node
Date: Thu Jul 25 18:26:14 EDT 2019
User: cochatt
Spectrometer: HR+D1059
Trigger mode: 1
Integration Time (sec): 1.000000E-1
Scans to average: 1
Electric dark correction enabled: true
Nonlinearity correction enabled: false
Boxcar width: 0
XAxis mode: Wavelengths
Number of Pixels in Spectrum: 2048
>>>>>Begin Spectral Data<<<<<
223.165	-11.19
223.4	-11.19
223.635	-11.19
223.869	-8.19
224.104	-18.19
224.338	-18.19
224.573	-19.19
224.808	-18.19
225.042	-11.19
225.277	-6.19
225.511	-9.19
225.746	-8.19
225.98	4.81
226.215	11.81
226.449	16.81
226.683	38.81
226.918	26.81
227.152	28.81
227.387	34.81
227.621	44.81
227.856	36.81
228.09	37.81
228.324	50.81
228.559	62.81
228.793	75.81
229.027	109.81
229.262	115.81
229.496	121.81
229.73	121.81
229.964	127.81
230.199	149.81
230.433	149.81
230.667	138.81
230.901	143.81
231.136	151.81
231.37	147.81
231.604	144.81
231.838	162.81
232.072	159.81
232.306	155.81
232.541	154.81
232.775	157.81
233.009	160.81
233.243	158.81
233.477	149.81
233.711	160.81
233.945	153.81
234.179	159.81
234.413	153.81
234.647	154.81
234.881	161.81
235.115	161.81
235.349	167.81
235.583	149.81
235.817	162.81
236.051	168.81
236.285	173.81
236.519	182.81
236.753	181.81
236.987	161.81
237.221	183.81
237.455	172.81
237.689	162.81
237.922	181.81
238.156	165.81
238.39	178.81
238.624	176.81
238.858	169.81
239.091	186.81
239.325	184.81
239.559	191.81
239.793	177.81
240.027	190.81
240.26	212.81
240.494	200.81
240.728	204.81
240.961	184.81
241.195	189.81
241.429	199.81
241.662	213.81
241.896	195.81
242.13	217.81
242.363	190.81
242.597	196.81
242.83	213.81
243.064	210.81
243.298	199.81
243.531	214.81
243.765	214.81
243.998	206.81
244.232	215.81
244.465	226.81
244.699	233.81
244.932	221.81
245.166	232.81
245.399	230.81
245.633	220.81
245.866	222.81
246.099	241.81
246.333	250.81
246.566	237.81
246.8	231.81
247.033	250.81
247.266	237.81
247.5	229.81
247.733	244.81
247.966	246.81
248.2	247.81
248.433	261.81
248.666	250.81
248.899	254.81
249.133	269.81
249.366	265.81
249.599	246.81
249.832	265.81
250.066	279.81
250.299	281.81
250.532	273.81
250.765	268.81
250.998	263.81
251.231	282.81
251.465	261.81
251.698	289.81
251.931	293.81
252.164	295.81
252.397	281.81
252.63	285.81
252.863	300.81
253.096	322.81
253.329	287.81
253.562	294.81
253.795	292.81
254.028	309.81
254.261	298.81
254.494	309.81
254.727	291.81
254.96	307.81
255.193	296.81
255.426	295.81
255.659	296.81
255.892	305.81
256.124	308.81
256.357	318.81
256.59	329.81
256.823	310.81
257.056	309.81
257.289	333.81
257.521	336.81
257.754	327.81
257.987	305.81
258.22	316.81
258.452	310.81
258.685	327.81
258.918	360.81
259.151	327.81
259.383	348.81
259.616	335.81
259.849	340.81
260.081	336.81
260.314	342.81
260.547	349.81
260.779	335.81
261.012	348.81
261.244	349.81
261.477	353.81
261.71	357.81
261.942	363.81
262.175	351.81
262.407	346.81
262.64	345.81
262.872	351.81
263.105	366.81
263.337	361.81
263.57	378.81
263.802	385.81
264.035	374.81
264.267	367.81
264.499	360.81
264.732	377.81
264.964	372.81
265.197	370.81
265.429	361.81
265.661	395.81
265.894	395.81
266.126	363.81
266.358	389.81
266.591	407.81
266.823	387.81
267.055	388.81
267.287	383.81
267.52	393.81
267.752	393.81
267.984	386.81
268.216	388.81
268.448	405.81
268.681	387.81
268.913	379.81
269.145	402.81
269.377	410.81
269.609	421.81
269.841	398.81
270.073	409.81
270.306	417.81
270.538	403.81
270.77	405.81
271.002	419.81
271.234	422.81
271.466	423.81
271.698	417.81
271.93	412.81
272.162	417.81
272.394	428.81
272.626	435.81
272.858	426.81
273.09	413.81
273.322	431.81
273.553	440.81
273.785	452.81
274.017	440.81
274.249	441.81
274.481	460.81
274.713	423.81
274.945	427.81
275.176	448.81
275.408	446.81
275.64	468.81
275.872	451.81
276.104	453.81
276.335	416.81
276.567	446.81
276.799	464.81
277.031	466.81
277.262	451.81
277.494	438.81
277.726	453.81
277.957	454.81
278.189	457.81
278.421	468.81
278.652	467.81
278.884	473.81
279.115	462.81
279.347	470.81
279.579	473.81
279.81	499.81
280.042	487.81
280.273	496.81
280.505	471.81
280.736	465.81
280.968	488.81
281.199	474.81
281.431	491.81
281.662	497.81
281.894	503.81
282.125	504.81
282.356	513.81
282.588	514.81
282.819	500.81
283.051	519.81
283.282	515.81
283.513	527.81
283.745	508.81
283.976	518.81
284.207	521.81
284.439	519.81
284.67	524.81
284.901	532.81
285.132	533.81
285.364	543.81
285.595	540.81
285.826	562.81
286.057	566.81
286.288	545.81
286.52	545.81
286.751	543.81
286.982	562.81
287.213	555.81
287.444	573.81
287.675	545.81
287.906	571.81
288.138	577.81
288.369	551.81
288.6	549.81
288.831	533.81
289.062	564.81
289.293	558.81
289.524	547.81
289.755	577.81
289.986	563.81
290.217	563.81
290.448	586.81
290.679	582.81
290.91	577.81
291.141	598.81
291.371	557.81
291.602	593.81
291.833	554.81
292.064	570.81
292.295	579.81
292.526	560.81
292.757	575.81
292.987	582.81
293.218	554.81
293.449	582.81
293.68	577.81
293.91	582.81
294.141	574.81
294.372	587.81
294.603	596.81
294.833	579.81
295.064	576.81
295.295	584.81
295.525	574.81
295.756	584.81
295.987	591.81
296.217	586.81
296.448	588.81
296.679	576.81
296.909	587.81
297.14	592.81
297.37	615.81
297.601	606.81
297.831	622.81
298.062	606.81
298.292	613.81
298.523	639.81
298.753	658.81
298.984	627.81
299.214	630.81
299.445	626.81
299.675	631.81
299.905	626.81
300.136	625.81
300.366	623.81
300.597	632.81
300.827	663.81
301.057	650.81
301.288	659.81
301.518	673.81
301.748	659.81
301.979	666.81
302.209	669.81
302.439	666.81
302.669	665.81
302.9	645.81
303.13	674.81
303.36	666.81
303.59	644.81
303.82	652.81
304.051	660.81
304.281	673.81
304.511	651.81
304.741	632.81
304.971	629.81
305.201	653.81
305.431	643.81
305.661	654.81
305.891	659.81
306.121	633.81
306.352	655.81
306.582	630.81
306.812	663.81
307.042	645.81
307.272	638.81
307.502	665.81
307.731	656.81
307.961	652.81
308.191	639.81
308.421	645.81
308.651	652.81
308.881	616.81
309.111	649.81
309.341	631.81
309.571	634.81
309.8	645.81
310.03	635.81
310.26	666.81
310.49	651.81
310.72	658.81
310.949	661.81
311.179	645.81
311.409	648.81
311.639	660.81
311.868	671.81
312.098	664.81
312.328	663.81
312.557	661.81
312.787	683.81
313.017	670.81
313.246	654.81
313.476	687.81
313.706	701.81
313.935	703.81
314.165	692.81
314.394	701.81
314.624	699.81
314.853	686.81
315.083	699.81
315.312	699.81
315.542	693.81
315.771	688.81
316.001	678.81
316.23	689.81
316.46	681.81
316.689	684.81
316.919	692.81
317.148	696.81
317.377	684.81
317.607	687.81
317.836	685.81
318.065	682.81
318.295	674.81
318.524	702.81
318.753	693.81
318.983	677.81
319.212	664.81
319.441	655.81
319.67	680.81
319.9	657.81
320.129	694.81
320.358	675.81
320.587	693.81
320.816	683.81
321.046	679.81
321.275	673.81
321.504	702.81
321.733	693.81
321.962	684.81
322.191	700.81
322.42	696.81
322.649	722.81
322.878	700.81
323.108	699.81
323.337	729.81
323.566	714.81
323.795	695.81
324.024	719.81
324.253	714.81
324.482	691.81
324.71	719.81
324.939	714.81
325.168	738.81
325.397	732.81
325.626	751.81
325.855	749.81
326.084	757.81
326.313	767.81
326.542	746.81
326.77	770.81
326.999	748.81
327.228	738.81
327.457	756.81
327.686	734.81
327.914	753.81
328.143	789.81
328.372	747.81
328.6	747.81
328.829	757.81
329.058	742.81
329.287	762.81
329.515	769.81
329.744	775.81
329.972	761.81
330.201	759.81
330.43	747.81
330.658	791.81
330.887	775.81
331.115	782.81
331.344	791.81
331.572	789.81
331.801	810.81
332.03	833.81
332.258	818.81
332.486	889.81
332.715	908.81
332.943	953.81
333.172	955.81
333.4	1017.81
333.629	1034.81
333.857	1063.81
334.085	1020.81
334.314	994.81
334.542	1005.81
334.771	993.81
334.999	919.81
335.227	944.81
335.455	932.81
335.684	888.81
335.912	921.81
336.14	914.81
336.369	920.81
336.597	884.81
336.825	894.81
337.053	904.81
337.281	896.81
337.51	877.81
337.738	853.81
337.966	848.81
338.194	819.81
338.422	833.81
338.65	844.81
338.878	823.81
339.106	832.81
339.334	797.81
339.562	814.81
339.79	809.81
340.018	773.81
340.246	784.81
340.474	781.81
340.702	789.81
340.93	806.81
341.158	781.81
341.386	790.81
341.614	793.81
341.842	795.81
342.07	782.81
342.298	787.81
342.526	754.81
342.754	792.81
342.981	775.81
343.209	821.81
343.437	843.81
343.665	875.81
343.893	976.81
344.12	1005.81
344.348	932.81
344.576	886.81
344.804	869.81
345.031	817.81
345.259	799.81
345.487	779.81
345.714	791.81
345.942	788.81
346.17	757.81
346.397	777.81
346.625	761.81
346.853	777.81
347.08	765.81
347.308	758.81
347.535	771.81
347.763	778.81
347.99	784.81
348.218	754.81
348.445	755.81
348.673	757.81
348.9	760.81
349.128	758.81
349.355	767.81
349.583	752.81
349.81	759.81
350.037	756.81
350.265	729.81
350.492	735.81
350.72	727.81
350.947	722.81
351.174	731.81
351.402	717.81
351.629	734.81
351.856	731.81
352.083	724.81
352.311	724.81
352.538	724.81
352.765	735.81
352.992	723.81
353.22	716.81
353.447	708.81
353.674	737.81
353.901	696.81
354.128	718.81
354.355	745.81
354.583	732.81
354.81	739.81
355.037	740.81
355.264	748.81
355.491	727.81
355.718	731.81
355.945	712.81
356.172	723.81
356.399	737.81
356.626	736.81
356.853	742.81
357.08	729.81
357.307	753.81
357.534	747.81
357.761	743.81
357.988	739.81
358.215	758.81
358.441	732.81
358.668	737.81
358.895	734.81
359.122	718.81
359.349	748.81
359.576	745.81
359.802	743.81
360.029	756.81
360.256	748.81
360.483	740.81
360.709	727.81
360.936	747.81
361.163	722.81
361.39	754.81
361.616	737.81
361.843	723.81
362.07	724.81
362.296	753.81
362.523	724.81
362.749	747.81
362.976	727.81
363.203	738.81
363.429	693.81
363.656	723.81
363.882	732.81
364.109	710.81
364.335	690.81
364.562	726.81
364.788	756.81
365.015	742.81
365.241	723.81
365.468	737.81
365.694	762.81
365.92	731.81
366.147	703.81
366.373	715.81
366.599	714.81
366.826	743.81
367.052	739.81
367.278	727.81
367.505	727.81
367.731	730.81
367.957	730.81
368.184	754.81
368.41	773.81
368.636	771.81
368.862	766.81
369.089	775.81
369.315	746.81
369.541	757.81
369.767	751.81
369.993	748.81
370.219	753.81
370.445	774.81
370.672	791.81
370.898	781.81
371.124	803.81
371.35	796.81
371.576	805.81
371.802	794.81
372.028	791.81
372.254	784.81
372.48	839.81
372.706	827.81
372.932	853.81
373.158	832.81
373.384	839.81
373.61	811.81
373.835	795.81
374.061	792.81
374.287	829.81
374.513	829.81
374.739	833.81
374.965	862.81
375.191	915.81
375.416	895.81
375.642	851.81
375.868	870.81
376.094	847.81
376.319	795.81
376.545	801.81
376.771	805.81
376.997	812.81
377.222	804.81
377.448	794.81
377.674	803.81
377.899	802.81
378.125	801.81
378.35	770.81
378.576	781.81
378.802	799.81
379.027	798.81
379.253	813.81
379.478	790.81
379.704	789.81
379.929	783.81
380.155	794.81
380.38	802.81
380.606	798.81
380.831	782.81
381.057	797.81
381.282	790.81
381.507	783.81
381.733	791.81
381.958	819.81
382.184	826.81
382.409	804.81
382.634	825.81
382.86	827.81
383.085	850.81
383.31	878.81
383.535	890.81
383.761	897.81
383.986	922.81
384.211	939.81
384.436	948.81
384.662	959.81
384.887	957.81
385.112	942.81
385.337	936.81
385.562	987.81
385.787	969.81
386.013	988.81
386.238	1001.81
386.463	994.81
386.688	981.81
386.913	963.81
387.138	975.81
387.363	967.81
387.588	969.81
387.813	964.81
388.038	918.81
388.263	958.81
388.488	949.81
388.713	950.81
388.938	976.81
389.163	923.81
389.387	930.81
389.612	941.81
389.837	973.81
390.062	932.81
390.287	938.81
390.512	952.81
390.736	942.81
390.961	995.81
391.186	996.81
391.411	997.81
391.636	1084.81
391.86	1084.81
392.085	1115.81
392.31	1099.81
392.534	1056.81
392.759	1023.81
392.984	1015.81
393.208	1025.81
393.433	1026.81
393.658	1014.81
393.882	1026.81
394.107	1044.81
394.331	1063.81
394.556	1031.81
394.78	1031.81
395.005	1048.81
395.229	1041.81
395.454	1098.81
395.678	1083.81
395.903	1089.81
396.127	1066.81
396.352	1050.81
396.576	1000.81
396.801	1001.81
397.025	1026.81
397.249	1053.81
397.474	1102.81
397.698	1099.81
397.922	1086.81
398.147	1107.81
398.371	1123.81
398.595	1130.81
398.82	1226.81
399.044	1276.81
399.268	1423.81
399.492	1695.81
399.717	1906.81
399.941	1886.81
400.165	1649.81
400.389	1456.81
400.613	1337.81
400.837	1316.81
401.062	1268.81
401.286	1226.81
401.51	1208.81
401.734	1181.81
401.958	1233.81
402.182	1249.81
402.406	1274.81
402.63	1315.81
402.854	1295.81
403.078	1322.81
403.302	1387.81
403.526	1386.81
403.75	1396.81
403.974	1429.81
404.198	1414.81
404.422	1416.81
404.645	1434.81
404.869	1390.81
405.093	1409.81
405.317	1374.81
405.541	1369.81
405.765	1325.81
405.988	1356.81
406.212	1333.81
406.436	1347.81
406.66	1361.81
406.883	1437.81
407.107	1493.81
407.331	1530.81
407.555	1580.81
407.778	1596.81
408.002	1551.81
408.226	1483.81
408.449	1464.81
408.673	1427.81
408.896	1393.81
409.12	1397.81
409.344	1427.81
409.567	1380.81
409.791	1361.81
410.014	1343.81
410.238	1361.81
410.461	1320.81
410.685	1350.81
410.908	1289.81
411.132	1301.81
411.355	1284.81
411.578	1266.81
411.802	1244.81
412.025	1288.81
412.249	1283.81
412.472	1291.81
412.695	1270.81
412.919	1243.81
413.142	1209.81
413.365	1197.81
413.589	1212.81
413.812	1209.81
414.035	1170.81
414.258	1222.81
414.482	1216.81
414.705	1233.81
414.928	1242.81
415.151	1228.81
415.374	1227.81
415.597	1247.81
415.821	1193.81
416.044	1190.81
416.267	1194.81
416.49	1195.81
416.713	1154.81
416.936	1203.81
417.159	1194.81
417.382	1198.81
417.605	1167.81
417.828	1208.81
418.051	1202.81
418.274	1229.81
418.497	1225.81
418.72	1269.81
418.943	1239.81
419.166	1305.81
419.389	1390.81
419.611	1334.81
419.834	1283.81
420.057	1256.81
420.28	1218.81
420.503	1207.81
420.726	1163.81
420.948	1181.81
421.171	1205.81
421.394	1215.81
421.617	1164.81
421.839	1212.81
422.062	1222.81
422.285	1203.81
422.507	1226.81
422.73	1223.81
422.953	1256.81
423.175	1281.81
423.398	1265.81
423.621	1287.81
423.843	1283.81
424.066	1304.81
424.288	1283.81
424.511	1287.81
424.733	1261.81
424.956	1211.81
425.178	1230.81
425.401	1205.81
425.623	1190.81
425.846	1149.81
426.068	1169.81
426.291	1187.81
426.513	1147.81
426.735	1141.81
426.958	1125.81
427.18	1090.81
427.402	1077.81
427.625	1100.81
427.847	1061.81
428.069	1092.81
428.292	1058.81
428.514	1051.81
428.736	1057.81
428.958	1044.81
429.181	1043.81
429.403	1029.81
429.625	1033.81
429.847	1025.81
430.069	1030.81
430.292	1013.81
430.514	1029.81
430.736	1036.81
430.958	1049.81
431.18	1029.81
431.402	1037.81
431.624	1048.81
431.846	1053.81
432.068	1074.81
432.29	1056.81
432.512	1044.81
432.734	1057.81
432.956	1060.81
433.178	1069.81
433.4	1065.81
433.622	1065.81
433.844	1067.81
434.066	1063.81
434.287	1102.81
434.509	1118.81
434.731	1175.81
434.953	1193.81
435.175	1213.81
435.397	1173.81
435.618	1101.81
435.84	1068.81
436.062	1052.81
436.284	1064.81
436.505	1045.81
436.727	1066.81
436.949	1049.81
437.17	1047.81
437.392	1023.81
437.614	1025.81
437.835	1024.81
438.057	1013.81
438.278	1006.81
438.5	1005.81
438.721	994.81
438.943	999.81
439.165	1049.81
439.386	1011.81
439.608	1040.81
439.829	1049.81
440.05	1047.81
440.272	1075.81
440.493	1057.81
440.715	1052.81
440.936	1075.81
441.158	1120.81
441.379	1151.81
441.6	1201.81
441.822	1183.81
442.043	1194.81
442.264	1159.81
442.486	1149.81
442.707	1155.81
442.928	1153.81
443.149	1165.81
443.371	1151.81
443.592	1161.81
443.813	1218.81
444.034	1174.81
444.255	1236.81
444.476	1298.81
444.698	1390.81
444.919	1471.81
445.14	1449.81
445.361	1313.81
445.582	1219.81
445.803	1137.81
446.024	1149.81
446.245	1121.81
446.466	1106.81
446.687	1065.81
446.908	1071.81
447.129	1035.81
447.35	1001.81
447.571	992.81
447.792	986.81
448.013	995.81
448.234	974.81
448.455	948.81
448.675	977.81
448.896	939.81
449.117	967.81
449.338	968.81
449.559	931.81
449.779	931.81
450	956.81
450.221	956.81
450.442	979.81
450.662	980.81
450.883	967.81
451.104	1002.81
451.324	947.81
451.545	957.81
451.766	970.81
451.986	964.81
452.207	963.81
452.428	926.81
452.648	929.81
452.869	943.81
453.089	928.81
453.31	916.81
453.53	930.81
453.751	913.81
453.971	918.81
454.192	959.81
454.412	917.81
454.633	904.81
454.853	909.81
455.073	892.81
455.294	915.81
455.514	869.81
455.734	906.81
455.955	893.81
456.175	915.81
456.395	906.81
456.616	883.81
456.836	886.81
457.056	882.81
457.276	863.81
457.497	916.81
457.717	892.81
457.937	893.81
458.157	886.81
458.377	877.81
458.598	929.81
458.818	964.81
459.038	982.81
459.258	980.81
459.478	1057.81
459.698	1089.81
459.918	1135.81
460.138	1143.81
460.358	1208.81
460.578	1257.81
460.798	1260.81
461.018	1243.81
461.238	1229.81
461.458	1209.81
461.678	1237.81
461.898	1259.81
462.118	1253.81
462.338	1330.81
462.558	1351.81
462.777	1429.81
462.997	1516.81
463.217	1687.81
463.437	1718.81
463.657	1559.81
463.876	1499.81
464.096	1479.81
464.316	1452.81
464.536	1448.81
464.755	1436.81
464.975	1342.81
465.195	1295.81
465.414	1201.81
465.634	1132.81
465.854	1081.81
466.073	1074.81
466.293	1077.81
466.512	1034.81
466.732	1005.81
466.951	1031.81
467.171	992.81
467.391	1002.81
467.61	1002.81
467.829	1006.81
468.049	965.81
468.268	975.81
468.488	944.81
468.707	953.81
468.927	959.81
469.146	954.81
469.365	1016.81
469.585	1007.81
469.804	1002.81
470.023	1017.81
470.243	1043.81
470.462	1049.81
470.681	1029.81
470.901	1040.81
471.12	1027.81
471.339	993.81
471.558	981.81
471.777	1000.81
471.997	985.81
472.216	976.81
472.435	957.81
472.654	927.81
472.873	926.81
473.092	917.81
473.311	933.81
473.53	929.81
473.749	929.81
473.968	917.81
474.187	926.81
474.406	937.81
474.625	940.81
474.844	930.81
475.063	946.81
475.282	949.81
475.501	942.81
475.72	972.81
475.939	970.81
476.158	976.81
476.377	1002.81
476.596	977.81
476.814	988.81
477.033	1002.81
477.252	1016.81
477.471	1011.81
477.69	1065.81
477.908	1075.81
478.127	1132.81
478.346	1123.81
478.564	1143.81
478.783	1174.81
479.002	1199.81
479.22	1190.81
479.439	1202.81
479.658	1205.81
479.876	1180.81
480.095	1196.81
480.313	1268.81
480.532	1283.81
480.751	1267.81
480.969	1189.81
481.188	1185.81
481.406	1123.81
481.624	1092.81
481.843	1099.81
482.061	1105.81
482.28	1087.81
482.498	1079.81
482.717	1063.81
482.935	1071.81
483.153	1054.81
483.372	1061.81
483.59	1097.81
483.808	1073.81
484.027	1045.81
484.245	1101.81
484.463	1109.81
484.681	1091.81
484.9	1118.81
485.118	1094.81
485.336	1112.81
485.554	1133.81
485.772	1134.81
485.99	1121.81
486.209	1122.81
486.427	1115.81
486.645	1119.81
486.863	1158.81
487.081	1145.81
487.299	1114.81
487.517	1117.81
487.735	1103.81
487.953	1132.81
488.171	1107.81
488.389	1084.81
488.607	1110.81
488.825	1098.81
489.043	1113.81
489.261	1115.81
489.479	1145.81
489.696	1142.81
489.914	1149.81
490.132	1118.81
490.35	1157.81
490.568	1157.81
490.786	1149.81
491.003	1116.81
491.221	1115.81
491.439	1145.81
491.657	1121.81
491.874	1130.81
492.092	1142.81
492.31	1157.81
492.527	1147.81
492.745	1135.81
492.963	1188.81
493.18	1194.81
493.398	1160.81
493.615	1159.81
493.833	1185.81
494.05	1203.81
494.268	1201.81
494.485	1199.81
494.703	1177.81
494.92	1209.81
495.138	1204.81
495.355	1238.81
495.573	1221.81
495.79	1205.81
496.008	1212.81
496.225	1249.81
