Data from NiCl2@0.0625M.TitratingCurve.Agarose3%dH2O.NegLispCup.LampEnergy10.LIBS07252019_HRD10591_18-32-27-575.txt Node
Date: Thu Jul 25 18:32:27 EDT 2019
User: cochatt
Spectrometer: HR+D1059
Trigger mode: 1
Integration Time (sec): 1.000000E-1
Scans to average: 1
Electric dark correction enabled: true
Nonlinearity correction enabled: false
Boxcar width: 0
XAxis mode: Wavelengths
Number of Pixels in Spectrum: 2048
>>>>>Begin Spectral Data<<<<<
223.165	-9
223.4	-9
223.635	-9
223.869	-22
224.104	-29
224.338	-10
224.573	-5
224.808	-10
225.042	-2
225.277	-1
225.511	0
225.746	5
225.98	-8
226.215	7
226.449	9
226.683	22
226.918	16
227.152	37
227.387	24
227.621	38
227.856	36
228.09	44
228.324	49
228.559	68
228.793	83
229.027	169
229.262	180
229.496	181
229.73	188
229.964	204
230.199	207
230.433	208
230.667	214
230.901	207
231.136	199
231.37	211
231.604	201
231.838	221
232.072	215
232.306	213
232.541	242
232.775	212
233.009	218
233.243	219
233.477	227
233.711	229
233.945	208
234.179	237
234.413	230
234.647	240
234.881	236
235.115	235
235.349	235
235.583	245
235.817	248
236.051	249
236.285	229
236.519	258
236.753	236
236.987	261
237.221	248
237.455	271
237.689	262
237.922	263
238.156	250
238.39	264
238.624	271
238.858	284
239.091	280
239.325	285
239.559	299
239.793	309
240.027	292
240.26	284
240.494	288
240.728	317
240.961	323
241.195	310
241.429	320
241.662	320
241.896	327
242.13	317
242.363	331
242.597	336
242.83	355
243.064	344
243.298	355
243.531	336
243.765	355
243.998	363
244.232	344
244.465	352
244.699	375
244.932	360
245.166	386
245.399	378
245.633	381
245.866	384
246.099	374
246.333	374
246.566	388
246.8	378
247.033	372
247.266	396
247.5	401
247.733	411
247.966	408
248.2	426
248.433	406
248.666	421
248.899	423
249.133	411
249.366	412
249.599	443
249.832	441
250.066	436
250.299	444
250.532	446
250.765	451
250.998	441
251.231	465
251.465	462
251.698	475
251.931	487
252.164	482
252.397	476
252.63	474
252.863	464
253.096	503
253.329	474
253.562	484
253.795	491
254.028	499
254.261	502
254.494	506
254.727	512
254.96	503
255.193	483
255.426	497
255.659	504
255.892	542
256.124	513
256.357	514
256.59	530
256.823	528
257.056	512
257.289	542
257.521	527
257.754	542
257.987	522
258.22	534
258.452	544
258.685	548
258.918	564
259.151	579
259.383	553
259.616	553
259.849	575
260.081	580
260.314	598
260.547	588
260.779	574
261.012	586
261.244	597
261.477	598
261.71	601
261.942	590
262.175	572
262.407	610
262.64	598
262.872	607
263.105	608
263.337	621
263.57	631
263.802	642
264.035	617
264.267	632
264.499	630
264.732	636
264.964	624
265.197	627
265.429	643
265.661	665
265.894	639
266.126	646
266.358	673
266.591	635
266.823	654
267.055	685
267.287	675
267.52	668
267.752	647
267.984	644
268.216	671
268.448	682
268.681	656
268.913	706
269.145	682
269.377	692
269.609	681
269.841	725
270.073	695
270.306	677
270.538	702
270.77	692
271.002	707
271.234	707
271.466	728
271.698	717
271.93	707
272.162	719
272.394	736
272.626	743
272.858	726
273.09	734
273.322	727
273.553	754
273.785	762
274.017	784
274.249	776
274.481	766
274.713	761
274.945	806
275.176	784
275.408	802
275.64	788
275.872	795
276.104	798
276.335	771
276.567	772
276.799	808
277.031	798
277.262	812
277.494	794
277.726	774
277.957	797
278.189	821
278.421	785
278.652	815
278.884	800
279.115	814
279.347	862
279.579	845
279.81	826
280.042	852
280.273	852
280.505	871
280.736	835
280.968	836
281.199	850
281.431	870
281.662	868
281.894	872
282.125	834
282.356	870
282.588	893
282.819	892
283.051	858
283.282	887
283.513	886
283.745	870
283.976	917
284.207	908
284.439	897
284.67	910
284.901	924
285.132	932
285.364	922
285.595	928
285.826	907
286.057	916
286.288	908
286.52	949
286.751	932
286.982	925
287.213	955
287.444	956
287.675	937
287.906	956
288.138	985
288.369	950
288.6	1011
288.831	974
289.062	962
289.293	955
289.524	964
289.755	981
289.986	956
290.217	963
290.448	954
290.679	952
290.91	942
291.141	976
291.371	966
291.602	973
291.833	979
292.064	989
292.295	991
292.526	972
292.757	980
292.987	985
293.218	996
293.449	1015
293.68	1014
293.91	981
294.141	982
294.372	964
294.603	988
294.833	1003
295.064	999
295.295	991
295.525	971
295.756	1015
295.987	1017
296.217	1041
296.448	1006
296.679	1035
296.909	990
297.14	1020
297.37	1065
297.601	1052
297.831	1016
298.062	1038
298.292	1049
298.523	1091
298.753	1090
298.984	1054
299.214	1068
299.445	1049
299.675	1080
299.905	1067
300.136	1020
300.366	1119
300.597	1080
300.827	1107
301.057	1117
301.288	1093
301.518	1113
301.748	1123
301.979	1147
302.209	1126
302.439	1146
302.669	1130
302.9	1132
303.13	1120
303.36	1129
303.59	1129
303.82	1114
304.051	1138
304.281	1164
304.511	1124
304.741	1112
304.971	1127
305.201	1143
305.431	1118
305.661	1093
305.891	1113
306.121	1077
306.352	1120
306.582	1110
306.812	1097
307.042	1096
307.272	1103
307.502	1094
307.731	1119
307.961	1095
308.191	1138
308.421	1111
308.651	1095
308.881	1111
309.111	1096
309.341	1120
309.571	1141
309.8	1128
310.03	1108
310.26	1125
310.49	1139
310.72	1118
310.949	1142
311.179	1118
311.409	1134
311.639	1136
311.868	1170
312.098	1173
312.328	1133
312.557	1200
312.787	1186
313.017	1174
313.246	1201
313.476	1212
313.706	1180
313.935	1174
314.165	1231
314.394	1188
314.624	1188
314.853	1204
315.083	1213
315.312	1219
315.542	1193
315.771	1212
316.001	1199
316.23	1194
316.46	1151
316.689	1212
316.919	1232
317.148	1217
317.377	1182
317.607	1186
317.836	1181
318.065	1180
318.295	1214
318.524	1202
318.753	1172
318.983	1190
319.212	1183
319.441	1175
319.67	1195
319.9	1177
320.129	1182
320.358	1160
320.587	1233
320.816	1247
321.046	1231
321.275	1185
321.504	1173
321.733	1200
321.962	1197
322.191	1226
322.42	1168
322.649	1189
322.878	1192
323.108	1203
323.337	1226
323.566	1234
323.795	1215
324.024	1240
324.253	1189
324.482	1224
324.71	1218
324.939	1242
325.168	1234
325.397	1264
325.626	1279
325.855	1293
326.084	1300
326.313	1300
326.542	1294
326.77	1314
326.999	1261
327.228	1288
327.457	1296
327.686	1262
327.914	1304
328.143	1302
328.372	1318
328.6	1272
328.829	1301
329.058	1298
329.287	1330
329.515	1313
329.744	1326
329.972	1309
330.201	1336
330.43	1334
330.658	1351
330.887	1350
331.115	1371
331.344	1395
331.572	1372
331.801	1364
332.03	1424
332.258	1473
332.486	1442
332.715	1498
332.943	1569
333.172	1595
333.4	1590
333.629	1639
333.857	1675
334.085	1662
334.314	1645
334.542	1637
334.771	1650
334.999	1591
335.227	1588
335.455	1623
335.684	1605
335.912	1611
336.14	1580
336.369	1562
336.597	1605
336.825	1540
337.053	1545
337.281	1489
337.51	1486
337.738	1508
337.966	1439
338.194	1441
338.422	1414
338.65	1399
338.878	1412
339.106	1396
339.334	1411
339.562	1449
339.79	1398
340.018	1389
340.246	1344
340.474	1343
340.702	1358
340.93	1358
341.158	1370
341.386	1403
341.614	1371
341.842	1365
342.07	1380
342.298	1318
342.526	1324
342.754	1339
342.981	1354
343.209	1398
343.437	1446
343.665	1488
343.893	1562
344.12	1608
344.348	1580
344.576	1510
344.804	1466
345.031	1414
345.259	1381
345.487	1394
345.714	1356
345.942	1341
346.17	1354
346.397	1341
346.625	1304
346.853	1318
347.08	1299
347.308	1298
347.535	1309
347.763	1348
347.99	1307
348.218	1282
348.445	1311
348.673	1293
348.9	1288
349.128	1321
349.355	1295
349.583	1303
349.81	1268
350.037	1271
350.265	1247
350.492	1270
350.72	1286
350.947	1266
351.174	1291
351.402	1292
351.629	1229
351.856	1273
352.083	1261
352.311	1259
352.538	1239
352.765	1285
352.992	1260
353.22	1236
353.447	1291
353.674	1244
353.901	1271
354.128	1255
354.355	1253
354.583	1274
354.81	1219
355.037	1288
355.264	1272
355.491	1234
355.718	1240
355.945	1255
356.172	1268
356.399	1283
356.626	1242
356.853	1295
357.08	1260
357.307	1262
357.534	1271
357.761	1292
357.988	1271
358.215	1231
358.441	1286
358.668	1276
358.895	1274
359.122	1282
359.349	1244
359.576	1251
359.802	1250
360.029	1243
360.256	1275
360.483	1248
360.709	1292
360.936	1282
361.163	1274
361.39	1271
361.616	1285
361.843	1278
362.07	1255
362.296	1216
362.523	1290
362.749	1272
362.976	1266
363.203	1253
363.429	1243
363.656	1255
363.882	1271
364.109	1289
364.335	1264
364.562	1249
364.788	1282
365.015	1258
365.241	1251
365.468	1266
365.694	1246
365.92	1272
366.147	1271
366.373	1270
366.599	1268
366.826	1274
367.052	1293
367.278	1249
367.505	1247
367.731	1264
367.957	1299
368.184	1242
368.41	1296
368.636	1294
368.862	1319
369.089	1312
369.315	1308
369.541	1332
369.767	1337
369.993	1332
370.219	1327
370.445	1342
370.672	1304
370.898	1317
371.124	1376
371.35	1348
371.576	1362
371.802	1392
372.028	1391
372.254	1384
372.48	1395
372.706	1385
372.932	1389
373.158	1425
373.384	1384
373.61	1399
373.835	1374
374.061	1363
374.287	1410
374.513	1428
374.739	1438
374.965	1474
375.191	1507
375.416	1438
375.642	1441
375.868	1438
376.094	1416
376.319	1387
376.545	1402
376.771	1407
376.997	1379
377.222	1372
377.448	1344
377.674	1360
377.899	1373
378.125	1371
378.35	1372
378.576	1381
378.802	1322
379.027	1348
379.253	1366
379.478	1354
379.704	1366
379.929	1352
380.155	1380
380.38	1359
380.606	1340
380.831	1366
381.057	1368
381.282	1370
381.507	1390
381.733	1389
381.958	1395
382.184	1400
382.409	1404
382.634	1439
382.86	1473
383.085	1410
383.31	1447
383.535	1439
383.761	1480
383.986	1474
384.211	1556
384.436	1570
384.662	1565
384.887	1622
385.112	1604
385.337	1616
385.562	1601
385.787	1626
386.013	1651
386.238	1652
386.463	1652
386.688	1695
386.913	1619
387.138	1624
387.363	1623
387.588	1620
387.813	1627
388.038	1629
388.263	1609
388.488	1634
388.713	1626
388.938	1609
389.163	1615
389.387	1598
389.612	1572
389.837	1611
390.062	1588
390.287	1629
390.512	1635
390.736	1634
390.961	1665
391.186	1661
391.411	1683
391.636	1766
391.86	1781
392.085	1791
392.31	1788
392.534	1752
392.759	1778
392.984	1765
393.208	1729
393.433	1775
393.658	1775
393.882	1723
394.107	1695
394.331	1748
394.556	1739
394.78	1725
395.005	1714
395.229	1779
395.454	1774
395.678	1818
395.903	1769
396.127	1755
396.352	1749
396.576	1744
396.801	1761
397.025	1806
397.249	1806
397.474	1819
397.698	1858
397.922	1809
398.147	1840
398.371	1910
398.595	1903
398.82	2002
399.044	2152
399.268	2272
399.492	2541
399.717	2754
399.941	2826
400.165	2620
400.389	2446
400.613	2291
400.837	2113
401.062	2093
401.286	2045
401.51	2056
401.734	1984
401.958	2036
402.182	2022
402.406	2052
402.63	2084
402.854	2100
403.078	2125
403.302	2160
403.526	2171
403.75	2148
403.974	2252
404.198	2220
404.422	2215
404.645	2230
404.869	2165
405.093	2205
405.317	2214
405.541	2170
405.765	2138
405.988	2196
406.212	2124
406.436	2211
406.66	2284
406.883	2300
407.107	2370
407.331	2420
407.555	2539
407.778	2539
408.002	2495
408.226	2357
408.449	2423
408.673	2325
408.896	2251
409.12	2260
409.344	2267
409.567	2219
409.791	2193
410.014	2181
410.238	2197
410.461	2157
410.685	2187
410.908	2170
411.132	2157
411.355	2084
411.578	2109
411.802	2086
412.025	2116
412.249	2167
412.472	2131
412.695	2054
412.919	2018
413.142	2028
413.365	2022
413.589	2048
413.812	1936
414.035	2008
414.258	2042
414.482	2034
414.705	2031
414.928	2038
415.151	2040
415.374	1984
415.597	1978
415.821	1915
416.044	1971
416.267	1955
416.49	1959
416.713	1960
416.936	1962
417.159	1916
417.382	1941
417.605	1897
417.828	1920
418.051	1945
418.274	1963
418.497	1928
418.72	1990
418.943	1983
419.166	2079
419.389	2254
419.611	2168
419.834	2108
420.057	2058
420.28	1960
420.503	1879
420.726	1901
420.948	1924
421.171	1916
421.394	1934
421.617	1907
421.839	1982
422.062	1945
422.285	1890
422.507	1999
422.73	1946
422.953	1999
423.175	2007
423.398	1966
423.621	1935
423.843	2028
424.066	2007
424.288	2001
424.511	1992
424.733	2000
424.956	1970
425.178	2003
425.401	1958
425.623	1986
425.846	1855
426.068	1876
426.291	1912
426.513	1898
426.735	1840
426.958	1837
427.18	1827
427.402	1864
427.625	1829
427.847	1776
428.069	1784
428.292	1842
428.514	1790
428.736	1776
428.958	1796
429.181	1779
429.403	1687
429.625	1761
429.847	1716
430.069	1751
430.292	1764
430.514	1726
430.736	1764
430.958	1756
431.18	1750
431.402	1712
431.624	1762
431.846	1753
432.068	1799
432.29	1825
432.512	1765
432.734	1795
432.956	1746
433.178	1780
433.4	1774
433.622	1755
433.844	1831
434.066	1836
434.287	1855
434.509	1871
434.731	1927
434.953	1966
435.175	1982
435.397	1913
435.618	1861
435.84	1874
436.062	1784
436.284	1764
436.505	1801
436.727	1778
436.949	1756
437.17	1770
437.392	1742
437.614	1755
437.835	1706
438.057	1703
438.278	1718
438.5	1710
438.721	1676
438.943	1706
439.165	1711
439.386	1715
439.608	1708
439.829	1741
440.05	1754
440.272	1759
440.493	1734
440.715	1794
440.936	1786
441.158	1808
441.379	1842
441.6	1902
441.822	1907
442.043	1891
442.264	1879
442.486	1854
442.707	1868
442.928	1902
443.149	1914
443.371	1868
443.592	1894
443.813	1920
444.034	1937
444.255	1976
444.476	2039
444.698	2147
444.919	2181
445.14	2228
445.361	2077
445.582	1959
445.803	1884
446.024	1862
446.245	1810
446.466	1787
446.687	1767
446.908	1744
447.129	1714
447.35	1744
447.571	1721
447.792	1625
448.013	1656
448.234	1677
448.455	1571
448.675	1600
448.896	1611
449.117	1596
449.338	1583
449.559	1537
449.779	1583
450	1559
450.221	1572
450.442	1584
450.662	1580
450.883	1581
451.104	1621
451.324	1591
451.545	1581
451.766	1597
451.986	1569
452.207	1562
452.428	1567
452.648	1574
452.869	1517
453.089	1501
453.31	1547
453.53	1519
453.751	1504
453.971	1525
454.192	1506
454.412	1460
454.633	1505
454.853	1507
455.073	1513
455.294	1501
455.514	1448
455.734	1486
455.955	1443
456.175	1515
456.395	1453
456.616	1473
456.836	1499
457.056	1487
457.276	1451
457.497	1518
457.717	1475
457.937	1530
458.157	1543
458.377	1572
458.598	1571
458.818	1615
459.038	1643
459.258	1709
459.478	1790
459.698	1803
459.918	1856
460.138	1918
460.358	1931
460.578	1990
460.798	2026
461.018	2015
461.238	1964
461.458	2000
461.678	1992
461.898	2014
462.118	2008
462.338	2096
462.558	2146
462.777	2259
462.997	2415
463.217	2535
463.437	2488
463.657	2399
463.876	2253
464.096	2311
464.316	2270
464.536	2279
464.755	2242
464.975	2159
465.195	2061
465.414	1956
465.634	1879
465.854	1817
466.073	1812
466.293	1748
466.512	1709
466.732	1659
466.951	1660
467.171	1693
467.391	1659
467.61	1673
467.829	1656
468.049	1627
468.268	1606
468.488	1642
468.707	1598
468.927	1628
469.146	1631
469.365	1606
469.585	1644
469.804	1681
470.023	1688
470.243	1676
470.462	1725
470.681	1720
470.901	1721
471.12	1668
471.339	1648
471.558	1646
471.777	1652
471.997	1658
472.216	1659
472.435	1595
472.654	1558
472.873	1593
473.092	1565
473.311	1596
473.53	1653
473.749	1611
473.968	1616
474.187	1571
474.406	1597
474.625	1592
474.844	1602
475.063	1599
475.282	1610
475.501	1617
475.72	1631
475.939	1609
476.158	1651
476.377	1680
476.596	1691
476.814	1695
477.033	1714
477.252	1747
477.471	1744
477.69	1770
477.908	1852
478.127	1926
478.346	1881
478.564	1891
478.783	1946
479.002	2004
479.22	1964
479.439	1995
479.658	1975
479.876	2008
480.095	2063
480.313	2088
480.532	2087
480.751	2122
480.969	2038
481.188	2005
481.406	1967
481.624	1986
481.843	1875
482.061	1896
482.28	1935
482.498	1922
482.717	1906
482.935	1923
483.153	1924
483.372	1943
483.59	1943
483.808	1941
484.027	1965
484.245	1959
484.463	1996
484.681	2026
484.9	2025
485.118	2031
485.336	1998
485.554	2071
485.772	2050
485.99	2040
486.209	2069
486.427	2061
486.645	2008
486.863	2061
487.081	2030
487.299	2062
487.517	2017
487.735	2010
487.953	2014
488.171	2035
488.389	2014
488.607	1991
488.825	1994
489.043	1936
489.261	1973
489.479	1996
489.696	1981
489.914	2002
490.132	2026
490.35	1987
490.568	1976
490.786	1958
491.003	2010
491.221	1999
491.439	1974
491.657	1935
491.874	1973
492.092	1963
492.31	1982
492.527	1993
492.745	2023
492.963	2049
493.18	2012
493.398	2029
493.615	2051
493.833	2042
494.05	1990
494.268	2005
494.485	1985
494.703	2038
494.92	2030
495.138	2054
495.355	2079
495.573	2062
495.79	2057
496.008	2096
496.225	2115
496.442	2118
496.66	2150
496.877	2171
497.094	2186
497.312	2266
497.529	2246
497.746	2280
497.963	2356
498.181	2438
498.398	2552
498.615	2699
498.832	2852
499.049	3018
499.267	3238
499.484	3512
499.701	3791
499.918	4154
500.135	4509
500.352	4845
500.569	5081
500.786	5075
501.003	4863
501.22	4426
501.437	4014
501.654	3670
501.871	3346
502.088	3166
502.305	2919
502.522	2857
502.739	2790
502.956	2629
503.172	2473
503.389	2446
503.606	2343
503.823	2304
504.04	2262
504.256	2305
504.473	2377
504.69	2317
504.907	2243
505.123	2174
505.34	2058
505.557	1971
505.773	1941
505.99	1898
506.207	1847
506.423	1831
506.64	1807
506.856	1818
507.073	1794
507.289	1780
507.506	1732
507.722	1749
507.939	1743
508.155	1716
508.372	1693
508.588	1698
508.805	1670
509.021	1628
509.238	1654
509.454	1631
509.67	1638
509.887	1597
510.103	1630
510.319	1607
510.536	1607
510.752	1603
510.968	1597
511.184	1573
511.401	1600
511.617	1583
511.833	1570
512.049	1571
512.265	1564
512.481	1604
512.698	1563
512.914	1578
513.13	1590
513.346	1566
513.562	1583
513.778	1613
513.994	1604
514.21	1587
514.426	1591
514.642	1626
514.858	1612
515.074	1659
515.29	1679
515.506	1647
515.721	1692
515.937	1701
516.153	1725
516.369	1768
516.585	1786
516.801	1848
517.016	1891
517.232	1917
517.448	2012
517.664	2012
517.879	2022
518.095	2055
518.311	2069
518.527	1978
518.742	1916
518.958	1838
519.173	1829
519.389	1775
519.605	1716
519.82	1681
520.036	1652
520.251	1623
520.467	1631
520.682	1581
520.898	1529
521.113	1550
521.329	1547
521.544	1547
521.76	1539
521.975	1487
522.19	1490
522.406	1506
522.621	1452
522.836	1510
523.052	1491
523.267	1472
523.482	1435
523.698	1450
523.913	1416
524.128	1470
524.343	1423
524.559	1417
524.774	1400
524.989	1431
525.204	1420
525.419	1431
525.634	1420
525.849	1370
526.064	1401
526.28	1438
526.495	1412
526.71	1438
526.925	1390
527.14	1397
527.355	1380
527.57	1374
527.785	1421
527.999	1408
528.214	1390
528.429	1406
528.644	1403
528.859	1402
529.074	1422
529.289	1402
529.503	1375
529.718	1367
529.933	1418
530.148	1370
530.363	1372
530.577	1339
530.792	1372
531.007	1383
531.221	1374
531.436	1379
531.651	1378
531.865	1379
532.08	1368
532.295	1391
532.509	1395
532.724	1362
532.938	1342
533.153	1369
533.367	1375
533.582	1374
533.796	1349
534.011	1383
534.225	1369
534.44	1378
534.654	1346
534.868	1333
535.083	1332
535.297	1317
535.511	1335
535.726	1316
535.94	1298
536.154	1310
536.369	1294
536.583	1315
536.797	1292
537.011	1274
537.225	1255
537.44	1263
537.654	1276
537.868	1247
538.082	1258
538.296	1262
538.51	1257
538.724	1278
538.938	1252
539.153	1240
539.367	1230
539.581	1241
539.795	1227
540.009	1233
540.222	1243
540.436	1212
540.65	1217
540.864	1242
541.078	1233
541.292	1248
541.506	1214
541.72	1211
541.934	1212
542.147	1247
542.361	1230
542.575	1181
542.789	1192
543.002	1223
543.216	1205
543.43	1200
543.644	1216
543.857	1231
544.071	1215
544.285	1210
544.498	1171
544.712	1190
