Data from NiCl2@0.5M.TitratingCurve.Agarose3%dH2O.NegLispCup.LampEnergy10.LIBS07252019_HRD10591_18-21-28-572.txt Node
Date: Thu Jul 25 18:21:28 EDT 2019
User: cochatt
Spectrometer: HR+D1059
Trigger mode: 1
Integration Time (sec): 1.000000E-1
Scans to average: 1
Electric dark correction enabled: true
Nonlinearity correction enabled: false
Boxcar width: 0
XAxis mode: Wavelengths
Number of Pixels in Spectrum: 2048
>>>>>Begin Spectral Data<<<<<
223.165	-16.25
223.4	-16.25
223.635	-16.25
223.869	-28.25
224.104	-6.25
224.338	-23.25
224.573	-17.25
224.808	-9.25
225.042	-9.25
225.277	-4.25
225.511	-7.25
225.746	1.75
225.98	8.75
226.215	14.75
226.449	11.75
226.683	16.75
226.918	30.75
227.152	36.75
227.387	26.75
227.621	40.75
227.856	51.75
228.09	48.75
228.324	52.75
228.559	50.75
228.793	73.75
229.027	102.75
229.262	98.75
229.496	119.75
229.73	109.75
229.964	130.75
230.199	143.75
230.433	137.75
230.667	116.75
230.901	134.75
231.136	128.75
231.37	131.75
231.604	145.75
231.838	140.75
232.072	132.75
232.306	145.75
232.541	150.75
232.775	146.75
233.009	153.75
233.243	146.75
233.477	146.75
233.711	152.75
233.945	126.75
234.179	142.75
234.413	156.75
234.647	138.75
234.881	145.75
235.115	139.75
235.349	147.75
235.583	146.75
235.817	148.75
236.051	144.75
236.285	150.75
236.519	156.75
236.753	163.75
236.987	158.75
237.221	152.75
237.455	141.75
237.689	156.75
237.922	151.75
238.156	147.75
238.39	170.75
238.624	168.75
238.858	159.75
239.091	163.75
239.325	181.75
239.559	154.75
239.793	177.75
240.027	168.75
240.26	179.75
240.494	178.75
240.728	179.75
240.961	182.75
241.195	174.75
241.429	179.75
241.662	179.75
241.896	211.75
242.13	193.75
242.363	186.75
242.597	186.75
242.83	193.75
243.064	178.75
243.298	188.75
243.531	195.75
243.765	197.75
243.998	215.75
244.232	204.75
244.465	197.75
244.699	191.75
244.932	216.75
245.166	208.75
245.399	216.75
245.633	217.75
245.866	222.75
246.099	212.75
246.333	217.75
246.566	218.75
246.8	204.75
247.033	228.75
247.266	226.75
247.5	220.75
247.733	229.75
247.966	223.75
248.2	238.75
248.433	248.75
248.666	229.75
248.899	238.75
249.133	238.75
249.366	233.75
249.599	224.75
249.832	239.75
250.066	250.75
250.299	244.75
250.532	252.75
250.765	260.75
250.998	260.75
251.231	252.75
251.465	248.75
251.698	251.75
251.931	279.75
252.164	274.75
252.397	262.75
252.63	266.75
252.863	250.75
253.096	279.75
253.329	272.75
253.562	243.75
253.795	270.75
254.028	267.75
254.261	281.75
254.494	276.75
254.727	270.75
254.96	305.75
255.193	280.75
255.426	269.75
255.659	264.75
255.892	288.75
256.124	284.75
256.357	273.75
256.59	299.75
256.823	288.75
257.056	285.75
257.289	294.75
257.521	276.75
257.754	299.75
257.987	304.75
258.22	294.75
258.452	298.75
258.685	299.75
258.918	294.75
259.151	302.75
259.383	306.75
259.616	293.75
259.849	310.75
260.081	309.75
260.314	314.75
260.547	299.75
260.779	325.75
261.012	315.75
261.244	322.75
261.477	321.75
261.71	304.75
261.942	318.75
262.175	330.75
262.407	323.75
262.64	323.75
262.872	328.75
263.105	340.75
263.337	329.75
263.57	329.75
263.802	323.75
264.035	327.75
264.267	346.75
264.499	328.75
264.732	338.75
264.964	346.75
265.197	342.75
265.429	358.75
265.661	346.75
265.894	347.75
266.126	371.75
266.358	343.75
266.591	338.75
266.823	354.75
267.055	340.75
267.287	351.75
267.52	362.75
267.752	358.75
267.984	352.75
268.216	364.75
268.448	372.75
268.681	385.75
268.913	360.75
269.145	363.75
269.377	380.75
269.609	372.75
269.841	356.75
270.073	375.75
270.306	346.75
270.538	367.75
270.77	376.75
271.002	391.75
271.234	380.75
271.466	368.75
271.698	372.75
271.93	383.75
272.162	392.75
272.394	390.75
272.626	361.75
272.858	390.75
273.09	391.75
273.322	382.75
273.553	378.75
273.785	402.75
274.017	391.75
274.249	405.75
274.481	396.75
274.713	413.75
274.945	394.75
275.176	396.75
275.408	411.75
275.64	405.75
275.872	401.75
276.104	419.75
276.335	403.75
276.567	401.75
276.799	427.75
277.031	418.75
277.262	421.75
277.494	420.75
277.726	412.75
277.957	439.75
278.189	434.75
278.421	434.75
278.652	434.75
278.884	427.75
279.115	431.75
279.347	443.75
279.579	442.75
279.81	444.75
280.042	443.75
280.273	443.75
280.505	427.75
280.736	440.75
280.968	444.75
281.199	452.75
281.431	450.75
281.662	454.75
281.894	461.75
282.125	464.75
282.356	470.75
282.588	446.75
282.819	460.75
283.051	466.75
283.282	461.75
283.513	458.75
283.745	471.75
283.976	473.75
284.207	480.75
284.439	477.75
284.67	485.75
284.901	471.75
285.132	487.75
285.364	498.75
285.595	498.75
285.826	496.75
286.057	479.75
286.288	484.75
286.52	501.75
286.751	505.75
286.982	500.75
287.213	482.75
287.444	498.75
287.675	495.75
287.906	513.75
288.138	499.75
288.369	513.75
288.6	505.75
288.831	517.75
289.062	508.75
289.293	505.75
289.524	502.75
289.755	510.75
289.986	513.75
290.217	516.75
290.448	516.75
290.679	503.75
290.91	523.75
291.141	512.75
291.371	510.75
291.602	513.75
291.833	500.75
292.064	523.75
292.295	518.75
292.526	500.75
292.757	522.75
292.987	502.75
293.218	506.75
293.449	525.75
293.68	514.75
293.91	523.75
294.141	514.75
294.372	526.75
294.603	544.75
294.833	537.75
295.064	534.75
295.295	536.75
295.525	525.75
295.756	547.75
295.987	529.75
296.217	540.75
296.448	553.75
296.679	544.75
296.909	574.75
297.14	570.75
297.37	570.75
297.601	583.75
297.831	560.75
298.062	573.75
298.292	562.75
298.523	594.75
298.753	599.75
298.984	563.75
299.214	582.75
299.445	574.75
299.675	589.75
299.905	560.75
300.136	573.75
300.366	602.75
300.597	577.75
300.827	595.75
301.057	602.75
301.288	595.75
301.518	596.75
301.748	600.75
301.979	608.75
302.209	603.75
302.439	596.75
302.669	613.75
302.9	598.75
303.13	608.75
303.36	579.75
303.59	597.75
303.82	608.75
304.051	605.75
304.281	603.75
304.511	599.75
304.741	627.75
304.971	598.75
305.201	606.75
305.431	612.75
305.661	594.75
305.891	581.75
306.121	574.75
306.352	594.75
306.582	586.75
306.812	574.75
307.042	610.75
307.272	592.75
307.502	587.75
307.731	600.75
307.961	587.75
308.191	600.75
308.421	573.75
308.651	571.75
308.881	598.75
309.111	611.75
309.341	579.75
309.571	597.75
309.8	628.75
310.03	595.75
310.26	610.75
310.49	614.75
310.72	568.75
310.949	596.75
311.179	620.75
311.409	604.75
311.639	632.75
311.868	610.75
312.098	588.75
312.328	606.75
312.557	620.75
312.787	616.75
313.017	620.75
313.246	649.75
313.476	642.75
313.706	645.75
313.935	638.75
314.165	616.75
314.394	653.75
314.624	626.75
314.853	640.75
315.083	630.75
315.312	639.75
315.542	650.75
315.771	643.75
316.001	639.75
316.23	651.75
316.46	623.75
316.689	624.75
316.919	625.75
317.148	618.75
317.377	634.75
317.607	625.75
317.836	636.75
318.065	620.75
318.295	609.75
318.524	630.75
318.753	632.75
318.983	648.75
319.212	629.75
319.441	666.75
319.67	638.75
319.9	591.75
320.129	619.75
320.358	623.75
320.587	608.75
320.816	625.75
321.046	616.75
321.275	629.75
321.504	631.75
321.733	650.75
321.962	646.75
322.191	628.75
322.42	652.75
322.649	648.75
322.878	651.75
323.108	622.75
323.337	641.75
323.566	631.75
323.795	661.75
324.024	637.75
324.253	675.75
324.482	649.75
324.71	650.75
324.939	650.75
325.168	660.75
325.397	638.75
325.626	638.75
325.855	678.75
326.084	686.75
326.313	676.75
326.542	679.75
326.77	690.75
326.999	681.75
327.228	698.75
327.457	680.75
327.686	675.75
327.914	678.75
328.143	690.75
328.372	696.75
328.6	698.75
328.829	697.75
329.058	688.75
329.287	680.75
329.515	720.75
329.744	701.75
329.972	693.75
330.201	707.75
330.43	686.75
330.658	711.75
330.887	695.75
331.115	705.75
331.344	741.75
331.572	732.75
331.801	742.75
332.03	773.75
332.258	783.75
332.486	804.75
332.715	822.75
332.943	872.75
333.172	906.75
333.4	907.75
333.629	932.75
333.857	938.75
334.085	917.75
334.314	909.75
334.542	927.75
334.771	914.75
334.999	887.75
335.227	889.75
335.455	874.75
335.684	878.75
335.912	857.75
336.14	855.75
336.369	843.75
336.597	822.75
336.825	815.75
337.053	814.75
337.281	829.75
337.51	806.75
337.738	796.75
337.966	800.75
338.194	798.75
338.422	778.75
338.65	769.75
338.878	752.75
339.106	760.75
339.334	778.75
339.562	760.75
339.79	742.75
340.018	733.75
340.246	705.75
340.474	716.75
340.702	751.75
340.93	739.75
341.158	746.75
341.386	757.75
341.614	734.75
341.842	780.75
342.07	724.75
342.298	736.75
342.526	735.75
342.754	730.75
342.981	719.75
343.209	721.75
343.437	774.75
343.665	832.75
343.893	893.75
344.12	890.75
344.348	854.75
344.576	822.75
344.804	797.75
345.031	772.75
345.259	724.75
345.487	740.75
345.714	719.75
345.942	719.75
346.17	750.75
346.397	727.75
346.625	716.75
346.853	686.75
347.08	695.75
347.308	706.75
347.535	710.75
347.763	688.75
347.99	702.75
348.218	698.75
348.445	698.75
348.673	677.75
348.9	687.75
349.128	706.75
349.355	699.75
349.583	717.75
349.81	681.75
350.037	664.75
350.265	664.75
350.492	662.75
350.72	668.75
350.947	688.75
351.174	661.75
351.402	704.75
351.629	656.75
351.856	684.75
352.083	670.75
352.311	682.75
352.538	667.75
352.765	706.75
352.992	672.75
353.22	667.75
353.447	641.75
353.674	660.75
353.901	668.75
354.128	652.75
354.355	620.75
354.583	634.75
354.81	671.75
355.037	669.75
355.264	666.75
355.491	681.75
355.718	693.75
355.945	667.75
356.172	683.75
356.399	672.75
356.626	668.75
356.853	702.75
357.08	691.75
357.307	689.75
357.534	662.75
357.761	664.75
357.988	658.75
358.215	642.75
358.441	666.75
358.668	638.75
358.895	659.75
359.122	670.75
359.349	661.75
359.576	653.75
359.802	710.75
360.029	678.75
360.256	684.75
360.483	660.75
360.709	673.75
360.936	670.75
361.163	671.75
361.39	665.75
361.616	651.75
361.843	682.75
362.07	676.75
362.296	655.75
362.523	672.75
362.749	652.75
362.976	658.75
363.203	657.75
363.429	673.75
363.656	651.75
363.882	656.75
364.109	668.75
364.335	638.75
364.562	666.75
364.788	648.75
365.015	653.75
365.241	651.75
365.468	653.75
365.694	640.75
365.92	651.75
366.147	658.75
366.373	654.75
366.599	664.75
366.826	660.75
367.052	646.75
367.278	666.75
367.505	663.75
367.731	675.75
367.957	684.75
368.184	653.75
368.41	640.75
368.636	650.75
368.862	660.75
369.089	659.75
369.315	699.75
369.541	671.75
369.767	702.75
369.993	664.75
370.219	694.75
370.445	655.75
370.672	669.75
370.898	699.75
371.124	688.75
371.35	702.75
371.576	714.75
371.802	708.75
372.028	703.75
372.254	696.75
372.48	702.75
372.706	737.75
372.932	750.75
373.158	722.75
373.384	744.75
373.61	715.75
373.835	672.75
374.061	721.75
374.287	737.75
374.513	724.75
374.739	750.75
374.965	770.75
375.191	772.75
375.416	799.75
375.642	770.75
375.868	740.75
376.094	750.75
376.319	723.75
376.545	707.75
376.771	714.75
376.997	709.75
377.222	678.75
377.448	708.75
377.674	718.75
377.899	686.75
378.125	697.75
378.35	725.75
378.576	679.75
378.802	684.75
379.027	697.75
379.253	695.75
379.478	694.75
379.704	694.75
379.929	698.75
380.155	684.75
380.38	717.75
380.606	694.75
380.831	693.75
381.057	716.75
381.282	703.75
381.507	688.75
381.733	707.75
381.958	722.75
382.184	729.75
382.409	704.75
382.634	710.75
382.86	719.75
383.085	733.75
383.31	763.75
383.535	772.75
383.761	804.75
383.986	818.75
384.211	815.75
384.436	806.75
384.662	831.75
384.887	866.75
385.112	834.75
385.337	840.75
385.562	846.75
385.787	871.75
386.013	880.75
386.238	850.75
386.463	853.75
386.688	841.75
386.913	860.75
387.138	845.75
387.363	845.75
387.588	796.75
387.813	828.75
388.038	836.75
388.263	871.75
388.488	849.75
388.713	831.75
388.938	794.75
389.163	828.75
389.387	820.75
389.612	819.75
389.837	800.75
390.062	839.75
390.287	818.75
390.512	835.75
390.736	842.75
390.961	868.75
391.186	863.75
391.411	915.75
391.636	909.75
391.86	981.75
392.085	961.75
392.31	918.75
392.534	914.75
392.759	929.75
392.984	927.75
393.208	897.75
393.433	882.75
393.658	886.75
393.882	893.75
394.107	937.75
394.331	907.75
394.556	882.75
394.78	928.75
395.005	924.75
395.229	913.75
395.454	930.75
395.678	971.75
395.903	950.75
396.127	936.75
396.352	886.75
396.576	923.75
396.801	918.75
397.025	896.75
397.249	968.75
397.474	961.75
397.698	962.75
397.922	957.75
398.147	947.75
398.371	972.75
398.595	1011.75
398.82	1060.75
399.044	1162.75
399.268	1246.75
399.492	1464.75
399.717	1586.75
399.941	1549.75
400.165	1451.75
400.389	1298.75
400.613	1178.75
400.837	1101.75
401.062	1120.75
401.286	1086.75
401.51	1056.75
401.734	1094.75
401.958	1080.75
402.182	1084.75
402.406	1104.75
402.63	1134.75
402.854	1142.75
403.078	1154.75
403.302	1185.75
403.526	1234.75
403.75	1214.75
403.974	1228.75
404.198	1212.75
404.422	1222.75
404.645	1192.75
404.869	1186.75
405.093	1224.75
405.317	1183.75
405.541	1177.75
405.765	1188.75
405.988	1125.75
406.212	1168.75
406.436	1164.75
406.66	1226.75
406.883	1186.75
407.107	1268.75
407.331	1336.75
407.555	1387.75
407.778	1380.75
408.002	1331.75
408.226	1322.75
408.449	1291.75
408.673	1259.75
408.896	1193.75
409.12	1210.75
409.344	1202.75
409.567	1179.75
409.791	1199.75
410.014	1190.75
410.238	1163.75
410.461	1196.75
410.685	1143.75
410.908	1168.75
411.132	1118.75
411.355	1108.75
411.578	1125.75
411.802	1100.75
412.025	1114.75
412.249	1141.75
412.472	1141.75
412.695	1115.75
412.919	1088.75
413.142	1112.75
413.365	1073.75
413.589	1098.75
413.812	1058.75
414.035	1028.75
414.258	1038.75
414.482	1084.75
414.705	1060.75
414.928	1095.75
415.151	1102.75
415.374	1097.75
415.597	1079.75
415.821	1044.75
416.044	1046.75
416.267	1046.75
416.49	1037.75
416.713	1066.75
416.936	1048.75
417.159	1049.75
417.382	1037.75
417.605	1023.75
417.828	1055.75
418.051	1072.75
418.274	1050.75
418.497	1066.75
418.72	1104.75
418.943	1095.75
419.166	1145.75
419.389	1212.75
419.611	1221.75
419.834	1146.75
420.057	1102.75
420.28	1088.75
420.503	1065.75
420.726	1051.75
420.948	1042.75
421.171	1049.75
421.394	1064.75
421.617	1076.75
421.839	1071.75
422.062	1076.75
422.285	1065.75
422.507	1100.75
422.73	1085.75
422.953	1094.75
423.175	1087.75
423.398	1103.75
423.621	1060.75
423.843	1140.75
424.066	1144.75
424.288	1118.75
424.511	1106.75
424.733	1091.75
424.956	1087.75
425.178	1080.75
425.401	1094.75
425.623	1056.75
425.846	1028.75
426.068	1040.75
426.291	1022.75
426.513	1012.75
426.735	979.75
426.958	994.75
427.18	978.75
427.402	976.75
427.625	980.75
427.847	986.75
428.069	975.75
428.292	958.75
428.514	956.75
428.736	948.75
428.958	976.75
429.181	951.75
429.403	938.75
429.625	935.75
429.847	957.75
430.069	938.75
430.292	922.75
430.514	872.75
430.736	919.75
430.958	939.75
431.18	922.75
431.402	937.75
431.624	926.75
431.846	943.75
432.068	964.75
432.29	973.75
432.512	958.75
432.734	966.75
432.956	959.75
433.178	949.75
433.4	966.75
433.622	961.75
433.844	946.75
434.066	969.75
434.287	967.75
434.509	978.75
434.731	1034.75
434.953	1078.75
435.175	1080.75
435.397	1070.75
435.618	985.75
435.84	983.75
436.062	995.75
436.284	985.75
436.505	937.75
436.727	949.75
436.949	956.75
437.17	940.75
437.392	943.75
437.614	947.75
437.835	891.75
438.057	903.75
438.278	909.75
438.5	906.75
438.721	910.75
438.943	937.75
439.165	911.75
439.386	954.75
439.608	958.75
439.829	979.75
440.05	945.75
440.272	990.75
440.493	975.75
440.715	959.75
440.936	982.75
441.158	1009.75
441.379	1036.75
441.6	1070.75
441.822	1072.75
442.043	1066.75
442.264	1060.75
442.486	1033.75
442.707	1036.75
442.928	1063.75
443.149	1064.75
443.371	1043.75
443.592	1066.75
443.813	1104.75
444.034	1103.75
444.255	1116.75
444.476	1156.75
444.698	1214.75
444.919	1298.75
445.14	1321.75
445.361	1242.75
445.582	1122.75
445.803	1060.75
446.024	1041.75
446.245	998.75
446.466	1002.75
446.687	988.75
446.908	983.75
447.129	930.75
447.35	955.75
447.571	939.75
447.792	936.75
448.013	924.75
448.234	916.75
448.455	886.75
448.675	884.75
448.896	871.75
449.117	864.75
449.338	850.75
449.559	884.75
449.779	865.75
450	886.75
450.221	896.75
450.442	905.75
450.662	894.75
450.883	896.75
451.104	912.75
451.324	888.75
451.545	880.75
451.766	907.75
451.986	873.75
452.207	878.75
452.428	866.75
452.648	885.75
452.869	889.75
453.089	855.75
453.31	880.75
453.53	875.75
453.751	848.75
453.971	847.75
454.192	855.75
454.412	822.75
454.633	832.75
454.853	830.75
455.073	839.75
455.294	849.75
455.514	820.75
455.734	811.75
455.955	812.75
456.175	818.75
456.395	844.75
456.616	814.75
456.836	840.75
457.056	825.75
457.276	832.75
457.497	835.75
457.717	822.75
457.937	845.75
458.157	844.75
458.377	843.75
458.598	856.75
458.818	889.75
459.038	906.75
459.258	929.75
459.478	974.75
459.698	977.75
459.918	1033.75
460.138	1044.75
460.358	1082.75
460.578	1125.75
460.798	1128.75
461.018	1140.75
461.238	1114.75
461.458	1136.75
461.678	1113.75
461.898	1154.75
462.118	1144.75
462.338	1225.75
462.558	1218.75
462.777	1297.75
462.997	1392.75
463.217	1544.75
463.437	1518.75
463.657	1407.75
463.876	1331.75
464.096	1326.75
464.316	1340.75
464.536	1350.75
464.755	1289.75
464.975	1275.75
465.195	1185.75
465.414	1088.75
465.634	1083.75
465.854	1011.75
466.073	993.75
466.293	986.75
466.512	946.75
466.732	920.75
466.951	925.75
467.171	931.75
467.391	922.75
467.61	936.75
467.829	913.75
468.049	897.75
468.268	907.75
468.488	898.75
468.707	884.75
468.927	914.75
469.146	886.75
469.365	919.75
469.585	918.75
469.804	931.75
470.023	947.75
470.243	948.75
470.462	932.75
470.681	967.75
470.901	967.75
471.12	960.75
471.339	956.75
471.558	921.75
471.777	943.75
471.997	880.75
472.216	898.75
472.435	893.75
472.654	904.75
472.873	857.75
473.092	889.75
473.311	864.75
473.53	860.75
473.749	867.75
473.968	873.75
474.187	881.75
474.406	873.75
474.625	869.75
474.844	871.75
475.063	859.75
475.282	882.75
475.501	875.75
475.72	886.75
475.939	861.75
476.158	908.75
476.377	934.75
476.596	930.75
476.814	940.75
477.033	915.75
477.252	932.75
477.471	931.75
477.69	1024.75
477.908	983.75
478.127	1026.75
478.346	1025.75
478.564	1044.75
478.783	1036.75
479.002	1113.75
479.22	1083.75
479.439	1079.75
479.658	1079.75
479.876	1066.75
480.095	1088.75
480.313	1138.75
480.532	1195.75
480.751	1168.75
480.969	1110.75
481.188	1067.75
481.406	1057.75
481.624	1041.75
481.843	1004.75
482.061	989.75
482.28	972.75
482.498	979.75
482.717	975.75
482.935	979.75
483.153	999.75
483.372	981.75
483.59	1000.75
483.808	1022.75
484.027	1016.75
484.245	1029.75
484.463	994.75
484.681	1016.75
484.9	1050.75
485.118	1041.75
485.336	997.75
485.554	1025.75
485.772	1056.75
485.99	1017.75
486.209	1058.75
486.427	1031.75
486.645	1026.75
486.863	1046.75
487.081	1054.75
487.299	1049.75
487.517	1052.75
487.735	1051.75
487.953	1036.75
488.171	1074.75
488.389	1048.75
488.607	1020.75
488.825	1036.75
489.043	1020.75
489.261	1018.75
489.479	1044.75
489.696	1041.75
489.914	1057.75
490.132	1063.75
490.35	1073.75
490.568	1042.75
490.786	1047.75
491.003	1052.75
491.221	1070.75
491.439	1036.75
491.657	1064.75
491.874	1065.75
492.092	1073.75
492.31	1083.75
492.527	1106.75
492.745	1070.75
492.963	1080.75
493.18	1097.75
493.398	1074.75
493.615	1092.75
493.833	1082.75
494.05	1114.75
494.268	1128.75
494.485	1089.75
494.703	1089.75
494.92	1090.75
495.138	1140.75
495.355	1115.75
495.573	1129.75
495.79	1126.75
496.008	1126.75
496.225	1121.75
496.442	1148.75
496.66	1163.75
496.877	1153.75
497.094	1207.75
497.312	1215.75
497.529	1241.75
497.746	1288.75
497.963	1321.75
