Data from NiCl2@0.25M.TitratingCurve.Agarose3%dH2O.NegLispCup.LampEnergy10.LIBS07252019_HRD10591_18-23-41-577.txt Node
Date: Thu Jul 25 18:23:41 EDT 2019
User: cochatt
Spectrometer: HR+D1059
Trigger mode: 1
Integration Time (sec): 1.000000E-1
Scans to average: 1
Electric dark correction enabled: true
Nonlinearity correction enabled: false
Boxcar width: 0
XAxis mode: Wavelengths
Number of Pixels in Spectrum: 2048
>>>>>Begin Spectral Data<<<<<
223.165	-16.06
223.4	-16.06
223.635	-16.06
223.869	-21.06
224.104	-27.06
224.338	-9.06
224.573	-3.06
224.808	-12.06
225.042	-7.06
225.277	-10.06
225.511	2.94
225.746	5.94
225.98	9.94
226.215	8.94
226.449	10.94
226.683	11.94
226.918	26.94
227.152	27.94
227.387	32.94
227.621	39.94
227.856	48.94
228.09	55.94
228.324	45.94
228.559	53.94
228.793	61.94
229.027	109.94
229.262	122.94
229.496	102.94
229.73	108.94
229.964	117.94
230.199	122.94
230.433	135.94
230.667	127.94
230.901	130.94
231.136	135.94
231.37	131.94
231.604	131.94
231.838	145.94
232.072	144.94
232.306	143.94
232.541	141.94
232.775	155.94
233.009	148.94
233.243	149.94
233.477	160.94
233.711	145.94
233.945	149.94
234.179	141.94
234.413	151.94
234.647	148.94
234.881	139.94
235.115	147.94
235.349	141.94
235.583	144.94
235.817	142.94
236.051	151.94
236.285	162.94
236.519	159.94
236.753	142.94
236.987	181.94
237.221	142.94
237.455	141.94
237.689	158.94
237.922	169.94
238.156	155.94
238.39	149.94
238.624	166.94
238.858	159.94
239.091	160.94
239.325	169.94
239.559	159.94
239.793	167.94
240.027	169.94
240.26	158.94
240.494	173.94
240.728	165.94
240.961	163.94
241.195	186.94
241.429	172.94
241.662	185.94
241.896	190.94
242.13	180.94
242.363	186.94
242.597	173.94
242.83	195.94
243.064	189.94
243.298	203.94
243.531	193.94
243.765	197.94
243.998	188.94
244.232	211.94
244.465	189.94
244.699	205.94
244.932	215.94
245.166	204.94
245.399	221.94
245.633	227.94
245.866	215.94
246.099	209.94
246.333	218.94
246.566	207.94
246.8	213.94
247.033	213.94
247.266	213.94
247.5	217.94
247.733	206.94
247.966	227.94
248.2	221.94
248.433	235.94
248.666	230.94
248.899	235.94
249.133	213.94
249.366	217.94
249.599	261.94
249.832	251.94
250.066	241.94
250.299	227.94
250.532	239.94
250.765	242.94
250.998	237.94
251.231	244.94
251.465	241.94
251.698	267.94
251.931	256.94
252.164	251.94
252.397	256.94
252.63	241.94
252.863	259.94
253.096	237.94
253.329	266.94
253.562	252.94
253.795	238.94
254.028	277.94
254.261	261.94
254.494	276.94
254.727	248.94
254.96	265.94
255.193	260.94
255.426	279.94
255.659	265.94
255.892	290.94
256.124	279.94
256.357	270.94
256.59	282.94
256.823	261.94
257.056	271.94
257.289	286.94
257.521	295.94
257.754	262.94
257.987	282.94
258.22	293.94
258.452	296.94
258.685	285.94
258.918	308.94
259.151	289.94
259.383	277.94
259.616	304.94
259.849	312.94
260.081	294.94
260.314	307.94
260.547	311.94
260.779	285.94
261.012	309.94
261.244	312.94
261.477	301.94
261.71	292.94
261.942	307.94
262.175	314.94
262.407	303.94
262.64	305.94
262.872	309.94
263.105	303.94
263.337	311.94
263.57	324.94
263.802	325.94
264.035	342.94
264.267	331.94
264.499	318.94
264.732	328.94
264.964	316.94
265.197	319.94
265.429	334.94
265.661	338.94
265.894	349.94
266.126	342.94
266.358	325.94
266.591	330.94
266.823	342.94
267.055	329.94
267.287	337.94
267.52	349.94
267.752	363.94
267.984	355.94
268.216	351.94
268.448	355.94
268.681	350.94
268.913	361.94
269.145	363.94
269.377	355.94
269.609	342.94
269.841	366.94
270.073	374.94
270.306	358.94
270.538	358.94
270.77	363.94
271.002	372.94
271.234	364.94
271.466	350.94
271.698	357.94
271.93	369.94
272.162	387.94
272.394	381.94
272.626	375.94
272.858	372.94
273.09	375.94
273.322	369.94
273.553	381.94
273.785	370.94
274.017	379.94
274.249	399.94
274.481	380.94
274.713	377.94
274.945	396.94
275.176	402.94
275.408	387.94
275.64	387.94
275.872	408.94
276.104	420.94
276.335	377.94
276.567	381.94
276.799	379.94
277.031	397.94
277.262	388.94
277.494	392.94
277.726	403.94
277.957	399.94
278.189	403.94
278.421	402.94
278.652	416.94
278.884	402.94
279.115	413.94
279.347	420.94
279.579	411.94
279.81	407.94
280.042	450.94
280.273	418.94
280.505	421.94
280.736	459.94
280.968	426.94
281.199	426.94
281.431	428.94
281.662	443.94
281.894	431.94
282.125	435.94
282.356	452.94
282.588	464.94
282.819	463.94
283.051	452.94
283.282	453.94
283.513	455.94
283.745	449.94
283.976	462.94
284.207	472.94
284.439	454.94
284.67	461.94
284.901	482.94
285.132	457.94
285.364	450.94
285.595	474.94
285.826	458.94
286.057	465.94
286.288	479.94
286.52	484.94
286.751	481.94
286.982	477.94
287.213	473.94
287.444	471.94
287.675	467.94
287.906	461.94
288.138	479.94
288.369	474.94
288.6	507.94
288.831	505.94
289.062	502.94
289.293	487.94
289.524	504.94
289.755	485.94
289.986	493.94
290.217	507.94
290.448	494.94
290.679	519.94
290.91	505.94
291.141	505.94
291.371	490.94
291.602	519.94
291.833	491.94
292.064	515.94
292.295	486.94
292.526	477.94
292.757	477.94
292.987	488.94
293.218	513.94
293.449	517.94
293.68	497.94
293.91	481.94
294.141	515.94
294.372	502.94
294.603	501.94
294.833	524.94
295.064	506.94
295.295	503.94
295.525	487.94
295.756	508.94
295.987	499.94
296.217	514.94
296.448	546.94
296.679	517.94
296.909	534.94
297.14	522.94
297.37	513.94
297.601	546.94
297.831	537.94
298.062	523.94
298.292	524.94
298.523	563.94
298.753	546.94
298.984	558.94
299.214	546.94
299.445	552.94
299.675	539.94
299.905	555.94
300.136	547.94
300.366	552.94
300.597	554.94
300.827	558.94
301.057	572.94
301.288	563.94
301.518	597.94
301.748	568.94
301.979	554.94
302.209	596.94
302.439	579.94
302.669	574.94
302.9	571.94
303.13	562.94
303.36	572.94
303.59	569.94
303.82	563.94
304.051	551.94
304.281	555.94
304.511	588.94
304.741	590.94
304.971	555.94
305.201	563.94
305.431	577.94
305.661	561.94
305.891	542.94
306.121	550.94
306.352	537.94
306.582	543.94
306.812	573.94
307.042	540.94
307.272	539.94
307.502	583.94
307.731	556.94
307.961	546.94
308.191	560.94
308.421	548.94
308.651	557.94
308.881	562.94
309.111	570.94
309.341	548.94
309.571	559.94
309.8	566.94
310.03	538.94
310.26	576.94
310.49	559.94
310.72	577.94
310.949	582.94
311.179	549.94
311.409	581.94
311.639	584.94
311.868	575.94
312.098	576.94
312.328	590.94
312.557	615.94
312.787	578.94
313.017	581.94
313.246	617.94
313.476	587.94
313.706	604.94
313.935	616.94
314.165	614.94
314.394	603.94
314.624	607.94
314.853	598.94
315.083	583.94
315.312	600.94
315.542	611.94
315.771	574.94
316.001	562.94
316.23	610.94
316.46	612.94
316.689	580.94
316.919	573.94
317.148	586.94
317.377	598.94
317.607	590.94
317.836	585.94
318.065	597.94
318.295	573.94
318.524	602.94
318.753	591.94
318.983	592.94
319.212	565.94
319.441	579.94
319.67	606.94
319.9	600.94
320.129	587.94
320.358	594.94
320.587	596.94
320.816	583.94
321.046	587.94
321.275	614.94
321.504	605.94
321.733	595.94
321.962	582.94
322.191	612.94
322.42	593.94
322.649	614.94
322.878	630.94
323.108	579.94
323.337	614.94
323.566	601.94
323.795	600.94
324.024	613.94
324.253	613.94
324.482	635.94
324.71	623.94
324.939	594.94
325.168	618.94
325.397	627.94
325.626	632.94
325.855	638.94
326.084	647.94
326.313	643.94
326.542	656.94
326.77	644.94
326.999	654.94
327.228	619.94
327.457	638.94
327.686	649.94
327.914	653.94
328.143	679.94
328.372	636.94
328.6	649.94
328.829	668.94
329.058	650.94
329.287	652.94
329.515	644.94
329.744	675.94
329.972	665.94
330.201	666.94
330.43	670.94
330.658	665.94
330.887	677.94
331.115	665.94
331.344	691.94
331.572	707.94
331.801	717.94
332.03	706.94
332.258	737.94
332.486	769.94
332.715	773.94
332.943	799.94
333.172	837.94
333.4	850.94
333.629	867.94
333.857	873.94
334.085	869.94
334.314	857.94
334.542	850.94
334.771	858.94
334.999	834.94
335.227	817.94
335.455	817.94
335.684	820.94
335.912	800.94
336.14	760.94
336.369	808.94
336.597	779.94
336.825	777.94
337.053	783.94
337.281	771.94
337.51	763.94
337.738	722.94
337.966	721.94
338.194	731.94
338.422	718.94
338.65	705.94
338.878	702.94
339.106	732.94
339.334	707.94
339.562	705.94
339.79	706.94
340.018	695.94
340.246	679.94
340.474	695.94
340.702	686.94
340.93	683.94
341.158	679.94
341.386	682.94
341.614	687.94
341.842	677.94
342.07	690.94
342.298	697.94
342.526	666.94
342.754	679.94
342.981	664.94
343.209	699.94
343.437	715.94
343.665	784.94
343.893	798.94
344.12	830.94
344.348	811.94
344.576	781.94
344.804	760.94
345.031	719.94
345.259	700.94
345.487	685.94
345.714	688.94
345.942	651.94
346.17	678.94
346.397	680.94
346.625	659.94
346.853	691.94
347.08	647.94
347.308	656.94
347.535	639.94
347.763	649.94
347.99	640.94
348.218	652.94
348.445	653.94
348.673	651.94
348.9	641.94
349.128	649.94
349.355	641.94
349.583	642.94
349.81	665.94
350.037	641.94
350.265	629.94
350.492	618.94
350.72	639.94
350.947	645.94
351.174	637.94
351.402	642.94
351.629	625.94
351.856	640.94
352.083	643.94
352.311	611.94
352.538	638.94
352.765	656.94
352.992	615.94
353.22	625.94
353.447	607.94
353.674	621.94
353.901	619.94
354.128	643.94
354.355	634.94
354.583	633.94
354.81	626.94
355.037	642.94
355.264	646.94
355.491	644.94
355.718	619.94
355.945	621.94
356.172	642.94
356.399	633.94
356.626	639.94
356.853	652.94
357.08	621.94
357.307	649.94
357.534	640.94
357.761	655.94
357.988	649.94
358.215	633.94
358.441	627.94
358.668	629.94
358.895	642.94
359.122	633.94
359.349	627.94
359.576	631.94
359.802	624.94
360.029	621.94
360.256	634.94
360.483	621.94
360.709	645.94
360.936	623.94
361.163	640.94
361.39	645.94
361.616	632.94
361.843	648.94
362.07	666.94
362.296	648.94
362.523	658.94
362.749	615.94
362.976	620.94
363.203	650.94
363.429	618.94
363.656	633.94
363.882	641.94
364.109	642.94
364.335	622.94
364.562	648.94
364.788	636.94
365.015	645.94
365.241	635.94
365.468	622.94
365.694	635.94
365.92	628.94
366.147	628.94
366.373	632.94
366.599	645.94
366.826	651.94
367.052	616.94
367.278	637.94
367.505	633.94
367.731	637.94
367.957	606.94
368.184	642.94
368.41	648.94
368.636	649.94
368.862	646.94
369.089	652.94
369.315	670.94
369.541	662.94
369.767	672.94
369.993	671.94
370.219	661.94
370.445	697.94
370.672	669.94
370.898	676.94
371.124	687.94
371.35	703.94
371.576	701.94
371.802	681.94
372.028	667.94
372.254	690.94
372.48	675.94
372.706	702.94
372.932	701.94
373.158	711.94
373.384	722.94
373.61	691.94
373.835	683.94
374.061	704.94
374.287	729.94
374.513	695.94
374.739	700.94
374.965	740.94
375.191	751.94
375.416	767.94
375.642	721.94
375.868	720.94
376.094	730.94
376.319	697.94
376.545	707.94
376.771	681.94
376.997	653.94
377.222	697.94
377.448	690.94
377.674	703.94
377.899	689.94
378.125	697.94
378.35	693.94
378.576	686.94
378.802	674.94
379.027	672.94
379.253	684.94
379.478	683.94
379.704	684.94
379.929	664.94
380.155	679.94
380.38	667.94
380.606	687.94
380.831	681.94
381.057	681.94
381.282	705.94
381.507	717.94
381.733	694.94
381.958	701.94
382.184	691.94
382.409	698.94
382.634	709.94
382.86	710.94
383.085	733.94
383.31	724.94
383.535	747.94
383.761	741.94
383.986	749.94
384.211	767.94
384.436	789.94
384.662	809.94
384.887	817.94
385.112	837.94
385.337	826.94
385.562	837.94
385.787	822.94
386.013	859.94
386.238	838.94
386.463	851.94
386.688	836.94
386.913	823.94
387.138	818.94
387.363	809.94
387.588	834.94
387.813	826.94
388.038	835.94
388.263	814.94
388.488	818.94
388.713	831.94
388.938	803.94
389.163	808.94
389.387	812.94
389.612	793.94
389.837	801.94
390.062	801.94
390.287	826.94
390.512	819.94
390.736	810.94
390.961	838.94
391.186	859.94
391.411	894.94
391.636	902.94
391.86	924.94
392.085	955.94
392.31	938.94
392.534	911.94
392.759	898.94
392.984	869.94
393.208	892.94
393.433	883.94
393.658	876.94
393.882	865.94
394.107	894.94
394.331	915.94
394.556	923.94
394.78	868.94
395.005	878.94
395.229	899.94
395.454	929.94
395.678	927.94
395.903	927.94
396.127	930.94
396.352	894.94
396.576	877.94
396.801	891.94
397.025	909.94
397.249	925.94
397.474	931.94
397.698	929.94
397.922	957.94
398.147	945.94
398.371	961.94
398.595	964.94
398.82	1019.94
399.044	1083.94
399.268	1208.94
399.492	1390.94
399.717	1545.94
399.941	1526.94
400.165	1374.94
400.389	1251.94
400.613	1144.94
400.837	1116.94
401.062	1063.94
401.286	1033.94
401.51	1068.94
401.734	1039.94
401.958	1087.94
402.182	1045.94
402.406	1081.94
402.63	1094.94
402.854	1115.94
403.078	1150.94
403.302	1149.94
403.526	1181.94
403.75	1172.94
403.974	1205.94
404.198	1219.94
404.422	1211.94
404.645	1242.94
404.869	1189.94
405.093	1203.94
405.317	1171.94
405.541	1146.94
405.765	1143.94
405.988	1146.94
406.212	1142.94
406.436	1151.94
406.66	1166.94
406.883	1189.94
407.107	1252.94
407.331	1313.94
407.555	1354.94
407.778	1349.94
408.002	1331.94
408.226	1254.94
408.449	1228.94
408.673	1171.94
408.896	1194.94
409.12	1160.94
409.344	1178.94
409.567	1158.94
409.791	1189.94
410.014	1149.94
410.238	1167.94
410.461	1138.94
410.685	1124.94
410.908	1128.94
411.132	1088.94
411.355	1080.94
411.578	1085.94
411.802	1067.94
412.025	1090.94
412.249	1102.94
412.472	1107.94
412.695	1063.94
412.919	1077.94
413.142	1053.94
413.365	1038.94
413.589	1045.94
413.812	997.94
414.035	1057.94
414.258	1041.94
414.482	1046.94
414.705	1050.94
414.928	1055.94
415.151	1083.94
415.374	1055.94
415.597	1031.94
415.821	1006.94
416.044	989.94
416.267	982.94
416.49	986.94
416.713	1002.94
416.936	999.94
417.159	1029.94
417.382	998.94
417.605	1007.94
417.828	1036.94
418.051	1022.94
418.274	1022.94
418.497	1032.94
418.72	1090.94
418.943	1079.94
419.166	1124.94
419.389	1195.94
419.611	1167.94
419.834	1111.94
420.057	1069.94
420.28	1066.94
420.503	1006.94
420.726	1027.94
420.948	995.94
421.171	1009.94
421.394	990.94
421.617	1038.94
421.839	1010.94
422.062	1059.94
422.285	1007.94
422.507	1049.94
422.73	1070.94
422.953	1052.94
423.175	1060.94
423.398	1084.94
423.621	1087.94
423.843	1126.94
424.066	1053.94
424.288	1048.94
424.511	1066.94
424.733	1050.94
424.956	1053.94
425.178	1057.94
425.401	1023.94
425.623	1022.94
425.846	1007.94
426.068	989.94
426.291	980.94
426.513	969.94
426.735	930.94
426.958	978.94
427.18	935.94
427.402	940.94
427.625	920.94
427.847	910.94
428.069	918.94
428.292	931.94
428.514	911.94
428.736	897.94
428.958	909.94
429.181	898.94
429.403	873.94
429.625	899.94
429.847	881.94
430.069	867.94
430.292	887.94
430.514	889.94
430.736	918.94
430.958	901.94
431.18	874.94
431.402	879.94
431.624	904.94
431.846	911.94
432.068	922.94
432.29	943.94
432.512	907.94
432.734	921.94
432.956	908.94
433.178	921.94
433.4	903.94
433.622	917.94
433.844	943.94
434.066	937.94
434.287	942.94
434.509	958.94
434.731	996.94
434.953	1025.94
435.175	1020.94
435.397	1005.94
435.618	969.94
435.84	938.94
436.062	922.94
436.284	911.94
436.505	876.94
436.727	910.94
436.949	931.94
437.17	907.94
437.392	883.94
437.614	883.94
437.835	892.94
438.057	899.94
438.278	861.94
438.5	886.94
438.721	859.94
438.943	857.94
439.165	861.94
439.386	878.94
439.608	894.94
439.829	908.94
440.05	876.94
440.272	925.94
440.493	907.94
440.715	923.94
440.936	911.94
441.158	940.94
441.379	982.94
441.6	1001.94
441.822	1024.94
442.043	1038.94
442.264	957.94
442.486	961.94
442.707	964.94
442.928	989.94
443.149	1011.94
443.371	974.94
443.592	1029.94
443.813	1006.94
444.034	1045.94
444.255	1055.94
444.476	1107.94
444.698	1205.94
444.919	1227.94
445.14	1255.94
445.361	1169.94
445.582	1061.94
445.803	976.94
446.024	950.94
446.245	927.94
446.466	949.94
446.687	933.94
446.908	920.94
447.129	881.94
447.35	877.94
447.571	856.94
447.792	865.94
448.013	839.94
448.234	846.94
448.455	823.94
448.675	836.94
448.896	853.94
449.117	855.94
449.338	854.94
449.559	844.94
449.779	825.94
450	799.94
450.221	829.94
450.442	858.94
450.662	831.94
450.883	864.94
451.104	837.94
451.324	802.94
451.545	855.94
451.766	813.94
451.986	839.94
452.207	830.94
452.428	811.94
452.648	840.94
452.869	827.94
453.089	831.94
453.31	810.94
453.53	817.94
453.751	794.94
453.971	800.94
454.192	808.94
454.412	798.94
454.633	794.94
454.853	760.94
455.073	775.94
455.294	787.94
455.514	789.94
455.734	758.94
455.955	784.94
456.175	746.94
456.395	789.94
456.616	745.94
456.836	781.94
457.056	766.94
457.276	769.94
457.497	776.94
457.717	772.94
457.937	771.94
458.157	792.94
458.377	839.94
458.598	836.94
458.818	858.94
459.038	827.94
459.258	915.94
459.478	923.94
459.698	930.94
459.918	959.94
460.138	1009.94
460.358	1060.94
460.578	1071.94
460.798	1089.94
461.018	1093.94
461.238	1065.94
461.458	1083.94
461.678	1071.94
461.898	1087.94
462.118	1089.94
462.338	1133.94
462.558	1180.94
462.777	1177.94
462.997	1315.94
463.217	1427.94
463.437	1418.94
463.657	1309.94
463.876	1259.94
464.096	1253.94
464.316	1287.94
464.536	1251.94
464.755	1188.94
464.975	1168.94
465.195	1099.94
465.414	1057.94
465.634	974.94
465.854	943.94
466.073	940.94
466.293	887.94
466.512	897.94
466.732	867.94
466.951	869.94
467.171	854.94
467.391	852.94
467.61	863.94
467.829	879.94
468.049	850.94
468.268	856.94
468.488	855.94
468.707	825.94
468.927	817.94
469.146	811.94
469.365	871.94
469.585	862.94
469.804	876.94
470.023	917.94
470.243	909.94
470.462	891.94
470.681	911.94
470.901	868.94
471.12	895.94
471.339	885.94
471.558	852.94
471.777	866.94
471.997	850.94
472.216	847.94
472.435	827.94
472.654	817.94
472.873	831.94
473.092	814.94
473.311	826.94
473.53	811.94
473.749	817.94
473.968	817.94
474.187	818.94
474.406	787.94
474.625	810.94
474.844	771.94
475.063	817.94
475.282	825.94
475.501	819.94
475.72	823.94
475.939	836.94
476.158	846.94
476.377	844.94
476.596	865.94
476.814	854.94
477.033	830.94
477.252	854.94
477.471	920.94
477.69	925.94
477.908	926.94
478.127	986.94
478.346	961.94
478.564	993.94
478.783	973.94
479.002	1028.94
479.22	1055.94
479.439	1031.94
479.658	1004.94
479.876	1027.94
480.095	1054.94
480.313	1066.94
480.532	1108.94
480.751	1077.94
480.969	1027.94
481.188	981.94
481.406	997.94
481.624	990.94
481.843	950.94
482.061	936.94
482.28	931.94
482.498	946.94
482.717	931.94
482.935	917.94
483.153	927.94
483.372	933.94
483.59	950.94
483.808	951.94
484.027	952.94
484.245	925.94
484.463	979.94
484.681	969.94
484.9	946.94
485.118	945.94
485.336	951.94
485.554	966.94
485.772	999.94
485.99	982.94
486.209	973.94
486.427	974.94
486.645	962.94
486.863	982.94
487.081	984.94
487.299	1003.94
487.517	971.94
487.735	989.94
487.953	970.94
488.171	959.94
488.389	965.94
488.607	947.94
488.825	942.94
489.043	961.94
489.261	953.94
489.479	968.94
489.696	961.94
489.914	996.94
490.132	976.94
490.35	994.94
490.568	997.94
490.786	1002.94
491.003	1009.94
491.221	1004.94
491.439	970.94
491.657	961.94
491.874	1013.94
492.092	1005.94
492.31	993.94
492.527	1020.94
492.745	1016.94
492.963	1030.94
493.18	994.94
493.398	1001.94
493.615	994.94
493.833	1034.94
494.05	1023.94
494.268	1028.94
494.485	1069.94
494.703	1048.94
494.92	1048.94
495.138	1025.94
495.355	1011.94
495.573	1028.94
495.79	1049.94
496.008	1089.94
496.225	1045.94
496.442	1082.94
496.66	1124.94
496.877	1105.94
497.094	1122.94
497.312	1149.94
497.529	1190.94
497.746	1186.94
497.963	1259.94
498.181	1289.94
498.398	1330.94
498.615	1413.94
498.832	1525.94
