Data from NiCl2@0.25M.TitratingCurve.Agarose3%dH2O.NegLispCup.LampEnergy10.LIBS07252019_HRD10591_18-23-05-573.txt Node
Date: Thu Jul 25 18:23:05 EDT 2019
User: cochatt
Spectrometer: HR+D1059
Trigger mode: 1
Integration Time (sec): 1.000000E-1
Scans to average: 1
Electric dark correction enabled: true
Nonlinearity correction enabled: false
Boxcar width: 0
XAxis mode: Wavelengths
Number of Pixels in Spectrum: 2048
>>>>>Begin Spectral Data<<<<<
223.165	-8.56
223.4	-8.56
223.635	-8.56
223.869	-27.56
224.104	-23.56
224.338	-23.56
224.573	-19.56
224.808	-26.56
225.042	-13.56
225.277	-1.56
225.511	11.44
225.746	12.44
225.98	13.44
226.215	6.44
226.449	17.44
226.683	15.44
226.918	25.44
227.152	42.44
227.387	38.44
227.621	42.44
227.856	47.44
228.09	46.44
228.324	47.44
228.559	55.44
228.793	66.44
229.027	92.44
229.262	90.44
229.496	105.44
229.73	113.44
229.964	125.44
230.199	123.44
230.433	113.44
230.667	129.44
230.901	126.44
231.136	90.44
231.37	130.44
231.604	134.44
231.838	137.44
232.072	111.44
232.306	128.44
232.541	125.44
232.775	113.44
233.009	132.44
233.243	127.44
233.477	126.44
233.711	131.44
233.945	131.44
234.179	129.44
234.413	133.44
234.647	132.44
234.881	138.44
235.115	125.44
235.349	136.44
235.583	138.44
235.817	128.44
236.051	135.44
236.285	128.44
236.519	135.44
236.753	139.44
236.987	131.44
237.221	138.44
237.455	147.44
237.689	139.44
237.922	147.44
238.156	144.44
238.39	140.44
238.624	150.44
238.858	143.44
239.091	135.44
239.325	165.44
239.559	155.44
239.793	148.44
240.027	163.44
240.26	162.44
240.494	149.44
240.728	136.44
240.961	150.44
241.195	171.44
241.429	158.44
241.662	156.44
241.896	148.44
242.13	162.44
242.363	169.44
242.597	160.44
242.83	166.44
243.064	169.44
243.298	164.44
243.531	184.44
243.765	182.44
243.998	167.44
244.232	169.44
244.465	178.44
244.699	175.44
244.932	178.44
245.166	176.44
245.399	186.44
245.633	184.44
245.866	184.44
246.099	172.44
246.333	177.44
246.566	195.44
246.8	187.44
247.033	197.44
247.266	180.44
247.5	207.44
247.733	190.44
247.966	199.44
248.2	199.44
248.433	201.44
248.666	198.44
248.899	202.44
249.133	207.44
249.366	199.44
249.599	221.44
249.832	200.44
250.066	198.44
250.299	198.44
250.532	202.44
250.765	219.44
250.998	221.44
251.231	225.44
251.465	225.44
251.698	220.44
251.931	220.44
252.164	211.44
252.397	225.44
252.63	212.44
252.863	233.44
253.096	220.44
253.329	215.44
253.562	216.44
253.795	238.44
254.028	226.44
254.261	229.44
254.494	230.44
254.727	233.44
254.96	223.44
255.193	231.44
255.426	254.44
255.659	242.44
255.892	240.44
256.124	227.44
256.357	240.44
256.59	258.44
256.823	223.44
257.056	243.44
257.289	240.44
257.521	264.44
257.754	247.44
257.987	268.44
258.22	242.44
258.452	271.44
258.685	238.44
258.918	244.44
259.151	255.44
259.383	245.44
259.616	249.44
259.849	239.44
260.081	270.44
260.314	262.44
260.547	262.44
260.779	255.44
261.012	245.44
261.244	267.44
261.477	249.44
261.71	275.44
261.942	274.44
262.175	270.44
262.407	267.44
262.64	279.44
262.872	269.44
263.105	274.44
263.337	280.44
263.57	268.44
263.802	283.44
264.035	281.44
264.267	288.44
264.499	293.44
264.732	286.44
264.964	284.44
265.197	275.44
265.429	275.44
265.661	267.44
265.894	286.44
266.126	291.44
266.358	293.44
266.591	279.44
266.823	296.44
267.055	303.44
267.287	303.44
267.52	285.44
267.752	289.44
267.984	288.44
268.216	273.44
268.448	303.44
268.681	292.44
268.913	314.44
269.145	318.44
269.377	303.44
269.609	296.44
269.841	304.44
270.073	302.44
270.306	308.44
270.538	313.44
270.77	303.44
271.002	314.44
271.234	316.44
271.466	306.44
271.698	314.44
271.93	304.44
272.162	324.44
272.394	314.44
272.626	324.44
272.858	321.44
273.09	336.44
273.322	355.44
273.553	329.44
273.785	315.44
274.017	335.44
274.249	332.44
274.481	341.44
274.713	337.44
274.945	336.44
275.176	313.44
275.408	337.44
275.64	311.44
275.872	356.44
276.104	343.44
276.335	336.44
276.567	331.44
276.799	325.44
277.031	347.44
277.262	334.44
277.494	334.44
277.726	350.44
277.957	377.44
278.189	344.44
278.421	338.44
278.652	360.44
278.884	359.44
279.115	372.44
279.347	382.44
279.579	345.44
279.81	366.44
280.042	385.44
280.273	373.44
280.505	376.44
280.736	367.44
280.968	372.44
281.199	372.44
281.431	356.44
281.662	370.44
281.894	386.44
282.125	365.44
282.356	386.44
282.588	374.44
282.819	367.44
283.051	370.44
283.282	399.44
283.513	372.44
283.745	394.44
283.976	370.44
284.207	378.44
284.439	389.44
284.67	386.44
284.901	394.44
285.132	410.44
285.364	391.44
285.595	392.44
285.826	408.44
286.057	403.44
286.288	387.44
286.52	407.44
286.751	408.44
286.982	409.44
287.213	402.44
287.444	427.44
287.675	409.44
287.906	388.44
288.138	423.44
288.369	394.44
288.6	410.44
288.831	422.44
289.062	417.44
289.293	415.44
289.524	427.44
289.755	406.44
289.986	416.44
290.217	411.44
290.448	410.44
290.679	427.44
290.91	431.44
291.141	428.44
291.371	430.44
291.602	428.44
291.833	408.44
292.064	418.44
292.295	428.44
292.526	432.44
292.757	428.44
292.987	418.44
293.218	425.44
293.449	443.44
293.68	440.44
293.91	446.44
294.141	416.44
294.372	411.44
294.603	434.44
294.833	423.44
295.064	423.44
295.295	422.44
295.525	441.44
295.756	425.44
295.987	425.44
296.217	440.44
296.448	440.44
296.679	435.44
296.909	455.44
297.14	472.44
297.37	452.44
297.601	448.44
297.831	456.44
298.062	451.44
298.292	474.44
298.523	475.44
298.753	451.44
298.984	458.44
299.214	485.44
299.445	464.44
299.675	470.44
299.905	470.44
300.136	455.44
300.366	468.44
300.597	453.44
300.827	464.44
301.057	488.44
301.288	487.44
301.518	501.44
301.748	476.44
301.979	482.44
302.209	498.44
302.439	502.44
302.669	487.44
302.9	485.44
303.13	464.44
303.36	484.44
303.59	484.44
303.82	499.44
304.051	463.44
304.281	474.44
304.511	478.44
304.741	484.44
304.971	479.44
305.201	485.44
305.431	496.44
305.661	495.44
305.891	474.44
306.121	494.44
306.352	473.44
306.582	466.44
306.812	483.44
307.042	480.44
307.272	487.44
307.502	457.44
307.731	500.44
307.961	500.44
308.191	481.44
308.421	497.44
308.651	500.44
308.881	506.44
309.111	481.44
309.341	487.44
309.571	494.44
309.8	470.44
310.03	492.44
310.26	488.44
310.49	478.44
310.72	490.44
310.949	494.44
311.179	520.44
311.409	512.44
311.639	517.44
311.868	498.44
312.098	512.44
312.328	509.44
312.557	523.44
312.787	514.44
313.017	538.44
313.246	503.44
313.476	502.44
313.706	513.44
313.935	534.44
314.165	523.44
314.394	542.44
314.624	527.44
314.853	502.44
315.083	529.44
315.312	513.44
315.542	524.44
315.771	516.44
316.001	513.44
316.23	518.44
316.46	506.44
316.689	524.44
316.919	541.44
317.148	508.44
317.377	525.44
317.607	515.44
317.836	512.44
318.065	524.44
318.295	529.44
318.524	525.44
318.753	500.44
318.983	516.44
319.212	512.44
319.441	508.44
319.67	514.44
319.9	535.44
320.129	530.44
320.358	501.44
320.587	530.44
320.816	542.44
321.046	530.44
321.275	516.44
321.504	507.44
321.733	527.44
321.962	534.44
322.191	536.44
322.42	537.44
322.649	519.44
322.878	510.44
323.108	534.44
323.337	538.44
323.566	530.44
323.795	568.44
324.024	536.44
324.253	521.44
324.482	558.44
324.71	548.44
324.939	534.44
325.168	542.44
325.397	524.44
325.626	531.44
325.855	547.44
326.084	584.44
326.313	578.44
326.542	568.44
326.77	568.44
326.999	549.44
327.228	560.44
327.457	562.44
327.686	572.44
327.914	576.44
328.143	558.44
328.372	566.44
328.6	571.44
328.829	570.44
329.058	583.44
329.287	564.44
329.515	545.44
329.744	574.44
329.972	588.44
330.201	599.44
330.43	580.44
330.658	574.44
330.887	590.44
331.115	566.44
331.344	582.44
331.572	596.44
331.801	593.44
332.03	609.44
332.258	632.44
332.486	644.44
332.715	656.44
332.943	662.44
333.172	690.44
333.4	729.44
333.629	709.44
333.857	722.44
334.085	722.44
334.314	720.44
334.542	689.44
334.771	684.44
334.999	711.44
335.227	702.44
335.455	681.44
335.684	691.44
335.912	672.44
336.14	664.44
336.369	666.44
336.597	665.44
336.825	666.44
337.053	672.44
337.281	688.44
337.51	653.44
337.738	686.44
337.966	660.44
338.194	638.44
338.422	644.44
338.65	627.44
338.878	625.44
339.106	642.44
339.334	638.44
339.562	619.44
339.79	598.44
340.018	603.44
340.246	591.44
340.474	608.44
340.702	608.44
340.93	563.44
341.158	625.44
341.386	578.44
341.614	604.44
341.842	610.44
342.07	610.44
342.298	601.44
342.526	597.44
342.754	603.44
342.981	594.44
343.209	630.44
343.437	651.44
343.665	666.44
343.893	685.44
344.12	705.44
344.348	688.44
344.576	650.44
344.804	638.44
345.031	642.44
345.259	598.44
345.487	608.44
345.714	613.44
345.942	604.44
346.17	622.44
346.397	601.44
346.625	603.44
346.853	584.44
347.08	588.44
347.308	586.44
347.535	580.44
347.763	582.44
347.99	590.44
348.218	576.44
348.445	579.44
348.673	588.44
348.9	562.44
349.128	588.44
349.355	580.44
349.583	571.44
349.81	554.44
350.037	559.44
350.265	562.44
350.492	562.44
350.72	589.44
350.947	580.44
351.174	581.44
351.402	582.44
351.629	575.44
351.856	578.44
352.083	580.44
352.311	564.44
352.538	594.44
352.765	575.44
352.992	570.44
353.22	558.44
353.447	537.44
353.674	544.44
353.901	556.44
354.128	563.44
354.355	555.44
354.583	562.44
354.81	565.44
355.037	544.44
355.264	586.44
355.491	564.44
355.718	559.44
355.945	586.44
356.172	578.44
356.399	568.44
356.626	569.44
356.853	562.44
357.08	564.44
357.307	566.44
357.534	558.44
357.761	568.44
357.988	571.44
358.215	569.44
358.441	577.44
358.668	577.44
358.895	578.44
359.122	590.44
359.349	575.44
359.576	562.44
359.802	564.44
360.029	560.44
360.256	571.44
360.483	571.44
360.709	564.44
360.936	563.44
361.163	575.44
361.39	564.44
361.616	571.44
361.843	596.44
362.07	567.44
362.296	576.44
362.523	574.44
362.749	544.44
362.976	558.44
363.203	563.44
363.429	548.44
363.656	579.44
363.882	571.44
364.109	555.44
364.335	567.44
364.562	546.44
364.788	544.44
365.015	567.44
365.241	589.44
365.468	560.44
365.694	553.44
365.92	562.44
366.147	564.44
366.373	574.44
366.599	560.44
366.826	566.44
367.052	562.44
367.278	540.44
367.505	576.44
367.731	597.44
367.957	588.44
368.184	548.44
368.41	589.44
368.636	594.44
368.862	565.44
369.089	564.44
369.315	564.44
369.541	574.44
369.767	580.44
369.993	582.44
370.219	574.44
370.445	588.44
370.672	597.44
370.898	582.44
371.124	589.44
371.35	608.44
371.576	592.44
371.802	612.44
372.028	600.44
372.254	628.44
372.48	612.44
372.706	612.44
372.932	646.44
373.158	618.44
373.384	633.44
373.61	618.44
373.835	625.44
374.061	611.44
374.287	603.44
374.513	637.44
374.739	650.44
374.965	668.44
375.191	660.44
375.416	675.44
375.642	643.44
375.868	634.44
376.094	640.44
376.319	627.44
376.545	650.44
376.771	620.44
376.997	632.44
377.222	608.44
377.448	632.44
377.674	612.44
377.899	613.44
378.125	632.44
378.35	598.44
378.576	590.44
378.802	613.44
379.027	626.44
379.253	623.44
379.478	610.44
379.704	615.44
379.929	593.44
380.155	595.44
380.38	594.44
380.606	612.44
380.831	592.44
381.057	637.44
381.282	619.44
381.507	603.44
381.733	626.44
381.958	614.44
382.184	620.44
382.409	631.44
382.634	638.44
382.86	631.44
383.085	630.44
383.31	616.44
383.535	667.44
383.761	652.44
383.986	690.44
384.211	654.44
384.436	683.44
384.662	682.44
384.887	680.44
385.112	691.44
385.337	711.44
385.562	706.44
385.787	694.44
386.013	713.44
386.238	728.44
386.463	706.44
386.688	729.44
386.913	711.44
387.138	694.44
387.363	689.44
387.588	715.44
387.813	703.44
388.038	716.44
388.263	718.44
388.488	732.44
388.713	711.44
388.938	702.44
389.163	702.44
389.387	692.44
389.612	720.44
389.837	716.44
390.062	707.44
390.287	688.44
390.512	683.44
390.736	711.44
390.961	736.44
391.186	751.44
391.411	753.44
391.636	782.44
391.86	785.44
392.085	810.44
392.31	769.44
392.534	772.44
392.759	755.44
392.984	750.44
393.208	744.44
393.433	752.44
393.658	736.44
393.882	750.44
394.107	744.44
394.331	772.44
394.556	754.44
394.78	769.44
395.005	770.44
395.229	757.44
395.454	791.44
395.678	786.44
395.903	793.44
396.127	789.44
396.352	802.44
396.576	745.44
396.801	746.44
397.025	759.44
397.249	778.44
397.474	795.44
397.698	810.44
397.922	799.44
398.147	800.44
398.371	791.44
398.595	832.44
398.82	897.44
399.044	929.44
399.268	978.44
399.492	1098.44
399.717	1172.44
399.941	1202.44
400.165	1098.44
400.389	1043.44
400.613	970.44
400.837	904.44
401.062	887.44
401.286	893.44
401.51	882.44
401.734	880.44
401.958	902.44
402.182	887.44
402.406	885.44
402.63	900.44
402.854	928.44
403.078	909.44
403.302	944.44
403.526	966.44
403.75	988.44
403.974	1006.44
404.198	977.44
404.422	1000.44
404.645	982.44
404.869	975.44
405.093	970.44
405.317	964.44
405.541	946.44
405.765	938.44
405.988	955.44
406.212	952.44
406.436	940.44
406.66	981.44
406.883	987.44
407.107	1027.44
407.331	1044.44
407.555	1100.44
407.778	1077.44
408.002	1070.44
408.226	1040.44
408.449	1032.44
408.673	1000.44
408.896	999.44
409.12	973.44
409.344	1003.44
409.567	985.44
409.791	964.44
410.014	984.44
410.238	954.44
410.461	964.44
410.685	957.44
410.908	942.44
411.132	935.44
411.355	906.44
411.578	929.44
411.802	883.44
412.025	924.44
412.249	952.44
412.472	919.44
412.695	910.44
412.919	911.44
413.142	888.44
413.365	863.44
413.589	892.44
413.812	883.44
414.035	886.44
414.258	899.44
414.482	872.44
414.705	883.44
414.928	880.44
415.151	883.44
415.374	879.44
415.597	886.44
415.821	854.44
416.044	866.44
416.267	879.44
416.49	888.44
416.713	836.44
416.936	877.44
417.159	859.44
417.382	814.44
417.605	835.44
417.828	839.44
418.051	881.44
418.274	878.44
418.497	856.44
418.72	862.44
418.943	858.44
419.166	918.44
419.389	989.44
419.611	972.44
419.834	946.44
420.057	921.44
420.28	898.44
420.503	881.44
420.726	870.44
420.948	841.44
421.171	870.44
421.394	867.44
421.617	851.44
421.839	880.44
422.062	880.44
422.285	854.44
422.507	847.44
422.73	891.44
422.953	880.44
423.175	910.44
423.398	898.44
423.621	870.44
423.843	890.44
424.066	923.44
424.288	905.44
424.511	884.44
424.733	878.44
424.956	886.44
425.178	854.44
425.401	885.44
425.623	842.44
425.846	842.44
426.068	847.44
426.291	816.44
426.513	818.44
426.735	848.44
426.958	845.44
427.18	798.44
427.402	822.44
427.625	792.44
427.847	800.44
428.069	774.44
428.292	826.44
428.514	811.44
428.736	797.44
428.958	814.44
429.181	770.44
429.403	771.44
429.625	775.44
429.847	784.44
430.069	757.44
430.292	772.44
430.514	762.44
430.736	760.44
430.958	754.44
431.18	758.44
431.402	774.44
431.624	769.44
431.846	790.44
432.068	775.44
432.29	784.44
432.512	781.44
432.734	784.44
432.956	804.44
433.178	787.44
433.4	768.44
433.622	818.44
433.844	822.44
434.066	776.44
434.287	765.44
434.509	808.44
434.731	844.44
434.953	868.44
435.175	869.44
435.397	854.44
435.618	810.44
435.84	804.44
436.062	806.44
436.284	802.44
436.505	806.44
436.727	803.44
436.949	799.44
437.17	806.44
437.392	778.44
437.614	779.44
437.835	734.44
438.057	769.44
438.278	770.44
438.5	774.44
438.721	746.44
438.943	754.44
439.165	758.44
439.386	754.44
439.608	782.44
439.829	772.44
440.05	790.44
440.272	770.44
440.493	786.44
440.715	802.44
440.936	820.44
441.158	811.44
441.379	812.44
441.6	862.44
441.822	847.44
442.043	850.44
442.264	844.44
442.486	847.44
442.707	832.44
442.928	834.44
443.149	855.44
443.371	856.44
443.592	863.44
443.813	863.44
444.034	885.44
444.255	890.44
444.476	920.44
444.698	964.44
444.919	1002.44
445.14	1107.44
445.361	968.44
445.582	910.44
445.803	822.44
446.024	860.44
446.245	829.44
446.466	797.44
446.687	810.44
446.908	779.44
447.129	777.44
447.35	766.44
447.571	740.44
447.792	748.44
448.013	769.44
448.234	768.44
448.455	736.44
448.675	728.44
448.896	730.44
449.117	708.44
449.338	727.44
449.559	723.44
449.779	705.44
450	722.44
450.221	716.44
450.442	756.44
450.662	722.44
450.883	724.44
451.104	762.44
451.324	744.44
451.545	708.44
451.766	721.44
451.986	719.44
452.207	710.44
452.428	712.44
452.648	713.44
452.869	708.44
453.089	685.44
453.31	722.44
453.53	701.44
453.751	690.44
453.971	731.44
454.192	703.44
454.412	692.44
454.633	700.44
454.853	687.44
455.073	667.44
455.294	678.44
455.514	668.44
455.734	680.44
455.955	684.44
456.175	676.44
456.395	672.44
456.616	695.44
456.836	681.44
457.056	678.44
457.276	682.44
457.497	663.44
457.717	686.44
457.937	685.44
458.157	699.44
458.377	720.44
458.598	733.44
458.818	720.44
459.038	735.44
459.258	778.44
459.478	820.44
459.698	811.44
459.918	839.44
460.138	853.44
460.358	879.44
460.578	894.44
460.798	919.44
461.018	918.44
461.238	897.44
461.458	910.44
461.678	888.44
461.898	911.44
462.118	914.44
462.338	952.44
462.558	968.44
462.777	1027.44
462.997	1083.44
463.217	1136.44
463.437	1120.44
463.657	1056.44
463.876	1063.44
464.096	1040.44
464.316	1054.44
464.536	1008.44
464.755	1011.44
464.975	976.44
465.195	922.44
465.414	874.44
465.634	833.44
465.854	821.44
466.073	811.44
466.293	790.44
466.512	758.44
466.732	777.44
466.951	795.44
467.171	769.44
467.391	770.44
467.61	756.44
467.829	754.44
468.049	743.44
468.268	729.44
468.488	727.44
468.707	735.44
468.927	768.44
469.146	737.44
469.365	747.44
469.585	748.44
469.804	765.44
470.023	794.44
470.243	753.44
470.462	757.44
470.681	777.44
470.901	758.44
471.12	776.44
471.339	740.44
471.558	784.44
471.777	734.44
471.997	739.44
472.216	740.44
472.435	713.44
472.654	733.44
472.873	717.44
473.092	714.44
473.311	766.44
473.53	724.44
473.749	725.44
473.968	736.44
474.187	710.44
474.406	744.44
474.625	730.44
474.844	732.44
475.063	723.44
475.282	744.44
475.501	719.44
475.72	726.44
475.939	737.44
476.158	768.44
476.377	755.44
476.596	763.44
476.814	793.44
477.033	755.44
477.252	770.44
477.471	803.44
477.69	835.44
477.908	837.44
478.127	832.44
478.346	858.44
478.564	896.44
478.783	867.44
479.002	914.44
479.22	900.44
479.439	884.44
479.658	914.44
479.876	882.44
480.095	875.44
480.313	912.44
480.532	939.44
480.751	953.44
480.969	948.44
481.188	886.44
481.406	853.44
481.624	830.44
481.843	845.44
482.061	844.44
482.28	849.44
482.498	841.44
482.717	825.44
482.935	850.44
483.153	822.44
483.372	850.44
483.59	844.44
483.808	825.44
484.027	848.44
484.245	859.44
484.463	847.44
484.681	850.44
484.9	887.44
485.118	868.44
485.336	876.44
485.554	863.44
485.772	859.44
485.99	884.44
486.209	876.44
486.427	852.44
486.645	870.44
486.863	885.44
487.081	869.44
487.299	882.44
487.517	868.44
487.735	855.44
487.953	914.44
488.171	867.44
488.389	884.44
488.607	840.44
488.825	858.44
489.043	853.44
489.261	843.44
489.479	870.44
489.696	865.44
489.914	890.44
490.132	884.44
490.35	875.44
490.568	880.44
490.786	900.44
491.003	882.44
491.221	886.44
491.439	902.44
491.657	904.44
491.874	913.44
492.092	896.44
492.31	905.44
492.527	933.44
492.745	897.44
492.963	898.44
493.18	873.44
493.398	908.44
493.615	892.44
493.833	900.44
494.05	922.44
494.268	929.44
494.485	947.44
494.703	946.44
494.92	942.44
495.138	942.44
495.355	964.44
495.573	933.44
495.79	978.44
496.008	948.44
496.225	980.44
496.442	959.44
496.66	991.44
496.877	995.44
497.094	991.44
497.312	1029.44
497.529	1024.44
497.746	1051.44
497.963	1072.44
498.181	1132.44
498.398	1168.44
498.615	1193.44
498.832	1291.44
499.049	1348.44
499.267	1485.44
499.484	1592.44
499.701	1734.44
499.918	1852.44
500.135	2054.44
500.352	2302.44
500.569	2384.44
500.786	2327.44
501.003	2159.44
