Data from NiCl2@0.0625M.TitratingCurve.Agarose3%dH2O.NegLispCup.LampEnergy10.LIBS07252019_HRD10591_18-34-25-576.txt Node
Date: Thu Jul 25 18:34:25 EDT 2019
User: cochatt
Spectrometer: HR+D1059
Trigger mode: 1
Integration Time (sec): 1.000000E-1
Scans to average: 1
Electric dark correction enabled: true
Nonlinearity correction enabled: false
Boxcar width: 0
XAxis mode: Wavelengths
Number of Pixels in Spectrum: 2048
>>>>>Begin Spectral Data<<<<<
223.165	-15.62
223.4	-15.62
223.635	-15.62
223.869	-20.62
224.104	-13.62
224.338	-16.62
224.573	-16.62
224.808	-6.62
225.042	-0.62
225.277	-10.62
225.511	-2.62
225.746	14.38
225.98	9.38
226.215	5.38
226.449	10.38
226.683	18.38
226.918	18.38
227.152	27.38
227.387	37.38
227.621	39.38
227.856	45.38
228.09	47.38
228.324	41.38
228.559	41.38
228.793	87.38
229.027	136.38
229.262	145.38
229.496	147.38
229.73	153.38
229.964	189.38
230.199	187.38
230.433	176.38
230.667	172.38
230.901	190.38
231.136	183.38
231.37	185.38
231.604	186.38
231.838	191.38
232.072	195.38
232.306	218.38
232.541	215.38
232.775	210.38
233.009	213.38
233.243	205.38
233.477	207.38
233.711	224.38
233.945	224.38
234.179	203.38
234.413	237.38
234.647	198.38
234.881	211.38
235.115	211.38
235.349	220.38
235.583	229.38
235.817	220.38
236.051	218.38
236.285	222.38
236.519	216.38
236.753	218.38
236.987	229.38
237.221	239.38
237.455	250.38
237.689	245.38
237.922	225.38
238.156	248.38
238.39	254.38
238.624	245.38
238.858	245.38
239.091	259.38
239.325	269.38
239.559	263.38
239.793	269.38
240.027	272.38
240.26	275.38
240.494	289.38
240.728	294.38
240.961	281.38
241.195	289.38
241.429	285.38
241.662	287.38
241.896	293.38
242.13	311.38
242.363	312.38
242.597	309.38
242.83	291.38
243.064	321.38
243.298	296.38
243.531	323.38
243.765	311.38
243.998	341.38
244.232	314.38
244.465	326.38
244.699	329.38
244.932	344.38
245.166	351.38
245.399	338.38
245.633	344.38
245.866	359.38
246.099	347.38
246.333	365.38
246.566	357.38
246.8	366.38
247.033	346.38
247.266	360.38
247.5	360.38
247.733	352.38
247.966	374.38
248.2	389.38
248.433	377.38
248.666	397.38
248.899	369.38
249.133	381.38
249.366	394.38
249.599	379.38
249.832	403.38
250.066	414.38
250.299	391.38
250.532	405.38
250.765	415.38
250.998	420.38
251.231	417.38
251.465	442.38
251.698	405.38
251.931	426.38
252.164	431.38
252.397	419.38
252.63	444.38
252.863	445.38
253.096	448.38
253.329	447.38
253.562	444.38
253.795	458.38
254.028	447.38
254.261	469.38
254.494	444.38
254.727	455.38
254.96	453.38
255.193	458.38
255.426	460.38
255.659	459.38
255.892	475.38
256.124	469.38
256.357	491.38
256.59	476.38
256.823	476.38
257.056	497.38
257.289	477.38
257.521	508.38
257.754	493.38
257.987	497.38
258.22	488.38
258.452	511.38
258.685	498.38
258.918	526.38
259.151	526.38
259.383	505.38
259.616	513.38
259.849	531.38
260.081	516.38
260.314	534.38
260.547	533.38
260.779	549.38
261.012	543.38
261.244	529.38
261.477	535.38
261.71	529.38
261.942	540.38
262.175	546.38
262.407	568.38
262.64	555.38
262.872	558.38
263.105	565.38
263.337	532.38
263.57	573.38
263.802	551.38
264.035	584.38
264.267	583.38
264.499	580.38
264.732	575.38
264.964	591.38
265.197	601.38
265.429	618.38
265.661	592.38
265.894	605.38
266.126	611.38
266.358	591.38
266.591	584.38
266.823	590.38
267.055	596.38
267.287	607.38
267.52	618.38
267.752	597.38
267.984	616.38
268.216	618.38
268.448	609.38
268.681	651.38
268.913	641.38
269.145	627.38
269.377	615.38
269.609	625.38
269.841	639.38
270.073	631.38
270.306	634.38
270.538	641.38
270.77	627.38
271.002	650.38
271.234	641.38
271.466	657.38
271.698	651.38
271.93	647.38
272.162	669.38
272.394	653.38
272.626	673.38
272.858	660.38
273.09	685.38
273.322	693.38
273.553	671.38
273.785	670.38
274.017	685.38
274.249	680.38
274.481	668.38
274.713	691.38
274.945	691.38
275.176	720.38
275.408	727.38
275.64	726.38
275.872	723.38
276.104	719.38
276.335	717.38
276.567	724.38
276.799	751.38
277.031	755.38
277.262	717.38
277.494	742.38
277.726	743.38
277.957	727.38
278.189	765.38
278.421	744.38
278.652	753.38
278.884	787.38
279.115	759.38
279.347	772.38
279.579	770.38
279.81	792.38
280.042	795.38
280.273	794.38
280.505	799.38
280.736	804.38
280.968	823.38
281.199	795.38
281.431	780.38
281.662	783.38
281.894	792.38
282.125	795.38
282.356	820.38
282.588	832.38
282.819	782.38
283.051	822.38
283.282	821.38
283.513	835.38
283.745	829.38
283.976	815.38
284.207	831.38
284.439	823.38
284.67	838.38
284.901	842.38
285.132	856.38
285.364	872.38
285.595	844.38
285.826	865.38
286.057	852.38
286.288	871.38
286.52	850.38
286.751	874.38
286.982	879.38
287.213	861.38
287.444	855.38
287.675	874.38
287.906	876.38
288.138	872.38
288.369	865.38
288.6	885.38
288.831	929.38
289.062	901.38
289.293	867.38
289.524	887.38
289.755	881.38
289.986	892.38
290.217	916.38
290.448	913.38
290.679	920.38
290.91	885.38
291.141	899.38
291.371	927.38
291.602	891.38
291.833	899.38
292.064	910.38
292.295	923.38
292.526	925.38
292.757	901.38
292.987	923.38
293.218	890.38
293.449	905.38
293.68	903.38
293.91	901.38
294.141	927.38
294.372	918.38
294.603	900.38
294.833	910.38
295.064	929.38
295.295	943.38
295.525	933.38
295.756	934.38
295.987	926.38
296.217	955.38
296.448	947.38
296.679	934.38
296.909	949.38
297.14	910.38
297.37	950.38
297.601	993.38
297.831	931.38
298.062	946.38
298.292	973.38
298.523	1004.38
298.753	1021.38
298.984	983.38
299.214	973.38
299.445	997.38
299.675	978.38
299.905	993.38
300.136	1012.38
300.366	994.38
300.597	970.38
300.827	1042.38
301.057	1016.38
301.288	1030.38
301.518	1060.38
301.748	1050.38
301.979	1050.38
302.209	1041.38
302.439	1032.38
302.669	1042.38
302.9	1035.38
303.13	1025.38
303.36	1021.38
303.59	1047.38
303.82	1053.38
304.051	1023.38
304.281	1043.38
304.511	1023.38
304.741	1060.38
304.971	1034.38
305.201	1060.38
305.431	1000.38
305.661	1042.38
305.891	1027.38
306.121	1036.38
306.352	1017.38
306.582	1020.38
306.812	1011.38
307.042	1049.38
307.272	1036.38
307.502	1034.38
307.731	1035.38
307.961	1026.38
308.191	1044.38
308.421	1003.38
308.651	1045.38
308.881	1025.38
309.111	1026.38
309.341	1031.38
309.571	1039.38
309.8	1037.38
310.03	1059.38
310.26	1040.38
310.49	1030.38
310.72	1023.38
310.949	1051.38
311.179	1051.38
311.409	1056.38
311.639	1079.38
311.868	1051.38
312.098	1068.38
312.328	1085.38
312.557	1080.38
312.787	1096.38
313.017	1081.38
313.246	1100.38
313.476	1090.38
313.706	1108.38
313.935	1098.38
314.165	1120.38
314.394	1089.38
314.624	1108.38
314.853	1087.38
315.083	1090.38
315.312	1115.38
315.542	1116.38
315.771	1099.38
316.001	1085.38
316.23	1098.38
316.46	1100.38
316.689	1100.38
316.919	1082.38
317.148	1111.38
317.377	1112.38
317.607	1092.38
317.836	1100.38
318.065	1089.38
318.295	1091.38
318.524	1096.38
318.753	1088.38
318.983	1075.38
319.212	1096.38
319.441	1100.38
319.67	1100.38
319.9	1101.38
320.129	1098.38
320.358	1097.38
320.587	1101.38
320.816	1098.38
321.046	1079.38
321.275	1113.38
321.504	1087.38
321.733	1110.38
321.962	1113.38
322.191	1118.38
322.42	1132.38
322.649	1106.38
322.878	1107.38
323.108	1091.38
323.337	1121.38
323.566	1125.38
323.795	1124.38
324.024	1154.38
324.253	1139.38
324.482	1146.38
324.71	1149.38
324.939	1139.38
325.168	1149.38
325.397	1139.38
325.626	1184.38
325.855	1174.38
326.084	1168.38
326.313	1192.38
326.542	1209.38
326.77	1209.38
326.999	1167.38
327.228	1166.38
327.457	1189.38
327.686	1179.38
327.914	1192.38
328.143	1219.38
328.372	1195.38
328.6	1194.38
328.829	1192.38
329.058	1178.38
329.287	1195.38
329.515	1211.38
329.744	1199.38
329.972	1214.38
330.201	1205.38
330.43	1222.38
330.658	1240.38
330.887	1256.38
331.115	1249.38
331.344	1272.38
331.572	1277.38
331.801	1287.38
332.03	1314.38
332.258	1324.38
332.486	1362.38
332.715	1400.38
332.943	1411.38
333.172	1445.38
333.4	1496.38
333.629	1557.38
333.857	1556.38
334.085	1539.38
334.314	1521.38
334.542	1521.38
334.771	1521.38
334.999	1505.38
335.227	1510.38
335.455	1488.38
335.684	1446.38
335.912	1470.38
336.14	1438.38
336.369	1482.38
336.597	1444.38
336.825	1429.38
337.053	1434.38
337.281	1421.38
337.51	1371.38
337.738	1364.38
337.966	1368.38
338.194	1359.38
338.422	1322.38
338.65	1332.38
338.878	1325.38
339.106	1307.38
339.334	1331.38
339.562	1308.38
339.79	1249.38
340.018	1317.38
340.246	1272.38
340.474	1264.38
340.702	1263.38
340.93	1259.38
341.158	1259.38
341.386	1270.38
341.614	1283.38
341.842	1245.38
342.07	1266.38
342.298	1255.38
342.526	1245.38
342.754	1244.38
342.981	1279.38
343.209	1271.38
343.437	1349.38
343.665	1391.38
343.893	1447.38
344.12	1522.38
344.348	1485.38
344.576	1383.38
344.804	1363.38
345.031	1308.38
345.259	1280.38
345.487	1284.38
345.714	1250.38
345.942	1244.38
346.17	1245.38
346.397	1248.38
346.625	1248.38
346.853	1225.38
347.08	1222.38
347.308	1201.38
347.535	1238.38
347.763	1231.38
347.99	1228.38
348.218	1205.38
348.445	1188.38
348.673	1201.38
348.9	1212.38
349.128	1189.38
349.355	1170.38
349.583	1172.38
349.81	1184.38
350.037	1171.38
350.265	1180.38
350.492	1187.38
350.72	1184.38
350.947	1124.38
351.174	1171.38
351.402	1199.38
351.629	1163.38
351.856	1153.38
352.083	1149.38
352.311	1191.38
352.538	1148.38
352.765	1139.38
352.992	1120.38
353.22	1146.38
353.447	1154.38
353.674	1154.38
353.901	1166.38
354.128	1176.38
354.355	1138.38
354.583	1136.38
354.81	1155.38
355.037	1175.38
355.264	1170.38
355.491	1161.38
355.718	1158.38
355.945	1156.38
356.172	1175.38
356.399	1166.38
356.626	1166.38
356.853	1186.38
357.08	1183.38
357.307	1181.38
357.534	1171.38
357.761	1176.38
357.988	1152.38
358.215	1184.38
358.441	1136.38
358.668	1168.38
358.895	1152.38
359.122	1141.38
359.349	1176.38
359.576	1186.38
359.802	1176.38
360.029	1171.38
360.256	1168.38
360.483	1171.38
360.709	1185.38
360.936	1149.38
361.163	1152.38
361.39	1171.38
361.616	1164.38
361.843	1159.38
362.07	1163.38
362.296	1170.38
362.523	1162.38
362.749	1190.38
362.976	1170.38
363.203	1132.38
363.429	1124.38
363.656	1160.38
363.882	1179.38
364.109	1165.38
364.335	1161.38
364.562	1158.38
364.788	1171.38
365.015	1161.38
365.241	1151.38
365.468	1178.38
365.694	1155.38
365.92	1133.38
366.147	1166.38
366.373	1176.38
366.599	1190.38
366.826	1164.38
367.052	1162.38
367.278	1173.38
367.505	1170.38
367.731	1176.38
367.957	1162.38
368.184	1185.38
368.41	1217.38
368.636	1159.38
368.862	1201.38
369.089	1216.38
369.315	1191.38
369.541	1199.38
369.767	1227.38
369.993	1202.38
370.219	1233.38
370.445	1231.38
370.672	1251.38
370.898	1223.38
371.124	1254.38
371.35	1259.38
371.576	1280.38
371.802	1277.38
372.028	1254.38
372.254	1259.38
372.48	1301.38
372.706	1296.38
372.932	1323.38
373.158	1319.38
373.384	1315.38
373.61	1282.38
373.835	1287.38
374.061	1267.38
374.287	1272.38
374.513	1311.38
374.739	1347.38
374.965	1393.38
375.191	1396.38
375.416	1382.38
375.642	1364.38
375.868	1343.38
376.094	1351.38
376.319	1327.38
376.545	1296.38
376.771	1285.38
376.997	1261.38
377.222	1289.38
377.448	1267.38
377.674	1284.38
377.899	1264.38
378.125	1252.38
378.35	1266.38
378.576	1251.38
378.802	1256.38
379.027	1241.38
379.253	1280.38
379.478	1276.38
379.704	1234.38
379.929	1248.38
380.155	1251.38
380.38	1246.38
380.606	1249.38
380.831	1255.38
381.057	1219.38
381.282	1266.38
381.507	1217.38
381.733	1294.38
381.958	1284.38
382.184	1316.38
382.409	1280.38
382.634	1314.38
382.86	1317.38
383.085	1337.38
383.31	1340.38
383.535	1375.38
383.761	1382.38
383.986	1435.38
384.211	1444.38
384.436	1433.38
384.662	1459.38
384.887	1468.38
385.112	1489.38
385.337	1548.38
385.562	1497.38
385.787	1495.38
386.013	1535.38
386.238	1501.38
386.463	1538.38
386.688	1548.38
386.913	1522.38
387.138	1474.38
387.363	1530.38
387.588	1511.38
387.813	1527.38
388.038	1486.38
388.263	1482.38
388.488	1523.38
388.713	1530.38
388.938	1513.38
389.163	1492.38
389.387	1493.38
389.612	1496.38
389.837	1486.38
390.062	1507.38
390.287	1540.38
390.512	1479.38
390.736	1503.38
390.961	1512.38
391.186	1515.38
391.411	1608.38
391.636	1646.38
391.86	1639.38
392.085	1667.38
392.31	1701.38
392.534	1655.38
392.759	1627.38
392.984	1588.38
393.208	1585.38
393.433	1594.38
393.658	1616.38
393.882	1572.38
394.107	1576.38
394.331	1602.38
394.556	1618.38
394.78	1601.38
395.005	1619.38
395.229	1647.38
395.454	1647.38
395.678	1684.38
395.903	1693.38
396.127	1677.38
396.352	1638.38
396.576	1616.38
396.801	1603.38
397.025	1626.38
397.249	1661.38
397.474	1691.38
397.698	1689.38
397.922	1751.38
398.147	1756.38
398.371	1781.38
398.595	1784.38
398.82	1843.38
399.044	1979.38
399.268	2120.38
399.492	2358.38
399.717	2597.38
399.941	2630.38
400.165	2439.38
400.389	2260.38
400.613	2103.38
400.837	2015.38
401.062	2005.38
401.286	1900.38
401.51	1948.38
401.734	1876.38
401.958	1920.38
402.182	1913.38
402.406	1903.38
402.63	1950.38
402.854	1971.38
403.078	1951.38
403.302	2030.38
403.526	1992.38
403.75	2054.38
403.974	2070.38
404.198	2048.38
404.422	2074.38
404.645	2028.38
404.869	2051.38
405.093	2076.38
405.317	2032.38
405.541	2024.38
405.765	2012.38
405.988	2041.38
406.212	2061.38
406.436	2011.38
406.66	2085.38
406.883	2129.38
407.107	2186.38
407.331	2351.38
407.555	2351.38
407.778	2376.38
408.002	2308.38
408.226	2272.38
408.449	2220.38
408.673	2209.38
408.896	2187.38
409.12	2082.38
409.344	2152.38
409.567	2100.38
409.791	2111.38
410.014	2074.38
410.238	2053.38
410.461	2074.38
410.685	2056.38
410.908	2005.38
411.132	1974.38
411.355	1950.38
411.578	1972.38
411.802	1976.38
412.025	1987.38
412.249	1964.38
412.472	2018.38
412.695	1951.38
412.919	1878.38
413.142	1910.38
413.365	1850.38
413.589	1937.38
413.812	1903.38
414.035	1886.38
414.258	1896.38
414.482	1868.38
414.705	1888.38
414.928	1923.38
415.151	1881.38
415.374	1904.38
415.597	1865.38
415.821	1839.38
416.044	1834.38
416.267	1814.38
416.49	1799.38
416.713	1852.38
416.936	1810.38
417.159	1761.38
417.382	1792.38
417.605	1799.38
417.828	1791.38
418.051	1843.38
418.274	1791.38
418.497	1811.38
418.72	1843.38
418.943	1818.38
419.166	1957.38
419.389	2115.38
419.611	2059.38
419.834	1965.38
420.057	1895.38
420.28	1859.38
420.503	1814.38
420.726	1805.38
420.948	1762.38
421.171	1806.38
421.394	1774.38
421.617	1763.38
421.839	1791.38
422.062	1809.38
422.285	1811.38
422.507	1857.38
422.73	1843.38
422.953	1862.38
423.175	1861.38
423.398	1852.38
423.621	1836.38
423.843	1882.38
424.066	1891.38
424.288	1868.38
424.511	1843.38
424.733	1852.38
424.956	1790.38
425.178	1829.38
425.401	1804.38
425.623	1814.38
425.846	1778.38
426.068	1783.38
426.291	1769.38
426.513	1706.38
426.735	1694.38
426.958	1702.38
427.18	1670.38
427.402	1683.38
427.625	1686.38
427.847	1666.38
428.069	1616.38
428.292	1665.38
428.514	1642.38
428.736	1651.38
428.958	1682.38
429.181	1643.38
429.403	1645.38
429.625	1609.38
429.847	1616.38
430.069	1559.38
430.292	1658.38
430.514	1623.38
430.736	1601.38
430.958	1640.38
431.18	1630.38
431.402	1644.38
431.624	1641.38
431.846	1670.38
432.068	1660.38
432.29	1699.38
432.512	1658.38
432.734	1671.38
432.956	1659.38
433.178	1671.38
433.4	1699.38
433.622	1695.38
433.844	1705.38
434.066	1735.38
434.287	1747.38
434.509	1746.38
434.731	1811.38
434.953	1831.38
435.175	1844.38
435.397	1812.38
435.618	1739.38
435.84	1746.38
436.062	1681.38
436.284	1694.38
436.505	1584.38
436.727	1635.38
436.949	1675.38
437.17	1667.38
437.392	1617.38
437.614	1607.38
437.835	1566.38
438.057	1572.38
438.278	1555.38
438.5	1553.38
438.721	1557.38
438.943	1606.38
439.165	1559.38
439.386	1589.38
439.608	1585.38
439.829	1641.38
440.05	1628.38
440.272	1648.38
440.493	1607.38
440.715	1671.38
440.936	1635.38
441.158	1677.38
441.379	1699.38
441.6	1792.38
441.822	1787.38
442.043	1783.38
442.264	1774.38
442.486	1747.38
442.707	1719.38
442.928	1701.38
443.149	1738.38
443.371	1755.38
443.592	1743.38
443.813	1772.38
444.034	1796.38
444.255	1846.38
444.476	1923.38
444.698	1970.38
444.919	2058.38
445.14	2140.38
445.361	1940.38
445.582	1886.38
445.803	1741.38
446.024	1715.38
446.245	1693.38
446.466	1679.38
446.687	1641.38
446.908	1635.38
447.129	1593.38
447.35	1608.38
447.571	1561.38
447.792	1531.38
448.013	1528.38
448.234	1504.38
448.455	1485.38
448.675	1511.38
448.896	1484.38
449.117	1456.38
449.338	1467.38
449.559	1455.38
449.779	1445.38
450	1450.38
450.221	1428.38
450.442	1452.38
450.662	1465.38
450.883	1463.38
451.104	1492.38
451.324	1466.38
451.545	1472.38
451.766	1467.38
451.986	1456.38
452.207	1465.38
452.428	1457.38
452.648	1471.38
452.869	1428.38
453.089	1407.38
453.31	1403.38
453.53	1429.38
453.751	1439.38
453.971	1377.38
454.192	1419.38
454.412	1387.38
454.633	1350.38
454.853	1392.38
455.073	1393.38
455.294	1382.38
455.514	1359.38
455.734	1372.38
455.955	1320.38
456.175	1369.38
456.395	1344.38
456.616	1385.38
456.836	1378.38
457.056	1375.38
457.276	1336.38
457.497	1409.38
457.717	1403.38
457.937	1348.38
458.157	1429.38
458.377	1451.38
458.598	1459.38
458.818	1493.38
459.038	1534.38
459.258	1583.38
459.478	1613.38
459.698	1627.38
459.918	1665.38
460.138	1717.38
460.358	1826.38
460.578	1833.38
460.798	1810.38
461.018	1854.38
461.238	1872.38
461.458	1876.38
461.678	1826.38
461.898	1899.38
462.118	1889.38
462.338	1959.38
462.558	2022.38
462.777	2113.38
462.997	2216.38
463.217	2309.38
463.437	2323.38
463.657	2195.38
463.876	2141.38
464.096	2196.38
464.316	2144.38
464.536	2147.38
464.755	2059.38
464.975	1985.38
465.195	1899.38
465.414	1830.38
465.634	1734.38
465.854	1705.38
466.073	1663.38
466.293	1637.38
466.512	1583.38
466.732	1568.38
466.951	1549.38
467.171	1556.38
467.391	1585.38
467.61	1538.38
467.829	1515.38
468.049	1554.38
468.268	1503.38
468.488	1458.38
468.707	1433.38
468.927	1494.38
469.146	1485.38
469.365	1477.38
469.585	1474.38
469.804	1548.38
470.023	1547.38
470.243	1573.38
470.462	1562.38
470.681	1596.38
470.901	1598.38
471.12	1555.38
471.339	1535.38
471.558	1573.38
471.777	1516.38
471.997	1493.38
472.216	1508.38
472.435	1487.38
472.654	1461.38
472.873	1457.38
473.092	1478.38
473.311	1472.38
473.53	1461.38
473.749	1449.38
473.968	1497.38
474.187	1461.38
474.406	1462.38
474.625	1466.38
474.844	1466.38
475.063	1523.38
475.282	1481.38
475.501	1501.38
475.72	1459.38
475.939	1491.38
476.158	1533.38
476.377	1532.38
476.596	1571.38
476.814	1556.38
477.033	1551.38
477.252	1583.38
477.471	1643.38
477.69	1660.38
477.908	1678.38
478.127	1738.38
478.346	1727.38
478.564	1771.38
478.783	1776.38
479.002	1832.38
479.22	1885.38
479.439	1830.38
479.658	1831.38
479.876	1865.38
480.095	1875.38
480.313	1912.38
480.532	1955.38
480.751	1948.38
480.969	1901.38
481.188	1884.38
481.406	1841.38
481.624	1814.38
481.843	1804.38
482.061	1796.38
482.28	1768.38
482.498	1797.38
482.717	1743.38
482.935	1793.38
483.153	1785.38
483.372	1833.38
483.59	1825.38
483.808	1840.38
484.027	1831.38
484.245	1919.38
484.463	1919.38
484.681	1924.38
484.9	1930.38
485.118	1952.38
485.336	1941.38
485.554	1956.38
485.772	1951.38
485.99	1977.38
486.209	2010.38
486.427	2019.38
486.645	1983.38
486.863	1982.38
487.081	1992.38
487.299	1969.38
487.517	1932.38
487.735	1922.38
487.953	1950.38
488.171	1965.38
488.389	1908.38
488.607	1921.38
488.825	1883.38
489.043	1881.38
489.261	1848.38
489.479	1868.38
489.696	1841.38
489.914	1872.38
