Data from NiCl2@0.125M.TitratingCurve.Agarose3%dH2O.NegLispCup.LampEnergy10.LIBS07252019_HRD10591_18-29-55-575.txt Node
Date: Thu Jul 25 18:29:55 EDT 2019
User: cochatt
Spectrometer: HR+D1059
Trigger mode: 1
Integration Time (sec): 1.000000E-1
Scans to average: 1
Electric dark correction enabled: true
Nonlinearity correction enabled: false
Boxcar width: 0
XAxis mode: Wavelengths
Number of Pixels in Spectrum: 2048
>>>>>Begin Spectral Data<<<<<
223.165	-13.44
223.4	-13.44
223.635	-13.44
223.869	-17.44
224.104	-6.44
224.338	-19.44
224.573	-10.44
224.808	-9.44
225.042	-7.44
225.277	-0.44
225.511	-3.44
225.746	-3.44
225.98	5.56
226.215	1.56
226.449	6.56
226.683	23.56
226.918	29.56
227.152	24.56
227.387	40.56
227.621	36.56
227.856	33.56
228.09	41.56
228.324	46.56
228.559	54.56
228.793	85.56
229.027	111.56
229.262	103.56
229.496	106.56
229.73	108.56
229.964	130.56
230.199	127.56
230.433	147.56
230.667	121.56
230.901	132.56
231.136	135.56
231.37	131.56
231.604	131.56
231.838	130.56
232.072	163.56
232.306	157.56
232.541	135.56
232.775	143.56
233.009	138.56
233.243	150.56
233.477	150.56
233.711	153.56
233.945	147.56
234.179	150.56
234.413	156.56
234.647	155.56
234.881	171.56
235.115	149.56
235.349	166.56
235.583	152.56
235.817	166.56
236.051	159.56
236.285	142.56
236.519	150.56
236.753	167.56
236.987	154.56
237.221	167.56
237.455	167.56
237.689	169.56
237.922	177.56
238.156	177.56
238.39	175.56
238.624	166.56
238.858	181.56
239.091	182.56
239.325	186.56
239.559	180.56
239.793	194.56
240.027	172.56
240.26	181.56
240.494	188.56
240.728	184.56
240.961	164.56
241.195	191.56
241.429	189.56
241.662	196.56
241.896	188.56
242.13	195.56
242.363	206.56
242.597	195.56
242.83	192.56
243.064	205.56
243.298	201.56
243.531	195.56
243.765	201.56
243.998	204.56
244.232	230.56
244.465	213.56
244.699	200.56
244.932	227.56
245.166	215.56
245.399	224.56
245.633	224.56
245.866	244.56
246.099	229.56
246.333	235.56
246.566	217.56
246.8	215.56
247.033	233.56
247.266	247.56
247.5	239.56
247.733	228.56
247.966	235.56
248.2	245.56
248.433	233.56
248.666	236.56
248.899	245.56
249.133	239.56
249.366	265.56
249.599	265.56
249.832	249.56
250.066	258.56
250.299	271.56
250.532	248.56
250.765	247.56
250.998	275.56
251.231	264.56
251.465	269.56
251.698	260.56
251.931	276.56
252.164	266.56
252.397	287.56
252.63	277.56
252.863	271.56
253.096	272.56
253.329	271.56
253.562	273.56
253.795	275.56
254.028	282.56
254.261	311.56
254.494	308.56
254.727	283.56
254.96	295.56
255.193	299.56
255.426	307.56
255.659	297.56
255.892	285.56
256.124	301.56
256.357	305.56
256.59	321.56
256.823	296.56
257.056	297.56
257.289	301.56
257.521	303.56
257.754	298.56
257.987	309.56
258.22	312.56
258.452	327.56
258.685	318.56
258.918	331.56
259.151	314.56
259.383	317.56
259.616	311.56
259.849	317.56
260.081	332.56
260.314	321.56
260.547	298.56
260.779	312.56
261.012	322.56
261.244	316.56
261.477	339.56
261.71	326.56
261.942	331.56
262.175	325.56
262.407	354.56
262.64	334.56
262.872	344.56
263.105	337.56
263.337	319.56
263.57	354.56
263.802	353.56
264.035	348.56
264.267	370.56
264.499	347.56
264.732	371.56
264.964	371.56
265.197	354.56
265.429	346.56
265.661	364.56
265.894	367.56
266.126	366.56
266.358	357.56
266.591	358.56
266.823	365.56
267.055	350.56
267.287	367.56
267.52	363.56
267.752	385.56
267.984	380.56
268.216	391.56
268.448	367.56
268.681	358.56
268.913	372.56
269.145	379.56
269.377	364.56
269.609	369.56
269.841	387.56
270.073	388.56
270.306	391.56
270.538	386.56
270.77	376.56
271.002	402.56
271.234	381.56
271.466	385.56
271.698	413.56
271.93	379.56
272.162	400.56
272.394	412.56
272.626	395.56
272.858	399.56
273.09	408.56
273.322	400.56
273.553	399.56
273.785	417.56
274.017	403.56
274.249	396.56
274.481	421.56
274.713	419.56
274.945	404.56
275.176	415.56
275.408	429.56
275.64	420.56
275.872	399.56
276.104	417.56
276.335	439.56
276.567	445.56
276.799	417.56
277.031	424.56
277.262	420.56
277.494	424.56
277.726	441.56
277.957	462.56
278.189	426.56
278.421	439.56
278.652	425.56
278.884	455.56
279.115	453.56
279.347	425.56
279.579	439.56
279.81	441.56
280.042	448.56
280.273	448.56
280.505	466.56
280.736	450.56
280.968	476.56
281.199	468.56
281.431	478.56
281.662	458.56
281.894	461.56
282.125	491.56
282.356	468.56
282.588	475.56
282.819	481.56
283.051	492.56
283.282	477.56
283.513	489.56
283.745	477.56
283.976	475.56
284.207	482.56
284.439	486.56
284.67	511.56
284.901	513.56
285.132	476.56
285.364	486.56
285.595	517.56
285.826	477.56
286.057	515.56
286.288	523.56
286.52	524.56
286.751	509.56
286.982	516.56
287.213	508.56
287.444	496.56
287.675	499.56
287.906	507.56
288.138	506.56
288.369	511.56
288.6	542.56
288.831	506.56
289.062	535.56
289.293	518.56
289.524	545.56
289.755	541.56
289.986	521.56
290.217	532.56
290.448	523.56
290.679	545.56
290.91	538.56
291.141	515.56
291.371	536.56
291.602	539.56
291.833	544.56
292.064	529.56
292.295	539.56
292.526	547.56
292.757	539.56
292.987	532.56
293.218	537.56
293.449	557.56
293.68	527.56
293.91	527.56
294.141	542.56
294.372	531.56
294.603	530.56
294.833	553.56
295.064	537.56
295.295	557.56
295.525	528.56
295.756	553.56
295.987	555.56
296.217	552.56
296.448	573.56
296.679	543.56
296.909	552.56
297.14	589.56
297.37	573.56
297.601	566.56
297.831	564.56
298.062	562.56
298.292	592.56
298.523	613.56
298.753	590.56
298.984	591.56
299.214	585.56
299.445	587.56
299.675	590.56
299.905	599.56
300.136	588.56
300.366	595.56
300.597	606.56
300.827	610.56
301.057	608.56
301.288	621.56
301.518	631.56
301.748	627.56
301.979	631.56
302.209	637.56
302.439	621.56
302.669	605.56
302.9	615.56
303.13	588.56
303.36	615.56
303.59	604.56
303.82	574.56
304.051	598.56
304.281	599.56
304.511	587.56
304.741	589.56
304.971	623.56
305.201	585.56
305.431	594.56
305.661	581.56
305.891	603.56
306.121	618.56
306.352	597.56
306.582	587.56
306.812	568.56
307.042	583.56
307.272	606.56
307.502	593.56
307.731	591.56
307.961	592.56
308.191	583.56
308.421	570.56
308.651	582.56
308.881	606.56
309.111	597.56
309.341	563.56
309.571	586.56
309.8	590.56
310.03	576.56
310.26	587.56
310.49	568.56
310.72	606.56
310.949	568.56
311.179	595.56
311.409	618.56
311.639	607.56
311.868	610.56
312.098	593.56
312.328	609.56
312.557	610.56
312.787	632.56
313.017	631.56
313.246	638.56
313.476	627.56
313.706	637.56
313.935	632.56
314.165	638.56
314.394	652.56
314.624	638.56
314.853	631.56
315.083	631.56
315.312	642.56
315.542	622.56
315.771	619.56
316.001	589.56
316.23	602.56
316.46	623.56
316.689	611.56
316.919	615.56
317.148	620.56
317.377	629.56
317.607	606.56
317.836	602.56
318.065	610.56
318.295	614.56
318.524	597.56
318.753	626.56
318.983	588.56
319.212	609.56
319.441	613.56
319.67	595.56
319.9	621.56
320.129	609.56
320.358	605.56
320.587	614.56
320.816	609.56
321.046	610.56
321.275	621.56
321.504	609.56
321.733	609.56
321.962	615.56
322.191	634.56
322.42	613.56
322.649	637.56
322.878	639.56
323.108	588.56
323.337	637.56
323.566	625.56
323.795	625.56
324.024	614.56
324.253	647.56
324.482	619.56
324.71	614.56
324.939	619.56
325.168	652.56
325.397	633.56
325.626	635.56
325.855	618.56
326.084	662.56
326.313	695.56
326.542	684.56
326.77	674.56
326.999	671.56
327.228	643.56
327.457	673.56
327.686	661.56
327.914	645.56
328.143	660.56
328.372	665.56
328.6	671.56
328.829	701.56
329.058	669.56
329.287	674.56
329.515	669.56
329.744	684.56
329.972	661.56
330.201	693.56
330.43	714.56
330.658	700.56
330.887	676.56
331.115	705.56
331.344	700.56
331.572	710.56
331.801	735.56
332.03	745.56
332.258	767.56
332.486	783.56
332.715	794.56
332.943	817.56
333.172	866.56
333.4	910.56
333.629	959.56
333.857	936.56
334.085	936.56
334.314	914.56
334.542	914.56
334.771	863.56
334.999	850.56
335.227	845.56
335.455	835.56
335.684	817.56
335.912	829.56
336.14	802.56
336.369	814.56
336.597	833.56
336.825	814.56
337.053	795.56
337.281	794.56
337.51	783.56
337.738	763.56
337.966	738.56
338.194	727.56
338.422	726.56
338.65	711.56
338.878	737.56
339.106	709.56
339.334	748.56
339.562	708.56
339.79	708.56
340.018	730.56
340.246	701.56
340.474	686.56
340.702	712.56
340.93	698.56
341.158	699.56
341.386	711.56
341.614	693.56
341.842	708.56
342.07	692.56
342.298	693.56
342.526	709.56
342.754	706.56
342.981	712.56
343.209	709.56
343.437	734.56
343.665	799.56
343.893	841.56
344.12	858.56
344.348	828.56
344.576	799.56
344.804	767.56
345.031	728.56
345.259	737.56
345.487	693.56
345.714	693.56
345.942	705.56
346.17	687.56
346.397	695.56
346.625	666.56
346.853	682.56
347.08	676.56
347.308	695.56
347.535	697.56
347.763	698.56
347.99	714.56
348.218	725.56
348.445	692.56
348.673	683.56
348.9	666.56
349.128	665.56
349.355	667.56
349.583	668.56
349.81	691.56
350.037	645.56
350.265	655.56
350.492	653.56
350.72	644.56
350.947	658.56
351.174	635.56
351.402	651.56
351.629	655.56
351.856	653.56
352.083	634.56
352.311	667.56
352.538	659.56
352.765	644.56
352.992	637.56
353.22	641.56
353.447	633.56
353.674	644.56
353.901	638.56
354.128	627.56
354.355	637.56
354.583	630.56
354.81	645.56
355.037	669.56
355.264	684.56
355.491	655.56
355.718	680.56
355.945	649.56
356.172	673.56
356.399	660.56
356.626	663.56
356.853	653.56
357.08	661.56
357.307	676.56
357.534	661.56
357.761	653.56
357.988	669.56
358.215	649.56
358.441	674.56
358.668	659.56
358.895	650.56
359.122	635.56
359.349	648.56
359.576	631.56
359.802	681.56
360.029	636.56
360.256	656.56
360.483	653.56
360.709	645.56
360.936	663.56
361.163	654.56
361.39	636.56
361.616	662.56
361.843	643.56
362.07	649.56
362.296	659.56
362.523	652.56
362.749	648.56
362.976	648.56
363.203	642.56
363.429	659.56
363.656	671.56
363.882	656.56
364.109	645.56
364.335	646.56
364.562	638.56
364.788	606.56
365.015	635.56
365.241	643.56
365.468	661.56
365.694	645.56
365.92	663.56
366.147	661.56
366.373	651.56
366.599	631.56
366.826	641.56
367.052	633.56
367.278	647.56
367.505	664.56
367.731	659.56
367.957	659.56
368.184	666.56
368.41	647.56
368.636	665.56
368.862	673.56
369.089	666.56
369.315	679.56
369.541	675.56
369.767	662.56
369.993	677.56
370.219	689.56
370.445	687.56
370.672	707.56
370.898	707.56
371.124	704.56
371.35	702.56
371.576	722.56
371.802	719.56
372.028	681.56
372.254	685.56
372.48	702.56
372.706	717.56
372.932	751.56
373.158	755.56
373.384	744.56
373.61	715.56
373.835	729.56
374.061	712.56
374.287	705.56
374.513	719.56
374.739	733.56
374.965	782.56
375.191	822.56
375.416	803.56
375.642	777.56
375.868	754.56
376.094	755.56
376.319	723.56
376.545	717.56
376.771	732.56
376.997	732.56
377.222	721.56
377.448	719.56
377.674	732.56
377.899	709.56
378.125	713.56
378.35	703.56
378.576	701.56
378.802	708.56
379.027	702.56
379.253	711.56
379.478	705.56
379.704	702.56
379.929	695.56
380.155	701.56
380.38	689.56
380.606	707.56
380.831	703.56
381.057	725.56
381.282	717.56
381.507	693.56
381.733	715.56
381.958	711.56
382.184	722.56
382.409	738.56
382.634	748.56
382.86	755.56
383.085	745.56
383.31	747.56
383.535	793.56
383.761	784.56
383.986	823.56
384.211	827.56
384.436	822.56
384.662	850.56
384.887	867.56
385.112	871.56
385.337	884.56
385.562	853.56
385.787	885.56
386.013	875.56
386.238	872.56
386.463	891.56
386.688	874.56
386.913	845.56
387.138	840.56
387.363	837.56
387.588	849.56
387.813	814.56
388.038	832.56
388.263	867.56
388.488	861.56
388.713	851.56
388.938	860.56
389.163	852.56
389.387	837.56
389.612	830.56
389.837	808.56
390.062	829.56
390.287	814.56
390.512	813.56
390.736	877.56
390.961	867.56
391.186	881.56
391.411	903.56
391.636	910.56
391.86	934.56
392.085	976.56
392.31	945.56
392.534	949.56
392.759	920.56
392.984	905.56
393.208	895.56
393.433	909.56
393.658	896.56
393.882	895.56
394.107	920.56
394.331	922.56
394.556	913.56
394.78	918.56
395.005	917.56
395.229	914.56
395.454	963.56
395.678	971.56
395.903	988.56
396.127	967.56
396.352	901.56
396.576	900.56
396.801	880.56
397.025	894.56
397.249	893.56
397.474	949.56
397.698	988.56
397.922	967.56
398.147	961.56
398.371	966.56
398.595	976.56
398.82	1063.56
399.044	1097.56
399.268	1246.56
399.492	1453.56
399.717	1654.56
399.941	1689.56
400.165	1468.56
400.389	1303.56
400.613	1200.56
400.837	1120.56
401.062	1110.56
401.286	1024.56
401.51	1066.56
401.734	1069.56
401.958	1110.56
402.182	1106.56
402.406	1118.56
402.63	1106.56
402.854	1133.56
403.078	1148.56
403.302	1226.56
403.526	1214.56
403.75	1247.56
403.974	1285.56
404.198	1256.56
404.422	1274.56
404.645	1263.56
404.869	1218.56
405.093	1222.56
405.317	1190.56
405.541	1201.56
405.765	1195.56
405.988	1203.56
406.212	1182.56
406.436	1171.56
406.66	1222.56
406.883	1257.56
407.107	1301.56
407.331	1363.56
407.555	1426.56
407.778	1413.56
408.002	1379.56
408.226	1381.56
408.449	1291.56
408.673	1279.56
408.896	1261.56
409.12	1226.56
409.344	1229.56
409.567	1224.56
409.791	1271.56
410.014	1267.56
410.238	1251.56
410.461	1182.56
410.685	1197.56
410.908	1168.56
411.132	1157.56
411.355	1132.56
411.578	1116.56
411.802	1125.56
412.025	1121.56
412.249	1137.56
412.472	1151.56
412.695	1099.56
412.919	1081.56
413.142	1113.56
413.365	1051.56
413.589	1052.56
413.812	1071.56
414.035	1050.56
414.258	1069.56
414.482	1091.56
414.705	1113.56
414.928	1129.56
415.151	1105.56
415.374	1055.56
415.597	1057.56
415.821	1073.56
416.044	1064.56
416.267	1052.56
416.49	1025.56
416.713	1048.56
416.936	1050.56
417.159	1045.56
417.382	1031.56
417.605	1066.56
417.828	1062.56
418.051	1063.56
418.274	1060.56
418.497	1057.56
418.72	1091.56
418.943	1127.56
419.166	1167.56
419.389	1262.56
419.611	1239.56
419.834	1154.56
420.057	1149.56
420.28	1075.56
420.503	1068.56
420.726	1087.56
420.948	1044.56
421.171	1042.56
421.394	1056.56
421.617	1076.56
421.839	1079.56
422.062	1070.56
422.285	1067.56
422.507	1107.56
422.73	1106.56
422.953	1100.56
423.175	1113.56
423.398	1151.56
423.621	1123.56
423.843	1145.56
424.066	1157.56
424.288	1170.56
424.511	1152.56
424.733	1110.56
424.956	1106.56
425.178	1085.56
425.401	1079.56
425.623	1062.56
425.846	1031.56
426.068	1059.56
426.291	1037.56
426.513	1028.56
426.735	996.56
426.958	1004.56
427.18	985.56
427.402	978.56
427.625	997.56
427.847	943.56
428.069	955.56
428.292	981.56
428.514	951.56
428.736	955.56
428.958	963.56
429.181	947.56
429.403	917.56
429.625	923.56
429.847	917.56
430.069	914.56
430.292	949.56
430.514	930.56
430.736	941.56
430.958	945.56
431.18	941.56
431.402	942.56
431.624	948.56
431.846	949.56
432.068	963.56
432.29	969.56
432.512	939.56
432.734	960.56
432.956	946.56
433.178	986.56
433.4	958.56
433.622	971.56
433.844	964.56
434.066	953.56
434.287	978.56
434.509	1000.56
434.731	1051.56
434.953	1107.56
435.175	1108.56
435.397	1095.56
435.618	1031.56
435.84	1019.56
436.062	981.56
436.284	979.56
436.505	963.56
436.727	983.56
436.949	990.56
437.17	965.56
437.392	948.56
437.614	940.56
437.835	910.56
438.057	916.56
438.278	923.56
438.5	950.56
438.721	930.56
438.943	907.56
439.165	937.56
439.386	923.56
439.608	980.56
439.829	974.56
440.05	970.56
440.272	1001.56
440.493	977.56
440.715	965.56
440.936	998.56
441.158	998.56
441.379	1070.56
441.6	1086.56
441.822	1126.56
442.043	1134.56
442.264	1083.56
442.486	1070.56
442.707	1062.56
442.928	1061.56
443.149	1068.56
443.371	1073.56
443.592	1086.56
443.813	1095.56
444.034	1094.56
444.255	1147.56
444.476	1167.56
444.698	1291.56
444.919	1365.56
445.14	1433.56
445.361	1265.56
445.582	1168.56
445.803	1081.56
446.024	1051.56
446.245	1004.56
446.466	973.56
446.687	973.56
446.908	983.56
447.129	968.56
447.35	966.56
447.571	957.56
447.792	948.56
448.013	922.56
448.234	921.56
448.455	919.56
448.675	924.56
448.896	916.56
449.117	875.56
449.338	869.56
449.559	882.56
449.779	862.56
450	888.56
450.221	868.56
450.442	911.56
450.662	893.56
450.883	922.56
451.104	943.56
451.324	952.56
451.545	931.56
451.766	895.56
451.986	913.56
452.207	893.56
452.428	891.56
452.648	925.56
452.869	890.56
453.089	871.56
453.31	890.56
453.53	873.56
453.751	899.56
453.971	861.56
454.192	896.56
454.412	861.56
454.633	856.56
454.853	851.56
455.073	861.56
455.294	855.56
455.514	877.56
455.734	831.56
455.955	808.56
456.175	843.56
456.395	825.56
456.616	823.56
456.836	817.56
457.056	827.56
457.276	828.56
457.497	838.56
457.717	836.56
457.937	849.56
458.157	822.56
458.377	846.56
458.598	860.56
458.818	891.56
459.038	935.56
459.258	940.56
459.478	967.56
459.698	1003.56
459.918	1025.56
460.138	1090.56
460.358	1137.56
460.578	1125.56
460.798	1163.56
461.018	1225.56
461.238	1125.56
461.458	1153.56
461.678	1166.56
461.898	1161.56
462.118	1171.56
462.338	1232.56
462.558	1250.56
462.777	1322.56
462.997	1458.56
463.217	1577.56
463.437	1613.56
463.657	1497.56
463.876	1358.56
464.096	1386.56
464.316	1373.56
464.536	1358.56
464.755	1329.56
464.975	1288.56
465.195	1199.56
465.414	1111.56
465.634	1033.56
465.854	1015.56
466.073	1011.56
466.293	991.56
466.512	976.56
466.732	953.56
466.951	961.56
467.171	929.56
467.391	941.56
467.61	943.56
467.829	949.56
468.049	919.56
468.268	909.56
468.488	897.56
468.707	901.56
468.927	876.56
469.146	891.56
469.365	909.56
469.585	932.56
469.804	974.56
470.023	954.56
470.243	982.56
470.462	978.56
470.681	967.56
470.901	987.56
471.12	957.56
471.339	941.56
471.558	929.56
471.777	917.56
471.997	892.56
472.216	894.56
472.435	885.56
472.654	892.56
472.873	860.56
473.092	848.56
473.311	856.56
473.53	854.56
473.749	881.56
473.968	874.56
474.187	854.56
474.406	861.56
474.625	871.56
474.844	867.56
475.063	867.56
475.282	857.56
475.501	868.56
475.72	874.56
475.939	858.56
476.158	866.56
476.377	892.56
476.596	895.56
476.814	921.56
477.033	908.56
477.252	933.56
477.471	975.56
477.69	1007.56
477.908	984.56
478.127	1044.56
478.346	1054.56
478.564	1075.56
478.783	1093.56
479.002	1083.56
479.22	1084.56
479.439	1086.56
479.658	1080.56
479.876	1099.56
480.095	1070.56
480.313	1163.56
480.532	1201.56
480.751	1175.56
480.969	1132.56
481.188	1090.56
481.406	1057.56
481.624	1028.56
481.843	1022.56
482.061	1016.56
482.28	1006.56
482.498	1014.56
482.717	994.56
482.935	985.56
483.153	971.56
483.372	991.56
483.59	996.56
483.808	977.56
484.027	987.56
484.245	1003.56
484.463	1034.56
484.681	1020.56
484.9	1049.56
485.118	1019.56
485.336	1038.56
485.554	1037.56
485.772	1069.56
485.99	1089.56
486.209	1097.56
486.427	1096.56
486.645	1091.56
486.863	1108.56
487.081	1064.56
487.299	1047.56
487.517	1051.56
487.735	1047.56
487.953	1053.56
488.171	1029.56
488.389	1035.56
488.607	1039.56
488.825	1014.56
489.043	1046.56
489.261	997.56
489.479	1036.56
489.696	1062.56
489.914	1038.56
490.132	1037.56
490.35	1031.56
490.568	1043.56
490.786	1067.56
491.003	1033.56
491.221	1035.56
491.439	1070.56
491.657	1067.56
491.874	1029.56
492.092	1054.56
492.31	1044.56
492.527	1061.56
492.745	1117.56
492.963	1068.56
493.18	1082.56
493.398	1082.56
493.615	1107.56
493.833	1085.56
494.05	1100.56
494.268	1102.56
494.485	1098.56
494.703	1123.56
494.92	1108.56
495.138	1080.56
495.355	1081.56
495.573	1083.56
495.79	1097.56
496.008	1092.56
496.225	1115.56
496.442	1132.56
496.66	1137.56
496.877	1171.56
497.094	1135.56
497.312	1166.56
497.529	1199.56
497.746	1229.56
497.963	1260.56
