Data from NiCl2@0.0625M.TitratingCurve.Agarose3%dH2O.NegLispCup.LampEnergy10.LIBS07252019_HRD10591_18-35-09-580.txt Node
Date: Thu Jul 25 18:35:09 EDT 2019
User: cochatt
Spectrometer: HR+D1059
Trigger mode: 1
Integration Time (sec): 1.000000E-1
Scans to average: 1
Electric dark correction enabled: true
Nonlinearity correction enabled: false
Boxcar width: 0
XAxis mode: Wavelengths
Number of Pixels in Spectrum: 2048
>>>>>Begin Spectral Data<<<<<
223.165	-16.69
223.4	-16.69
223.635	-16.69
223.869	-15.69
224.104	-17.69
224.338	-19.69
224.573	-14.69
224.808	-10.69
225.042	-1.69
225.277	-4.69
225.511	4.31
225.746	2.31
225.98	-0.69
226.215	15.31
226.449	8.31
226.683	17.31
226.918	26.31
227.152	28.31
227.387	37.31
227.621	19.31
227.856	25.31
228.09	31.31
228.324	53.31
228.559	57.31
228.793	65.31
229.027	128.31
229.262	137.31
229.496	160.31
229.73	153.31
229.964	163.31
230.199	179.31
230.433	165.31
230.667	163.31
230.901	176.31
231.136	186.31
231.37	184.31
231.604	166.31
231.838	185.31
232.072	202.31
232.306	199.31
232.541	183.31
232.775	180.31
233.009	209.31
233.243	195.31
233.477	209.31
233.711	200.31
233.945	194.31
234.179	187.31
234.413	206.31
234.647	205.31
234.881	191.31
235.115	202.31
235.349	207.31
235.583	222.31
235.817	196.31
236.051	210.31
236.285	213.31
236.519	229.31
236.753	216.31
236.987	201.31
237.221	239.31
237.455	219.31
237.689	233.31
237.922	239.31
238.156	243.31
238.39	228.31
238.624	220.31
238.858	243.31
239.091	257.31
239.325	256.31
239.559	240.31
239.793	250.31
240.027	239.31
240.26	242.31
240.494	255.31
240.728	264.31
240.961	253.31
241.195	282.31
241.429	266.31
241.662	273.31
241.896	279.31
242.13	268.31
242.363	299.31
242.597	281.31
242.83	294.31
243.064	283.31
243.298	282.31
243.531	288.31
243.765	314.31
243.998	296.31
244.232	309.31
244.465	317.31
244.699	321.31
244.932	315.31
245.166	315.31
245.399	331.31
245.633	335.31
245.866	321.31
246.099	327.31
246.333	349.31
246.566	336.31
246.8	315.31
247.033	325.31
247.266	308.31
247.5	329.31
247.733	339.31
247.966	351.31
248.2	376.31
248.433	367.31
248.666	377.31
248.899	361.31
249.133	370.31
249.366	367.31
249.599	368.31
249.832	373.31
250.066	365.31
250.299	380.31
250.532	363.31
250.765	381.31
250.998	409.31
251.231	386.31
251.465	392.31
251.698	411.31
251.931	410.31
252.164	398.31
252.397	409.31
252.63	423.31
252.863	429.31
253.096	411.31
253.329	410.31
253.562	423.31
253.795	392.31
254.028	435.31
254.261	417.31
254.494	411.31
254.727	423.31
254.96	435.31
255.193	435.31
255.426	440.31
255.659	448.31
255.892	430.31
256.124	458.31
256.357	443.31
256.59	443.31
256.823	450.31
257.056	434.31
257.289	446.31
257.521	461.31
257.754	462.31
257.987	456.31
258.22	460.31
258.452	459.31
258.685	458.31
258.918	481.31
259.151	496.31
259.383	505.31
259.616	485.31
259.849	481.31
260.081	496.31
260.314	480.31
260.547	480.31
260.779	483.31
261.012	505.31
261.244	481.31
261.477	495.31
261.71	515.31
261.942	516.31
262.175	521.31
262.407	489.31
262.64	509.31
262.872	525.31
263.105	521.31
263.337	523.31
263.57	511.31
263.802	530.31
264.035	523.31
264.267	532.31
264.499	517.31
264.732	526.31
264.964	546.31
265.197	567.31
265.429	530.31
265.661	535.31
265.894	555.31
266.126	546.31
266.358	542.31
266.591	551.31
266.823	563.31
267.055	564.31
267.287	563.31
267.52	567.31
267.752	586.31
267.984	575.31
268.216	593.31
268.448	574.31
268.681	580.31
268.913	579.31
269.145	571.31
269.377	584.31
269.609	587.31
269.841	578.31
270.073	592.31
270.306	591.31
270.538	601.31
270.77	590.31
271.002	615.31
271.234	598.31
271.466	618.31
271.698	636.31
271.93	632.31
272.162	614.31
272.394	637.31
272.626	633.31
272.858	633.31
273.09	625.31
273.322	658.31
273.553	623.31
273.785	660.31
274.017	634.31
274.249	623.31
274.481	657.31
274.713	651.31
274.945	661.31
275.176	664.31
275.408	667.31
275.64	638.31
275.872	662.31
276.104	677.31
276.335	671.31
276.567	700.31
276.799	683.31
277.031	699.31
277.262	669.31
277.494	702.31
277.726	672.31
277.957	694.31
278.189	697.31
278.421	680.31
278.652	712.31
278.884	692.31
279.115	710.31
279.347	703.31
279.579	726.31
279.81	724.31
280.042	725.31
280.273	737.31
280.505	718.31
280.736	728.31
280.968	720.31
281.199	729.31
281.431	741.31
281.662	730.31
281.894	725.31
282.125	737.31
282.356	739.31
282.588	759.31
282.819	749.31
283.051	765.31
283.282	757.31
283.513	776.31
283.745	753.31
283.976	741.31
284.207	730.31
284.439	761.31
284.67	787.31
284.901	767.31
285.132	774.31
285.364	779.31
285.595	793.31
285.826	771.31
286.057	775.31
286.288	799.31
286.52	795.31
286.751	761.31
286.982	800.31
287.213	815.31
287.444	789.31
287.675	807.31
287.906	827.31
288.138	811.31
288.369	819.31
288.6	825.31
288.831	806.31
289.062	790.31
289.293	822.31
289.524	825.31
289.755	817.31
289.986	833.31
290.217	824.31
290.448	813.31
290.679	834.31
290.91	825.31
291.141	827.31
291.371	828.31
291.602	840.31
291.833	831.31
292.064	820.31
292.295	857.31
292.526	851.31
292.757	873.31
292.987	837.31
293.218	811.31
293.449	856.31
293.68	849.31
293.91	839.31
294.141	849.31
294.372	841.31
294.603	855.31
294.833	856.31
295.064	833.31
295.295	867.31
295.525	840.31
295.756	867.31
295.987	891.31
296.217	882.31
296.448	901.31
296.679	873.31
296.909	865.31
297.14	885.31
297.37	873.31
297.601	893.31
297.831	913.31
298.062	914.31
298.292	931.31
298.523	926.31
298.753	911.31
298.984	884.31
299.214	911.31
299.445	951.31
299.675	921.31
299.905	926.31
300.136	918.31
300.366	932.31
300.597	952.31
300.827	917.31
301.057	938.31
301.288	937.31
301.518	943.31
301.748	980.31
301.979	977.31
302.209	969.31
302.439	964.31
302.669	1004.31
302.9	958.31
303.13	939.31
303.36	985.31
303.59	939.31
303.82	962.31
304.051	990.31
304.281	965.31
304.511	967.31
304.741	945.31
304.971	945.31
305.201	967.31
305.431	983.31
305.661	981.31
305.891	956.31
306.121	944.31
306.352	935.31
306.582	951.31
306.812	933.31
307.042	957.31
307.272	935.31
307.502	943.31
307.731	976.31
307.961	930.31
308.191	924.31
308.421	949.31
308.651	925.31
308.881	918.31
309.111	930.31
309.341	949.31
309.571	961.31
309.8	963.31
310.03	970.31
310.26	939.31
310.49	959.31
310.72	968.31
310.949	937.31
311.179	976.31
311.409	968.31
311.639	995.31
311.868	958.31
312.098	960.31
312.328	958.31
312.557	1018.31
312.787	998.31
313.017	1003.31
313.246	1020.31
313.476	995.31
313.706	1011.31
313.935	1012.31
314.165	1028.31
314.394	1006.31
314.624	1025.31
314.853	1005.31
315.083	1015.31
315.312	1038.31
315.542	1049.31
315.771	1012.31
316.001	1014.31
316.23	1015.31
316.46	1031.31
316.689	1024.31
316.919	1019.31
317.148	1010.31
317.377	975.31
317.607	999.31
317.836	1004.31
318.065	1006.31
318.295	1032.31
318.524	1026.31
318.753	1011.31
318.983	988.31
319.212	987.31
319.441	1007.31
319.67	1000.31
319.9	1017.31
320.129	1013.31
320.358	1001.31
320.587	998.31
320.816	1014.31
321.046	1039.31
321.275	1035.31
321.504	971.31
321.733	999.31
321.962	1030.31
322.191	1021.31
322.42	1022.31
322.649	1039.31
322.878	1032.31
323.108	1009.31
323.337	1073.31
323.566	1065.31
323.795	1046.31
324.024	1026.31
324.253	1044.31
324.482	1037.31
324.71	1060.31
324.939	1060.31
325.168	1066.31
325.397	1079.31
325.626	1086.31
325.855	1085.31
326.084	1125.31
326.313	1140.31
326.542	1109.31
326.77	1100.31
326.999	1074.31
327.228	1076.31
327.457	1095.31
327.686	1082.31
327.914	1120.31
328.143	1116.31
328.372	1113.31
328.6	1120.31
328.829	1095.31
329.058	1130.31
329.287	1110.31
329.515	1103.31
329.744	1114.31
329.972	1118.31
330.201	1128.31
330.43	1141.31
330.658	1155.31
330.887	1143.31
331.115	1178.31
331.344	1158.31
331.572	1139.31
331.801	1191.31
332.03	1183.31
332.258	1202.31
332.486	1220.31
332.715	1298.31
332.943	1308.31
333.172	1319.31
333.4	1369.31
333.629	1440.31
333.857	1429.31
334.085	1435.31
334.314	1447.31
334.542	1426.31
334.771	1431.31
334.999	1393.31
335.227	1375.31
335.455	1378.31
335.684	1368.31
335.912	1364.31
336.14	1352.31
336.369	1301.31
336.597	1334.31
336.825	1315.31
337.053	1337.31
337.281	1296.31
337.51	1254.31
337.738	1269.31
337.966	1242.31
338.194	1236.31
338.422	1232.31
338.65	1166.31
338.878	1222.31
339.106	1235.31
339.334	1222.31
339.562	1184.31
339.79	1193.31
340.018	1144.31
340.246	1137.31
340.474	1157.31
340.702	1164.31
340.93	1199.31
341.158	1197.31
341.386	1169.31
341.614	1164.31
341.842	1149.31
342.07	1157.31
342.298	1157.31
342.526	1157.31
342.754	1162.31
342.981	1140.31
343.209	1167.31
343.437	1231.31
343.665	1278.31
343.893	1329.31
344.12	1378.31
344.348	1343.31
344.576	1311.31
344.804	1243.31
345.031	1205.31
345.259	1186.31
345.487	1181.31
345.714	1183.31
345.942	1155.31
346.17	1170.31
346.397	1145.31
346.625	1150.31
346.853	1118.31
347.08	1123.31
347.308	1105.31
347.535	1115.31
347.763	1128.31
347.99	1118.31
348.218	1098.31
348.445	1116.31
348.673	1091.31
348.9	1104.31
349.128	1110.31
349.355	1106.31
349.583	1112.31
349.81	1098.31
350.037	1095.31
350.265	1049.31
350.492	1101.31
350.72	1065.31
350.947	1072.31
351.174	1079.31
351.402	1061.31
351.629	1073.31
351.856	1078.31
352.083	1081.31
352.311	1076.31
352.538	1063.31
352.765	1052.31
352.992	1047.31
353.22	1057.31
353.447	1066.31
353.674	1069.31
353.901	1067.31
354.128	1072.31
354.355	1080.31
354.583	1072.31
354.81	1069.31
355.037	1055.31
355.264	1062.31
355.491	1057.31
355.718	1085.31
355.945	1080.31
356.172	1119.31
356.399	1065.31
356.626	1081.31
356.853	1104.31
357.08	1075.31
357.307	1071.31
357.534	1074.31
357.761	1065.31
357.988	1083.31
358.215	1055.31
358.441	1093.31
358.668	1063.31
358.895	1071.31
359.122	1095.31
359.349	1090.31
359.576	1095.31
359.802	1121.31
360.029	1057.31
360.256	1097.31
360.483	1106.31
360.709	1093.31
360.936	1112.31
361.163	1076.31
361.39	1094.31
361.616	1075.31
361.843	1105.31
362.07	1083.31
362.296	1103.31
362.523	1090.31
362.749	1095.31
362.976	1064.31
363.203	1095.31
363.429	1083.31
363.656	1109.31
363.882	1126.31
364.109	1049.31
364.335	1093.31
364.562	1098.31
364.788	1075.31
365.015	1080.31
365.241	1088.31
365.468	1063.31
365.694	1067.31
365.92	1088.31
366.147	1080.31
366.373	1078.31
366.599	1096.31
366.826	1068.31
367.052	1073.31
367.278	1095.31
367.505	1099.31
367.731	1122.31
367.957	1091.31
368.184	1121.31
368.41	1078.31
368.636	1102.31
368.862	1109.31
369.089	1116.31
369.315	1118.31
369.541	1129.31
369.767	1135.31
369.993	1119.31
370.219	1127.31
370.445	1111.31
370.672	1125.31
370.898	1144.31
371.124	1140.31
371.35	1197.31
371.576	1151.31
371.802	1156.31
372.028	1170.31
372.254	1155.31
372.48	1202.31
372.706	1231.31
372.932	1220.31
373.158	1219.31
373.384	1176.31
373.61	1145.31
373.835	1177.31
374.061	1180.31
374.287	1145.31
374.513	1224.31
374.739	1233.31
374.965	1247.31
375.191	1293.31
375.416	1284.31
375.642	1254.31
375.868	1232.31
376.094	1222.31
376.319	1188.31
376.545	1182.31
376.771	1174.31
376.997	1169.31
377.222	1173.31
377.448	1175.31
377.674	1161.31
377.899	1128.31
378.125	1149.31
378.35	1156.31
378.576	1175.31
378.802	1147.31
379.027	1140.31
379.253	1150.31
379.478	1175.31
379.704	1111.31
379.929	1181.31
380.155	1173.31
380.38	1169.31
380.606	1181.31
380.831	1163.31
381.057	1151.31
381.282	1183.31
381.507	1152.31
381.733	1191.31
381.958	1207.31
382.184	1173.31
382.409	1175.31
382.634	1211.31
382.86	1197.31
383.085	1190.31
383.31	1214.31
383.535	1272.31
383.761	1277.31
383.986	1263.31
384.211	1291.31
384.436	1305.31
384.662	1308.31
384.887	1362.31
385.112	1351.31
385.337	1349.31
385.562	1357.31
385.787	1355.31
386.013	1405.31
386.238	1381.31
386.463	1397.31
386.688	1382.31
386.913	1377.31
387.138	1414.31
387.363	1379.31
387.588	1397.31
387.813	1416.31
388.038	1371.31
388.263	1402.31
388.488	1395.31
388.713	1401.31
388.938	1399.31
389.163	1342.31
389.387	1360.31
389.612	1346.31
389.837	1366.31
390.062	1337.31
390.287	1384.31
390.512	1378.31
390.736	1394.31
390.961	1398.31
391.186	1421.31
391.411	1502.31
391.636	1477.31
391.86	1542.31
392.085	1519.31
392.31	1529.31
392.534	1528.31
392.759	1501.31
392.984	1480.31
393.208	1478.31
393.433	1509.31
393.658	1444.31
393.882	1471.31
394.107	1482.31
394.331	1444.31
394.556	1461.31
394.78	1461.31
395.005	1506.31
395.229	1498.31
395.454	1521.31
395.678	1535.31
395.903	1514.31
396.127	1504.31
396.352	1507.31
396.576	1506.31
396.801	1507.31
397.025	1483.31
397.249	1523.31
397.474	1568.31
397.698	1579.31
397.922	1565.31
398.147	1593.31
398.371	1613.31
398.595	1658.31
398.82	1726.31
399.044	1813.31
399.268	1950.31
399.492	2145.31
399.717	2357.31
399.941	2369.31
400.165	2278.31
400.389	2032.31
400.613	1966.31
400.837	1834.31
401.062	1803.31
401.286	1785.31
401.51	1700.31
401.734	1734.31
401.958	1720.31
402.182	1783.31
402.406	1761.31
402.63	1745.31
402.854	1739.31
403.078	1791.31
403.302	1831.31
403.526	1838.31
403.75	1851.31
403.974	1858.31
404.198	1871.31
404.422	1886.31
404.645	1899.31
404.869	1871.31
405.093	1891.31
405.317	1863.31
405.541	1843.31
405.765	1842.31
405.988	1859.31
406.212	1837.31
406.436	1893.31
406.66	1932.31
406.883	1949.31
407.107	1993.31
407.331	2070.31
407.555	2190.31
407.778	2152.31
408.002	2148.31
408.226	2060.31
408.449	2090.31
408.673	1999.31
408.896	1902.31
409.12	1944.31
409.344	1954.31
409.567	1905.31
409.791	1907.31
410.014	1884.31
410.238	1897.31
410.461	1891.31
410.685	1887.31
410.908	1851.31
411.132	1835.31
411.355	1809.31
411.578	1832.31
411.802	1782.31
412.025	1801.31
412.249	1810.31
412.472	1805.31
412.695	1760.31
412.919	1749.31
413.142	1735.31
413.365	1741.31
413.589	1783.31
413.812	1734.31
414.035	1706.31
414.258	1736.31
414.482	1754.31
414.705	1762.31
414.928	1739.31
415.151	1738.31
415.374	1768.31
415.597	1734.31
415.821	1701.31
416.044	1683.31
416.267	1646.31
416.49	1671.31
416.713	1669.31
416.936	1671.31
417.159	1651.31
417.382	1633.31
417.605	1654.31
417.828	1626.31
418.051	1688.31
418.274	1663.31
418.497	1629.31
418.72	1681.31
418.943	1662.31
419.166	1785.31
419.389	1911.31
419.611	1913.31
419.834	1794.31
420.057	1735.31
420.28	1690.31
420.503	1650.31
420.726	1646.31
420.948	1618.31
421.171	1646.31
421.394	1644.31
421.617	1653.31
421.839	1660.31
422.062	1670.31
422.285	1638.31
422.507	1670.31
422.73	1674.31
422.953	1678.31
423.175	1665.31
423.398	1723.31
423.621	1705.31
423.843	1711.31
424.066	1691.31
424.288	1717.31
424.511	1665.31
424.733	1644.31
424.956	1684.31
425.178	1721.31
425.401	1675.31
425.623	1678.31
425.846	1609.31
426.068	1665.31
426.291	1616.31
426.513	1610.31
426.735	1573.31
426.958	1607.31
427.18	1561.31
427.402	1571.31
427.625	1577.31
427.847	1492.31
428.069	1514.31
428.292	1529.31
428.514	1524.31
428.736	1498.31
428.958	1547.31
429.181	1499.31
429.403	1486.31
429.625	1483.31
429.847	1472.31
430.069	1481.31
430.292	1490.31
430.514	1481.31
430.736	1463.31
430.958	1501.31
431.18	1512.31
431.402	1521.31
431.624	1504.31
431.846	1529.31
432.068	1551.31
432.29	1543.31
432.512	1519.31
432.734	1548.31
432.956	1544.31
433.178	1541.31
433.4	1517.31
433.622	1560.31
433.844	1566.31
434.066	1595.31
434.287	1621.31
434.509	1606.31
434.731	1671.31
434.953	1691.31
435.175	1669.31
435.397	1705.31
435.618	1612.31
435.84	1623.31
436.062	1551.31
436.284	1586.31
436.505	1527.31
436.727	1519.31
436.949	1514.31
437.17	1515.31
437.392	1523.31
437.614	1460.31
437.835	1481.31
438.057	1446.31
438.278	1394.31
438.5	1445.31
438.721	1419.31
438.943	1435.31
439.165	1434.31
439.386	1468.31
439.608	1480.31
439.829	1485.31
440.05	1491.31
440.272	1505.31
440.493	1505.31
440.715	1506.31
440.936	1553.31
441.158	1569.31
441.379	1595.31
441.6	1644.31
441.822	1625.31
442.043	1651.31
442.264	1641.31
442.486	1588.31
442.707	1597.31
442.928	1583.31
443.149	1630.31
443.371	1609.31
443.592	1637.31
443.813	1647.31
444.034	1665.31
444.255	1673.31
444.476	1746.31
444.698	1839.31
444.919	1859.31
445.14	1955.31
445.361	1780.31
445.582	1677.31
445.803	1613.31
446.024	1557.31
446.245	1566.31
446.466	1514.31
446.687	1511.31
446.908	1495.31
447.129	1476.31
447.35	1451.31
447.571	1434.31
447.792	1392.31
448.013	1405.31
448.234	1382.31
448.455	1357.31
448.675	1371.31
448.896	1374.31
449.117	1346.31
449.338	1354.31
449.559	1300.31
449.779	1314.31
450	1350.31
450.221	1347.31
450.442	1383.31
450.662	1368.31
450.883	1341.31
451.104	1335.31
451.324	1343.31
451.545	1381.31
451.766	1357.31
451.986	1325.31
452.207	1315.31
452.428	1304.31
452.648	1361.31
452.869	1284.31
453.089	1319.31
453.31	1351.31
453.53	1301.31
453.751	1291.31
453.971	1299.31
454.192	1333.31
454.412	1299.31
454.633	1281.31
454.853	1275.31
455.073	1273.31
455.294	1302.31
455.514	1253.31
455.734	1265.31
455.955	1279.31
456.175	1256.31
456.395	1299.31
456.616	1253.31
456.836	1280.31
457.056	1287.31
457.276	1267.31
457.497	1269.31
457.717	1263.31
457.937	1291.31
458.157	1323.31
458.377	1302.31
458.598	1339.31
458.818	1385.31
459.038	1393.31
459.258	1489.31
459.478	1476.31
459.698	1561.31
459.918	1565.31
460.138	1577.31
460.358	1693.31
460.578	1697.31
460.798	1688.31
461.018	1702.31
461.238	1694.31
461.458	1667.31
461.678	1690.31
461.898	1737.31
462.118	1718.31
462.338	1810.31
462.558	1862.31
462.777	1891.31
462.997	1992.31
463.217	2127.31
463.437	2149.31
463.657	2032.31
463.876	1969.31
464.096	1982.31
464.316	1971.31
464.536	1947.31
464.755	1916.31
464.975	1839.31
465.195	1796.31
465.414	1717.31
465.634	1597.31
465.854	1543.31
466.073	1511.31
466.293	1492.31
466.512	1475.31
466.732	1460.31
466.951	1435.31
467.171	1423.31
467.391	1404.31
467.61	1426.31
467.829	1428.31
468.049	1390.31
468.268	1375.31
468.488	1397.31
468.707	1343.31
468.927	1361.31
469.146	1368.31
469.365	1419.31
469.585	1381.31
469.804	1408.31
470.023	1461.31
470.243	1465.31
470.462	1462.31
470.681	1462.31
470.901	1451.31
471.12	1463.31
471.339	1416.31
471.558	1413.31
471.777	1435.31
471.997	1412.31
472.216	1382.31
472.435	1366.31
472.654	1366.31
472.873	1364.31
473.092	1374.31
473.311	1398.31
473.53	1357.31
473.749	1340.31
473.968	1343.31
474.187	1357.31
474.406	1354.31
474.625	1336.31
474.844	1378.31
475.063	1389.31
475.282	1392.31
475.501	1365.31
475.72	1397.31
475.939	1391.31
476.158	1410.31
476.377	1433.31
476.596	1463.31
476.814	1443.31
477.033	1510.31
477.252	1480.31
477.471	1511.31
477.69	1517.31
477.908	1565.31
478.127	1595.31
478.346	1569.31
478.564	1634.31
478.783	1628.31
479.002	1670.31
479.22	1719.31
479.439	1702.31
479.658	1675.31
479.876	1711.31
480.095	1746.31
480.313	1800.31
480.532	1806.31
480.751	1811.31
480.969	1749.31
481.188	1737.31
481.406	1697.31
481.624	1666.31
481.843	1673.31
482.061	1650.31
482.28	1647.31
482.498	1687.31
482.717	1615.31
482.935	1677.31
483.153	1657.31
483.372	1637.31
483.59	1665.31
483.808	1665.31
484.027	1704.31
484.245	1696.31
484.463	1718.31
484.681	1758.31
484.9	1784.31
485.118	1817.31
485.336	1801.31
485.554	1830.31
485.772	1845.31
485.99	1825.31
486.209	1834.31
486.427	1801.31
486.645	1809.31
486.863	1847.31
487.081	1804.31
487.299	1813.31
487.517	1816.31
487.735	1773.31
487.953	1814.31
488.171	1768.31
488.389	1759.31
488.607	1743.31
488.825	1763.31
489.043	1725.31
489.261	1718.31
489.479	1726.31
489.696	1729.31
489.914	1683.31
490.132	1698.31
490.35	1689.31
490.568	1737.31
490.786	1730.31
