Data from NiCl2@0.5M.TitratingCurve.Agarose3%dH2O.NegLispCup.LampEnergy10.LIBS07252019_HRD10591_18-20-03-571.txt Node
Date: Thu Jul 25 18:20:03 EDT 2019
User: cochatt
Spectrometer: HR+D1059
Trigger mode: 1
Integration Time (sec): 1.000000E-1
Scans to average: 1
Electric dark correction enabled: true
Nonlinearity correction enabled: false
Boxcar width: 0
XAxis mode: Wavelengths
Number of Pixels in Spectrum: 2048
>>>>>Begin Spectral Data<<<<<
223.165	-20.94
223.4	-20.94
223.635	-20.94
223.869	-27.94
224.104	-15.94
224.338	-13.94
224.573	-2.94
224.808	-9.94
225.042	-0.94
225.277	-3.94
225.511	4.06
225.746	-6.94
225.98	2.06
226.215	10.06
226.449	12.06
226.683	26.06
226.918	19.06
227.152	30.06
227.387	45.06
227.621	37.06
227.856	50.06
228.09	37.06
228.324	52.06
228.559	52.06
228.793	74.06
229.027	128.06
229.262	146.06
229.496	116.06
229.73	140.06
229.964	150.06
230.199	164.06
230.433	160.06
230.667	145.06
230.901	160.06
231.136	168.06
231.37	154.06
231.604	176.06
231.838	182.06
232.072	176.06
232.306	178.06
232.541	169.06
232.775	160.06
233.009	165.06
233.243	173.06
233.477	185.06
233.711	180.06
233.945	182.06
234.179	166.06
234.413	184.06
234.647	178.06
234.881	193.06
235.115	178.06
235.349	170.06
235.583	165.06
235.817	167.06
236.051	184.06
236.285	162.06
236.519	185.06
236.753	184.06
236.987	182.06
237.221	198.06
237.455	189.06
237.689	181.06
237.922	187.06
238.156	195.06
238.39	184.06
238.624	194.06
238.858	178.06
239.091	197.06
239.325	200.06
239.559	198.06
239.793	222.06
240.027	220.06
240.26	204.06
240.494	198.06
240.728	208.06
240.961	205.06
241.195	200.06
241.429	210.06
241.662	216.06
241.896	236.06
242.13	232.06
242.363	204.06
242.597	208.06
242.83	231.06
243.064	218.06
243.298	234.06
243.531	227.06
243.765	232.06
243.998	237.06
244.232	243.06
244.465	250.06
244.699	240.06
244.932	235.06
245.166	267.06
245.399	262.06
245.633	248.06
245.866	260.06
246.099	257.06
246.333	274.06
246.566	264.06
246.8	256.06
247.033	260.06
247.266	275.06
247.5	278.06
247.733	271.06
247.966	272.06
248.2	288.06
248.433	260.06
248.666	282.06
248.899	271.06
249.133	293.06
249.366	285.06
249.599	299.06
249.832	279.06
250.066	287.06
250.299	280.06
250.532	279.06
250.765	310.06
250.998	309.06
251.231	329.06
251.465	320.06
251.698	306.06
251.931	326.06
252.164	325.06
252.397	321.06
252.63	310.06
252.863	321.06
253.096	321.06
253.329	328.06
253.562	324.06
253.795	333.06
254.028	327.06
254.261	296.06
254.494	321.06
254.727	330.06
254.96	334.06
255.193	336.06
255.426	359.06
255.659	336.06
255.892	337.06
256.124	348.06
256.357	336.06
256.59	348.06
256.823	338.06
257.056	339.06
257.289	370.06
257.521	357.06
257.754	364.06
257.987	353.06
258.22	358.06
258.452	361.06
258.685	362.06
258.918	342.06
259.151	365.06
259.383	371.06
259.616	370.06
259.849	374.06
260.081	374.06
260.314	388.06
260.547	365.06
260.779	390.06
261.012	395.06
261.244	377.06
261.477	392.06
261.71	386.06
261.942	396.06
262.175	365.06
262.407	396.06
262.64	362.06
262.872	377.06
263.105	391.06
263.337	420.06
263.57	401.06
263.802	403.06
264.035	399.06
264.267	404.06
264.499	397.06
264.732	423.06
264.964	426.06
265.197	424.06
265.429	404.06
265.661	427.06
265.894	427.06
266.126	416.06
266.358	423.06
266.591	431.06
266.823	432.06
267.055	441.06
267.287	446.06
267.52	428.06
267.752	444.06
267.984	452.06
268.216	449.06
268.448	451.06
268.681	460.06
268.913	462.06
269.145	462.06
269.377	454.06
269.609	460.06
269.841	456.06
270.073	467.06
270.306	453.06
270.538	449.06
270.77	453.06
271.002	467.06
271.234	478.06
271.466	480.06
271.698	473.06
271.93	485.06
272.162	485.06
272.394	495.06
272.626	484.06
272.858	458.06
273.09	476.06
273.322	497.06
273.553	476.06
273.785	473.06
274.017	507.06
274.249	483.06
274.481	478.06
274.713	483.06
274.945	514.06
275.176	497.06
275.408	494.06
275.64	529.06
275.872	512.06
276.104	524.06
276.335	522.06
276.567	515.06
276.799	508.06
277.031	518.06
277.262	532.06
277.494	514.06
277.726	540.06
277.957	535.06
278.189	553.06
278.421	516.06
278.652	525.06
278.884	538.06
279.115	520.06
279.347	555.06
279.579	538.06
279.81	532.06
280.042	552.06
280.273	563.06
280.505	558.06
280.736	553.06
280.968	556.06
281.199	574.06
281.431	579.06
281.662	573.06
281.894	568.06
282.125	571.06
282.356	572.06
282.588	584.06
282.819	570.06
283.051	590.06
283.282	571.06
283.513	590.06
283.745	578.06
283.976	590.06
284.207	590.06
284.439	616.06
284.67	578.06
284.901	595.06
285.132	589.06
285.364	585.06
285.595	605.06
285.826	597.06
286.057	593.06
286.288	608.06
286.52	591.06
286.751	598.06
286.982	599.06
287.213	593.06
287.444	595.06
287.675	610.06
287.906	633.06
288.138	633.06
288.369	608.06
288.6	609.06
288.831	593.06
289.062	615.06
289.293	611.06
289.524	616.06
289.755	628.06
289.986	620.06
290.217	618.06
290.448	625.06
290.679	634.06
290.91	638.06
291.141	617.06
291.371	656.06
291.602	646.06
291.833	625.06
292.064	631.06
292.295	641.06
292.526	636.06
292.757	650.06
292.987	637.06
293.218	634.06
293.449	661.06
293.68	640.06
293.91	659.06
294.141	664.06
294.372	637.06
294.603	660.06
294.833	678.06
295.064	678.06
295.295	681.06
295.525	652.06
295.756	672.06
295.987	670.06
296.217	688.06
296.448	680.06
296.679	668.06
296.909	685.06
297.14	694.06
297.37	709.06
297.601	673.06
297.831	674.06
298.062	690.06
298.292	707.06
298.523	746.06
298.753	727.06
298.984	720.06
299.214	715.06
299.445	728.06
299.675	694.06
299.905	732.06
300.136	725.06
300.366	738.06
300.597	769.06
300.827	720.06
301.057	731.06
301.288	729.06
301.518	740.06
301.748	727.06
301.979	744.06
302.209	754.06
302.439	740.06
302.669	744.06
302.9	746.06
303.13	753.06
303.36	756.06
303.59	740.06
303.82	752.06
304.051	743.06
304.281	756.06
304.511	728.06
304.741	749.06
304.971	749.06
305.201	757.06
305.431	754.06
305.661	772.06
305.891	775.06
306.121	757.06
306.352	755.06
306.582	752.06
306.812	769.06
307.042	745.06
307.272	742.06
307.502	753.06
307.731	728.06
307.961	754.06
308.191	731.06
308.421	739.06
308.651	747.06
308.881	740.06
309.111	725.06
309.341	738.06
309.571	731.06
309.8	734.06
310.03	741.06
310.26	799.06
310.49	790.06
310.72	787.06
310.949	759.06
311.179	758.06
311.409	769.06
311.639	783.06
311.868	786.06
312.098	793.06
312.328	783.06
312.557	756.06
312.787	772.06
313.017	784.06
313.246	795.06
313.476	796.06
313.706	812.06
313.935	814.06
314.165	794.06
314.394	782.06
314.624	788.06
314.853	797.06
315.083	778.06
315.312	804.06
315.542	810.06
315.771	781.06
316.001	808.06
316.23	808.06
316.46	814.06
316.689	814.06
316.919	791.06
317.148	796.06
317.377	805.06
317.607	785.06
317.836	782.06
318.065	778.06
318.295	793.06
318.524	779.06
318.753	758.06
318.983	796.06
319.212	787.06
319.441	785.06
319.67	810.06
319.9	799.06
320.129	804.06
320.358	795.06
320.587	810.06
320.816	796.06
321.046	791.06
321.275	807.06
321.504	800.06
321.733	830.06
321.962	792.06
322.191	802.06
322.42	801.06
322.649	820.06
322.878	835.06
323.108	805.06
323.337	873.06
323.566	830.06
323.795	866.06
324.024	820.06
324.253	841.06
324.482	825.06
324.71	822.06
324.939	824.06
325.168	881.06
325.397	850.06
325.626	852.06
325.855	850.06
326.084	898.06
326.313	854.06
326.542	871.06
326.77	900.06
326.999	858.06
327.228	864.06
327.457	890.06
327.686	851.06
327.914	864.06
328.143	864.06
328.372	867.06
328.6	883.06
328.829	868.06
329.058	871.06
329.287	873.06
329.515	881.06
329.744	869.06
329.972	908.06
330.201	878.06
330.43	885.06
330.658	900.06
330.887	895.06
331.115	893.06
331.344	914.06
331.572	895.06
331.801	932.06
332.03	941.06
332.258	938.06
332.486	956.06
332.715	978.06
332.943	991.06
333.172	995.06
333.4	1014.06
333.629	1040.06
333.857	1006.06
334.085	1077.06
334.314	1052.06
334.542	1074.06
334.771	1065.06
334.999	1072.06
335.227	1049.06
335.455	1043.06
335.684	1030.06
335.912	1058.06
336.14	1057.06
336.369	1043.06
336.597	1056.06
336.825	1082.06
337.053	1069.06
337.281	1056.06
337.51	1058.06
337.738	1033.06
337.966	1014.06
338.194	1011.06
338.422	1030.06
338.65	950.06
338.878	957.06
339.106	961.06
339.334	993.06
339.562	980.06
339.79	922.06
340.018	934.06
340.246	928.06
340.474	925.06
340.702	924.06
340.93	917.06
341.158	916.06
341.386	959.06
341.614	1013.06
341.842	980.06
342.07	932.06
342.298	920.06
342.526	909.06
342.754	903.06
342.981	898.06
343.209	916.06
343.437	961.06
343.665	988.06
343.893	998.06
344.12	1028.06
344.348	1025.06
344.576	1014.06
344.804	998.06
345.031	995.06
345.259	969.06
345.487	968.06
345.714	952.06
345.942	969.06
346.17	994.06
346.397	969.06
346.625	936.06
346.853	898.06
347.08	888.06
347.308	898.06
347.535	913.06
347.763	891.06
347.99	865.06
348.218	868.06
348.445	878.06
348.673	905.06
348.9	882.06
349.128	885.06
349.355	902.06
349.583	921.06
349.81	852.06
350.037	858.06
350.265	868.06
350.492	868.06
350.72	829.06
350.947	854.06
351.174	880.06
351.402	885.06
351.629	913.06
351.856	907.06
352.083	857.06
352.311	884.06
352.538	944.06
352.765	965.06
352.992	884.06
353.22	815.06
353.447	806.06
353.674	800.06
353.901	819.06
354.128	822.06
354.355	827.06
354.583	808.06
354.81	837.06
355.037	823.06
355.264	842.06
355.491	810.06
355.718	848.06
355.945	812.06
356.172	843.06
356.399	829.06
356.626	862.06
356.853	891.06
357.08	870.06
357.307	867.06
357.534	846.06
357.761	834.06
357.988	820.06
358.215	839.06
358.441	826.06
358.668	808.06
358.895	832.06
359.122	828.06
359.349	844.06
359.576	808.06
359.802	828.06
360.029	822.06
360.256	848.06
360.483	846.06
360.709	813.06
360.936	853.06
361.163	861.06
361.39	838.06
361.616	850.06
361.843	861.06
362.07	893.06
362.296	884.06
362.523	843.06
362.749	842.06
362.976	814.06
363.203	830.06
363.429	828.06
363.656	814.06
363.882	810.06
364.109	808.06
364.335	829.06
364.562	839.06
364.788	834.06
365.015	826.06
365.241	811.06
365.468	828.06
365.694	845.06
365.92	840.06
366.147	811.06
366.373	821.06
366.599	819.06
366.826	815.06
367.052	851.06
367.278	814.06
367.505	826.06
367.731	822.06
367.957	827.06
368.184	830.06
368.41	829.06
368.636	845.06
368.862	824.06
369.089	806.06
369.315	873.06
369.541	828.06
369.767	861.06
369.993	842.06
370.219	826.06
370.445	840.06
370.672	826.06
370.898	871.06
371.124	853.06
371.35	862.06
371.576	884.06
371.802	876.06
372.028	876.06
372.254	861.06
372.48	873.06
372.706	901.06
372.932	876.06
373.158	899.06
373.384	877.06
373.61	855.06
373.835	882.06
374.061	884.06
374.287	875.06
374.513	870.06
374.739	898.06
374.965	920.06
375.191	914.06
375.416	925.06
375.642	919.06
375.868	933.06
376.094	880.06
376.319	890.06
376.545	894.06
376.771	860.06
376.997	847.06
377.222	873.06
377.448	856.06
377.674	871.06
377.899	856.06
378.125	828.06
378.35	853.06
378.576	834.06
378.802	836.06
379.027	871.06
379.253	846.06
379.478	845.06
379.704	850.06
379.929	824.06
380.155	877.06
380.38	857.06
380.606	858.06
380.831	837.06
381.057	852.06
381.282	852.06
381.507	857.06
381.733	880.06
381.958	866.06
382.184	865.06
382.409	839.06
382.634	908.06
382.86	870.06
383.085	875.06
383.31	900.06
383.535	905.06
383.761	910.06
383.986	920.06
384.211	904.06
384.436	952.06
384.662	936.06
384.887	969.06
385.112	960.06
385.337	957.06
385.562	968.06
385.787	974.06
386.013	1028.06
386.238	962.06
386.463	990.06
386.688	1008.06
386.913	999.06
387.138	954.06
387.363	993.06
387.588	993.06
387.813	990.06
388.038	999.06
388.263	968.06
388.488	958.06
388.713	1008.06
388.938	966.06
389.163	980.06
389.387	1025.06
389.612	971.06
389.837	1011.06
390.062	985.06
390.287	986.06
390.512	973.06
390.736	988.06
390.961	993.06
391.186	1019.06
391.411	1058.06
391.636	1070.06
391.86	1066.06
392.085	1073.06
392.31	1086.06
392.534	1084.06
392.759	1052.06
392.984	1056.06
393.208	1055.06
393.433	1053.06
393.658	1052.06
393.882	1026.06
394.107	1036.06
394.331	1061.06
394.556	1066.06
394.78	1041.06
395.005	1092.06
395.229	1061.06
395.454	1097.06
395.678	1096.06
395.903	1059.06
396.127	1092.06
396.352	1078.06
396.576	1061.06
396.801	1065.06
397.025	1091.06
397.249	1088.06
397.474	1098.06
397.698	1127.06
397.922	1146.06
398.147	1143.06
398.371	1153.06
398.595	1204.06
398.82	1186.06
399.044	1259.06
399.268	1340.06
399.492	1440.06
399.717	1508.06
399.941	1562.06
400.165	1461.06
400.389	1372.06
400.613	1335.06
400.837	1296.06
401.062	1256.06
401.286	1251.06
401.51	1225.06
401.734	1204.06
401.958	1250.06
402.182	1220.06
402.406	1232.06
402.63	1238.06
402.854	1217.06
403.078	1258.06
403.302	1272.06
403.526	1248.06
403.75	1264.06
403.974	1292.06
404.198	1276.06
404.422	1263.06
404.645	1286.06
404.869	1317.06
405.093	1309.06
405.317	1269.06
405.541	1268.06
405.765	1271.06
405.988	1268.06
406.212	1336.06
406.436	1337.06
406.66	1354.06
406.883	1334.06
407.107	1398.06
407.331	1442.06
407.555	1452.06
407.778	1481.06
408.002	1486.06
408.226	1457.06
408.449	1402.06
408.673	1406.06
408.896	1358.06
409.12	1353.06
409.344	1381.06
409.567	1346.06
409.791	1338.06
410.014	1305.06
410.238	1333.06
410.461	1338.06
410.685	1353.06
410.908	1334.06
411.132	1316.06
411.355	1289.06
411.578	1301.06
411.802	1290.06
412.025	1298.06
412.249	1282.06
412.472	1313.06
412.695	1284.06
412.919	1249.06
413.142	1256.06
413.365	1243.06
413.589	1235.06
413.812	1211.06
414.035	1234.06
414.258	1229.06
414.482	1238.06
414.705	1243.06
414.928	1249.06
415.151	1256.06
415.374	1244.06
415.597	1207.06
415.821	1206.06
416.044	1209.06
416.267	1210.06
416.49	1194.06
416.713	1188.06
416.936	1184.06
417.159	1183.06
417.382	1213.06
417.605	1204.06
417.828	1196.06
418.051	1205.06
418.274	1197.06
418.497	1211.06
418.72	1200.06
418.943	1226.06
419.166	1267.06
419.389	1366.06
419.611	1335.06
419.834	1297.06
420.057	1314.06
420.28	1238.06
420.503	1201.06
420.726	1231.06
420.948	1235.06
421.171	1240.06
421.394	1181.06
421.617	1213.06
421.839	1193.06
422.062	1196.06
422.285	1162.06
422.507	1212.06
422.73	1227.06
422.953	1233.06
423.175	1205.06
423.398	1220.06
423.621	1236.06
423.843	1228.06
424.066	1206.06
424.288	1238.06
424.511	1241.06
424.733	1216.06
424.956	1181.06
425.178	1224.06
425.401	1212.06
425.623	1218.06
425.846	1195.06
426.068	1219.06
426.291	1175.06
426.513	1186.06
426.735	1168.06
426.958	1195.06
427.18	1170.06
427.402	1165.06
427.625	1193.06
427.847	1182.06
428.069	1157.06
428.292	1182.06
428.514	1135.06
428.736	1177.06
428.958	1174.06
429.181	1143.06
429.403	1131.06
429.625	1129.06
429.847	1138.06
430.069	1148.06
430.292	1156.06
430.514	1140.06
430.736	1140.06
430.958	1148.06
431.18	1146.06
431.402	1166.06
431.624	1153.06
431.846	1140.06
432.068	1148.06
432.29	1165.06
432.512	1147.06
432.734	1176.06
432.956	1170.06
433.178	1196.06
433.4	1173.06
433.622	1185.06
433.844	1215.06
434.066	1213.06
434.287	1192.06
434.509	1232.06
434.731	1202.06
434.953	1242.06
435.175	1252.06
435.397	1270.06
435.618	1200.06
435.84	1217.06
436.062	1192.06
436.284	1162.06
436.505	1175.06
436.727	1177.06
436.949	1180.06
437.17	1177.06
437.392	1144.06
437.614	1141.06
437.835	1129.06
438.057	1156.06
438.278	1118.06
438.5	1117.06
438.721	1135.06
438.943	1133.06
439.165	1127.06
439.386	1108.06
439.608	1149.06
439.829	1182.06
440.05	1157.06
440.272	1193.06
440.493	1206.06
440.715	1177.06
440.936	1162.06
441.158	1211.06
441.379	1219.06
441.6	1285.06
441.822	1272.06
442.043	1250.06
442.264	1236.06
442.486	1188.06
442.707	1249.06
442.928	1211.06
443.149	1256.06
443.371	1276.06
443.592	1307.06
443.813	1252.06
444.034	1236.06
444.255	1276.06
444.476	1337.06
444.698	1392.06
444.919	1406.06
445.14	1471.06
445.361	1373.06
445.582	1302.06
445.803	1258.06
446.024	1252.06
446.245	1206.06
446.466	1236.06
446.687	1208.06
446.908	1193.06
447.129	1146.06
447.35	1169.06
447.571	1152.06
447.792	1127.06
448.013	1110.06
448.234	1130.06
448.455	1118.06
448.675	1098.06
448.896	1088.06
449.117	1069.06
449.338	1090.06
449.559	1084.06
449.779	1109.06
450	1057.06
450.221	1117.06
450.442	1083.06
450.662	1102.06
450.883	1078.06
451.104	1118.06
451.324	1105.06
451.545	1128.06
451.766	1112.06
451.986	1092.06
452.207	1102.06
452.428	1092.06
452.648	1123.06
452.869	1032.06
453.089	1068.06
453.31	1076.06
453.53	1066.06
453.751	1048.06
453.971	1059.06
454.192	1058.06
454.412	1061.06
454.633	1038.06
454.853	1028.06
455.073	1042.06
455.294	1039.06
455.514	1019.06
455.734	1049.06
455.955	1026.06
456.175	1044.06
456.395	1001.06
456.616	1030.06
456.836	1051.06
457.056	1044.06
457.276	989.06
457.497	1037.06
457.717	1071.06
457.937	1051.06
458.157	1080.06
458.377	1090.06
458.598	1104.06
458.818	1082.06
459.038	1149.06
459.258	1160.06
459.478	1214.06
459.698	1240.06
459.918	1235.06
460.138	1302.06
460.358	1300.06
460.578	1340.06
460.798	1347.06
461.018	1345.06
461.238	1374.06
461.458	1360.06
461.678	1349.06
461.898	1372.06
462.118	1361.06
462.338	1431.06
462.558	1460.06
462.777	1510.06
462.997	1580.06
463.217	1604.06
463.437	1623.06
463.657	1570.06
463.876	1535.06
464.096	1500.06
464.316	1501.06
464.536	1494.06
464.755	1446.06
464.975	1407.06
465.195	1379.06
465.414	1340.06
465.634	1294.06
465.854	1252.06
466.073	1190.06
466.293	1204.06
466.512	1202.06
466.732	1180.06
466.951	1147.06
467.171	1154.06
467.391	1146.06
467.61	1139.06
467.829	1140.06
468.049	1140.06
468.268	1099.06
468.488	1120.06
468.707	1145.06
468.927	1125.06
469.146	1111.06
469.365	1124.06
469.585	1163.06
469.804	1140.06
470.023	1160.06
470.243	1148.06
470.462	1176.06
470.681	1148.06
470.901	1166.06
471.12	1148.06
471.339	1164.06
471.558	1138.06
471.777	1141.06
471.997	1137.06
472.216	1132.06
472.435	1111.06
472.654	1124.06
472.873	1113.06
473.092	1112.06
473.311	1117.06
473.53	1133.06
473.749	1128.06
473.968	1116.06
474.187	1114.06
474.406	1126.06
474.625	1101.06
474.844	1105.06
475.063	1109.06
475.282	1102.06
475.501	1124.06
475.72	1160.06
475.939	1142.06
476.158	1156.06
476.377	1197.06
476.596	1171.06
476.814	1181.06
477.033	1168.06
477.252	1174.06
477.471	1218.06
477.69	1250.06
477.908	1274.06
478.127	1286.06
478.346	1272.06
478.564	1291.06
478.783	1336.06
479.002	1349.06
479.22	1381.06
479.439	1360.06
479.658	1383.06
479.876	1361.06
480.095	1333.06
480.313	1392.06
480.532	1394.06
480.751	1423.06
480.969	1387.06
481.188	1320.06
481.406	1318.06
481.624	1299.06
481.843	1302.06
482.061	1288.06
482.28	1291.06
482.498	1302.06
482.717	1300.06
482.935	1321.06
483.153	1310.06
483.372	1306.06
483.59	1341.06
483.808	1292.06
484.027	1325.06
484.245	1302.06
484.463	1343.06
484.681	1339.06
484.9	1317.06
485.118	1326.06
485.336	1311.06
485.554	1328.06
485.772	1321.06
485.99	1350.06
486.209	1319.06
486.427	1354.06
486.645	1342.06
486.863	1354.06
487.081	1356.06
487.299	1321.06
487.517	1345.06
487.735	1363.06
487.953	1398.06
488.171	1330.06
488.389	1340.06
488.607	1343.06
488.825	1338.06
489.043	1336.06
489.261	1330.06
489.479	1321.06
489.696	1340.06
489.914	1344.06
490.132	1351.06
490.35	1362.06
490.568	1365.06
490.786	1348.06
491.003	1389.06
491.221	1353.06
491.439	1346.06
491.657	1341.06
491.874	1384.06
492.092	1406.06
492.31	1413.06
492.527	1422.06
492.745	1380.06
492.963	1445.06
493.18	1398.06
493.398	1393.06
493.615	1448.06
493.833	1441.06
494.05	1436.06
494.268	1465.06
494.485	1443.06
494.703	1439.06
