Data from NiCl2@0.5M.TitratingCurve.Agarose3%dH2O.NegLispCup.LampEnergy10.LIBS07252019_HRD10591_18-19-14-571.txt Node
Date: Thu Jul 25 18:19:14 EDT 2019
User: cochatt
Spectrometer: HR+D1059
Trigger mode: 1
Integration Time (sec): 1.000000E-1
Scans to average: 1
Electric dark correction enabled: true
Nonlinearity correction enabled: false
Boxcar width: 0
XAxis mode: Wavelengths
Number of Pixels in Spectrum: 2048
>>>>>Begin Spectral Data<<<<<
223.165	-26.56
223.4	-26.56
223.635	-26.56
223.869	-29.56
224.104	-0.56
224.338	-9.56
224.573	-23.56
224.808	-18.56
225.042	0.44
225.277	-1.56
225.511	-9.56
225.746	8.44
225.98	-5.56
226.215	15.44
226.449	23.44
226.683	8.44
226.918	39.44
227.152	29.44
227.387	37.44
227.621	23.44
227.856	53.44
228.09	41.44
228.324	53.44
228.559	54.44
228.793	67.44
229.027	108.44
229.262	125.44
229.496	112.44
229.73	124.44
229.964	151.44
230.199	138.44
230.433	144.44
230.667	140.44
230.901	159.44
231.136	155.44
231.37	172.44
231.604	157.44
231.838	140.44
232.072	166.44
232.306	161.44
232.541	157.44
232.775	188.44
233.009	156.44
233.243	160.44
233.477	152.44
233.711	156.44
233.945	155.44
234.179	166.44
234.413	179.44
234.647	165.44
234.881	171.44
235.115	181.44
235.349	177.44
235.583	185.44
235.817	166.44
236.051	184.44
236.285	177.44
236.519	176.44
236.753	153.44
236.987	173.44
237.221	165.44
237.455	168.44
237.689	189.44
237.922	182.44
238.156	191.44
238.39	192.44
238.624	181.44
238.858	191.44
239.091	180.44
239.325	197.44
239.559	205.44
239.793	223.44
240.027	205.44
240.26	198.44
240.494	195.44
240.728	218.44
240.961	197.44
241.195	208.44
241.429	221.44
241.662	218.44
241.896	225.44
242.13	240.44
242.363	224.44
242.597	214.44
242.83	239.44
243.064	219.44
243.298	232.44
243.531	238.44
243.765	224.44
243.998	234.44
244.232	256.44
244.465	219.44
244.699	250.44
244.932	243.44
245.166	253.44
245.399	236.44
245.633	256.44
245.866	247.44
246.099	245.44
246.333	254.44
246.566	269.44
246.8	260.44
247.033	254.44
247.266	254.44
247.5	277.44
247.733	276.44
247.966	261.44
248.2	248.44
248.433	265.44
248.666	282.44
248.899	269.44
249.133	275.44
249.366	290.44
249.599	277.44
249.832	300.44
250.066	284.44
250.299	264.44
250.532	299.44
250.765	289.44
250.998	273.44
251.231	308.44
251.465	317.44
251.698	307.44
251.931	300.44
252.164	314.44
252.397	315.44
252.63	306.44
252.863	314.44
253.096	316.44
253.329	301.44
253.562	316.44
253.795	314.44
254.028	325.44
254.261	324.44
254.494	343.44
254.727	333.44
254.96	333.44
255.193	329.44
255.426	340.44
255.659	313.44
255.892	334.44
256.124	344.44
256.357	363.44
256.59	312.44
256.823	352.44
257.056	334.44
257.289	364.44
257.521	360.44
257.754	372.44
257.987	365.44
258.22	360.44
258.452	359.44
258.685	370.44
258.918	370.44
259.151	350.44
259.383	374.44
259.616	364.44
259.849	375.44
260.081	358.44
260.314	363.44
260.547	377.44
260.779	380.44
261.012	388.44
261.244	386.44
261.477	381.44
261.71	360.44
261.942	398.44
262.175	404.44
262.407	395.44
262.64	398.44
262.872	393.44
263.105	403.44
263.337	406.44
263.57	409.44
263.802	408.44
264.035	402.44
264.267	416.44
264.499	390.44
264.732	413.44
264.964	406.44
265.197	423.44
265.429	417.44
265.661	399.44
265.894	426.44
266.126	429.44
266.358	433.44
266.591	437.44
266.823	446.44
267.055	436.44
267.287	436.44
267.52	433.44
267.752	411.44
267.984	429.44
268.216	436.44
268.448	438.44
268.681	449.44
268.913	445.44
269.145	466.44
269.377	437.44
269.609	448.44
269.841	453.44
270.073	447.44
270.306	462.44
270.538	451.44
270.77	454.44
271.002	460.44
271.234	462.44
271.466	469.44
271.698	464.44
271.93	468.44
272.162	489.44
272.394	463.44
272.626	482.44
272.858	483.44
273.09	469.44
273.322	477.44
273.553	482.44
273.785	479.44
274.017	493.44
274.249	479.44
274.481	474.44
274.713	510.44
274.945	475.44
275.176	470.44
275.408	490.44
275.64	512.44
275.872	506.44
276.104	517.44
276.335	510.44
276.567	494.44
276.799	510.44
277.031	523.44
277.262	534.44
277.494	522.44
277.726	516.44
277.957	545.44
278.189	506.44
278.421	544.44
278.652	514.44
278.884	534.44
279.115	540.44
279.347	538.44
279.579	542.44
279.81	543.44
280.042	542.44
280.273	549.44
280.505	552.44
280.736	562.44
280.968	563.44
281.199	576.44
281.431	562.44
281.662	555.44
281.894	581.44
282.125	570.44
282.356	558.44
282.588	561.44
282.819	573.44
283.051	594.44
283.282	556.44
283.513	580.44
283.745	572.44
283.976	581.44
284.207	586.44
284.439	592.44
284.67	598.44
284.901	613.44
285.132	601.44
285.364	612.44
285.595	615.44
285.826	609.44
286.057	600.44
286.288	613.44
286.52	600.44
286.751	618.44
286.982	613.44
287.213	600.44
287.444	621.44
287.675	604.44
287.906	601.44
288.138	611.44
288.369	640.44
288.6	644.44
288.831	622.44
289.062	642.44
289.293	651.44
289.524	642.44
289.755	629.44
289.986	626.44
290.217	644.44
290.448	626.44
290.679	652.44
290.91	640.44
291.141	637.44
291.371	655.44
291.602	638.44
291.833	644.44
292.064	649.44
292.295	655.44
292.526	658.44
292.757	634.44
292.987	646.44
293.218	646.44
293.449	661.44
293.68	661.44
293.91	645.44
294.141	652.44
294.372	667.44
294.603	662.44
294.833	664.44
295.064	626.44
295.295	642.44
295.525	666.44
295.756	653.44
295.987	655.44
296.217	665.44
296.448	680.44
296.679	678.44
296.909	668.44
297.14	666.44
297.37	709.44
297.601	692.44
297.831	712.44
298.062	682.44
298.292	712.44
298.523	731.44
298.753	728.44
298.984	720.44
299.214	697.44
299.445	720.44
299.675	715.44
299.905	705.44
300.136	697.44
300.366	721.44
300.597	723.44
300.827	747.44
301.057	743.44
301.288	752.44
301.518	753.44
301.748	763.44
301.979	719.44
302.209	750.44
302.439	738.44
302.669	724.44
302.9	732.44
303.13	757.44
303.36	750.44
303.59	740.44
303.82	769.44
304.051	760.44
304.281	744.44
304.511	749.44
304.741	718.44
304.971	723.44
305.201	733.44
305.431	771.44
305.661	770.44
305.891	764.44
306.121	753.44
306.352	749.44
306.582	736.44
306.812	744.44
307.042	738.44
307.272	769.44
307.502	728.44
307.731	743.44
307.961	749.44
308.191	737.44
308.421	733.44
308.651	761.44
308.881	752.44
309.111	729.44
309.341	728.44
309.571	727.44
309.8	756.44
310.03	743.44
310.26	781.44
310.49	769.44
310.72	739.44
310.949	739.44
311.179	756.44
311.409	758.44
311.639	754.44
311.868	749.44
312.098	768.44
312.328	803.44
312.557	798.44
312.787	785.44
313.017	757.44
313.246	791.44
313.476	790.44
313.706	801.44
313.935	785.44
314.165	790.44
314.394	796.44
314.624	801.44
314.853	794.44
315.083	807.44
315.312	825.44
315.542	807.44
315.771	801.44
316.001	806.44
316.23	828.44
316.46	805.44
316.689	770.44
316.919	793.44
317.148	790.44
317.377	798.44
317.607	799.44
317.836	793.44
318.065	786.44
318.295	800.44
318.524	785.44
318.753	791.44
318.983	762.44
319.212	780.44
319.441	793.44
319.67	791.44
319.9	777.44
320.129	821.44
320.358	810.44
320.587	798.44
320.816	825.44
321.046	816.44
321.275	796.44
321.504	805.44
321.733	786.44
321.962	828.44
322.191	790.44
322.42	819.44
322.649	827.44
322.878	820.44
323.108	786.44
323.337	845.44
323.566	861.44
323.795	829.44
324.024	834.44
324.253	834.44
324.482	846.44
324.71	845.44
324.939	823.44
325.168	865.44
325.397	868.44
325.626	851.44
325.855	834.44
326.084	887.44
326.313	875.44
326.542	858.44
326.77	887.44
326.999	844.44
327.228	867.44
327.457	859.44
327.686	896.44
327.914	862.44
328.143	885.44
328.372	871.44
328.6	888.44
328.829	861.44
329.058	861.44
329.287	901.44
329.515	878.44
329.744	877.44
329.972	908.44
330.201	896.44
330.43	890.44
330.658	888.44
330.887	899.44
331.115	905.44
331.344	921.44
331.572	902.44
331.801	952.44
332.03	936.44
332.258	959.44
332.486	957.44
332.715	978.44
332.943	1062.44
333.172	1076.44
333.4	1096.44
333.629	1133.44
333.857	1130.44
334.085	1097.44
334.314	1077.44
334.542	1099.44
334.771	1065.44
334.999	1052.44
335.227	1063.44
335.455	1083.44
335.684	1083.44
335.912	1091.44
336.14	1076.44
336.369	1036.44
336.597	1070.44
336.825	1060.44
337.053	1048.44
337.281	1044.44
337.51	1012.44
337.738	977.44
337.966	1018.44
338.194	1000.44
338.422	980.44
338.65	955.44
338.878	952.44
339.106	980.44
339.334	971.44
339.562	961.44
339.79	926.44
340.018	960.44
340.246	948.44
340.474	897.44
340.702	914.44
340.93	920.44
341.158	951.44
341.386	963.44
341.614	946.44
341.842	953.44
342.07	948.44
342.298	910.44
342.526	922.44
342.754	922.44
342.981	907.44
343.209	961.44
343.437	970.44
343.665	1025.44
343.893	1056.44
344.12	1090.44
344.348	1035.44
344.576	1028.44
344.804	1017.44
345.031	1002.44
345.259	954.44
345.487	967.44
345.714	928.44
345.942	936.44
346.17	958.44
346.397	893.44
346.625	890.44
346.853	916.44
347.08	878.44
347.308	878.44
347.535	913.44
347.763	909.44
347.99	865.44
348.218	877.44
348.445	910.44
348.673	882.44
348.9	856.44
349.128	883.44
349.355	888.44
349.583	907.44
349.81	890.44
350.037	865.44
350.265	876.44
350.492	865.44
350.72	860.44
350.947	846.44
351.174	885.44
351.402	862.44
351.629	850.44
351.856	852.44
352.083	859.44
352.311	867.44
352.538	900.44
352.765	891.44
352.992	854.44
353.22	830.44
353.447	802.44
353.674	843.44
353.901	845.44
354.128	837.44
354.355	846.44
354.583	849.44
354.81	852.44
355.037	841.44
355.264	806.44
355.491	812.44
355.718	857.44
355.945	820.44
356.172	818.44
356.399	867.44
356.626	871.44
356.853	867.44
357.08	838.44
357.307	860.44
357.534	866.44
357.761	859.44
357.988	844.44
358.215	856.44
358.441	854.44
358.668	836.44
358.895	865.44
359.122	806.44
359.349	828.44
359.576	848.44
359.802	832.44
360.029	840.44
360.256	850.44
360.483	840.44
360.709	830.44
360.936	844.44
361.163	818.44
361.39	847.44
361.616	860.44
361.843	840.44
362.07	894.44
362.296	884.44
362.523	817.44
362.749	819.44
362.976	813.44
363.203	837.44
363.429	834.44
363.656	839.44
363.882	842.44
364.109	798.44
364.335	826.44
364.562	828.44
364.788	823.44
365.015	840.44
365.241	819.44
365.468	830.44
365.694	842.44
365.92	833.44
366.147	830.44
366.373	838.44
366.599	860.44
366.826	820.44
367.052	823.44
367.278	851.44
367.505	857.44
367.731	860.44
367.957	839.44
368.184	837.44
368.41	850.44
368.636	816.44
368.862	858.44
369.089	824.44
369.315	867.44
369.541	856.44
369.767	875.44
369.993	833.44
370.219	874.44
370.445	894.44
370.672	890.44
370.898	893.44
371.124	877.44
371.35	892.44
371.576	874.44
371.802	896.44
372.028	887.44
372.254	893.44
372.48	886.44
372.706	909.44
372.932	907.44
373.158	941.44
373.384	912.44
373.61	924.44
373.835	896.44
374.061	846.44
374.287	877.44
374.513	890.44
374.739	914.44
374.965	940.44
375.191	955.44
375.416	942.44
375.642	933.44
375.868	921.44
376.094	886.44
376.319	890.44
376.545	893.44
376.771	900.44
376.997	888.44
377.222	895.44
377.448	871.44
377.674	892.44
377.899	844.44
378.125	867.44
378.35	865.44
378.576	872.44
378.802	849.44
379.027	859.44
379.253	878.44
379.478	869.44
379.704	852.44
379.929	875.44
380.155	870.44
380.38	860.44
380.606	862.44
380.831	861.44
381.057	867.44
381.282	858.44
381.507	865.44
381.733	849.44
381.958	871.44
382.184	893.44
382.409	894.44
382.634	912.44
382.86	879.44
383.085	937.44
383.31	922.44
383.535	927.44
383.761	944.44
383.986	952.44
384.211	958.44
384.436	970.44
384.662	997.44
384.887	969.44
385.112	988.44
385.337	1013.44
385.562	1027.44
385.787	1046.44
386.013	1008.44
386.238	1040.44
386.463	1035.44
386.688	1046.44
386.913	1049.44
387.138	1005.44
387.363	1014.44
387.588	1005.44
387.813	1027.44
388.038	1032.44
388.263	1046.44
388.488	1018.44
388.713	1045.44
388.938	1047.44
389.163	1018.44
389.387	1032.44
389.612	996.44
389.837	1021.44
390.062	1007.44
390.287	1015.44
390.512	1004.44
390.736	1008.44
390.961	1030.44
391.186	1045.44
391.411	1102.44
391.636	1092.44
391.86	1138.44
392.085	1160.44
392.31	1127.44
392.534	1129.44
392.759	1126.44
392.984	1078.44
393.208	1101.44
393.433	1099.44
393.658	1093.44
393.882	1097.44
394.107	1095.44
394.331	1101.44
394.556	1100.44
394.78	1115.44
395.005	1082.44
395.229	1121.44
395.454	1133.44
395.678	1152.44
395.903	1158.44
396.127	1158.44
396.352	1141.44
396.576	1120.44
396.801	1112.44
397.025	1129.44
397.249	1110.44
397.474	1165.44
397.698	1151.44
397.922	1185.44
398.147	1165.44
398.371	1209.44
398.595	1242.44
398.82	1270.44
399.044	1355.44
399.268	1444.44
399.492	1604.44
399.717	1782.44
399.941	1766.44
400.165	1652.44
400.389	1505.44
400.613	1443.44
400.837	1349.44
401.062	1307.44
401.286	1314.44
401.51	1312.44
401.734	1267.44
401.958	1321.44
402.182	1339.44
402.406	1292.44
402.63	1311.44
402.854	1359.44
403.078	1326.44
403.302	1367.44
403.526	1362.44
403.75	1368.44
403.974	1393.44
404.198	1412.44
404.422	1412.44
404.645	1403.44
404.869	1409.44
405.093	1388.44
405.317	1365.44
405.541	1370.44
405.765	1400.44
405.988	1406.44
406.212	1431.44
406.436	1406.44
406.66	1439.44
406.883	1463.44
407.107	1487.44
407.331	1533.44
407.555	1588.44
407.778	1579.44
408.002	1539.44
408.226	1552.44
408.449	1531.44
408.673	1469.44
408.896	1450.44
409.12	1436.44
409.344	1474.44
409.567	1435.44
409.791	1444.44
410.014	1448.44
410.238	1399.44
410.461	1420.44
410.685	1387.44
410.908	1372.44
411.132	1389.44
411.355	1358.44
411.578	1336.44
411.802	1320.44
412.025	1343.44
412.249	1362.44
412.472	1314.44
412.695	1309.44
412.919	1305.44
413.142	1306.44
413.365	1318.44
413.589	1324.44
413.812	1297.44
414.035	1284.44
414.258	1287.44
414.482	1316.44
414.705	1304.44
414.928	1273.44
415.151	1316.44
415.374	1293.44
415.597	1292.44
415.821	1269.44
416.044	1236.44
416.267	1265.44
416.49	1244.44
416.713	1255.44
416.936	1254.44
417.159	1296.44
417.382	1278.44
417.605	1231.44
417.828	1267.44
418.051	1256.44
418.274	1268.44
418.497	1294.44
418.72	1261.44
418.943	1310.44
419.166	1381.44
419.389	1497.44
419.611	1423.44
419.834	1396.44
420.057	1351.44
420.28	1300.44
420.503	1259.44
420.726	1294.44
420.948	1232.44
421.171	1270.44
421.394	1285.44
421.617	1268.44
421.839	1302.44
422.062	1283.44
422.285	1284.44
422.507	1281.44
422.73	1325.44
422.953	1306.44
423.175	1333.44
423.398	1333.44
423.621	1321.44
423.843	1371.44
424.066	1360.44
424.288	1328.44
424.511	1319.44
424.733	1303.44
424.956	1307.44
425.178	1328.44
425.401	1271.44
425.623	1308.44
425.846	1245.44
426.068	1328.44
426.291	1252.44
426.513	1215.44
426.735	1237.44
426.958	1230.44
427.18	1204.44
427.402	1193.44
427.625	1191.44
427.847	1198.44
428.069	1206.44
428.292	1191.44
428.514	1167.44
428.736	1172.44
428.958	1220.44
429.181	1171.44
429.403	1165.44
429.625	1139.44
429.847	1197.44
430.069	1193.44
430.292	1158.44
430.514	1143.44
430.736	1135.44
430.958	1183.44
431.18	1153.44
431.402	1157.44
431.624	1124.44
431.846	1192.44
432.068	1207.44
432.29	1225.44
432.512	1178.44
432.734	1192.44
432.956	1180.44
433.178	1210.44
433.4	1219.44
433.622	1221.44
433.844	1227.44
434.066	1245.44
434.287	1256.44
434.509	1241.44
434.731	1289.44
434.953	1280.44
435.175	1323.44
435.397	1293.44
435.618	1235.44
435.84	1187.44
436.062	1208.44
436.284	1234.44
436.505	1230.44
436.727	1197.44
436.949	1174.44
437.17	1206.44
437.392	1185.44
437.614	1172.44
437.835	1136.44
438.057	1166.44
438.278	1140.44
438.5	1139.44
438.721	1137.44
438.943	1153.44
439.165	1179.44
439.386	1138.44
439.608	1180.44
439.829	1197.44
440.05	1161.44
440.272	1206.44
440.493	1228.44
440.715	1233.44
440.936	1257.44
441.158	1242.44
441.379	1284.44
441.6	1307.44
441.822	1310.44
442.043	1400.44
442.264	1340.44
442.486	1279.44
442.707	1302.44
442.928	1268.44
443.149	1311.44
443.371	1304.44
443.592	1330.44
443.813	1354.44
444.034	1300.44
444.255	1366.44
444.476	1401.44
444.698	1462.44
444.919	1488.44
445.14	1591.44
445.361	1465.44
445.582	1375.44
445.803	1335.44
446.024	1244.44
446.245	1297.44
446.466	1231.44
446.687	1204.44
446.908	1225.44
447.129	1204.44
447.35	1198.44
447.571	1176.44
447.792	1128.44
448.013	1152.44
448.234	1132.44
448.455	1140.44
448.675	1141.44
448.896	1147.44
449.117	1112.44
449.338	1125.44
449.559	1125.44
449.779	1108.44
450	1095.44
450.221	1112.44
450.442	1121.44
450.662	1098.44
450.883	1120.44
451.104	1143.44
451.324	1140.44
451.545	1133.44
451.766	1146.44
451.986	1128.44
452.207	1120.44
452.428	1102.44
452.648	1106.44
452.869	1067.44
453.089	1081.44
453.31	1117.44
453.53	1079.44
453.751	1061.44
453.971	1082.44
454.192	1075.44
454.412	1034.44
454.633	1057.44
454.853	1052.44
455.073	1010.44
455.294	1063.44
455.514	1035.44
455.734	1066.44
455.955	1063.44
456.175	1052.44
456.395	1032.44
456.616	1038.44
456.836	1079.44
457.056	1058.44
457.276	1049.44
457.497	1093.44
457.717	1052.44
457.937	1080.44
458.157	1068.44
458.377	1063.44
458.598	1106.44
458.818	1120.44
459.038	1153.44
459.258	1189.44
459.478	1254.44
459.698	1228.44
459.918	1274.44
460.138	1337.44
460.358	1369.44
460.578	1396.44
460.798	1430.44
461.018	1429.44
461.238	1402.44
461.458	1381.44
461.678	1376.44
461.898	1428.44
462.118	1450.44
462.338	1499.44
462.558	1525.44
462.777	1546.44
462.997	1685.44
463.217	1779.44
463.437	1773.44
463.657	1672.44
463.876	1576.44
464.096	1609.44
464.316	1610.44
464.536	1592.44
464.755	1539.44
464.975	1466.44
465.195	1428.44
465.414	1394.44
465.634	1306.44
465.854	1285.44
466.073	1247.44
466.293	1249.44
466.512	1281.44
466.732	1211.44
466.951	1225.44
467.171	1215.44
467.391	1216.44
467.61	1190.44
467.829	1176.44
468.049	1173.44
468.268	1125.44
468.488	1143.44
468.707	1162.44
468.927	1148.44
469.146	1139.44
469.365	1162.44
469.585	1142.44
469.804	1181.44
470.023	1176.44
470.243	1180.44
470.462	1187.44
470.681	1197.44
470.901	1228.44
471.12	1190.44
471.339	1181.44
471.558	1184.44
471.777	1166.44
471.997	1148.44
472.216	1141.44
472.435	1131.44
472.654	1129.44
472.873	1136.44
473.092	1130.44
473.311	1106.44
473.53	1121.44
473.749	1131.44
473.968	1121.44
474.187	1130.44
474.406	1103.44
474.625	1152.44
474.844	1159.44
475.063	1158.44
475.282	1141.44
475.501	1156.44
475.72	1162.44
475.939	1174.44
476.158	1180.44
476.377	1213.44
476.596	1213.44
476.814	1206.44
477.033	1227.44
477.252	1245.44
477.471	1231.44
477.69	1269.44
477.908	1305.44
478.127	1322.44
478.346	1312.44
478.564	1330.44
478.783	1353.44
479.002	1383.44
479.22	1425.44
479.439	1374.44
479.658	1379.44
479.876	1389.44
480.095	1443.44
480.313	1430.44
480.532	1482.44
480.751	1456.44
480.969	1414.44
481.188	1369.44
481.406	1342.44
481.624	1346.44
481.843	1326.44
482.061	1310.44
482.28	1315.44
482.498	1325.44
482.717	1344.44
482.935	1316.44
483.153	1301.44
483.372	1325.44
483.59	1322.44
483.808	1354.44
484.027	1284.44
484.245	1303.44
484.463	1303.44
484.681	1332.44
484.9	1348.44
485.118	1348.44
485.336	1345.44
485.554	1330.44
485.772	1334.44
485.99	1334.44
486.209	1356.44
486.427	1377.44
486.645	1378.44
486.863	1357.44
487.081	1367.44
487.299	1386.44
487.517	1362.44
487.735	1363.44
487.953	1380.44
488.171	1368.44
488.389	1346.44
488.607	1347.44
488.825	1374.44
489.043	1338.44
489.261	1344.44
489.479	1366.44
489.696	1385.44
489.914	1386.44
490.132	1341.44
490.35	1398.44
490.568	1392.44
490.786	1395.44
491.003	1382.44
491.221	1412.44
491.439	1384.44
491.657	1400.44
491.874	1420.44
492.092	1416.44
492.31	1421.44
492.527	1434.44
492.745	1440.44
492.963	1410.44
493.18	1445.44
493.398	1435.44
493.615	1438.44
493.833	1456.44
494.05	1468.44
494.268	1477.44
494.485	1476.44
