Data from NiCl2@0.0625M.TitratingCurve.Agarose3%dH2O.NegLispCup.LampEnergy10.LIBS07252019_HRD10591_18-32-33-576.txt Node
Date: Thu Jul 25 18:32:33 EDT 2019
User: cochatt
Spectrometer: HR+D1059
Trigger mode: 1
Integration Time (sec): 1.000000E-1
Scans to average: 1
Electric dark correction enabled: true
Nonlinearity correction enabled: false
Boxcar width: 0
XAxis mode: Wavelengths
Number of Pixels in Spectrum: 2048
>>>>>Begin Spectral Data<<<<<
223.165	-18.81
223.4	-18.81
223.635	-18.81
223.869	-13.81
224.104	-15.81
224.338	0.19
224.573	-3.81
224.808	-5.81
225.042	-8.81
225.277	-13.81
225.511	-7.81
225.746	2.19
225.98	-1.81
226.215	4.19
226.449	12.19
226.683	19.19
226.918	18.19
227.152	34.19
227.387	26.19
227.621	38.19
227.856	45.19
228.09	49.19
228.324	48.19
228.559	53.19
228.793	73.19
229.027	146.19
229.262	154.19
229.496	162.19
229.73	161.19
229.964	186.19
230.199	198.19
230.433	219.19
230.667	201.19
230.901	194.19
231.136	211.19
231.37	212.19
231.604	201.19
231.838	198.19
232.072	230.19
232.306	228.19
232.541	207.19
232.775	214.19
233.009	224.19
233.243	227.19
233.477	220.19
233.711	229.19
233.945	229.19
234.179	244.19
234.413	213.19
234.647	240.19
234.881	218.19
235.115	222.19
235.349	234.19
235.583	230.19
235.817	240.19
236.051	258.19
236.285	228.19
236.519	239.19
236.753	237.19
236.987	242.19
237.221	247.19
237.455	256.19
237.689	260.19
237.922	257.19
238.156	266.19
238.39	279.19
238.624	274.19
238.858	267.19
239.091	285.19
239.325	265.19
239.559	288.19
239.793	283.19
240.027	281.19
240.26	300.19
240.494	290.19
240.728	304.19
240.961	302.19
241.195	281.19
241.429	310.19
241.662	325.19
241.896	310.19
242.13	305.19
242.363	310.19
242.597	324.19
242.83	316.19
243.064	332.19
243.298	325.19
243.531	353.19
243.765	341.19
243.998	338.19
244.232	341.19
244.465	345.19
244.699	357.19
244.932	374.19
245.166	374.19
245.399	387.19
245.633	355.19
245.866	370.19
246.099	372.19
246.333	360.19
246.566	371.19
246.8	376.19
247.033	380.19
247.266	377.19
247.5	389.19
247.733	393.19
247.966	397.19
248.2	418.19
248.433	423.19
248.666	413.19
248.899	413.19
249.133	449.19
249.366	413.19
249.599	420.19
249.832	410.19
250.066	424.19
250.299	428.19
250.532	436.19
250.765	440.19
250.998	441.19
251.231	444.19
251.465	465.19
251.698	459.19
251.931	474.19
252.164	468.19
252.397	457.19
252.63	475.19
252.863	475.19
253.096	484.19
253.329	453.19
253.562	493.19
253.795	465.19
254.028	492.19
254.261	477.19
254.494	507.19
254.727	484.19
254.96	504.19
255.193	492.19
255.426	515.19
255.659	512.19
255.892	525.19
256.124	500.19
256.357	503.19
256.59	499.19
256.823	513.19
257.056	522.19
257.289	526.19
257.521	538.19
257.754	548.19
257.987	517.19
258.22	545.19
258.452	526.19
258.685	541.19
258.918	514.19
259.151	545.19
259.383	542.19
259.616	555.19
259.849	544.19
260.081	549.19
260.314	585.19
260.547	564.19
260.779	571.19
261.012	584.19
261.244	595.19
261.477	569.19
261.71	584.19
261.942	575.19
262.175	578.19
262.407	583.19
262.64	585.19
262.872	581.19
263.105	599.19
263.337	605.19
263.57	603.19
263.802	597.19
264.035	625.19
264.267	618.19
264.499	637.19
264.732	609.19
264.964	633.19
265.197	654.19
265.429	625.19
265.661	632.19
265.894	617.19
266.126	627.19
266.358	646.19
266.591	653.19
266.823	638.19
267.055	644.19
267.287	646.19
267.52	661.19
267.752	658.19
267.984	654.19
268.216	659.19
268.448	663.19
268.681	680.19
268.913	649.19
269.145	684.19
269.377	685.19
269.609	681.19
269.841	690.19
270.073	686.19
270.306	673.19
270.538	697.19
270.77	698.19
271.002	674.19
271.234	704.19
271.466	712.19
271.698	711.19
271.93	734.19
272.162	723.19
272.394	730.19
272.626	720.19
272.858	728.19
273.09	733.19
273.322	726.19
273.553	725.19
273.785	748.19
274.017	739.19
274.249	768.19
274.481	760.19
274.713	744.19
274.945	752.19
275.176	779.19
275.408	760.19
275.64	792.19
275.872	781.19
276.104	757.19
276.335	750.19
276.567	776.19
276.799	790.19
277.031	793.19
277.262	787.19
277.494	796.19
277.726	781.19
277.957	794.19
278.189	804.19
278.421	793.19
278.652	797.19
278.884	805.19
279.115	809.19
279.347	796.19
279.579	825.19
279.81	819.19
280.042	842.19
280.273	846.19
280.505	837.19
280.736	832.19
280.968	821.19
281.199	833.19
281.431	857.19
281.662	840.19
281.894	863.19
282.125	871.19
282.356	872.19
282.588	860.19
282.819	851.19
283.051	849.19
283.282	881.19
283.513	872.19
283.745	856.19
283.976	894.19
284.207	883.19
284.439	905.19
284.67	890.19
284.901	902.19
285.132	909.19
285.364	917.19
285.595	897.19
285.826	891.19
286.057	924.19
286.288	898.19
286.52	917.19
286.751	895.19
286.982	950.19
287.213	944.19
287.444	964.19
287.675	940.19
287.906	922.19
288.138	944.19
288.369	971.19
288.6	949.19
288.831	973.19
289.062	955.19
289.293	934.19
289.524	937.19
289.755	973.19
289.986	985.19
290.217	978.19
290.448	964.19
290.679	955.19
290.91	955.19
291.141	948.19
291.371	968.19
291.602	978.19
291.833	946.19
292.064	957.19
292.295	953.19
292.526	941.19
292.757	968.19
292.987	965.19
293.218	920.19
293.449	965.19
293.68	984.19
293.91	982.19
294.141	984.19
294.372	974.19
294.603	985.19
294.833	973.19
295.064	1004.19
295.295	982.19
295.525	964.19
295.756	966.19
295.987	973.19
296.217	1003.19
296.448	1012.19
296.679	1008.19
296.909	1009.19
297.14	1012.19
297.37	1021.19
297.601	1003.19
297.831	1024.19
298.062	1017.19
298.292	1052.19
298.523	1061.19
298.753	1070.19
298.984	1034.19
299.214	1054.19
299.445	1044.19
299.675	1050.19
299.905	1077.19
300.136	1082.19
300.366	1063.19
300.597	1084.19
300.827	1089.19
301.057	1102.19
301.288	1109.19
301.518	1111.19
301.748	1105.19
301.979	1136.19
302.209	1097.19
302.439	1107.19
302.669	1109.19
302.9	1090.19
303.13	1115.19
303.36	1103.19
303.59	1085.19
303.82	1123.19
304.051	1125.19
304.281	1115.19
304.511	1096.19
304.741	1108.19
304.971	1146.19
305.201	1118.19
305.431	1127.19
305.661	1087.19
305.891	1066.19
306.121	1116.19
306.352	1088.19
306.582	1091.19
306.812	1110.19
307.042	1098.19
307.272	1071.19
307.502	1083.19
307.731	1108.19
307.961	1121.19
308.191	1081.19
308.421	1103.19
308.651	1076.19
308.881	1083.19
309.111	1116.19
309.341	1090.19
309.571	1146.19
309.8	1119.19
310.03	1100.19
310.26	1115.19
310.49	1076.19
310.72	1107.19
310.949	1122.19
311.179	1120.19
311.409	1110.19
311.639	1132.19
311.868	1106.19
312.098	1151.19
312.328	1145.19
312.557	1151.19
312.787	1149.19
313.017	1124.19
313.246	1152.19
313.476	1125.19
313.706	1177.19
313.935	1178.19
314.165	1220.19
314.394	1196.19
314.624	1188.19
314.853	1171.19
315.083	1188.19
315.312	1195.19
315.542	1162.19
315.771	1171.19
316.001	1184.19
316.23	1178.19
316.46	1181.19
316.689	1198.19
316.919	1160.19
317.148	1179.19
317.377	1172.19
317.607	1157.19
317.836	1142.19
318.065	1176.19
318.295	1168.19
318.524	1170.19
318.753	1193.19
318.983	1140.19
319.212	1162.19
319.441	1161.19
319.67	1160.19
319.9	1164.19
320.129	1155.19
320.358	1171.19
320.587	1158.19
320.816	1165.19
321.046	1161.19
321.275	1173.19
321.504	1172.19
321.733	1150.19
321.962	1176.19
322.191	1192.19
322.42	1196.19
322.649	1196.19
322.878	1181.19
323.108	1167.19
323.337	1227.19
323.566	1227.19
323.795	1226.19
324.024	1229.19
324.253	1193.19
324.482	1212.19
324.71	1257.19
324.939	1270.19
325.168	1264.19
325.397	1257.19
325.626	1255.19
325.855	1236.19
326.084	1259.19
326.313	1260.19
326.542	1261.19
326.77	1282.19
326.999	1239.19
327.228	1238.19
327.457	1281.19
327.686	1308.19
327.914	1273.19
328.143	1270.19
328.372	1280.19
328.6	1289.19
328.829	1280.19
329.058	1272.19
329.287	1311.19
329.515	1273.19
329.744	1308.19
329.972	1315.19
330.201	1320.19
330.43	1309.19
330.658	1288.19
330.887	1363.19
331.115	1354.19
331.344	1332.19
331.572	1333.19
331.801	1363.19
332.03	1396.19
332.258	1388.19
332.486	1457.19
332.715	1488.19
332.943	1512.19
333.172	1579.19
333.4	1613.19
333.629	1652.19
333.857	1659.19
334.085	1646.19
334.314	1629.19
334.542	1663.19
334.771	1620.19
334.999	1592.19
335.227	1581.19
335.455	1559.19
335.684	1602.19
335.912	1559.19
336.14	1550.19
336.369	1545.19
336.597	1550.19
336.825	1519.19
337.053	1509.19
337.281	1519.19
337.51	1484.19
337.738	1502.19
337.966	1451.19
338.194	1409.19
338.422	1449.19
338.65	1414.19
338.878	1394.19
339.106	1392.19
339.334	1385.19
339.562	1404.19
339.79	1357.19
340.018	1362.19
340.246	1331.19
340.474	1334.19
340.702	1333.19
340.93	1361.19
341.158	1347.19
341.386	1353.19
341.614	1347.19
341.842	1348.19
342.07	1341.19
342.298	1341.19
342.526	1336.19
342.754	1332.19
342.981	1350.19
343.209	1370.19
343.437	1409.19
343.665	1495.19
343.893	1577.19
344.12	1591.19
344.348	1568.19
344.576	1507.19
344.804	1454.19
345.031	1440.19
345.259	1404.19
345.487	1351.19
345.714	1357.19
345.942	1338.19
346.17	1302.19
346.397	1299.19
346.625	1271.19
346.853	1297.19
347.08	1280.19
347.308	1284.19
347.535	1318.19
347.763	1290.19
347.99	1293.19
348.218	1270.19
348.445	1267.19
348.673	1266.19
348.9	1278.19
349.128	1250.19
349.355	1246.19
349.583	1268.19
349.81	1253.19
350.037	1275.19
350.265	1248.19
350.492	1275.19
350.72	1240.19
350.947	1221.19
351.174	1259.19
351.402	1277.19
351.629	1253.19
351.856	1232.19
352.083	1232.19
352.311	1228.19
352.538	1238.19
352.765	1258.19
352.992	1237.19
353.22	1238.19
353.447	1280.19
353.674	1235.19
353.901	1248.19
354.128	1230.19
354.355	1218.19
354.583	1259.19
354.81	1253.19
355.037	1255.19
355.264	1281.19
355.491	1236.19
355.718	1253.19
355.945	1248.19
356.172	1231.19
356.399	1223.19
356.626	1248.19
356.853	1259.19
357.08	1234.19
357.307	1253.19
357.534	1264.19
357.761	1259.19
357.988	1284.19
358.215	1255.19
358.441	1235.19
358.668	1235.19
358.895	1244.19
359.122	1224.19
359.349	1249.19
359.576	1261.19
359.802	1292.19
360.029	1255.19
360.256	1244.19
360.483	1288.19
360.709	1232.19
360.936	1264.19
361.163	1243.19
361.39	1253.19
361.616	1242.19
361.843	1268.19
362.07	1243.19
362.296	1261.19
362.523	1236.19
362.749	1221.19
362.976	1263.19
363.203	1266.19
363.429	1242.19
363.656	1235.19
363.882	1227.19
364.109	1225.19
364.335	1257.19
364.562	1236.19
364.788	1224.19
365.015	1239.19
365.241	1224.19
365.468	1261.19
365.694	1265.19
365.92	1271.19
366.147	1242.19
366.373	1278.19
366.599	1238.19
366.826	1268.19
367.052	1214.19
367.278	1261.19
367.505	1249.19
367.731	1260.19
367.957	1270.19
368.184	1265.19
368.41	1271.19
368.636	1254.19
368.862	1278.19
369.089	1294.19
369.315	1299.19
369.541	1309.19
369.767	1265.19
369.993	1304.19
370.219	1268.19
370.445	1297.19
370.672	1321.19
370.898	1318.19
371.124	1325.19
371.35	1357.19
371.576	1352.19
371.802	1365.19
372.028	1356.19
372.254	1354.19
372.48	1355.19
372.706	1379.19
372.932	1405.19
373.158	1421.19
373.384	1382.19
373.61	1376.19
373.835	1384.19
374.061	1362.19
374.287	1393.19
374.513	1404.19
374.739	1433.19
374.965	1446.19
375.191	1498.19
375.416	1464.19
375.642	1436.19
375.868	1452.19
376.094	1418.19
376.319	1376.19
376.545	1384.19
376.771	1348.19
376.997	1341.19
377.222	1355.19
377.448	1344.19
377.674	1365.19
377.899	1344.19
378.125	1372.19
378.35	1360.19
378.576	1347.19
378.802	1344.19
379.027	1315.19
379.253	1380.19
379.478	1333.19
379.704	1333.19
379.929	1352.19
380.155	1336.19
380.38	1331.19
380.606	1340.19
380.831	1328.19
381.057	1322.19
381.282	1282.19
381.507	1338.19
381.733	1341.19
381.958	1348.19
382.184	1343.19
382.409	1360.19
382.634	1399.19
382.86	1388.19
383.085	1426.19
383.31	1426.19
383.535	1415.19
383.761	1472.19
383.986	1496.19
384.211	1491.19
384.436	1541.19
384.662	1526.19
384.887	1568.19
385.112	1611.19
385.337	1588.19
385.562	1586.19
385.787	1601.19
386.013	1634.19
386.238	1616.19
386.463	1626.19
386.688	1618.19
386.913	1605.19
387.138	1606.19
387.363	1620.19
387.588	1600.19
387.813	1595.19
388.038	1643.19
388.263	1610.19
388.488	1651.19
388.713	1602.19
388.938	1579.19
389.163	1553.19
389.387	1577.19
389.612	1563.19
389.837	1576.19
390.062	1590.19
390.287	1602.19
390.512	1612.19
390.736	1624.19
390.961	1636.19
391.186	1656.19
391.411	1682.19
391.636	1769.19
391.86	1749.19
392.085	1705.19
392.31	1783.19
392.534	1746.19
392.759	1764.19
392.984	1724.19
393.208	1715.19
393.433	1734.19
393.658	1782.19
393.882	1712.19
394.107	1678.19
394.331	1696.19
394.556	1742.19
394.78	1729.19
395.005	1748.19
395.229	1738.19
395.454	1780.19
395.678	1828.19
395.903	1799.19
396.127	1797.19
396.352	1789.19
396.576	1763.19
396.801	1746.19
397.025	1799.19
397.249	1825.19
397.474	1806.19
397.698	1781.19
397.922	1826.19
398.147	1805.19
398.371	1837.19
398.595	1928.19
398.82	1988.19
399.044	2133.19
399.268	2266.19
399.492	2515.19
399.717	2781.19
399.941	2797.19
400.165	2597.19
400.389	2388.19
400.613	2224.19
400.837	2140.19
401.062	2091.19
401.286	2014.19
401.51	2010.19
401.734	1962.19
401.958	2026.19
402.182	2012.19
402.406	2026.19
402.63	2032.19
402.854	2040.19
403.078	2079.19
403.302	2124.19
403.526	2127.19
403.75	2143.19
403.974	2211.19
404.198	2191.19
404.422	2187.19
404.645	2177.19
404.869	2136.19
405.093	2187.19
405.317	2140.19
405.541	2165.19
405.765	2149.19
405.988	2118.19
406.212	2157.19
406.436	2162.19
406.66	2203.19
406.883	2240.19
407.107	2360.19
407.331	2430.19
407.555	2526.19
407.778	2504.19
408.002	2422.19
408.226	2435.19
408.449	2411.19
408.673	2263.19
408.896	2264.19
409.12	2248.19
409.344	2234.19
409.567	2193.19
409.791	2202.19
410.014	2154.19
410.238	2196.19
410.461	2152.19
410.685	2176.19
410.908	2162.19
411.132	2104.19
411.355	2025.19
411.578	2075.19
411.802	2075.19
412.025	2059.19
412.249	2108.19
412.472	2072.19
412.695	2036.19
412.919	1986.19
413.142	2035.19
413.365	2026.19
413.589	2012.19
413.812	2005.19
414.035	1989.19
414.258	1946.19
414.482	1982.19
414.705	2032.19
414.928	2012.19
415.151	1962.19
415.374	1985.19
415.597	1930.19
415.821	1915.19
416.044	1907.19
416.267	1988.19
416.49	1915.19
416.713	1898.19
416.936	1882.19
417.159	1890.19
417.382	1887.19
417.605	1917.19
417.828	1898.19
418.051	1938.19
418.274	1962.19
418.497	1912.19
418.72	1981.19
418.943	1956.19
419.166	2075.19
419.389	2186.19
419.611	2144.19
419.834	2086.19
420.057	1994.19
420.28	1969.19
420.503	1901.19
420.726	1927.19
420.948	1934.19
421.171	1943.19
421.394	1909.19
421.617	1915.19
421.839	1940.19
422.062	1913.19
422.285	1892.19
422.507	1964.19
422.73	1956.19
422.953	1959.19
423.175	1991.19
423.398	1971.19
423.621	1965.19
423.843	1983.19
424.066	1963.19
424.288	1965.19
424.511	1948.19
424.733	1940.19
424.956	1915.19
425.178	1961.19
425.401	1972.19
425.623	1953.19
425.846	1878.19
426.068	1895.19
426.291	1849.19
426.513	1848.19
426.735	1818.19
426.958	1872.19
427.18	1828.19
427.402	1794.19
427.625	1812.19
427.847	1754.19
428.069	1754.19
428.292	1763.19
428.514	1748.19
428.736	1739.19
428.958	1705.19
429.181	1747.19
429.403	1690.19
429.625	1728.19
429.847	1690.19
430.069	1710.19
430.292	1705.19
430.514	1696.19
430.736	1736.19
430.958	1704.19
431.18	1729.19
431.402	1752.19
431.624	1734.19
431.846	1758.19
432.068	1764.19
432.29	1841.19
432.512	1751.19
432.734	1734.19
432.956	1760.19
433.178	1760.19
433.4	1738.19
433.622	1783.19
433.844	1806.19
434.066	1783.19
434.287	1798.19
434.509	1852.19
434.731	1920.19
434.953	1916.19
435.175	1921.19
435.397	1904.19
435.618	1832.19
435.84	1777.19
436.062	1772.19
436.284	1779.19
436.505	1743.19
436.727	1767.19
436.949	1786.19
437.17	1728.19
437.392	1710.19
437.614	1716.19
437.835	1692.19
438.057	1664.19
438.278	1686.19
438.5	1686.19
438.721	1715.19
438.943	1712.19
439.165	1688.19
439.386	1688.19
439.608	1717.19
439.829	1716.19
440.05	1705.19
440.272	1725.19
440.493	1742.19
440.715	1752.19
440.936	1776.19
441.158	1789.19
441.379	1784.19
441.6	1904.19
441.822	1906.19
442.043	1889.19
442.264	1898.19
442.486	1848.19
442.707	1851.19
442.928	1831.19
443.149	1920.19
443.371	1869.19
443.592	1858.19
443.813	1910.19
444.034	1926.19
444.255	2003.19
444.476	2025.19
444.698	2153.19
444.919	2172.19
445.14	2202.19
445.361	2076.19
445.582	1995.19
445.803	1889.19
446.024	1844.19
446.245	1777.19
446.466	1761.19
446.687	1757.19
446.908	1722.19
447.129	1650.19
447.35	1641.19
447.571	1690.19
447.792	1627.19
448.013	1639.19
448.234	1597.19
448.455	1572.19
448.675	1599.19
448.896	1588.19
449.117	1545.19
449.338	1532.19
449.559	1544.19
449.779	1561.19
450	1522.19
450.221	1557.19
450.442	1574.19
450.662	1542.19
450.883	1552.19
451.104	1581.19
451.324	1558.19
451.545	1540.19
451.766	1589.19
451.986	1578.19
452.207	1540.19
452.428	1546.19
452.648	1545.19
452.869	1532.19
453.089	1542.19
453.31	1544.19
453.53	1542.19
453.751	1512.19
453.971	1493.19
454.192	1523.19
454.412	1478.19
454.633	1506.19
454.853	1480.19
455.073	1449.19
455.294	1438.19
455.514	1460.19
455.734	1475.19
455.955	1424.19
456.175	1448.19
456.395	1431.19
456.616	1451.19
456.836	1506.19
457.056	1450.19
457.276	1440.19
457.497	1477.19
457.717	1493.19
457.937	1512.19
458.157	1531.19
458.377	1480.19
458.598	1555.19
458.818	1608.19
459.038	1643.19
459.258	1641.19
459.478	1724.19
459.698	1768.19
459.918	1797.19
460.138	1819.19
460.358	1900.19
460.578	1942.19
460.798	1978.19
461.018	2002.19
461.238	1953.19
461.458	1988.19
461.678	1944.19
461.898	1968.19
462.118	2022.19
462.338	2085.19
462.558	2106.19
462.777	2235.19
462.997	2331.19
463.217	2496.19
463.437	2443.19
463.657	2347.19
463.876	2234.19
464.096	2298.19
464.316	2212.19
464.536	2283.19
464.755	2188.19
464.975	2125.19
465.195	2017.19
465.414	1920.19
465.634	1846.19
465.854	1785.19
466.073	1774.19
466.293	1705.19
466.512	1677.19
466.732	1688.19
466.951	1684.19
467.171	1661.19
467.391	1660.19
467.61	1602.19
467.829	1610.19
468.049	1646.19
468.268	1595.19
468.488	1635.19
468.707	1588.19
468.927	1606.19
469.146	1571.19
469.365	1618.19
469.585	1616.19
469.804	1678.19
470.023	1673.19
470.243	1656.19
470.462	1648.19
470.681	1670.19
470.901	1686.19
471.12	1662.19
471.339	1645.19
471.558	1634.19
471.777	1641.19
471.997	1603.19
472.216	1621.19
472.435	1622.19
472.654	1560.19
472.873	1536.19
473.092	1561.19
473.311	1562.19
473.53	1554.19
473.749	1545.19
473.968	1535.19
474.187	1555.19
474.406	1566.19
474.625	1617.19
474.844	1578.19
475.063	1556.19
475.282	1570.19
475.501	1600.19
475.72	1636.19
475.939	1622.19
476.158	1637.19
476.377	1657.19
476.596	1686.19
476.814	1661.19
477.033	1676.19
477.252	1704.19
477.471	1716.19
477.69	1801.19
477.908	1820.19
478.127	1852.19
478.346	1809.19
478.564	1880.19
478.783	1896.19
479.002	1956.19
479.22	1961.19
479.439	1959.19
479.658	1949.19
479.876	1963.19
480.095	1983.19
480.313	2110.19
480.532	2121.19
480.751	2088.19
480.969	2045.19
481.188	1995.19
481.406	1959.19
481.624	1927.19
481.843	1924.19
482.061	1881.19
482.28	1911.19
482.498	1870.19
482.717	1853.19
482.935	1900.19
483.153	1934.19
483.372	1858.19
483.59	1911.19
483.808	1926.19
484.027	1938.19
484.245	1930.19
484.463	1974.19
484.681	1941.19
484.9	1966.19
485.118	2003.19
485.336	1993.19
485.554	2020.19
485.772	2013.19
485.99	2022.19
486.209	2032.19
486.427	2020.19
486.645	2010.19
486.863	2034.19
487.081	1979.19
487.299	2011.19
487.517	1985.19
487.735	1999.19
487.953	1973.19
488.171	1992.19
488.389	1965.19
488.607	1935.19
488.825	1944.19
489.043	1940.19
489.261	1975.19
489.479	1967.19
489.696	1956.19
