Data from NiCl2@0.0625M.TitratingCurve.Agarose3%dH2O.NegLispCup.LampEnergy10.LIBS07252019_HRD10591_18-32-23-594.txt Node
Date: Thu Jul 25 18:32:23 EDT 2019
User: cochatt
Spectrometer: HR+D1059
Trigger mode: 1
Integration Time (sec): 1.000000E-1
Scans to average: 1
Electric dark correction enabled: true
Nonlinearity correction enabled: false
Boxcar width: 0
XAxis mode: Wavelengths
Number of Pixels in Spectrum: 2048
>>>>>Begin Spectral Data<<<<<
223.165	-15.94
223.4	-15.94
223.635	-15.94
223.869	-16.94
224.104	-20.94
224.338	-8.94
224.573	-16.94
224.808	-7.94
225.042	-6.94
225.277	3.06
225.511	0.06
225.746	-5.94
225.98	-2.94
226.215	6.06
226.449	7.06
226.683	20.06
226.918	26.06
227.152	41.06
227.387	40.06
227.621	45.06
227.856	48.06
228.09	48.06
228.324	49.06
228.559	59.06
228.793	80.06
229.027	170.06
229.262	165.06
229.496	175.06
229.73	192.06
229.964	198.06
230.199	189.06
230.433	198.06
230.667	208.06
230.901	211.06
231.136	205.06
231.37	199.06
231.604	226.06
231.838	219.06
232.072	227.06
232.306	213.06
232.541	214.06
232.775	198.06
233.009	234.06
233.243	231.06
233.477	231.06
233.711	226.06
233.945	213.06
234.179	238.06
234.413	227.06
234.647	229.06
234.881	234.06
235.115	240.06
235.349	245.06
235.583	234.06
235.817	250.06
236.051	226.06
236.285	244.06
236.519	244.06
236.753	235.06
236.987	262.06
237.221	257.06
237.455	260.06
237.689	260.06
237.922	269.06
238.156	272.06
238.39	286.06
238.624	280.06
238.858	296.06
239.091	273.06
239.325	301.06
239.559	280.06
239.793	288.06
240.027	309.06
240.26	283.06
240.494	312.06
240.728	319.06
240.961	306.06
241.195	314.06
241.429	309.06
241.662	311.06
241.896	321.06
242.13	329.06
242.363	335.06
242.597	331.06
242.83	319.06
243.064	329.06
243.298	357.06
243.531	353.06
243.765	348.06
243.998	352.06
244.232	335.06
244.465	343.06
244.699	359.06
244.932	378.06
245.166	359.06
245.399	364.06
245.633	374.06
245.866	391.06
246.099	402.06
246.333	374.06
246.566	375.06
246.8	372.06
247.033	388.06
247.266	374.06
247.5	378.06
247.733	412.06
247.966	409.06
248.2	429.06
248.433	427.06
248.666	393.06
248.899	406.06
249.133	418.06
249.366	453.06
249.599	430.06
249.832	410.06
250.066	444.06
250.299	440.06
250.532	423.06
250.765	470.06
250.998	455.06
251.231	455.06
251.465	438.06
251.698	445.06
251.931	461.06
252.164	465.06
252.397	464.06
252.63	482.06
252.863	486.06
253.096	503.06
253.329	478.06
253.562	488.06
253.795	466.06
254.028	503.06
254.261	488.06
254.494	503.06
254.727	481.06
254.96	505.06
255.193	516.06
255.426	487.06
255.659	489.06
255.892	517.06
256.124	531.06
256.357	544.06
256.59	529.06
256.823	509.06
257.056	504.06
257.289	523.06
257.521	525.06
257.754	521.06
257.987	545.06
258.22	527.06
258.452	541.06
258.685	548.06
258.918	552.06
259.151	551.06
259.383	531.06
259.616	553.06
259.849	538.06
260.081	570.06
260.314	556.06
260.547	569.06
260.779	568.06
261.012	560.06
261.244	604.06
261.477	593.06
261.71	572.06
261.942	585.06
262.175	603.06
262.407	596.06
262.64	572.06
262.872	606.06
263.105	591.06
263.337	597.06
263.57	596.06
263.802	604.06
264.035	602.06
264.267	632.06
264.499	616.06
264.732	606.06
264.964	598.06
265.197	637.06
265.429	623.06
265.661	642.06
265.894	642.06
266.126	647.06
266.358	634.06
266.591	642.06
266.823	652.06
267.055	671.06
267.287	649.06
267.52	657.06
267.752	677.06
267.984	695.06
268.216	668.06
268.448	651.06
268.681	684.06
268.913	662.06
269.145	692.06
269.377	678.06
269.609	696.06
269.841	678.06
270.073	677.06
270.306	685.06
270.538	677.06
270.77	674.06
271.002	688.06
271.234	718.06
271.466	711.06
271.698	727.06
271.93	718.06
272.162	694.06
272.394	736.06
272.626	740.06
272.858	726.06
273.09	725.06
273.322	722.06
273.553	742.06
273.785	740.06
274.017	748.06
274.249	751.06
274.481	736.06
274.713	750.06
274.945	745.06
275.176	780.06
275.408	776.06
275.64	782.06
275.872	762.06
276.104	764.06
276.335	776.06
276.567	765.06
276.799	811.06
277.031	772.06
277.262	780.06
277.494	784.06
277.726	798.06
277.957	808.06
278.189	773.06
278.421	819.06
278.652	792.06
278.884	774.06
279.115	806.06
279.347	803.06
279.579	797.06
279.81	809.06
280.042	801.06
280.273	808.06
280.505	822.06
280.736	847.06
280.968	829.06
281.199	863.06
281.431	826.06
281.662	852.06
281.894	840.06
282.125	851.06
282.356	852.06
282.588	879.06
282.819	868.06
283.051	849.06
283.282	862.06
283.513	879.06
283.745	914.06
283.976	881.06
284.207	884.06
284.439	920.06
284.67	894.06
284.901	884.06
285.132	911.06
285.364	907.06
285.595	914.06
285.826	907.06
286.057	921.06
286.288	915.06
286.52	942.06
286.751	915.06
286.982	939.06
287.213	940.06
287.444	918.06
287.675	913.06
287.906	909.06
288.138	942.06
288.369	939.06
288.6	958.06
288.831	924.06
289.062	952.06
289.293	959.06
289.524	938.06
289.755	941.06
289.986	957.06
290.217	945.06
290.448	941.06
290.679	968.06
290.91	977.06
291.141	948.06
291.371	948.06
291.602	944.06
291.833	969.06
292.064	945.06
292.295	969.06
292.526	987.06
292.757	984.06
292.987	959.06
293.218	982.06
293.449	964.06
293.68	963.06
293.91	965.06
294.141	966.06
294.372	978.06
294.603	959.06
294.833	974.06
295.064	969.06
295.295	1003.06
295.525	960.06
295.756	962.06
295.987	972.06
296.217	1010.06
296.448	1005.06
296.679	1013.06
296.909	1016.06
297.14	989.06
297.37	1015.06
297.601	1028.06
297.831	1071.06
298.062	1048.06
298.292	1057.06
298.523	1053.06
298.753	1061.06
298.984	1037.06
299.214	1046.06
299.445	1040.06
299.675	1050.06
299.905	1049.06
300.136	1063.06
300.366	1065.06
300.597	1098.06
300.827	1077.06
301.057	1079.06
301.288	1077.06
301.518	1099.06
301.748	1151.06
301.979	1130.06
302.209	1115.06
302.439	1146.06
302.669	1130.06
302.9	1096.06
303.13	1090.06
303.36	1130.06
303.59	1105.06
303.82	1114.06
304.051	1127.06
304.281	1102.06
304.511	1109.06
304.741	1112.06
304.971	1083.06
305.201	1104.06
305.431	1101.06
305.661	1101.06
305.891	1104.06
306.121	1101.06
306.352	1106.06
306.582	1113.06
306.812	1096.06
307.042	1070.06
307.272	1095.06
307.502	1063.06
307.731	1046.06
307.961	1080.06
308.191	1104.06
308.421	1086.06
308.651	1097.06
308.881	1080.06
309.111	1077.06
309.341	1096.06
309.571	1069.06
309.8	1085.06
310.03	1108.06
310.26	1099.06
310.49	1121.06
310.72	1140.06
310.949	1089.06
311.179	1112.06
311.409	1137.06
311.639	1131.06
311.868	1122.06
312.098	1130.06
312.328	1148.06
312.557	1150.06
312.787	1171.06
313.017	1166.06
313.246	1166.06
313.476	1149.06
313.706	1188.06
313.935	1166.06
314.165	1175.06
314.394	1167.06
314.624	1149.06
314.853	1167.06
315.083	1193.06
315.312	1197.06
315.542	1204.06
315.771	1158.06
316.001	1169.06
316.23	1158.06
316.46	1193.06
316.689	1156.06
316.919	1142.06
317.148	1173.06
317.377	1151.06
317.607	1169.06
317.836	1184.06
318.065	1179.06
318.295	1180.06
318.524	1177.06
318.753	1182.06
318.983	1149.06
319.212	1145.06
319.441	1144.06
319.67	1176.06
319.9	1154.06
320.129	1160.06
320.358	1191.06
320.587	1190.06
320.816	1155.06
321.046	1169.06
321.275	1192.06
321.504	1186.06
321.733	1185.06
321.962	1176.06
322.191	1194.06
322.42	1190.06
322.649	1182.06
322.878	1187.06
323.108	1169.06
323.337	1164.06
323.566	1185.06
323.795	1214.06
324.024	1215.06
324.253	1206.06
324.482	1214.06
324.71	1235.06
324.939	1182.06
325.168	1188.06
325.397	1236.06
325.626	1243.06
325.855	1269.06
326.084	1240.06
326.313	1248.06
326.542	1287.06
326.77	1319.06
326.999	1265.06
327.228	1277.06
327.457	1270.06
327.686	1254.06
327.914	1274.06
328.143	1280.06
328.372	1296.06
328.6	1280.06
328.829	1285.06
329.058	1284.06
329.287	1271.06
329.515	1303.06
329.744	1322.06
329.972	1349.06
330.201	1316.06
330.43	1302.06
330.658	1332.06
330.887	1348.06
331.115	1311.06
331.344	1337.06
331.572	1361.06
331.801	1405.06
332.03	1423.06
332.258	1413.06
332.486	1429.06
332.715	1478.06
332.943	1505.06
333.172	1540.06
333.4	1584.06
333.629	1624.06
333.857	1666.06
334.085	1673.06
334.314	1614.06
334.542	1598.06
334.771	1625.06
334.999	1591.06
335.227	1569.06
335.455	1548.06
335.684	1593.06
335.912	1559.06
336.14	1526.06
336.369	1514.06
336.597	1532.06
336.825	1518.06
337.053	1532.06
337.281	1524.06
337.51	1490.06
337.738	1427.06
337.966	1416.06
338.194	1447.06
338.422	1433.06
338.65	1413.06
338.878	1433.06
339.106	1401.06
339.334	1408.06
339.562	1401.06
339.79	1356.06
340.018	1380.06
340.246	1367.06
340.474	1330.06
340.702	1336.06
340.93	1364.06
341.158	1358.06
341.386	1343.06
341.614	1381.06
341.842	1328.06
342.07	1324.06
342.298	1330.06
342.526	1311.06
342.754	1345.06
342.981	1324.06
343.209	1356.06
343.437	1418.06
343.665	1478.06
343.893	1521.06
344.12	1586.06
344.348	1562.06
344.576	1484.06
344.804	1468.06
345.031	1378.06
345.259	1372.06
345.487	1357.06
345.714	1351.06
345.942	1342.06
346.17	1337.06
346.397	1292.06
346.625	1299.06
346.853	1281.06
347.08	1258.06
347.308	1291.06
347.535	1286.06
347.763	1288.06
347.99	1298.06
348.218	1287.06
348.445	1258.06
348.673	1271.06
348.9	1282.06
349.128	1288.06
349.355	1262.06
349.583	1259.06
349.81	1258.06
350.037	1244.06
350.265	1233.06
350.492	1231.06
350.72	1242.06
350.947	1263.06
351.174	1235.06
351.402	1281.06
351.629	1244.06
351.856	1242.06
352.083	1229.06
352.311	1230.06
352.538	1280.06
352.765	1246.06
352.992	1219.06
353.22	1222.06
353.447	1231.06
353.674	1208.06
353.901	1231.06
354.128	1204.06
354.355	1257.06
354.583	1251.06
354.81	1240.06
355.037	1240.06
355.264	1239.06
355.491	1235.06
355.718	1233.06
355.945	1244.06
356.172	1217.06
356.399	1250.06
356.626	1227.06
356.853	1218.06
357.08	1229.06
357.307	1248.06
357.534	1269.06
357.761	1236.06
357.988	1257.06
358.215	1232.06
358.441	1266.06
358.668	1208.06
358.895	1224.06
359.122	1230.06
359.349	1248.06
359.576	1236.06
359.802	1242.06
360.029	1249.06
360.256	1240.06
360.483	1258.06
360.709	1256.06
360.936	1239.06
361.163	1233.06
361.39	1242.06
361.616	1247.06
361.843	1260.06
362.07	1246.06
362.296	1255.06
362.523	1247.06
362.749	1280.06
362.976	1247.06
363.203	1242.06
363.429	1197.06
363.656	1254.06
363.882	1237.06
364.109	1266.06
364.335	1261.06
364.562	1223.06
364.788	1226.06
365.015	1246.06
365.241	1228.06
365.468	1231.06
365.694	1224.06
365.92	1241.06
366.147	1229.06
366.373	1229.06
366.599	1284.06
366.826	1224.06
367.052	1188.06
367.278	1272.06
367.505	1275.06
367.731	1232.06
367.957	1253.06
368.184	1269.06
368.41	1258.06
368.636	1244.06
368.862	1270.06
369.089	1252.06
369.315	1277.06
369.541	1275.06
369.767	1237.06
369.993	1272.06
370.219	1292.06
370.445	1219.06
370.672	1305.06
370.898	1310.06
371.124	1316.06
371.35	1351.06
371.576	1355.06
371.802	1339.06
372.028	1346.06
372.254	1352.06
372.48	1397.06
372.706	1385.06
372.932	1389.06
373.158	1414.06
373.384	1392.06
373.61	1364.06
373.835	1366.06
374.061	1356.06
374.287	1366.06
374.513	1398.06
374.739	1430.06
374.965	1416.06
375.191	1474.06
375.416	1474.06
375.642	1465.06
375.868	1411.06
376.094	1364.06
376.319	1370.06
376.545	1381.06
376.771	1378.06
376.997	1348.06
377.222	1357.06
377.448	1354.06
377.674	1374.06
377.899	1332.06
378.125	1370.06
378.35	1340.06
378.576	1325.06
378.802	1322.06
379.027	1308.06
379.253	1343.06
379.478	1288.06
379.704	1323.06
379.929	1318.06
380.155	1330.06
380.38	1306.06
380.606	1325.06
380.831	1337.06
381.057	1339.06
381.282	1328.06
381.507	1324.06
381.733	1341.06
381.958	1362.06
382.184	1384.06
382.409	1394.06
382.634	1435.06
382.86	1412.06
383.085	1387.06
383.31	1456.06
383.535	1434.06
383.761	1461.06
383.986	1480.06
384.211	1476.06
384.436	1527.06
384.662	1524.06
384.887	1569.06
385.112	1552.06
385.337	1569.06
385.562	1565.06
385.787	1616.06
386.013	1590.06
386.238	1635.06
386.463	1654.06
386.688	1631.06
386.913	1597.06
387.138	1607.06
387.363	1615.06
387.588	1592.06
387.813	1580.06
388.038	1577.06
388.263	1581.06
388.488	1635.06
388.713	1627.06
388.938	1563.06
389.163	1589.06
389.387	1575.06
389.612	1563.06
389.837	1570.06
390.062	1583.06
390.287	1593.06
390.512	1611.06
390.736	1571.06
390.961	1609.06
391.186	1672.06
391.411	1661.06
391.636	1750.06
391.86	1742.06
392.085	1794.06
392.31	1752.06
392.534	1750.06
392.759	1711.06
392.984	1686.06
393.208	1693.06
393.433	1690.06
393.658	1721.06
393.882	1707.06
394.107	1663.06
394.331	1672.06
394.556	1681.06
394.78	1692.06
395.005	1686.06
395.229	1725.06
395.454	1734.06
395.678	1790.06
395.903	1776.06
396.127	1720.06
396.352	1745.06
396.576	1681.06
396.801	1685.06
397.025	1737.06
397.249	1798.06
397.474	1760.06
397.698	1807.06
397.922	1837.06
398.147	1799.06
398.371	1869.06
398.595	1921.06
398.82	1999.06
399.044	2121.06
399.268	2278.06
399.492	2516.06
399.717	2690.06
399.941	2754.06
400.165	2511.06
400.389	2374.06
400.613	2188.06
400.837	2128.06
401.062	2071.06
401.286	2002.06
401.51	2005.06
401.734	2013.06
401.958	2015.06
402.182	2021.06
402.406	2014.06
402.63	2016.06
402.854	2042.06
403.078	2078.06
403.302	2100.06
403.526	2114.06
403.75	2134.06
403.974	2187.06
404.198	2206.06
404.422	2199.06
404.645	2179.06
404.869	2124.06
405.093	2178.06
405.317	2151.06
405.541	2136.06
405.765	2136.06
405.988	2142.06
406.212	2180.06
406.436	2184.06
406.66	2221.06
406.883	2196.06
407.107	2337.06
407.331	2429.06
407.555	2444.06
407.778	2445.06
408.002	2389.06
408.226	2406.06
408.449	2345.06
408.673	2273.06
408.896	2261.06
409.12	2233.06
409.344	2211.06
409.567	2185.06
409.791	2181.06
410.014	2169.06
410.238	2152.06
410.461	2165.06
410.685	2104.06
410.908	2103.06
411.132	2077.06
411.355	2074.06
411.578	2038.06
411.802	2028.06
412.025	2086.06
412.249	2100.06
412.472	2100.06
412.695	2063.06
412.919	2026.06
413.142	2014.06
413.365	1974.06
413.589	1998.06
413.812	1930.06
414.035	1932.06
414.258	1963.06
414.482	1972.06
414.705	1964.06
414.928	1995.06
415.151	1965.06
415.374	1945.06
415.597	1935.06
415.821	1916.06
416.044	1900.06
416.267	1911.06
416.49	1914.06
416.713	1915.06
416.936	1936.06
417.159	1935.06
417.382	1909.06
417.605	1904.06
417.828	1894.06
418.051	1948.06
418.274	1903.06
418.497	1902.06
418.72	1924.06
418.943	1935.06
419.166	2020.06
419.389	2239.06
419.611	2150.06
419.834	2046.06
420.057	2022.06
420.28	1945.06
420.503	1920.06
420.726	1907.06
420.948	1921.06
421.171	1885.06
421.394	1912.06
421.617	1911.06
421.839	1864.06
422.062	1908.06
422.285	1883.06
422.507	1917.06
422.73	1932.06
422.953	1919.06
423.175	1963.06
423.398	1966.06
423.621	1946.06
423.843	1962.06
424.066	1979.06
424.288	1969.06
424.511	1917.06
424.733	1941.06
424.956	1927.06
425.178	1954.06
425.401	1897.06
425.623	1916.06
425.846	1861.06
426.068	1829.06
426.291	1833.06
426.513	1816.06
426.735	1802.06
426.958	1821.06
427.18	1766.06
427.402	1796.06
427.625	1781.06
427.847	1755.06
428.069	1753.06
428.292	1787.06
428.514	1719.06
428.736	1728.06
428.958	1751.06
429.181	1721.06
429.403	1736.06
429.625	1702.06
429.847	1740.06
430.069	1685.06
430.292	1737.06
430.514	1685.06
430.736	1756.06
430.958	1743.06
431.18	1720.06
431.402	1715.06
431.624	1761.06
431.846	1701.06
432.068	1766.06
432.29	1785.06
432.512	1720.06
432.734	1737.06
432.956	1769.06
433.178	1747.06
433.4	1730.06
433.622	1775.06
433.844	1768.06
434.066	1833.06
434.287	1767.06
434.509	1862.06
434.731	1883.06
434.953	1942.06
435.175	1929.06
435.397	1884.06
435.618	1833.06
435.84	1790.06
436.062	1758.06
436.284	1736.06
436.505	1741.06
436.727	1752.06
436.949	1726.06
437.17	1747.06
437.392	1726.06
437.614	1700.06
437.835	1638.06
438.057	1697.06
438.278	1668.06
438.5	1626.06
438.721	1620.06
438.943	1683.06
439.165	1640.06
439.386	1680.06
439.608	1712.06
439.829	1741.06
440.05	1690.06
440.272	1707.06
440.493	1691.06
440.715	1738.06
440.936	1753.06
441.158	1798.06
441.379	1813.06
441.6	1843.06
441.822	1918.06
442.043	1906.06
442.264	1883.06
442.486	1850.06
442.707	1852.06
442.928	1849.06
443.149	1882.06
443.371	1833.06
443.592	1881.06
443.813	1913.06
444.034	1863.06
444.255	1924.06
444.476	2028.06
444.698	2083.06
444.919	2142.06
445.14	2161.06
445.361	2024.06
445.582	1942.06
445.803	1885.06
446.024	1814.06
446.245	1784.06
446.466	1758.06
446.687	1682.06
446.908	1733.06
447.129	1701.06
447.35	1661.06
447.571	1650.06
447.792	1627.06
448.013	1616.06
448.234	1592.06
448.455	1586.06
448.675	1573.06
448.896	1597.06
449.117	1540.06
449.338	1536.06
449.559	1558.06
449.779	1544.06
450	1529.06
450.221	1545.06
450.442	1535.06
450.662	1521.06
450.883	1524.06
451.104	1591.06
451.324	1551.06
451.545	1588.06
451.766	1566.06
451.986	1529.06
452.207	1530.06
452.428	1563.06
452.648	1517.06
452.869	1490.06
453.089	1497.06
453.31	1537.06
453.53	1516.06
453.751	1487.06
453.971	1464.06
454.192	1495.06
454.412	1485.06
454.633	1478.06
454.853	1470.06
455.073	1457.06
455.294	1483.06
455.514	1474.06
455.734	1436.06
455.955	1464.06
456.175	1422.06
456.395	1428.06
456.616	1421.06
456.836	1450.06
457.056	1489.06
457.276	1445.06
457.497	1473.06
457.717	1478.06
457.937	1507.06
458.157	1512.06
458.377	1507.06
458.598	1590.06
458.818	1578.06
459.038	1629.06
459.258	1677.06
459.478	1732.06
459.698	1800.06
459.918	1799.06
460.138	1841.06
460.358	1928.06
460.578	1922.06
460.798	1948.06
461.018	2013.06
461.238	1993.06
461.458	1950.06
461.678	1963.06
461.898	1984.06
462.118	2024.06
462.338	2074.06
462.558	2143.06
462.777	2224.06
462.997	2374.06
463.217	2466.06
463.437	2476.06
463.657	2362.06
463.876	2276.06
464.096	2255.06
464.316	2223.06
464.536	2231.06
464.755	2155.06
464.975	2135.06
465.195	2038.06
465.414	1912.06
465.634	1809.06
465.854	1745.06
466.073	1732.06
466.293	1716.06
466.512	1662.06
466.732	1663.06
466.951	1632.06
467.171	1623.06
467.391	1652.06
467.61	1620.06
467.829	1633.06
468.049	1609.06
468.268	1605.06
468.488	1591.06
468.707	1548.06
468.927	1560.06
469.146	1609.06
469.365	1612.06
469.585	1607.06
469.804	1627.06
470.023	1653.06
470.243	1676.06
470.462	1668.06
470.681	1689.06
470.901	1704.06
471.12	1662.06
471.339	1640.06
471.558	1599.06
471.777	1622.06
471.997	1581.06
472.216	1559.06
472.435	1617.06
472.654	1574.06
472.873	1530.06
473.092	1590.06
473.311	1569.06
473.53	1588.06
473.749	1534.06
473.968	1580.06
474.187	1588.06
474.406	1529.06
474.625	1556.06
474.844	1580.06
475.063	1606.06
475.282	1565.06
475.501	1622.06
475.72	1593.06
475.939	1629.06
476.158	1655.06
476.377	1651.06
476.596	1647.06
476.814	1686.06
477.033	1688.06
477.252	1735.06
477.471	1701.06
477.69	1782.06
477.908	1834.06
478.127	1842.06
478.346	1840.06
478.564	1882.06
478.783	1892.06
479.002	1984.06
479.22	1946.06
479.439	1938.06
479.658	1945.06
479.876	1956.06
480.095	1976.06
480.313	2020.06
480.532	2119.06
480.751	2078.06
480.969	2066.06
481.188	1986.06
481.406	1924.06
481.624	1950.06
481.843	1898.06
482.061	1870.06
482.28	1882.06
482.498	1870.06
482.717	1894.06
482.935	1911.06
483.153	1858.06
483.372	1852.06
483.59	1910.06
483.808	1938.06
484.027	1901.06
484.245	1915.06
484.463	1989.06
484.681	1992.06
484.9	1989.06
485.118	1996.06
485.336	1982.06
485.554	2035.06
485.772	1997.06
485.99	2018.06
486.209	2018.06
486.427	2014.06
486.645	2015.06
486.863	2048.06
487.081	1976.06
487.299	1984.06
487.517	2013.06
487.735	2010.06
487.953	1995.06
488.171	1979.06
488.389	1965.06
488.607	1967.06
488.825	1925.06
489.043	1910.06
489.261	1936.06
489.479	1900.06
489.696	1957.06
