Data from NiCl2@0.5M.TitratingCurve.Agarose3%dH2O.NegLispCup.LampEnergy10.LIBS07252019_HRD10591_18-21-02-572.txt Node
Date: Thu Jul 25 18:21:02 EDT 2019
User: cochatt
Spectrometer: HR+D1059
Trigger mode: 1
Integration Time (sec): 1.000000E-1
Scans to average: 1
Electric dark correction enabled: true
Nonlinearity correction enabled: false
Boxcar width: 0
XAxis mode: Wavelengths
Number of Pixels in Spectrum: 2048
>>>>>Begin Spectral Data<<<<<
223.165	-9.38
223.4	-9.38
223.635	-9.38
223.869	-21.38
224.104	-23.38
224.338	-9.38
224.573	-15.38
224.808	-22.38
225.042	-17.38
225.277	4.62
225.511	6.62
225.746	5.62
225.98	12.62
226.215	7.62
226.449	12.62
226.683	13.62
226.918	34.62
227.152	20.62
227.387	46.62
227.621	43.62
227.856	53.62
228.09	49.62
228.324	42.62
228.559	42.62
228.793	67.62
229.027	87.62
229.262	96.62
229.496	97.62
229.73	103.62
229.964	114.62
230.199	120.62
230.433	131.62
230.667	116.62
230.901	106.62
231.136	120.62
231.37	124.62
231.604	133.62
231.838	126.62
232.072	132.62
232.306	126.62
232.541	132.62
232.775	122.62
233.009	117.62
233.243	131.62
233.477	124.62
233.711	130.62
233.945	140.62
234.179	132.62
234.413	124.62
234.647	128.62
234.881	132.62
235.115	132.62
235.349	137.62
235.583	125.62
235.817	132.62
236.051	120.62
236.285	132.62
236.519	134.62
236.753	149.62
236.987	134.62
237.221	154.62
237.455	132.62
237.689	120.62
237.922	130.62
238.156	145.62
238.39	149.62
238.624	151.62
238.858	143.62
239.091	160.62
239.325	143.62
239.559	154.62
239.793	149.62
240.027	144.62
240.26	131.62
240.494	146.62
240.728	152.62
240.961	134.62
241.195	147.62
241.429	151.62
241.662	150.62
241.896	157.62
242.13	157.62
242.363	162.62
242.597	162.62
242.83	167.62
243.064	164.62
243.298	156.62
243.531	168.62
243.765	169.62
243.998	174.62
244.232	177.62
244.465	172.62
244.699	168.62
244.932	202.62
245.166	177.62
245.399	187.62
245.633	182.62
245.866	180.62
246.099	181.62
246.333	193.62
246.566	188.62
246.8	192.62
247.033	182.62
247.266	151.62
247.5	183.62
247.733	192.62
247.966	192.62
248.2	188.62
248.433	185.62
248.666	211.62
248.899	192.62
249.133	201.62
249.366	208.62
249.599	208.62
249.832	187.62
250.066	221.62
250.299	209.62
250.532	193.62
250.765	182.62
250.998	184.62
251.231	186.62
251.465	194.62
251.698	219.62
251.931	211.62
252.164	219.62
252.397	201.62
252.63	222.62
252.863	216.62
253.096	230.62
253.329	216.62
253.562	220.62
253.795	214.62
254.028	225.62
254.261	232.62
254.494	228.62
254.727	222.62
254.96	237.62
255.193	221.62
255.426	219.62
255.659	208.62
255.892	221.62
256.124	220.62
256.357	233.62
256.59	223.62
256.823	231.62
257.056	225.62
257.289	234.62
257.521	234.62
257.754	244.62
257.987	238.62
258.22	228.62
258.452	222.62
258.685	237.62
258.918	242.62
259.151	236.62
259.383	230.62
259.616	261.62
259.849	242.62
260.081	248.62
260.314	234.62
260.547	243.62
260.779	245.62
261.012	249.62
261.244	237.62
261.477	248.62
261.71	241.62
261.942	248.62
262.175	252.62
262.407	268.62
262.64	261.62
262.872	281.62
263.105	252.62
263.337	262.62
263.57	264.62
263.802	260.62
264.035	266.62
264.267	271.62
264.499	280.62
264.732	279.62
264.964	286.62
265.197	276.62
265.429	265.62
265.661	277.62
265.894	289.62
266.126	280.62
266.358	276.62
266.591	269.62
266.823	289.62
267.055	305.62
267.287	287.62
267.52	282.62
267.752	263.62
267.984	285.62
268.216	285.62
268.448	293.62
268.681	286.62
268.913	287.62
269.145	280.62
269.377	288.62
269.609	291.62
269.841	283.62
270.073	295.62
270.306	289.62
270.538	285.62
270.77	296.62
271.002	308.62
271.234	293.62
271.466	301.62
271.698	297.62
271.93	313.62
272.162	309.62
272.394	284.62
272.626	294.62
272.858	312.62
273.09	318.62
273.322	321.62
273.553	318.62
273.785	325.62
274.017	305.62
274.249	303.62
274.481	320.62
274.713	314.62
274.945	313.62
275.176	323.62
275.408	301.62
275.64	327.62
275.872	298.62
276.104	318.62
276.335	325.62
276.567	327.62
276.799	324.62
277.031	337.62
277.262	340.62
277.494	334.62
277.726	348.62
277.957	340.62
278.189	321.62
278.421	333.62
278.652	341.62
278.884	338.62
279.115	339.62
279.347	330.62
279.579	324.62
279.81	330.62
280.042	336.62
280.273	330.62
280.505	336.62
280.736	346.62
280.968	347.62
281.199	335.62
281.431	332.62
281.662	366.62
281.894	377.62
282.125	354.62
282.356	335.62
282.588	341.62
282.819	380.62
283.051	364.62
283.282	372.62
283.513	374.62
283.745	361.62
283.976	357.62
284.207	351.62
284.439	349.62
284.67	369.62
284.901	362.62
285.132	358.62
285.364	365.62
285.595	358.62
285.826	395.62
286.057	386.62
286.288	374.62
286.52	376.62
286.751	374.62
286.982	381.62
287.213	381.62
287.444	401.62
287.675	397.62
287.906	380.62
288.138	385.62
288.369	380.62
288.6	386.62
288.831	386.62
289.062	397.62
289.293	376.62
289.524	392.62
289.755	385.62
289.986	397.62
290.217	381.62
290.448	393.62
290.679	402.62
290.91	394.62
291.141	405.62
291.371	406.62
291.602	404.62
291.833	404.62
292.064	395.62
292.295	417.62
292.526	421.62
292.757	416.62
292.987	390.62
293.218	388.62
293.449	405.62
293.68	400.62
293.91	436.62
294.141	414.62
294.372	405.62
294.603	402.62
294.833	396.62
295.064	413.62
295.295	420.62
295.525	404.62
295.756	423.62
295.987	404.62
296.217	421.62
296.448	422.62
296.679	426.62
296.909	417.62
297.14	411.62
297.37	426.62
297.601	434.62
297.831	423.62
298.062	427.62
298.292	424.62
298.523	446.62
298.753	460.62
298.984	446.62
299.214	445.62
299.445	431.62
299.675	436.62
299.905	445.62
300.136	449.62
300.366	458.62
300.597	468.62
300.827	446.62
301.057	465.62
301.288	462.62
301.518	452.62
301.748	444.62
301.979	464.62
302.209	462.62
302.439	442.62
302.669	476.62
302.9	449.62
303.13	457.62
303.36	461.62
303.59	472.62
303.82	470.62
304.051	454.62
304.281	470.62
304.511	455.62
304.741	458.62
304.971	441.62
305.201	473.62
305.431	467.62
305.661	468.62
305.891	461.62
306.121	457.62
306.352	450.62
306.582	458.62
306.812	474.62
307.042	463.62
307.272	442.62
307.502	451.62
307.731	460.62
307.961	445.62
308.191	473.62
308.421	465.62
308.651	464.62
308.881	459.62
309.111	451.62
309.341	453.62
309.571	467.62
309.8	449.62
310.03	462.62
310.26	442.62
310.49	465.62
310.72	471.62
310.949	466.62
311.179	454.62
311.409	472.62
311.639	473.62
311.868	448.62
312.098	464.62
312.328	470.62
312.557	469.62
312.787	499.62
313.017	464.62
313.246	493.62
313.476	472.62
313.706	490.62
313.935	511.62
314.165	491.62
314.394	475.62
314.624	496.62
314.853	480.62
315.083	477.62
315.312	510.62
315.542	509.62
315.771	487.62
316.001	474.62
316.23	475.62
316.46	494.62
316.689	493.62
316.919	483.62
317.148	486.62
317.377	481.62
317.607	487.62
317.836	475.62
318.065	489.62
318.295	477.62
318.524	497.62
318.753	494.62
318.983	497.62
319.212	482.62
319.441	480.62
319.67	488.62
319.9	477.62
320.129	487.62
320.358	486.62
320.587	480.62
320.816	476.62
321.046	502.62
321.275	493.62
321.504	476.62
321.733	475.62
321.962	491.62
322.191	519.62
322.42	504.62
322.649	484.62
322.878	465.62
323.108	490.62
323.337	522.62
323.566	488.62
323.795	504.62
324.024	518.62
324.253	481.62
324.482	512.62
324.71	533.62
324.939	520.62
325.168	513.62
325.397	508.62
325.626	518.62
325.855	516.62
326.084	515.62
326.313	547.62
326.542	530.62
326.77	518.62
326.999	531.62
327.228	535.62
327.457	526.62
327.686	520.62
327.914	536.62
328.143	529.62
328.372	526.62
328.6	536.62
328.829	530.62
329.058	527.62
329.287	524.62
329.515	533.62
329.744	523.62
329.972	567.62
330.201	538.62
330.43	547.62
330.658	564.62
330.887	556.62
331.115	566.62
331.344	556.62
331.572	557.62
331.801	566.62
332.03	574.62
332.258	605.62
332.486	596.62
332.715	621.62
332.943	628.62
333.172	642.62
333.4	656.62
333.629	659.62
333.857	701.62
334.085	694.62
334.314	678.62
334.542	683.62
334.771	676.62
334.999	649.62
335.227	650.62
335.455	638.62
335.684	652.62
335.912	645.62
336.14	658.62
336.369	636.62
336.597	620.62
336.825	650.62
337.053	651.62
337.281	616.62
337.51	626.62
337.738	598.62
337.966	615.62
338.194	610.62
338.422	613.62
338.65	584.62
338.878	587.62
339.106	605.62
339.334	588.62
339.562	570.62
339.79	550.62
340.018	540.62
340.246	545.62
340.474	562.62
340.702	567.62
340.93	568.62
341.158	558.62
341.386	568.62
341.614	578.62
341.842	558.62
342.07	569.62
342.298	556.62
342.526	552.62
342.754	558.62
342.981	551.62
343.209	553.62
343.437	580.62
343.665	638.62
343.893	649.62
344.12	658.62
344.348	637.62
344.576	602.62
344.804	608.62
345.031	600.62
345.259	573.62
345.487	568.62
345.714	553.62
345.942	585.62
346.17	553.62
346.397	552.62
346.625	549.62
346.853	543.62
347.08	526.62
347.308	562.62
347.535	527.62
347.763	550.62
347.99	541.62
348.218	533.62
348.445	554.62
348.673	526.62
348.9	561.62
349.128	533.62
349.355	529.62
349.583	546.62
349.81	534.62
350.037	527.62
350.265	521.62
350.492	518.62
350.72	511.62
350.947	498.62
351.174	522.62
351.402	538.62
351.629	508.62
351.856	522.62
352.083	517.62
352.311	503.62
352.538	541.62
352.765	514.62
352.992	523.62
353.22	514.62
353.447	501.62
353.674	494.62
353.901	498.62
354.128	519.62
354.355	494.62
354.583	506.62
354.81	486.62
355.037	522.62
355.264	530.62
355.491	524.62
355.718	505.62
355.945	520.62
356.172	519.62
356.399	539.62
356.626	508.62
356.853	526.62
357.08	525.62
357.307	513.62
357.534	513.62
357.761	500.62
357.988	496.62
358.215	501.62
358.441	532.62
358.668	536.62
358.895	514.62
359.122	519.62
359.349	504.62
359.576	515.62
359.802	538.62
360.029	517.62
360.256	518.62
360.483	496.62
360.709	518.62
360.936	529.62
361.163	491.62
361.39	518.62
361.616	505.62
361.843	494.62
362.07	505.62
362.296	521.62
362.523	496.62
362.749	500.62
362.976	517.62
363.203	511.62
363.429	500.62
363.656	520.62
363.882	500.62
364.109	500.62
364.335	463.62
364.562	497.62
364.788	491.62
365.015	498.62
365.241	492.62
365.468	508.62
365.694	497.62
365.92	492.62
366.147	474.62
366.373	516.62
366.599	493.62
366.826	499.62
367.052	524.62
367.278	509.62
367.505	510.62
367.731	508.62
367.957	498.62
368.184	538.62
368.41	516.62
368.636	497.62
368.862	509.62
369.089	502.62
369.315	502.62
369.541	518.62
369.767	530.62
369.993	518.62
370.219	536.62
370.445	523.62
370.672	564.62
370.898	525.62
371.124	538.62
371.35	545.62
371.576	555.62
371.802	552.62
372.028	524.62
372.254	549.62
372.48	556.62
372.706	571.62
372.932	572.62
373.158	581.62
373.384	552.62
373.61	525.62
373.835	552.62
374.061	532.62
374.287	541.62
374.513	557.62
374.739	555.62
374.965	586.62
375.191	577.62
375.416	594.62
375.642	573.62
375.868	588.62
376.094	550.62
376.319	527.62
376.545	576.62
376.771	516.62
376.997	551.62
377.222	551.62
377.448	530.62
377.674	542.62
377.899	529.62
378.125	526.62
378.35	538.62
378.576	534.62
378.802	530.62
379.027	530.62
379.253	521.62
379.478	521.62
379.704	523.62
379.929	532.62
380.155	546.62
380.38	510.62
380.606	549.62
380.831	541.62
381.057	545.62
381.282	553.62
381.507	518.62
381.733	515.62
381.958	538.62
382.184	536.62
382.409	560.62
382.634	549.62
382.86	563.62
383.085	582.62
383.31	591.62
383.535	589.62
383.761	596.62
383.986	581.62
384.211	594.62
384.436	603.62
384.662	598.62
384.887	636.62
385.112	613.62
385.337	644.62
385.562	625.62
385.787	614.62
386.013	630.62
386.238	626.62
386.463	645.62
386.688	625.62
386.913	619.62
387.138	642.62
387.363	624.62
387.588	630.62
387.813	626.62
388.038	606.62
388.263	604.62
388.488	615.62
388.713	631.62
388.938	620.62
389.163	618.62
389.387	616.62
389.612	609.62
389.837	610.62
390.062	609.62
390.287	623.62
390.512	648.62
390.736	644.62
390.961	648.62
391.186	623.62
391.411	661.62
391.636	661.62
391.86	707.62
392.085	706.62
392.31	711.62
392.534	684.62
392.759	675.62
392.984	649.62
393.208	658.62
393.433	674.62
393.658	648.62
393.882	659.62
394.107	658.62
394.331	684.62
394.556	667.62
394.78	653.62
395.005	670.62
395.229	666.62
395.454	695.62
395.678	714.62
395.903	696.62
396.127	704.62
396.352	661.62
396.576	661.62
396.801	665.62
397.025	676.62
397.249	682.62
397.474	722.62
397.698	720.62
397.922	726.62
398.147	697.62
398.371	732.62
398.595	756.62
398.82	776.62
399.044	800.62
399.268	866.62
399.492	1016.62
399.717	1091.62
399.941	1077.62
400.165	984.62
400.389	939.62
400.613	875.62
400.837	832.62
401.062	801.62
401.286	778.62
401.51	790.62
401.734	798.62
401.958	786.62
402.182	790.62
402.406	798.62
402.63	791.62
402.854	850.62
403.078	840.62
403.302	866.62
403.526	850.62
403.75	857.62
403.974	887.62
404.198	876.62
404.422	873.62
404.645	882.62
404.869	866.62
405.093	880.62
405.317	850.62
405.541	848.62
405.765	862.62
405.988	860.62
406.212	836.62
406.436	837.62
406.66	874.62
406.883	903.62
407.107	936.62
407.331	938.62
407.555	997.62
407.778	970.62
408.002	972.62
408.226	924.62
408.449	948.62
408.673	896.62
408.896	903.62
409.12	908.62
409.344	888.62
409.567	885.62
409.791	889.62
410.014	913.62
410.238	875.62
410.461	865.62
410.685	888.62
410.908	848.62
411.132	846.62
411.355	829.62
411.578	818.62
411.802	813.62
412.025	818.62
412.249	830.62
412.472	846.62
412.695	803.62
412.919	819.62
413.142	805.62
413.365	806.62
413.589	801.62
413.812	807.62
414.035	789.62
414.258	797.62
414.482	819.62
414.705	796.62
414.928	818.62
415.151	809.62
415.374	780.62
415.597	772.62
415.821	776.62
416.044	760.62
416.267	781.62
416.49	781.62
416.713	775.62
416.936	807.62
417.159	780.62
417.382	782.62
417.605	752.62
417.828	785.62
418.051	810.62
418.274	804.62
418.497	795.62
418.72	791.62
418.943	782.62
419.166	842.62
419.389	904.62
419.611	897.62
419.834	825.62
420.057	819.62
420.28	802.62
420.503	809.62
420.726	783.62
420.948	776.62
421.171	805.62
421.394	800.62
421.617	784.62
421.839	802.62
422.062	781.62
422.285	784.62
422.507	797.62
422.73	796.62
422.953	800.62
423.175	803.62
423.398	836.62
423.621	820.62
423.843	825.62
424.066	828.62
424.288	842.62
424.511	781.62
424.733	816.62
424.956	810.62
425.178	834.62
425.401	798.62
425.623	822.62
425.846	783.62
426.068	769.62
426.291	776.62
426.513	773.62
426.735	749.62
426.958	762.62
427.18	729.62
427.402	729.62
427.625	704.62
427.847	714.62
428.069	723.62
428.292	734.62
428.514	734.62
428.736	700.62
428.958	731.62
429.181	723.62
429.403	705.62
429.625	735.62
429.847	720.62
430.069	714.62
430.292	706.62
430.514	713.62
430.736	723.62
430.958	716.62
431.18	706.62
431.402	728.62
431.624	709.62
431.846	730.62
432.068	730.62
432.29	734.62
432.512	724.62
432.734	718.62
432.956	705.62
433.178	734.62
433.4	730.62
433.622	722.62
433.844	734.62
434.066	726.62
434.287	742.62
434.509	783.62
434.731	788.62
434.953	829.62
435.175	822.62
435.397	795.62
435.618	758.62
435.84	757.62
436.062	740.62
436.284	743.62
436.505	724.62
436.727	749.62
436.949	770.62
437.17	731.62
437.392	740.62
437.614	737.62
437.835	713.62
438.057	715.62
438.278	711.62
438.5	698.62
438.721	704.62
438.943	704.62
439.165	705.62
439.386	749.62
439.608	728.62
439.829	740.62
440.05	726.62
440.272	747.62
440.493	753.62
440.715	756.62
440.936	766.62
441.158	758.62
441.379	789.62
441.6	820.62
441.822	852.62
442.043	821.62
442.264	809.62
442.486	776.62
442.707	796.62
442.928	777.62
443.149	819.62
443.371	818.62
443.592	821.62
443.813	837.62
444.034	825.62
444.255	848.62
444.476	877.62
444.698	900.62
444.919	938.62
445.14	1031.62
445.361	946.62
445.582	866.62
445.803	812.62
446.024	809.62
446.245	785.62
446.466	761.62
446.687	762.62
446.908	741.62
447.129	740.62
447.35	715.62
447.571	721.62
447.792	694.62
448.013	710.62
448.234	712.62
448.455	682.62
448.675	711.62
448.896	686.62
449.117	672.62
449.338	678.62
449.559	682.62
449.779	660.62
450	697.62
450.221	686.62
450.442	686.62
450.662	705.62
450.883	678.62
451.104	709.62
451.324	700.62
451.545	696.62
451.766	697.62
451.986	699.62
452.207	706.62
452.428	715.62
452.648	666.62
452.869	665.62
453.089	660.62
453.31	668.62
453.53	651.62
453.751	646.62
453.971	657.62
454.192	644.62
454.412	651.62
454.633	638.62
454.853	645.62
455.073	666.62
455.294	638.62
455.514	625.62
455.734	640.62
455.955	638.62
456.175	660.62
456.395	639.62
456.616	610.62
456.836	646.62
457.056	644.62
457.276	633.62
457.497	648.62
457.717	646.62
457.937	681.62
458.157	656.62
458.377	662.62
458.598	682.62
458.818	680.62
459.038	714.62
459.258	719.62
459.478	754.62
459.698	771.62
459.918	768.62
460.138	826.62
460.358	851.62
460.578	836.62
460.798	871.62
461.018	857.62
461.238	837.62
461.458	847.62
461.678	869.62
461.898	885.62
462.118	900.62
462.338	905.62
462.558	930.62
462.777	970.62
462.997	1060.62
463.217	1099.62
463.437	1095.62
463.657	1042.62
463.876	1011.62
464.096	1002.62
464.316	1000.62
464.536	994.62
464.755	961.62
464.975	917.62
465.195	896.62
465.414	834.62
465.634	788.62
465.854	782.62
466.073	778.62
466.293	745.62
466.512	732.62
466.732	730.62
466.951	753.62
467.171	731.62
467.391	720.62
467.61	729.62
467.829	719.62
468.049	728.62
468.268	707.62
468.488	679.62
468.707	728.62
468.927	701.62
469.146	689.62
469.365	697.62
469.585	720.62
469.804	716.62
470.023	726.62
470.243	752.62
470.462	740.62
470.681	735.62
470.901	781.62
471.12	727.62
471.339	710.62
471.558	734.62
471.777	723.62
471.997	729.62
472.216	682.62
472.435	678.62
472.654	690.62
472.873	685.62
473.092	673.62
473.311	678.62
473.53	690.62
473.749	682.62
473.968	706.62
474.187	683.62
474.406	674.62
474.625	684.62
474.844	678.62
475.063	690.62
475.282	696.62
475.501	695.62
475.72	679.62
475.939	696.62
476.158	714.62
476.377	702.62
476.596	723.62
476.814	717.62
477.033	728.62
477.252	725.62
477.471	737.62
477.69	740.62
477.908	794.62
478.127	806.62
478.346	808.62
478.564	820.62
478.783	816.62
479.002	814.62
479.22	826.62
479.439	841.62
479.658	834.62
479.876	828.62
480.095	816.62
480.313	882.62
480.532	898.62
480.751	888.62
480.969	864.62
481.188	845.62
481.406	813.62
481.624	807.62
481.843	759.62
482.061	740.62
482.28	760.62
482.498	789.62
482.717	775.62
482.935	771.62
483.153	787.62
483.372	781.62
483.59	792.62
483.808	797.62
484.027	782.62
484.245	779.62
484.463	806.62
484.681	806.62
484.9	808.62
485.118	806.62
485.336	817.62
485.554	833.62
485.772	822.62
485.99	824.62
486.209	796.62
486.427	829.62
486.645	825.62
486.863	828.62
487.081	825.62
487.299	828.62
487.517	834.62
487.735	814.62
487.953	804.62
488.171	810.62
488.389	813.62
488.607	798.62
488.825	836.62
489.043	797.62
489.261	814.62
489.479	787.62
489.696	811.62
489.914	840.62
490.132	794.62
490.35	833.62
490.568	806.62
490.786	841.62
491.003	821.62
491.221	842.62
491.439	837.62
491.657	812.62
491.874	822.62
492.092	853.62
492.31	843.62
492.527	861.62
492.745	867.62
492.963	842.62
493.18	846.62
493.398	874.62
493.615	844.62
493.833	861.62
494.05	871.62
494.268	888.62
494.485	882.62
494.703	882.62
494.92	885.62
495.138	866.62
495.355	867.62
495.573	887.62
495.79	904.62
496.008	897.62
496.225	896.62
496.442	932.62
496.66	914.62
496.877	960.62
497.094	929.62
497.312	978.62
497.529	961.62
497.746	1005.62
497.963	993.62
498.181	1043.62
498.398	1086.62
498.615	1189.62
498.832	1200.62
499.049	1320.62
499.267	1397.62
499.484	1513.62
499.701	1685.62
499.918	1800.62
500.135	2019.62
500.352	2246.62
500.569	2262.62
500.786	2295.62
501.003	2185.62
501.22	1931.62
501.437	1776.62
