Data from NiCl2@0.125M.TitratingCurve.Agarose3%dH2O.NegLispCup.LampEnergy10.LIBS07252019_HRD10591_18-28-39-574.txt Node
Date: Thu Jul 25 18:28:39 EDT 2019
User: cochatt
Spectrometer: HR+D1059
Trigger mode: 1
Integration Time (sec): 1.000000E-1
Scans to average: 1
Electric dark correction enabled: true
Nonlinearity correction enabled: false
Boxcar width: 0
XAxis mode: Wavelengths
Number of Pixels in Spectrum: 2048
>>>>>Begin Spectral Data<<<<<
223.165	-9.31
223.4	-9.31
223.635	-9.31
223.869	-19.31
224.104	-12.31
224.338	-17.31
224.573	-7.31
224.808	-13.31
225.042	-18.31
225.277	-21.31
225.511	1.69
225.746	16.69
225.98	12.69
226.215	8.69
226.449	9.69
226.683	19.69
226.918	23.69
227.152	25.69
227.387	32.69
227.621	33.69
227.856	55.69
228.09	50.69
228.324	47.69
228.559	41.69
228.793	71.69
229.027	120.69
229.262	122.69
229.496	106.69
229.73	123.69
229.964	122.69
230.199	121.69
230.433	127.69
230.667	142.69
230.901	129.69
231.136	142.69
231.37	160.69
231.604	147.69
231.838	146.69
232.072	154.69
232.306	152.69
232.541	145.69
232.775	160.69
233.009	164.69
233.243	162.69
233.477	164.69
233.711	146.69
233.945	162.69
234.179	163.69
234.413	150.69
234.647	162.69
234.881	165.69
235.115	164.69
235.349	174.69
235.583	154.69
235.817	166.69
236.051	158.69
236.285	167.69
236.519	163.69
236.753	158.69
236.987	167.69
237.221	172.69
237.455	168.69
237.689	187.69
237.922	174.69
238.156	188.69
238.39	172.69
238.624	162.69
238.858	180.69
239.091	180.69
239.325	167.69
239.559	189.69
239.793	184.69
240.027	193.69
240.26	199.69
240.494	197.69
240.728	193.69
240.961	202.69
241.195	210.69
241.429	203.69
241.662	222.69
241.896	211.69
242.13	194.69
242.363	218.69
242.597	205.69
242.83	202.69
243.064	215.69
243.298	204.69
243.531	218.69
243.765	200.69
243.998	219.69
244.232	213.69
244.465	220.69
244.699	240.69
244.932	225.69
245.166	220.69
245.399	219.69
245.633	224.69
245.866	231.69
246.099	232.69
246.333	248.69
246.566	229.69
246.8	246.69
247.033	244.69
247.266	245.69
247.5	234.69
247.733	248.69
247.966	258.69
248.2	264.69
248.433	258.69
248.666	260.69
248.899	270.69
249.133	265.69
249.366	267.69
249.599	267.69
249.832	268.69
250.066	261.69
250.299	270.69
250.532	272.69
250.765	287.69
250.998	270.69
251.231	288.69
251.465	289.69
251.698	282.69
251.931	298.69
252.164	296.69
252.397	295.69
252.63	295.69
252.863	293.69
253.096	299.69
253.329	296.69
253.562	280.69
253.795	294.69
254.028	309.69
254.261	319.69
254.494	309.69
254.727	313.69
254.96	300.69
255.193	302.69
255.426	300.69
255.659	312.69
255.892	321.69
256.124	324.69
256.357	317.69
256.59	313.69
256.823	312.69
257.056	306.69
257.289	314.69
257.521	308.69
257.754	339.69
257.987	300.69
258.22	341.69
258.452	334.69
258.685	340.69
258.918	322.69
259.151	333.69
259.383	343.69
259.616	324.69
259.849	322.69
260.081	341.69
260.314	349.69
260.547	348.69
260.779	347.69
261.012	365.69
261.244	360.69
261.477	334.69
261.71	356.69
261.942	341.69
262.175	346.69
262.407	370.69
262.64	365.69
262.872	368.69
263.105	368.69
263.337	357.69
263.57	349.69
263.802	350.69
264.035	355.69
264.267	381.69
264.499	385.69
264.732	358.69
264.964	384.69
265.197	384.69
265.429	385.69
265.661	374.69
265.894	369.69
266.126	384.69
266.358	372.69
266.591	384.69
266.823	395.69
267.055	378.69
267.287	393.69
267.52	394.69
267.752	393.69
267.984	406.69
268.216	398.69
268.448	405.69
268.681	393.69
268.913	397.69
269.145	412.69
269.377	422.69
269.609	405.69
269.841	411.69
270.073	404.69
270.306	402.69
270.538	398.69
270.77	412.69
271.002	424.69
271.234	388.69
271.466	413.69
271.698	413.69
271.93	426.69
272.162	411.69
272.394	430.69
272.626	422.69
272.858	435.69
273.09	431.69
273.322	432.69
273.553	448.69
273.785	448.69
274.017	427.69
274.249	434.69
274.481	454.69
274.713	457.69
274.945	475.69
275.176	457.69
275.408	430.69
275.64	456.69
275.872	442.69
276.104	455.69
276.335	461.69
276.567	454.69
276.799	461.69
277.031	489.69
277.262	460.69
277.494	436.69
277.726	450.69
277.957	468.69
278.189	452.69
278.421	460.69
278.652	472.69
278.884	470.69
279.115	471.69
279.347	480.69
279.579	473.69
279.81	486.69
280.042	482.69
280.273	490.69
280.505	484.69
280.736	491.69
280.968	499.69
281.199	505.69
281.431	493.69
281.662	496.69
281.894	494.69
282.125	485.69
282.356	492.69
282.588	515.69
282.819	510.69
283.051	480.69
283.282	505.69
283.513	514.69
283.745	505.69
283.976	508.69
284.207	510.69
284.439	506.69
284.67	525.69
284.901	521.69
285.132	518.69
285.364	531.69
285.595	532.69
285.826	506.69
286.057	528.69
286.288	529.69
286.52	546.69
286.751	537.69
286.982	542.69
287.213	541.69
287.444	527.69
287.675	557.69
287.906	539.69
288.138	545.69
288.369	581.69
288.6	539.69
288.831	571.69
289.062	570.69
289.293	556.69
289.524	549.69
289.755	569.69
289.986	568.69
290.217	556.69
290.448	568.69
290.679	552.69
290.91	581.69
291.141	576.69
291.371	584.69
291.602	566.69
291.833	578.69
292.064	578.69
292.295	562.69
292.526	554.69
292.757	560.69
292.987	566.69
293.218	584.69
293.449	579.69
293.68	585.69
293.91	589.69
294.141	569.69
294.372	565.69
294.603	573.69
294.833	604.69
295.064	594.69
295.295	573.69
295.525	571.69
295.756	579.69
295.987	599.69
296.217	610.69
296.448	616.69
296.679	595.69
296.909	599.69
297.14	606.69
297.37	605.69
297.601	608.69
297.831	638.69
298.062	608.69
298.292	636.69
298.523	618.69
298.753	650.69
298.984	631.69
299.214	631.69
299.445	641.69
299.675	624.69
299.905	606.69
300.136	638.69
300.366	651.69
300.597	630.69
300.827	643.69
301.057	630.69
301.288	632.69
301.518	652.69
301.748	664.69
301.979	661.69
302.209	620.69
302.439	653.69
302.669	637.69
302.9	682.69
303.13	633.69
303.36	663.69
303.59	650.69
303.82	634.69
304.051	640.69
304.281	636.69
304.511	636.69
304.741	652.69
304.971	649.69
305.201	655.69
305.431	653.69
305.661	651.69
305.891	648.69
306.121	652.69
306.352	641.69
306.582	669.69
306.812	630.69
307.042	650.69
307.272	614.69
307.502	630.69
307.731	616.69
307.961	626.69
308.191	646.69
308.421	613.69
308.651	605.69
308.881	616.69
309.111	614.69
309.341	625.69
309.571	636.69
309.8	633.69
310.03	609.69
310.26	636.69
310.49	622.69
310.72	636.69
310.949	646.69
311.179	638.69
311.409	618.69
311.639	639.69
311.868	642.69
312.098	633.69
312.328	638.69
312.557	628.69
312.787	660.69
313.017	664.69
313.246	669.69
313.476	637.69
313.706	670.69
313.935	667.69
314.165	669.69
314.394	676.69
314.624	691.69
314.853	668.69
315.083	680.69
315.312	690.69
315.542	675.69
315.771	660.69
316.001	642.69
316.23	670.69
316.46	658.69
316.689	653.69
316.919	649.69
317.148	659.69
317.377	664.69
317.607	674.69
317.836	654.69
318.065	666.69
318.295	648.69
318.524	674.69
318.753	655.69
318.983	681.69
319.212	650.69
319.441	649.69
319.67	644.69
319.9	628.69
320.129	656.69
320.358	675.69
320.587	665.69
320.816	661.69
321.046	662.69
321.275	676.69
321.504	673.69
321.733	652.69
321.962	661.69
322.191	666.69
322.42	673.69
322.649	662.69
322.878	678.69
323.108	665.69
323.337	693.69
323.566	682.69
323.795	673.69
324.024	652.69
324.253	688.69
324.482	681.69
324.71	680.69
324.939	672.69
325.168	708.69
325.397	709.69
325.626	700.69
325.855	706.69
326.084	718.69
326.313	756.69
326.542	741.69
326.77	718.69
326.999	704.69
327.228	712.69
327.457	713.69
327.686	730.69
327.914	723.69
328.143	706.69
328.372	719.69
328.6	718.69
328.829	744.69
329.058	735.69
329.287	752.69
329.515	730.69
329.744	731.69
329.972	742.69
330.201	732.69
330.43	754.69
330.658	736.69
330.887	757.69
331.115	777.69
331.344	740.69
331.572	782.69
331.801	778.69
332.03	779.69
332.258	807.69
332.486	821.69
332.715	838.69
332.943	871.69
333.172	937.69
333.4	968.69
333.629	951.69
333.857	1006.69
334.085	983.69
334.314	979.69
334.542	950.69
334.771	930.69
334.999	917.69
335.227	918.69
335.455	910.69
335.684	894.69
335.912	896.69
336.14	867.69
336.369	861.69
336.597	876.69
336.825	872.69
337.053	873.69
337.281	844.69
337.51	840.69
337.738	811.69
337.966	804.69
338.194	763.69
338.422	802.69
338.65	789.69
338.878	792.69
339.106	772.69
339.334	775.69
339.562	787.69
339.79	756.69
340.018	742.69
340.246	745.69
340.474	759.69
340.702	760.69
340.93	758.69
341.158	762.69
341.386	788.69
341.614	759.69
341.842	749.69
342.07	765.69
342.298	755.69
342.526	756.69
342.754	726.69
342.981	749.69
343.209	781.69
343.437	813.69
343.665	858.69
343.893	904.69
344.12	950.69
344.348	927.69
344.576	877.69
344.804	822.69
345.031	799.69
345.259	802.69
345.487	776.69
345.714	762.69
345.942	759.69
346.17	746.69
346.397	736.69
346.625	725.69
346.853	722.69
347.08	756.69
347.308	747.69
347.535	754.69
347.763	774.69
347.99	737.69
348.218	747.69
348.445	766.69
348.673	713.69
348.9	735.69
349.128	727.69
349.355	714.69
349.583	710.69
349.81	728.69
350.037	710.69
350.265	719.69
350.492	726.69
350.72	686.69
350.947	676.69
351.174	695.69
351.402	676.69
351.629	708.69
351.856	722.69
352.083	717.69
352.311	675.69
352.538	702.69
352.765	696.69
352.992	692.69
353.22	720.69
353.447	697.69
353.674	694.69
353.901	678.69
354.128	714.69
354.355	704.69
354.583	684.69
354.81	700.69
355.037	707.69
355.264	718.69
355.491	737.69
355.718	733.69
355.945	697.69
356.172	728.69
356.399	724.69
356.626	689.69
356.853	721.69
357.08	718.69
357.307	715.69
357.534	702.69
357.761	716.69
357.988	689.69
358.215	701.69
358.441	696.69
358.668	702.69
358.895	719.69
359.122	686.69
359.349	692.69
359.576	711.69
359.802	717.69
360.029	705.69
360.256	702.69
360.483	730.69
360.709	698.69
360.936	739.69
361.163	698.69
361.39	713.69
361.616	702.69
361.843	693.69
362.07	720.69
362.296	714.69
362.523	712.69
362.749	695.69
362.976	712.69
363.203	698.69
363.429	705.69
363.656	684.69
363.882	693.69
364.109	706.69
364.335	703.69
364.562	716.69
364.788	701.69
365.015	706.69
365.241	698.69
365.468	696.69
365.694	701.69
365.92	714.69
366.147	693.69
366.373	717.69
366.599	705.69
366.826	707.69
367.052	700.69
367.278	685.69
367.505	714.69
367.731	718.69
367.957	726.69
368.184	720.69
368.41	716.69
368.636	691.69
368.862	725.69
369.089	726.69
369.315	701.69
369.541	741.69
369.767	719.69
369.993	735.69
370.219	720.69
370.445	744.69
370.672	743.69
370.898	749.69
371.124	758.69
371.35	776.69
371.576	803.69
371.802	754.69
372.028	784.69
372.254	794.69
372.48	758.69
372.706	776.69
372.932	775.69
373.158	804.69
373.384	781.69
373.61	764.69
373.835	776.69
374.061	770.69
374.287	781.69
374.513	786.69
374.739	792.69
374.965	848.69
375.191	871.69
375.416	845.69
375.642	836.69
375.868	811.69
376.094	802.69
376.319	778.69
376.545	793.69
376.771	797.69
376.997	743.69
377.222	749.69
377.448	775.69
377.674	790.69
377.899	761.69
378.125	744.69
378.35	750.69
378.576	746.69
378.802	758.69
379.027	794.69
379.253	775.69
379.478	756.69
379.704	742.69
379.929	760.69
380.155	757.69
380.38	750.69
380.606	757.69
380.831	758.69
381.057	755.69
381.282	730.69
381.507	783.69
381.733	782.69
381.958	771.69
382.184	800.69
382.409	804.69
382.634	775.69
382.86	792.69
383.085	836.69
383.31	821.69
383.535	812.69
383.761	847.69
383.986	861.69
384.211	864.69
384.436	906.69
384.662	909.69
384.887	933.69
385.112	918.69
385.337	941.69
385.562	941.69
385.787	949.69
386.013	936.69
386.238	948.69
386.463	956.69
386.688	933.69
386.913	916.69
387.138	908.69
387.363	901.69
387.588	898.69
387.813	912.69
388.038	925.69
388.263	931.69
388.488	911.69
388.713	898.69
388.938	890.69
389.163	903.69
389.387	918.69
389.612	923.69
389.837	894.69
390.062	899.69
390.287	898.69
390.512	909.69
390.736	887.69
390.961	926.69
391.186	946.69
391.411	970.69
391.636	990.69
391.86	998.69
392.085	1044.69
392.31	1045.69
392.534	1019.69
392.759	1008.69
392.984	992.69
393.208	974.69
393.433	999.69
393.658	965.69
393.882	989.69
394.107	946.69
394.331	996.69
394.556	981.69
394.78	987.69
395.005	990.69
395.229	1006.69
395.454	1008.69
395.678	1032.69
395.903	995.69
396.127	1012.69
396.352	998.69
396.576	986.69
396.801	984.69
397.025	999.69
397.249	1028.69
397.474	1036.69
397.698	1049.69
397.922	1048.69
398.147	1062.69
398.371	1090.69
398.595	1057.69
398.82	1112.69
399.044	1204.69
399.268	1340.69
399.492	1564.69
399.717	1735.69
399.941	1767.69
400.165	1588.69
400.389	1430.69
400.613	1338.69
400.837	1236.69
401.062	1187.69
401.286	1147.69
401.51	1164.69
401.734	1194.69
401.958	1180.69
402.182	1193.69
402.406	1180.69
402.63	1209.69
402.854	1238.69
403.078	1250.69
403.302	1302.69
403.526	1302.69
403.75	1302.69
403.974	1332.69
404.198	1372.69
404.422	1363.69
404.645	1337.69
404.869	1312.69
405.093	1288.69
405.317	1299.69
405.541	1328.69
405.765	1286.69
405.988	1243.69
406.212	1262.69
406.436	1258.69
406.66	1305.69
406.883	1320.69
407.107	1410.69
407.331	1430.69
407.555	1520.69
407.778	1530.69
408.002	1471.69
408.226	1408.69
408.449	1392.69
408.673	1318.69
408.896	1332.69
409.12	1324.69
409.344	1345.69
409.567	1304.69
409.791	1332.69
410.014	1318.69
410.238	1307.69
410.461	1304.69
410.685	1277.69
410.908	1267.69
411.132	1224.69
411.355	1193.69
411.578	1210.69
411.802	1212.69
412.025	1221.69
412.249	1227.69
412.472	1226.69
412.695	1210.69
412.919	1188.69
413.142	1159.69
413.365	1149.69
413.589	1171.69
413.812	1164.69
414.035	1139.69
414.258	1144.69
414.482	1162.69
414.705	1194.69
414.928	1176.69
415.151	1160.69
415.374	1195.69
415.597	1174.69
415.821	1112.69
416.044	1136.69
416.267	1095.69
416.49	1120.69
416.713	1121.69
416.936	1160.69
417.159	1156.69
417.382	1123.69
417.605	1150.69
417.828	1160.69
418.051	1145.69
418.274	1142.69
418.497	1160.69
418.72	1155.69
418.943	1174.69
419.166	1268.69
419.389	1332.69
419.611	1324.69
419.834	1247.69
420.057	1220.69
420.28	1172.69
420.503	1179.69
420.726	1127.69
420.948	1125.69
421.171	1136.69
421.394	1144.69
421.617	1162.69
421.839	1144.69
422.062	1147.69
422.285	1149.69
422.507	1162.69
422.73	1186.69
422.953	1196.69
423.175	1184.69
423.398	1205.69
423.621	1197.69
423.843	1236.69
424.066	1258.69
424.288	1210.69
424.511	1225.69
424.733	1209.69
424.956	1180.69
425.178	1168.69
425.401	1156.69
425.623	1192.69
425.846	1100.69
426.068	1120.69
426.291	1107.69
426.513	1094.69
426.735	1057.69
426.958	1116.69
427.18	1056.69
427.402	1075.69
427.625	1048.69
427.847	1040.69
428.069	1044.69
428.292	1051.69
428.514	1027.69
428.736	1022.69
428.958	1030.69
429.181	1016.69
429.403	1012.69
429.625	1026.69
429.847	1027.69
430.069	1018.69
430.292	1010.69
430.514	986.69
430.736	1038.69
430.958	1008.69
431.18	992.69
431.402	998.69
431.624	977.69
431.846	1043.69
432.068	1020.69
432.29	1062.69
432.512	1017.69
432.734	1056.69
432.956	1009.69
433.178	1054.69
433.4	1045.69
433.622	1050.69
433.844	1078.69
434.066	1053.69
434.287	1059.69
434.509	1078.69
434.731	1119.69
434.953	1164.69
435.175	1167.69
435.397	1150.69
435.618	1114.69
435.84	1096.69
436.062	1037.69
436.284	1034.69
436.505	1050.69
436.727	1050.69
436.949	1033.69
437.17	1041.69
437.392	1027.69
437.614	1001.69
437.835	975.69
438.057	963.69
438.278	988.69
438.5	1016.69
438.721	994.69
438.943	1028.69
439.165	992.69
439.386	1011.69
439.608	1032.69
439.829	1014.69
440.05	1054.69
440.272	1025.69
440.493	1060.69
440.715	1072.69
440.936	1112.69
441.158	1081.69
441.379	1109.69
441.6	1178.69
441.822	1192.69
442.043	1182.69
442.264	1172.69
442.486	1123.69
442.707	1156.69
442.928	1115.69
443.149	1150.69
443.371	1148.69
443.592	1158.69
443.813	1156.69
444.034	1193.69
444.255	1230.69
444.476	1274.69
444.698	1335.69
444.919	1415.69
445.14	1508.69
445.361	1366.69
445.582	1242.69
445.803	1170.69
446.024	1118.69
446.245	1130.69
446.466	1105.69
446.687	1072.69
446.908	1044.69
447.129	1047.69
447.35	1031.69
447.571	1007.69
447.792	981.69
448.013	1006.69
448.234	959.69
448.455	956.69
448.675	957.69
448.896	946.69
449.117	965.69
449.338	944.69
449.559	926.69
449.779	935.69
450	964.69
450.221	949.69
450.442	971.69
450.662	976.69
450.883	968.69
451.104	982.69
451.324	980.69
451.545	1002.69
451.766	981.69
451.986	925.69
452.207	959.69
452.428	978.69
452.648	959.69
452.869	942.69
453.089	966.69
453.31	956.69
453.53	956.69
453.751	945.69
453.971	925.69
454.192	914.69
454.412	888.69
454.633	919.69
454.853	896.69
455.073	892.69
455.294	907.69
455.514	897.69
455.734	924.69
455.955	895.69
456.175	917.69
456.395	879.69
456.616	893.69
456.836	909.69
457.056	912.69
457.276	885.69
457.497	912.69
457.717	877.69
457.937	900.69
458.157	908.69
458.377	933.69
458.598	918.69
458.818	970.69
459.038	966.69
459.258	1028.69
459.478	1060.69
459.698	1062.69
459.918	1100.69
460.138	1162.69
460.358	1221.69
460.578	1247.69
460.798	1232.69
461.018	1254.69
461.238	1257.69
461.458	1205.69
461.678	1228.69
461.898	1230.69
462.118	1262.69
462.338	1349.69
462.558	1354.69
462.777	1462.69
462.997	1526.69
463.217	1666.69
463.437	1682.69
463.657	1548.69
463.876	1481.69
464.096	1474.69
464.316	1458.69
464.536	1456.69
464.755	1434.69
464.975	1336.69
465.195	1344.69
465.414	1241.69
465.634	1129.69
465.854	1106.69
466.073	1067.69
466.293	1063.69
466.512	997.69
466.732	1018.69
466.951	1031.69
467.171	1013.69
467.391	1012.69
467.61	1016.69
467.829	978.69
468.049	1016.69
468.268	973.69
468.488	972.69
468.707	973.69
468.927	980.69
469.146	972.69
469.365	971.69
469.585	963.69
469.804	1000.69
470.023	1026.69
470.243	1021.69
470.462	1044.69
470.681	1048.69
470.901	1039.69
471.12	1001.69
471.339	1003.69
471.558	985.69
471.777	978.69
471.997	960.69
472.216	965.69
472.435	944.69
472.654	964.69
472.873	934.69
473.092	913.69
473.311	914.69
473.53	905.69
473.749	937.69
473.968	954.69
474.187	914.69
474.406	923.69
474.625	955.69
474.844	977.69
475.063	952.69
475.282	945.69
475.501	936.69
475.72	938.69
475.939	961.69
476.158	952.69
476.377	960.69
476.596	977.69
476.814	980.69
477.033	995.69
477.252	991.69
477.471	1057.69
477.69	1043.69
477.908	1103.69
478.127	1106.69
478.346	1134.69
478.564	1123.69
478.783	1144.69
479.002	1164.69
479.22	1206.69
479.439	1143.69
479.658	1130.69
479.876	1156.69
480.095	1178.69
480.313	1253.69
480.532	1270.69
480.751	1261.69
480.969	1222.69
481.188	1166.69
481.406	1140.69
481.624	1101.69
481.843	1078.69
482.061	1078.69
482.28	1074.69
482.498	1048.69
482.717	1039.69
482.935	1053.69
483.153	1065.69
483.372	1069.69
483.59	1081.69
483.808	1119.69
484.027	1077.69
484.245	1068.69
484.463	1090.69
484.681	1117.69
484.9	1117.69
485.118	1133.69
485.336	1128.69
485.554	1139.69
485.772	1128.69
485.99	1142.69
486.209	1134.69
486.427	1144.69
486.645	1136.69
486.863	1160.69
487.081	1147.69
487.299	1114.69
487.517	1118.69
487.735	1122.69
487.953	1138.69
488.171	1123.69
488.389	1090.69
488.607	1098.69
488.825	1113.69
489.043	1122.69
489.261	1102.69
489.479	1134.69
489.696	1101.69
489.914	1116.69
490.132	1120.69
490.35	1122.69
490.568	1104.69
490.786	1133.69
491.003	1119.69
491.221	1136.69
491.439	1101.69
491.657	1130.69
491.874	1146.69
492.092	1136.69
492.31	1140.69
492.527	1126.69
492.745	1159.69
492.963	1142.69
493.18	1146.69
493.398	1159.69
493.615	1134.69
493.833	1141.69
494.05	1210.69
494.268	1203.69
494.485	1203.69
494.703	1214.69
494.92	1184.69
495.138	1204.69
495.355	1195.69
495.573	1203.69
495.79	1207.69
496.008	1244.69
496.225	1208.69
496.442	1235.69
496.66	1249.69
