Data from NiCl2@0.5M.TitratingCurve.Agarose3%dH2O.NegLispCup.LampEnergy10.LIBS07252019_HRD10591_18-19-07-571.txt Node
Date: Thu Jul 25 18:19:07 EDT 2019
User: cochatt
Spectrometer: HR+D1059
Trigger mode: 1
Integration Time (sec): 1.000000E-1
Scans to average: 1
Electric dark correction enabled: true
Nonlinearity correction enabled: false
Boxcar width: 0
XAxis mode: Wavelengths
Number of Pixels in Spectrum: 2048
>>>>>Begin Spectral Data<<<<<
223.165	-24.81
223.4	-24.81
223.635	-24.81
223.869	-19.81
224.104	-21.81
224.338	-9.81
224.573	-8.81
224.808	4.19
225.042	1.19
225.277	-5.81
225.511	-3.81
225.746	-7.81
225.98	9.19
226.215	6.19
226.449	19.19
226.683	12.19
226.918	40.19
227.152	10.19
227.387	33.19
227.621	38.19
227.856	42.19
228.09	49.19
228.324	58.19
228.559	63.19
228.793	101.19
229.027	134.19
229.262	134.19
229.496	140.19
229.73	158.19
229.964	160.19
230.199	192.19
230.433	187.19
230.667	166.19
230.901	177.19
231.136	165.19
231.37	172.19
231.604	186.19
231.838	198.19
232.072	198.19
232.306	202.19
232.541	184.19
232.775	192.19
233.009	170.19
233.243	174.19
233.477	168.19
233.711	181.19
233.945	180.19
234.179	207.19
234.413	182.19
234.647	180.19
234.881	186.19
235.115	199.19
235.349	188.19
235.583	179.19
235.817	175.19
236.051	186.19
236.285	183.19
236.519	188.19
236.753	182.19
236.987	195.19
237.221	190.19
237.455	199.19
237.689	173.19
237.922	201.19
238.156	219.19
238.39	212.19
238.624	206.19
238.858	204.19
239.091	207.19
239.325	215.19
239.559	206.19
239.793	231.19
240.027	237.19
240.26	202.19
240.494	234.19
240.728	223.19
240.961	233.19
241.195	231.19
241.429	240.19
241.662	237.19
241.896	239.19
242.13	267.19
242.363	241.19
242.597	235.19
242.83	243.19
243.064	232.19
243.298	239.19
243.531	244.19
243.765	236.19
243.998	257.19
244.232	253.19
244.465	263.19
244.699	265.19
244.932	249.19
245.166	250.19
245.399	261.19
245.633	258.19
245.866	273.19
246.099	253.19
246.333	259.19
246.566	268.19
246.8	271.19
247.033	284.19
247.266	276.19
247.5	276.19
247.733	272.19
247.966	296.19
248.2	277.19
248.433	277.19
248.666	294.19
248.899	294.19
249.133	293.19
249.366	307.19
249.599	294.19
249.832	296.19
250.066	303.19
250.299	297.19
250.532	307.19
250.765	312.19
250.998	328.19
251.231	310.19
251.465	343.19
251.698	338.19
251.931	317.19
252.164	335.19
252.397	330.19
252.63	313.19
252.863	334.19
253.096	337.19
253.329	327.19
253.562	322.19
253.795	328.19
254.028	337.19
254.261	343.19
254.494	339.19
254.727	340.19
254.96	353.19
255.193	340.19
255.426	349.19
255.659	342.19
255.892	348.19
256.124	359.19
256.357	343.19
256.59	364.19
256.823	366.19
257.056	351.19
257.289	352.19
257.521	360.19
257.754	357.19
257.987	366.19
258.22	354.19
258.452	373.19
258.685	392.19
258.918	377.19
259.151	382.19
259.383	370.19
259.616	365.19
259.849	373.19
260.081	384.19
260.314	382.19
260.547	384.19
260.779	407.19
261.012	387.19
261.244	405.19
261.477	416.19
261.71	380.19
261.942	418.19
262.175	417.19
262.407	398.19
262.64	408.19
262.872	412.19
263.105	428.19
263.337	436.19
263.57	397.19
263.802	420.19
264.035	420.19
264.267	418.19
264.499	402.19
264.732	447.19
264.964	413.19
265.197	429.19
265.429	431.19
265.661	432.19
265.894	435.19
266.126	426.19
266.358	442.19
266.591	436.19
266.823	439.19
267.055	440.19
267.287	422.19
267.52	446.19
267.752	448.19
267.984	442.19
268.216	464.19
268.448	470.19
268.681	461.19
268.913	482.19
269.145	462.19
269.377	469.19
269.609	464.19
269.841	460.19
270.073	485.19
270.306	478.19
270.538	487.19
270.77	478.19
271.002	455.19
271.234	471.19
271.466	467.19
271.698	503.19
271.93	510.19
272.162	494.19
272.394	492.19
272.626	495.19
272.858	476.19
273.09	494.19
273.322	504.19
273.553	509.19
273.785	513.19
274.017	514.19
274.249	506.19
274.481	500.19
274.713	516.19
274.945	521.19
275.176	520.19
275.408	525.19
275.64	521.19
275.872	520.19
276.104	509.19
276.335	524.19
276.567	532.19
276.799	534.19
277.031	550.19
277.262	547.19
277.494	540.19
277.726	536.19
277.957	550.19
278.189	544.19
278.421	554.19
278.652	539.19
278.884	551.19
279.115	542.19
279.347	550.19
279.579	588.19
279.81	586.19
280.042	562.19
280.273	566.19
280.505	596.19
280.736	585.19
280.968	588.19
281.199	588.19
281.431	605.19
281.662	576.19
281.894	580.19
282.125	585.19
282.356	599.19
282.588	570.19
282.819	573.19
283.051	568.19
283.282	599.19
283.513	585.19
283.745	587.19
283.976	593.19
284.207	602.19
284.439	609.19
284.67	612.19
284.901	611.19
285.132	602.19
285.364	617.19
285.595	617.19
285.826	621.19
286.057	613.19
286.288	612.19
286.52	643.19
286.751	634.19
286.982	653.19
287.213	650.19
287.444	624.19
287.675	649.19
287.906	646.19
288.138	626.19
288.369	633.19
288.6	638.19
288.831	631.19
289.062	640.19
289.293	670.19
289.524	666.19
289.755	645.19
289.986	650.19
290.217	657.19
290.448	638.19
290.679	654.19
290.91	641.19
291.141	652.19
291.371	678.19
291.602	674.19
291.833	663.19
292.064	652.19
292.295	666.19
292.526	670.19
292.757	663.19
292.987	640.19
293.218	662.19
293.449	674.19
293.68	672.19
293.91	672.19
294.141	666.19
294.372	672.19
294.603	678.19
294.833	683.19
295.064	685.19
295.295	685.19
295.525	671.19
295.756	695.19
295.987	687.19
296.217	689.19
296.448	694.19
296.679	697.19
296.909	697.19
297.14	702.19
297.37	710.19
297.601	697.19
297.831	681.19
298.062	702.19
298.292	739.19
298.523	736.19
298.753	728.19
298.984	725.19
299.214	713.19
299.445	710.19
299.675	744.19
299.905	716.19
300.136	728.19
300.366	764.19
300.597	786.19
300.827	758.19
301.057	761.19
301.288	776.19
301.518	773.19
301.748	750.19
301.979	779.19
302.209	762.19
302.439	744.19
302.669	749.19
302.9	750.19
303.13	724.19
303.36	756.19
303.59	742.19
303.82	775.19
304.051	809.19
304.281	769.19
304.511	763.19
304.741	764.19
304.971	773.19
305.201	801.19
305.431	804.19
305.661	803.19
305.891	791.19
306.121	769.19
306.352	780.19
306.582	774.19
306.812	746.19
307.042	742.19
307.272	759.19
307.502	742.19
307.731	770.19
307.961	784.19
308.191	752.19
308.421	768.19
308.651	759.19
308.881	761.19
309.111	800.19
309.341	770.19
309.571	764.19
309.8	782.19
310.03	770.19
310.26	811.19
310.49	817.19
310.72	792.19
310.949	782.19
311.179	796.19
311.409	762.19
311.639	794.19
311.868	809.19
312.098	799.19
312.328	801.19
312.557	803.19
312.787	798.19
313.017	798.19
313.246	831.19
313.476	805.19
313.706	846.19
313.935	828.19
314.165	830.19
314.394	828.19
314.624	802.19
314.853	814.19
315.083	792.19
315.312	820.19
315.542	810.19
315.771	811.19
316.001	817.19
316.23	820.19
316.46	799.19
316.689	797.19
316.919	805.19
317.148	849.19
317.377	818.19
317.607	802.19
317.836	793.19
318.065	848.19
318.295	830.19
318.524	811.19
318.753	822.19
318.983	824.19
319.212	821.19
319.441	824.19
319.67	837.19
319.9	858.19
320.129	816.19
320.358	833.19
320.587	838.19
320.816	845.19
321.046	833.19
321.275	828.19
321.504	829.19
321.733	812.19
321.962	843.19
322.191	841.19
322.42	868.19
322.649	857.19
322.878	830.19
323.108	849.19
323.337	855.19
323.566	857.19
323.795	857.19
324.024	860.19
324.253	857.19
324.482	860.19
324.71	870.19
324.939	864.19
325.168	876.19
325.397	880.19
325.626	862.19
325.855	851.19
326.084	881.19
326.313	923.19
326.542	896.19
326.77	916.19
326.999	909.19
327.228	884.19
327.457	906.19
327.686	886.19
327.914	911.19
328.143	900.19
328.372	887.19
328.6	894.19
328.829	895.19
329.058	897.19
329.287	894.19
329.515	911.19
329.744	917.19
329.972	903.19
330.201	906.19
330.43	904.19
330.658	927.19
330.887	947.19
331.115	939.19
331.344	929.19
331.572	959.19
331.801	952.19
332.03	958.19
332.258	959.19
332.486	1002.19
332.715	971.19
332.943	995.19
333.172	1036.19
333.4	1043.19
333.629	1081.19
333.857	1087.19
334.085	1083.19
334.314	1081.19
334.542	1066.19
334.771	1084.19
334.999	1046.19
335.227	1075.19
335.455	1054.19
335.684	1067.19
335.912	1073.19
336.14	1086.19
336.369	1041.19
336.597	1034.19
336.825	1050.19
337.053	1036.19
337.281	1039.19
337.51	1038.19
337.738	1025.19
337.966	1037.19
338.194	1025.19
338.422	988.19
338.65	959.19
338.878	982.19
339.106	976.19
339.334	1002.19
339.562	998.19
339.79	970.19
340.018	932.19
340.246	945.19
340.474	920.19
340.702	923.19
340.93	930.19
341.158	940.19
341.386	983.19
341.614	1005.19
341.842	985.19
342.07	957.19
342.298	934.19
342.526	972.19
342.754	946.19
342.981	953.19
343.209	942.19
343.437	978.19
343.665	1036.19
343.893	1056.19
344.12	1080.19
344.348	1021.19
344.576	1031.19
344.804	1017.19
345.031	1012.19
345.259	954.19
345.487	971.19
345.714	959.19
345.942	960.19
346.17	1003.19
346.397	1002.19
346.625	939.19
346.853	933.19
347.08	895.19
347.308	910.19
347.535	924.19
347.763	895.19
347.99	891.19
348.218	881.19
348.445	912.19
348.673	893.19
348.9	916.19
349.128	920.19
349.355	891.19
349.583	934.19
349.81	892.19
350.037	885.19
350.265	890.19
350.492	878.19
350.72	862.19
350.947	909.19
351.174	888.19
351.402	924.19
351.629	941.19
351.856	905.19
352.083	860.19
352.311	914.19
352.538	948.19
352.765	938.19
352.992	868.19
353.22	830.19
353.447	846.19
353.674	857.19
353.901	864.19
354.128	880.19
354.355	826.19
354.583	843.19
354.81	847.19
355.037	873.19
355.264	853.19
355.491	865.19
355.718	860.19
355.945	865.19
356.172	865.19
356.399	894.19
356.626	873.19
356.853	923.19
357.08	898.19
357.307	886.19
357.534	854.19
357.761	826.19
357.988	856.19
358.215	847.19
358.441	844.19
358.668	855.19
358.895	853.19
359.122	836.19
359.349	840.19
359.576	839.19
359.802	865.19
360.029	850.19
360.256	842.19
360.483	858.19
360.709	850.19
360.936	862.19
361.163	871.19
361.39	897.19
361.616	868.19
361.843	860.19
362.07	905.19
362.296	905.19
362.523	875.19
362.749	864.19
362.976	882.19
363.203	851.19
363.429	839.19
363.656	828.19
363.882	843.19
364.109	864.19
364.335	849.19
364.562	824.19
364.788	867.19
365.015	856.19
365.241	856.19
365.468	848.19
365.694	861.19
365.92	852.19
366.147	844.19
366.373	823.19
366.599	865.19
366.826	842.19
367.052	871.19
367.278	884.19
367.505	839.19
367.731	875.19
367.957	856.19
368.184	867.19
368.41	842.19
368.636	846.19
368.862	840.19
369.089	863.19
369.315	868.19
369.541	884.19
369.767	862.19
369.993	870.19
370.219	856.19
370.445	886.19
370.672	868.19
370.898	889.19
371.124	870.19
371.35	884.19
371.576	896.19
371.802	911.19
372.028	901.19
372.254	894.19
372.48	899.19
372.706	895.19
372.932	906.19
373.158	915.19
373.384	882.19
373.61	904.19
373.835	870.19
374.061	898.19
374.287	892.19
374.513	896.19
374.739	940.19
374.965	930.19
375.191	970.19
375.416	928.19
375.642	913.19
375.868	928.19
376.094	868.19
376.319	900.19
376.545	890.19
376.771	853.19
376.997	865.19
377.222	886.19
377.448	884.19
377.674	862.19
377.899	855.19
378.125	858.19
378.35	867.19
378.576	853.19
378.802	842.19
379.027	866.19
379.253	880.19
379.478	845.19
379.704	870.19
379.929	855.19
380.155	854.19
380.38	868.19
380.606	848.19
380.831	845.19
381.057	856.19
381.282	858.19
381.507	862.19
381.733	879.19
381.958	852.19
382.184	858.19
382.409	895.19
382.634	896.19
382.86	881.19
383.085	887.19
383.31	892.19
383.535	927.19
383.761	934.19
383.986	921.19
384.211	940.19
384.436	969.19
384.662	959.19
384.887	963.19
385.112	998.19
385.337	964.19
385.562	994.19
385.787	976.19
386.013	1048.19
386.238	1016.19
386.463	1008.19
386.688	996.19
386.913	988.19
387.138	997.19
387.363	986.19
387.588	970.19
387.813	969.19
388.038	1009.19
388.263	1011.19
388.488	973.19
388.713	975.19
388.938	976.19
389.163	994.19
389.387	973.19
389.612	980.19
389.837	987.19
390.062	961.19
390.287	978.19
390.512	973.19
390.736	1005.19
390.961	987.19
391.186	964.19
391.411	1022.19
391.636	1049.19
391.86	1064.19
392.085	1078.19
392.31	1069.19
392.534	1078.19
392.759	1054.19
392.984	1039.19
393.208	1038.19
393.433	1066.19
393.658	1050.19
393.882	1032.19
394.107	1048.19
394.331	1053.19
394.556	1071.19
394.78	1029.19
395.005	1060.19
395.229	1065.19
395.454	1086.19
395.678	1096.19
395.903	1085.19
396.127	1061.19
396.352	1071.19
396.576	1053.19
396.801	1036.19
397.025	1064.19
397.249	1112.19
397.474	1119.19
397.698	1142.19
397.922	1096.19
398.147	1094.19
398.371	1147.19
398.595	1158.19
398.82	1178.19
399.044	1240.19
399.268	1345.19
399.492	1500.19
399.717	1578.19
399.941	1596.19
400.165	1468.19
400.389	1385.19
400.613	1288.19
400.837	1274.19
401.062	1225.19
401.286	1207.19
401.51	1177.19
401.734	1209.19
401.958	1213.19
402.182	1210.19
402.406	1215.19
402.63	1226.19
402.854	1252.19
403.078	1242.19
403.302	1274.19
403.526	1321.19
403.75	1298.19
403.974	1330.19
404.198	1311.19
404.422	1327.19
404.645	1304.19
404.869	1293.19
405.093	1327.19
405.317	1276.19
405.541	1265.19
405.765	1278.19
405.988	1311.19
406.212	1317.19
406.436	1289.19
406.66	1336.19
406.883	1337.19
407.107	1377.19
407.331	1470.19
407.555	1442.19
407.778	1456.19
408.002	1446.19
408.226	1434.19
408.449	1414.19
408.673	1322.19
408.896	1357.19
409.12	1340.19
409.344	1368.19
409.567	1330.19
409.791	1343.19
410.014	1311.19
410.238	1326.19
410.461	1334.19
410.685	1311.19
410.908	1271.19
411.132	1282.19
411.355	1241.19
411.578	1252.19
411.802	1268.19
412.025	1257.19
412.249	1292.19
412.472	1273.19
412.695	1282.19
412.919	1248.19
413.142	1241.19
413.365	1241.19
413.589	1246.19
413.812	1240.19
414.035	1220.19
414.258	1216.19
414.482	1239.19
414.705	1268.19
414.928	1262.19
415.151	1241.19
415.374	1231.19
415.597	1245.19
415.821	1219.19
416.044	1186.19
416.267	1175.19
416.49	1186.19
416.713	1161.19
416.936	1233.19
417.159	1201.19
417.382	1169.19
417.605	1171.19
417.828	1212.19
418.051	1208.19
418.274	1201.19
418.497	1167.19
418.72	1224.19
418.943	1196.19
419.166	1298.19
419.389	1361.19
419.611	1334.19
419.834	1321.19
420.057	1259.19
420.28	1231.19
420.503	1202.19
420.726	1204.19
420.948	1189.19
421.171	1186.19
421.394	1184.19
421.617	1226.19
421.839	1200.19
422.062	1206.19
422.285	1224.19
422.507	1244.19
422.73	1213.19
422.953	1239.19
423.175	1264.19
423.398	1268.19
423.621	1233.19
423.843	1247.19
424.066	1278.19
424.288	1224.19
424.511	1229.19
424.733	1252.19
424.956	1197.19
425.178	1240.19
425.401	1174.19
425.623	1215.19
425.846	1187.19
426.068	1212.19
426.291	1192.19
426.513	1161.19
426.735	1195.19
426.958	1168.19
427.18	1163.19
427.402	1173.19
427.625	1168.19
427.847	1141.19
428.069	1135.19
428.292	1166.19
428.514	1144.19
428.736	1153.19
428.958	1140.19
429.181	1128.19
429.403	1145.19
429.625	1141.19
429.847	1135.19
430.069	1130.19
430.292	1138.19
430.514	1108.19
430.736	1136.19
430.958	1157.19
431.18	1120.19
431.402	1170.19
431.624	1140.19
431.846	1145.19
432.068	1156.19
432.29	1170.19
432.512	1161.19
432.734	1165.19
432.956	1143.19
433.178	1204.19
433.4	1193.19
433.622	1176.19
433.844	1175.19
434.066	1186.19
434.287	1197.19
434.509	1228.19
434.731	1223.19
434.953	1240.19
435.175	1268.19
435.397	1304.19
435.618	1237.19
435.84	1206.19
436.062	1187.19
436.284	1170.19
436.505	1167.19
436.727	1164.19
436.949	1160.19
437.17	1165.19
437.392	1149.19
437.614	1176.19
437.835	1168.19
438.057	1121.19
438.278	1132.19
438.5	1120.19
438.721	1106.19
438.943	1127.19
439.165	1132.19
439.386	1129.19
439.608	1145.19
439.829	1161.19
440.05	1154.19
440.272	1165.19
440.493	1185.19
440.715	1196.19
440.936	1206.19
441.158	1196.19
441.379	1262.19
441.6	1293.19
441.822	1248.19
442.043	1269.19
442.264	1246.19
442.486	1234.19
442.707	1256.19
442.928	1256.19
443.149	1242.19
443.371	1240.19
443.592	1303.19
443.813	1277.19
444.034	1290.19
444.255	1324.19
444.476	1359.19
444.698	1412.19
444.919	1432.19
445.14	1493.19
445.361	1371.19
445.582	1299.19
445.803	1254.19
446.024	1220.19
446.245	1225.19
446.466	1202.19
446.687	1189.19
446.908	1185.19
447.129	1154.19
447.35	1152.19
447.571	1130.19
447.792	1134.19
448.013	1106.19
448.234	1127.19
448.455	1093.19
448.675	1080.19
448.896	1056.19
449.117	1082.19
449.338	1095.19
449.559	1066.19
449.779	1072.19
450	1078.19
450.221	1081.19
450.442	1100.19
450.662	1066.19
450.883	1088.19
451.104	1108.19
451.324	1119.19
451.545	1070.19
451.766	1104.19
451.986	1097.19
452.207	1073.19
452.428	1092.19
452.648	1088.19
452.869	1065.19
453.089	1060.19
453.31	1087.19
453.53	1060.19
453.751	1043.19
453.971	1035.19
454.192	1082.19
454.412	1078.19
454.633	1073.19
454.853	1050.19
455.073	1048.19
455.294	1073.19
455.514	1030.19
455.734	1079.19
455.955	1047.19
456.175	1080.19
456.395	1041.19
456.616	1036.19
456.836	1035.19
457.056	1061.19
457.276	1032.19
457.497	1065.19
457.717	1040.19
457.937	1044.19
458.157	1054.19
458.377	1058.19
458.598	1106.19
458.818	1111.19
459.038	1119.19
459.258	1152.19
459.478	1200.19
459.698	1262.19
459.918	1277.19
460.138	1277.19
460.358	1321.19
460.578	1292.19
460.798	1346.19
461.018	1360.19
461.238	1327.19
461.458	1327.19
461.678	1330.19
461.898	1322.19
462.118	1380.19
462.338	1403.19
462.558	1452.19
462.777	1500.19
462.997	1536.19
463.217	1624.19
463.437	1627.19
463.657	1580.19
463.876	1546.19
464.096	1501.19
464.316	1487.19
464.536	1508.19
464.755	1452.19
464.975	1411.19
465.195	1370.19
465.414	1327.19
465.634	1269.19
465.854	1246.19
466.073	1204.19
466.293	1206.19
466.512	1179.19
466.732	1170.19
466.951	1165.19
467.171	1177.19
467.391	1171.19
467.61	1156.19
467.829	1172.19
468.049	1183.19
468.268	1128.19
468.488	1119.19
468.707	1129.19
468.927	1147.19
469.146	1158.19
469.365	1172.19
469.585	1153.19
469.804	1170.19
470.023	1171.19
470.243	1164.19
470.462	1146.19
470.681	1147.19
470.901	1187.19
471.12	1196.19
471.339	1188.19
471.558	1165.19
471.777	1163.19
471.997	1150.19
472.216	1156.19
472.435	1113.19
472.654	1144.19
472.873	1107.19
473.092	1112.19
473.311	1132.19
473.53	1135.19
473.749	1124.19
473.968	1111.19
474.187	1100.19
474.406	1126.19
474.625	1140.19
474.844	1118.19
475.063	1136.19
475.282	1159.19
475.501	1162.19
475.72	1161.19
475.939	1171.19
476.158	1185.19
476.377	1204.19
476.596	1195.19
476.814	1213.19
477.033	1197.19
477.252	1194.19
477.471	1219.19
477.69	1306.19
477.908	1275.19
478.127	1336.19
478.346	1291.19
478.564	1300.19
478.783	1325.19
479.002	1373.19
479.22	1397.19
479.439	1388.19
479.658	1353.19
479.876	1348.19
480.095	1362.19
480.313	1399.19
480.532	1426.19
480.751	1438.19
480.969	1402.19
481.188	1335.19
481.406	1336.19
481.624	1326.19
481.843	1310.19
482.061	1316.19
482.28	1305.19
482.498	1268.19
482.717	1286.19
482.935	1306.19
483.153	1324.19
483.372	1344.19
483.59	1384.19
483.808	1329.19
484.027	1311.19
484.245	1320.19
484.463	1288.19
484.681	1343.19
484.9	1317.19
485.118	1332.19
485.336	1356.19
485.554	1357.19
485.772	1376.19
485.99	1360.19
486.209	1365.19
486.427	1368.19
486.645	1337.19
486.863	1359.19
487.081	1368.19
487.299	1336.19
487.517	1361.19
487.735	1398.19
487.953	1386.19
488.171	1414.19
488.389	1380.19
488.607	1377.19
488.825	1364.19
489.043	1340.19
489.261	1319.19
489.479	1352.19
489.696	1352.19
489.914	1372.19
490.132	1404.19
490.35	1376.19
490.568	1380.19
490.786	1400.19
491.003	1400.19
491.221	1413.19
491.439	1389.19
491.657	1382.19
491.874	1421.19
492.092	1432.19
492.31	1458.19
492.527	1413.19
492.745	1446.19
492.963	1449.19
493.18	1453.19
493.398	1453.19
493.615	1469.19
493.833	1440.19
494.05	1425.19
494.268	1479.19
494.485	1476.19
494.703	1489.19
