Data from NiCl2@0.5M.TitratingCurve.Agarose3%dH2O.NegLispCup.LampEnergy10.LIBS07252019_HRD10591_18-19-39-571.txt Node
Date: Thu Jul 25 18:19:39 EDT 2019
User: cochatt
Spectrometer: HR+D1059
Trigger mode: 1
Integration Time (sec): 1.000000E-1
Scans to average: 1
Electric dark correction enabled: true
Nonlinearity correction enabled: false
Boxcar width: 0
XAxis mode: Wavelengths
Number of Pixels in Spectrum: 2048
>>>>>Begin Spectral Data<<<<<
223.165	-22.75
223.4	-22.75
223.635	-22.75
223.869	-22.75
224.104	-22.75
224.338	-9.75
224.573	-8.75
224.808	-9.75
225.042	6.25
225.277	-17.75
225.511	10.25
225.746	-4.75
225.98	16.25
226.215	1.25
226.449	21.25
226.683	21.25
226.918	17.25
227.152	25.25
227.387	41.25
227.621	54.25
227.856	52.25
228.09	63.25
228.324	49.25
228.559	69.25
228.793	63.25
229.027	81.25
229.262	85.25
229.496	104.25
229.73	97.25
229.964	109.25
230.199	128.25
230.433	115.25
230.667	114.25
230.901	118.25
231.136	125.25
231.37	129.25
231.604	130.25
231.838	130.25
232.072	131.25
232.306	127.25
232.541	125.25
232.775	134.25
233.009	137.25
233.243	108.25
233.477	126.25
233.711	125.25
233.945	126.25
234.179	123.25
234.413	114.25
234.647	121.25
234.881	133.25
235.115	137.25
235.349	128.25
235.583	128.25
235.817	131.25
236.051	126.25
236.285	137.25
236.519	123.25
236.753	126.25
236.987	125.25
237.221	125.25
237.455	138.25
237.689	138.25
237.922	135.25
238.156	129.25
238.39	137.25
238.624	150.25
238.858	137.25
239.091	139.25
239.325	152.25
239.559	136.25
239.793	131.25
240.027	150.25
240.26	140.25
240.494	127.25
240.728	142.25
240.961	138.25
241.195	159.25
241.429	154.25
241.662	143.25
241.896	139.25
242.13	144.25
242.363	141.25
242.597	139.25
242.83	164.25
243.064	144.25
243.298	168.25
243.531	160.25
243.765	169.25
243.998	162.25
244.232	147.25
244.465	157.25
244.699	143.25
244.932	160.25
245.166	167.25
245.399	160.25
245.633	164.25
245.866	173.25
246.099	158.25
246.333	189.25
246.566	158.25
246.8	166.25
247.033	173.25
247.266	170.25
247.5	174.25
247.733	179.25
247.966	186.25
248.2	191.25
248.433	173.25
248.666	182.25
248.899	183.25
249.133	175.25
249.366	176.25
249.599	184.25
249.832	192.25
250.066	181.25
250.299	187.25
250.532	176.25
250.765	197.25
250.998	169.25
251.231	185.25
251.465	196.25
251.698	192.25
251.931	177.25
252.164	194.25
252.397	194.25
252.63	205.25
252.863	215.25
253.096	202.25
253.329	198.25
253.562	206.25
253.795	211.25
254.028	215.25
254.261	202.25
254.494	217.25
254.727	209.25
254.96	204.25
255.193	201.25
255.426	197.25
255.659	199.25
255.892	218.25
256.124	224.25
256.357	210.25
256.59	205.25
256.823	222.25
257.056	222.25
257.289	226.25
257.521	216.25
257.754	212.25
257.987	202.25
258.22	225.25
258.452	220.25
258.685	225.25
258.918	208.25
259.151	226.25
259.383	224.25
259.616	242.25
259.849	227.25
260.081	239.25
260.314	209.25
260.547	218.25
260.779	217.25
261.012	231.25
261.244	255.25
261.477	235.25
261.71	243.25
261.942	246.25
262.175	246.25
262.407	215.25
262.64	212.25
262.872	223.25
263.105	251.25
263.337	248.25
263.57	249.25
263.802	243.25
264.035	239.25
264.267	254.25
264.499	249.25
264.732	248.25
264.964	248.25
265.197	267.25
265.429	255.25
265.661	239.25
265.894	265.25
266.126	255.25
266.358	241.25
266.591	249.25
266.823	267.25
267.055	263.25
267.287	254.25
267.52	273.25
267.752	254.25
267.984	249.25
268.216	263.25
268.448	280.25
268.681	272.25
268.913	279.25
269.145	252.25
269.377	277.25
269.609	262.25
269.841	263.25
270.073	270.25
270.306	262.25
270.538	277.25
270.77	267.25
271.002	276.25
271.234	281.25
271.466	278.25
271.698	283.25
271.93	278.25
272.162	273.25
272.394	287.25
272.626	270.25
272.858	278.25
273.09	269.25
273.322	267.25
273.553	276.25
273.785	281.25
274.017	285.25
274.249	301.25
274.481	296.25
274.713	299.25
274.945	304.25
275.176	306.25
275.408	302.25
275.64	304.25
275.872	291.25
276.104	288.25
276.335	302.25
276.567	320.25
276.799	311.25
277.031	306.25
277.262	285.25
277.494	323.25
277.726	301.25
277.957	287.25
278.189	315.25
278.421	297.25
278.652	306.25
278.884	313.25
279.115	300.25
279.347	320.25
279.579	309.25
279.81	325.25
280.042	327.25
280.273	328.25
280.505	323.25
280.736	333.25
280.968	350.25
281.199	343.25
281.431	311.25
281.662	336.25
281.894	315.25
282.125	311.25
282.356	318.25
282.588	340.25
282.819	330.25
283.051	328.25
283.282	364.25
283.513	340.25
283.745	332.25
283.976	325.25
284.207	329.25
284.439	349.25
284.67	348.25
284.901	354.25
285.132	354.25
285.364	339.25
285.595	329.25
285.826	330.25
286.057	344.25
286.288	358.25
286.52	356.25
286.751	368.25
286.982	362.25
287.213	345.25
287.444	356.25
287.675	370.25
287.906	364.25
288.138	346.25
288.369	366.25
288.6	372.25
288.831	350.25
289.062	377.25
289.293	370.25
289.524	367.25
289.755	345.25
289.986	367.25
290.217	365.25
290.448	361.25
290.679	385.25
290.91	355.25
291.141	367.25
291.371	379.25
291.602	359.25
291.833	362.25
292.064	376.25
292.295	357.25
292.526	362.25
292.757	360.25
292.987	364.25
293.218	364.25
293.449	390.25
293.68	361.25
293.91	361.25
294.141	384.25
294.372	383.25
294.603	366.25
294.833	393.25
295.064	381.25
295.295	366.25
295.525	380.25
295.756	393.25
295.987	387.25
296.217	386.25
296.448	398.25
296.679	401.25
296.909	388.25
297.14	383.25
297.37	405.25
297.601	394.25
297.831	414.25
298.062	394.25
298.292	382.25
298.523	417.25
298.753	420.25
298.984	400.25
299.214	409.25
299.445	394.25
299.675	413.25
299.905	422.25
300.136	409.25
300.366	438.25
300.597	424.25
300.827	417.25
301.057	408.25
301.288	436.25
301.518	441.25
301.748	410.25
301.979	422.25
302.209	433.25
302.439	413.25
302.669	423.25
302.9	428.25
303.13	413.25
303.36	430.25
303.59	433.25
303.82	439.25
304.051	438.25
304.281	419.25
304.511	415.25
304.741	428.25
304.971	437.25
305.201	453.25
305.431	433.25
305.661	439.25
305.891	447.25
306.121	418.25
306.352	415.25
306.582	437.25
306.812	403.25
307.042	412.25
307.272	431.25
307.502	429.25
307.731	411.25
307.961	427.25
308.191	422.25
308.421	431.25
308.651	425.25
308.881	421.25
309.111	426.25
309.341	405.25
309.571	417.25
309.8	426.25
310.03	402.25
310.26	441.25
310.49	437.25
310.72	434.25
310.949	441.25
311.179	439.25
311.409	419.25
311.639	430.25
311.868	442.25
312.098	441.25
312.328	449.25
312.557	447.25
312.787	447.25
313.017	464.25
313.246	426.25
313.476	441.25
313.706	429.25
313.935	441.25
314.165	456.25
314.394	479.25
314.624	471.25
314.853	437.25
315.083	465.25
315.312	454.25
315.542	450.25
315.771	464.25
316.001	442.25
316.23	440.25
316.46	439.25
316.689	451.25
316.919	453.25
317.148	453.25
317.377	462.25
317.607	460.25
317.836	435.25
318.065	433.25
318.295	445.25
318.524	443.25
318.753	446.25
318.983	452.25
319.212	460.25
319.441	456.25
319.67	467.25
319.9	421.25
320.129	466.25
320.358	452.25
320.587	448.25
320.816	438.25
321.046	447.25
321.275	453.25
321.504	457.25
321.733	447.25
321.962	476.25
322.191	471.25
322.42	453.25
322.649	478.25
322.878	465.25
323.108	455.25
323.337	465.25
323.566	464.25
323.795	454.25
324.024	475.25
324.253	462.25
324.482	443.25
324.71	463.25
324.939	473.25
325.168	503.25
325.397	489.25
325.626	486.25
325.855	501.25
326.084	473.25
326.313	519.25
326.542	505.25
326.77	504.25
326.999	492.25
327.228	503.25
327.457	483.25
327.686	472.25
327.914	491.25
328.143	491.25
328.372	516.25
328.6	496.25
328.829	487.25
329.058	496.25
329.287	488.25
329.515	500.25
329.744	517.25
329.972	496.25
330.201	518.25
330.43	493.25
330.658	480.25
330.887	500.25
331.115	513.25
331.344	498.25
331.572	509.25
331.801	540.25
332.03	532.25
332.258	526.25
332.486	548.25
332.715	558.25
332.943	562.25
333.172	593.25
333.4	615.25
333.629	577.25
333.857	610.25
334.085	622.25
334.314	630.25
334.542	600.25
334.771	600.25
334.999	587.25
335.227	594.25
335.455	584.25
335.684	598.25
335.912	610.25
336.14	606.25
336.369	592.25
336.597	584.25
336.825	589.25
337.053	567.25
337.281	599.25
337.51	545.25
337.738	558.25
337.966	550.25
338.194	552.25
338.422	535.25
338.65	531.25
338.878	511.25
339.106	517.25
339.334	557.25
339.562	540.25
339.79	521.25
340.018	522.25
340.246	506.25
340.474	527.25
340.702	496.25
340.93	506.25
341.158	522.25
341.386	525.25
341.614	539.25
341.842	543.25
342.07	505.25
342.298	519.25
342.526	516.25
342.754	513.25
342.981	517.25
343.209	493.25
343.437	558.25
343.665	558.25
343.893	598.25
344.12	605.25
344.348	571.25
344.576	570.25
344.804	560.25
345.031	565.25
345.259	541.25
345.487	521.25
345.714	518.25
345.942	532.25
346.17	547.25
346.397	501.25
346.625	511.25
346.853	477.25
347.08	495.25
347.308	510.25
347.535	516.25
347.763	489.25
347.99	504.25
348.218	496.25
348.445	503.25
348.673	502.25
348.9	490.25
349.128	503.25
349.355	507.25
349.583	524.25
349.81	506.25
350.037	476.25
350.265	475.25
350.492	480.25
350.72	478.25
350.947	499.25
351.174	504.25
351.402	515.25
351.629	502.25
351.856	504.25
352.083	466.25
352.311	488.25
352.538	516.25
352.765	507.25
352.992	488.25
353.22	470.25
353.447	475.25
353.674	459.25
353.901	460.25
354.128	469.25
354.355	486.25
354.583	475.25
354.81	472.25
355.037	488.25
355.264	461.25
355.491	480.25
355.718	467.25
355.945	474.25
356.172	471.25
356.399	479.25
356.626	516.25
356.853	494.25
357.08	478.25
357.307	486.25
357.534	487.25
357.761	445.25
357.988	466.25
358.215	480.25
358.441	469.25
358.668	464.25
358.895	464.25
359.122	469.25
359.349	485.25
359.576	463.25
359.802	446.25
360.029	460.25
360.256	483.25
360.483	464.25
360.709	502.25
360.936	482.25
361.163	478.25
361.39	458.25
361.616	479.25
361.843	478.25
362.07	510.25
362.296	494.25
362.523	463.25
362.749	480.25
362.976	466.25
363.203	455.25
363.429	474.25
363.656	464.25
363.882	489.25
364.109	481.25
364.335	480.25
364.562	452.25
364.788	458.25
365.015	459.25
365.241	470.25
365.468	465.25
365.694	447.25
365.92	466.25
366.147	473.25
366.373	462.25
366.599	465.25
366.826	448.25
367.052	454.25
367.278	483.25
367.505	476.25
367.731	477.25
367.957	465.25
368.184	475.25
368.41	461.25
368.636	470.25
368.862	458.25
369.089	473.25
369.315	501.25
369.541	466.25
369.767	479.25
369.993	480.25
370.219	473.25
370.445	467.25
370.672	492.25
370.898	495.25
371.124	508.25
371.35	489.25
371.576	487.25
371.802	502.25
372.028	527.25
372.254	514.25
372.48	488.25
372.706	515.25
372.932	513.25
373.158	515.25
373.384	527.25
373.61	489.25
373.835	485.25
374.061	500.25
374.287	491.25
374.513	515.25
374.739	521.25
374.965	544.25
375.191	547.25
375.416	536.25
375.642	523.25
375.868	516.25
376.094	508.25
376.319	478.25
376.545	507.25
376.771	502.25
376.997	504.25
377.222	495.25
377.448	491.25
377.674	511.25
377.899	495.25
378.125	490.25
378.35	475.25
378.576	484.25
378.802	481.25
379.027	494.25
379.253	501.25
379.478	488.25
379.704	485.25
379.929	508.25
380.155	463.25
380.38	470.25
380.606	515.25
380.831	495.25
381.057	487.25
381.282	469.25
381.507	496.25
381.733	491.25
381.958	512.25
382.184	499.25
382.409	521.25
382.634	500.25
382.86	523.25
383.085	491.25
383.31	517.25
383.535	520.25
383.761	519.25
383.986	551.25
384.211	547.25
384.436	537.25
384.662	561.25
384.887	555.25
385.112	561.25
385.337	572.25
385.562	575.25
385.787	591.25
386.013	585.25
386.238	575.25
386.463	538.25
386.688	577.25
386.913	583.25
387.138	545.25
387.363	568.25
387.588	560.25
387.813	567.25
388.038	576.25
388.263	570.25
388.488	575.25
388.713	570.25
388.938	560.25
389.163	547.25
389.387	565.25
389.612	558.25
389.837	552.25
390.062	569.25
390.287	570.25
390.512	547.25
390.736	570.25
390.961	577.25
391.186	590.25
391.411	589.25
391.636	600.25
391.86	623.25
392.085	622.25
392.31	622.25
392.534	618.25
392.759	607.25
392.984	613.25
393.208	596.25
393.433	587.25
393.658	603.25
393.882	610.25
394.107	590.25
394.331	624.25
394.556	605.25
394.78	594.25
395.005	604.25
395.229	613.25
395.454	635.25
395.678	626.25
395.903	636.25
396.127	617.25
396.352	605.25
396.576	610.25
396.801	610.25
397.025	633.25
397.249	640.25
397.474	635.25
397.698	637.25
397.922	655.25
398.147	640.25
398.371	645.25
398.595	681.25
398.82	697.25
399.044	741.25
399.268	782.25
399.492	869.25
399.717	940.25
399.941	923.25
400.165	867.25
400.389	825.25
400.613	776.25
400.837	717.25
401.062	730.25
401.286	689.25
401.51	713.25
401.734	683.25
401.958	745.25
402.182	716.25
402.406	713.25
402.63	728.25
402.854	697.25
403.078	747.25
403.302	738.25
403.526	754.25
403.75	759.25
403.974	753.25
404.198	791.25
404.422	785.25
404.645	734.25
404.869	759.25
405.093	761.25
405.317	744.25
405.541	767.25
405.765	778.25
405.988	745.25
406.212	755.25
406.436	764.25
406.66	773.25
406.883	799.25
407.107	827.25
407.331	839.25
407.555	888.25
407.778	891.25
408.002	849.25
408.226	843.25
408.449	815.25
408.673	822.25
408.896	820.25
409.12	794.25
409.344	822.25
409.567	806.25
409.791	800.25
410.014	799.25
410.238	795.25
410.461	787.25
410.685	786.25
410.908	742.25
411.132	754.25
411.355	731.25
411.578	750.25
411.802	737.25
412.025	727.25
412.249	747.25
412.472	755.25
412.695	758.25
412.919	725.25
413.142	714.25
413.365	734.25
413.589	727.25
413.812	726.25
414.035	722.25
414.258	703.25
414.482	697.25
414.705	714.25
414.928	711.25
415.151	705.25
415.374	711.25
415.597	707.25
415.821	696.25
416.044	679.25
416.267	690.25
416.49	723.25
416.713	706.25
416.936	705.25
417.159	699.25
417.382	693.25
417.605	710.25
417.828	682.25
418.051	711.25
418.274	712.25
418.497	707.25
418.72	734.25
418.943	750.25
419.166	733.25
419.389	808.25
419.611	791.25
419.834	733.25
420.057	736.25
420.28	739.25
420.503	718.25
420.726	719.25
420.948	714.25
421.171	730.25
421.394	715.25
421.617	724.25
421.839	717.25
422.062	726.25
422.285	713.25
422.507	722.25
422.73	706.25
422.953	723.25
423.175	727.25
423.398	742.25
423.621	741.25
423.843	732.25
424.066	727.25
424.288	746.25
424.511	743.25
424.733	712.25
424.956	734.25
425.178	709.25
425.401	719.25
425.623	708.25
425.846	685.25
426.068	697.25
426.291	673.25
426.513	682.25
426.735	673.25
426.958	687.25
427.18	693.25
427.402	679.25
427.625	689.25
427.847	672.25
428.069	694.25
428.292	681.25
428.514	639.25
428.736	633.25
428.958	668.25
429.181	662.25
429.403	647.25
429.625	649.25
429.847	644.25
430.069	652.25
430.292	667.25
430.514	657.25
430.736	674.25
430.958	686.25
431.18	653.25
431.402	677.25
431.624	659.25
431.846	678.25
432.068	649.25
432.29	653.25
432.512	659.25
432.734	644.25
432.956	671.25
433.178	679.25
433.4	665.25
433.622	701.25
433.844	677.25
434.066	670.25
434.287	684.25
434.509	711.25
434.731	719.25
434.953	738.25
435.175	731.25
435.397	721.25
435.618	725.25
435.84	677.25
436.062	678.25
436.284	680.25
436.505	674.25
436.727	689.25
436.949	659.25
437.17	658.25
437.392	668.25
437.614	651.25
437.835	651.25
438.057	675.25
438.278	657.25
438.5	653.25
438.721	637.25
438.943	666.25
439.165	658.25
439.386	653.25
439.608	665.25
439.829	680.25
440.05	674.25
440.272	705.25
440.493	688.25
440.715	687.25
440.936	693.25
441.158	727.25
441.379	713.25
441.6	745.25
441.822	760.25
442.043	744.25
442.264	739.25
442.486	745.25
442.707	744.25
442.928	727.25
443.149	716.25
443.371	708.25
443.592	746.25
443.813	740.25
444.034	752.25
444.255	783.25
444.476	805.25
444.698	797.25
444.919	851.25
445.14	970.25
445.361	874.25
445.582	758.25
445.803	736.25
446.024	731.25
446.245	722.25
446.466	722.25
446.687	702.25
446.908	700.25
447.129	692.25
447.35	701.25
447.571	666.25
447.792	680.25
448.013	651.25
448.234	664.25
448.455	658.25
448.675	667.25
448.896	649.25
449.117	631.25
449.338	636.25
449.559	630.25
449.779	624.25
450	619.25
450.221	637.25
450.442	631.25
450.662	637.25
450.883	661.25
451.104	644.25
451.324	633.25
451.545	629.25
451.766	649.25
451.986	615.25
452.207	633.25
452.428	624.25
452.648	637.25
452.869	634.25
453.089	623.25
453.31	625.25
453.53	615.25
453.751	616.25
453.971	640.25
454.192	591.25
454.412	595.25
454.633	620.25
454.853	608.25
455.073	626.25
455.294	598.25
455.514	592.25
455.734	608.25
455.955	601.25
456.175	600.25
456.395	601.25
456.616	580.25
456.836	593.25
457.056	619.25
457.276	595.25
457.497	611.25
457.717	602.25
457.937	598.25
458.157	625.25
458.377	617.25
458.598	644.25
458.818	675.25
459.038	655.25
459.258	655.25
459.478	691.25
459.698	722.25
459.918	720.25
460.138	727.25
460.358	765.25
460.578	771.25
460.798	774.25
461.018	791.25
461.238	780.25
461.458	761.25
461.678	794.25
461.898	789.25
462.118	789.25
462.338	825.25
462.558	849.25
462.777	857.25
462.997	919.25
463.217	958.25
463.437	978.25
463.657	935.25
463.876	902.25
464.096	902.25
464.316	883.25
464.536	892.25
464.755	842.25
464.975	813.25
465.195	814.25
465.414	785.25
465.634	717.25
465.854	733.25
466.073	739.25
466.293	707.25
466.512	701.25
466.732	682.25
466.951	689.25
467.171	688.25
467.391	662.25
467.61	661.25
467.829	706.25
468.049	672.25
468.268	657.25
468.488	647.25
468.707	681.25
468.927	660.25
469.146	645.25
469.365	668.25
469.585	653.25
469.804	656.25
470.023	662.25
470.243	683.25
470.462	672.25
470.681	669.25
470.901	682.25
471.12	679.25
471.339	666.25
471.558	640.25
471.777	664.25
471.997	647.25
472.216	675.25
472.435	655.25
472.654	619.25
472.873	646.25
473.092	624.25
473.311	641.25
473.53	648.25
473.749	658.25
473.968	626.25
474.187	637.25
474.406	623.25
474.625	635.25
474.844	648.25
475.063	656.25
475.282	633.25
475.501	659.25
475.72	666.25
475.939	663.25
476.158	658.25
476.377	687.25
476.596	658.25
476.814	675.25
477.033	679.25
477.252	697.25
477.471	693.25
477.69	727.25
477.908	726.25
478.127	723.25
478.346	761.25
478.564	735.25
478.783	782.25
479.002	775.25
479.22	777.25
479.439	764.25
479.658	773.25
479.876	775.25
480.095	776.25
480.313	786.25
480.532	819.25
480.751	800.25
480.969	813.25
481.188	798.25
481.406	733.25
481.624	743.25
481.843	743.25
482.061	709.25
482.28	727.25
482.498	738.25
482.717	736.25
482.935	753.25
483.153	739.25
483.372	751.25
483.59	755.25
483.808	735.25
484.027	737.25
484.245	741.25
484.463	733.25
484.681	758.25
484.9	773.25
485.118	757.25
485.336	778.25
485.554	754.25
485.772	744.25
485.99	741.25
486.209	774.25
486.427	743.25
486.645	801.25
486.863	764.25
487.081	761.25
487.299	785.25
487.517	753.25
487.735	814.25
487.953	802.25
488.171	803.25
488.389	763.25
488.607	771.25
488.825	742.25
489.043	721.25
489.261	760.25
489.479	738.25
489.696	794.25
489.914	748.25
490.132	779.25
490.35	783.25
490.568	774.25
490.786	806.25
491.003	796.25
491.221	799.25
491.439	795.25
491.657	803.25
491.874	790.25
492.092	807.25
492.31	859.25
492.527	816.25
492.745	833.25
492.963	839.25
493.18	819.25
493.398	804.25
493.615	820.25
493.833	805.25
494.05	839.25
494.268	833.25
494.485	859.25
494.703	834.25
494.92	828.25
495.138	853.25
495.355	840.25
495.573	833.25
495.79	822.25
496.008	840.25
496.225	857.25
496.442	842.25
496.66	861.25
496.877	881.25
497.094	867.25
497.312	868.25
497.529	893.25
497.746	914.25
497.963	957.25
498.181	980.25
498.398	1020.25
498.615	1040.25
498.832	1072.25
499.049	1164.25
499.267	1257.25
499.484	1317.25
499.701	1456.25
499.918	1582.25
500.135	1720.25
500.352	1910.25
500.569	1921.25
500.786	1928.25
501.003	1871.25
501.22	1717.25
501.437	1547.25
