Data from NiCl2@0.5M.TitratingCurve.Agarose3%dH2O.NegLispCup.LampEnergy10.LIBS07252019_HRD10591_18-21-44-591.txt Node
Date: Thu Jul 25 18:21:44 EDT 2019
User: cochatt
Spectrometer: HR+D1059
Trigger mode: 1
Integration Time (sec): 1.000000E-1
Scans to average: 1
Electric dark correction enabled: true
Nonlinearity correction enabled: false
Boxcar width: 0
XAxis mode: Wavelengths
Number of Pixels in Spectrum: 2048
>>>>>Begin Spectral Data<<<<<
223.165	-6.94
223.4	-6.94
223.635	-6.94
223.869	-7.94
224.104	-15.94
224.338	-19.94
224.573	-17.94
224.808	-8.94
225.042	-15.94
225.277	-15.94
225.511	5.06
225.746	-0.94
225.98	13.06
226.215	-4.94
226.449	24.06
226.683	23.06
226.918	30.06
227.152	20.06
227.387	47.06
227.621	31.06
227.856	43.06
228.09	43.06
228.324	48.06
228.559	50.06
228.793	68.06
229.027	102.06
229.262	86.06
229.496	106.06
229.73	107.06
229.964	109.06
230.199	127.06
230.433	131.06
230.667	112.06
230.901	125.06
231.136	119.06
231.37	125.06
231.604	129.06
231.838	123.06
232.072	117.06
232.306	125.06
232.541	142.06
232.775	137.06
233.009	133.06
233.243	121.06
233.477	140.06
233.711	133.06
233.945	127.06
234.179	137.06
234.413	145.06
234.647	141.06
234.881	135.06
235.115	133.06
235.349	126.06
235.583	121.06
235.817	148.06
236.051	156.06
236.285	141.06
236.519	142.06
236.753	124.06
236.987	122.06
237.221	147.06
237.455	131.06
237.689	140.06
237.922	132.06
238.156	147.06
238.39	151.06
238.624	142.06
238.858	146.06
239.091	154.06
239.325	140.06
239.559	154.06
239.793	156.06
240.027	157.06
240.26	153.06
240.494	149.06
240.728	171.06
240.961	162.06
241.195	163.06
241.429	159.06
241.662	157.06
241.896	167.06
242.13	164.06
242.363	175.06
242.597	172.06
242.83	184.06
243.064	180.06
243.298	176.06
243.531	193.06
243.765	162.06
243.998	148.06
244.232	168.06
244.465	171.06
244.699	165.06
244.932	172.06
245.166	176.06
245.399	192.06
245.633	198.06
245.866	171.06
246.099	203.06
246.333	187.06
246.566	185.06
246.8	195.06
247.033	201.06
247.266	190.06
247.5	192.06
247.733	199.06
247.966	188.06
248.2	196.06
248.433	198.06
248.666	211.06
248.899	193.06
249.133	205.06
249.366	201.06
249.599	213.06
249.832	204.06
250.066	215.06
250.299	221.06
250.532	215.06
250.765	221.06
250.998	199.06
251.231	210.06
251.465	220.06
251.698	231.06
251.931	219.06
252.164	209.06
252.397	243.06
252.63	207.06
252.863	221.06
253.096	222.06
253.329	238.06
253.562	234.06
253.795	237.06
254.028	232.06
254.261	234.06
254.494	226.06
254.727	226.06
254.96	236.06
255.193	249.06
255.426	248.06
255.659	248.06
255.892	260.06
256.124	249.06
256.357	252.06
256.59	246.06
256.823	228.06
257.056	247.06
257.289	252.06
257.521	246.06
257.754	241.06
257.987	233.06
258.22	243.06
258.452	245.06
258.685	239.06
258.918	262.06
259.151	263.06
259.383	259.06
259.616	242.06
259.849	256.06
260.081	253.06
260.314	270.06
260.547	274.06
260.779	267.06
261.012	260.06
261.244	269.06
261.477	270.06
261.71	264.06
261.942	283.06
262.175	279.06
262.407	260.06
262.64	252.06
262.872	265.06
263.105	259.06
263.337	303.06
263.57	269.06
263.802	278.06
264.035	275.06
264.267	297.06
264.499	284.06
264.732	272.06
264.964	276.06
265.197	297.06
265.429	295.06
265.661	285.06
265.894	296.06
266.126	298.06
266.358	275.06
266.591	284.06
266.823	285.06
267.055	292.06
267.287	324.06
267.52	300.06
267.752	314.06
267.984	294.06
268.216	275.06
268.448	315.06
268.681	310.06
268.913	304.06
269.145	299.06
269.377	287.06
269.609	299.06
269.841	317.06
270.073	309.06
270.306	298.06
270.538	317.06
270.77	316.06
271.002	309.06
271.234	308.06
271.466	313.06
271.698	321.06
271.93	310.06
272.162	317.06
272.394	332.06
272.626	324.06
272.858	323.06
273.09	325.06
273.322	308.06
273.553	335.06
273.785	324.06
274.017	336.06
274.249	338.06
274.481	335.06
274.713	345.06
274.945	326.06
275.176	353.06
275.408	323.06
275.64	329.06
275.872	341.06
276.104	349.06
276.335	348.06
276.567	337.06
276.799	341.06
277.031	327.06
277.262	350.06
277.494	360.06
277.726	352.06
277.957	354.06
278.189	352.06
278.421	362.06
278.652	357.06
278.884	349.06
279.115	361.06
279.347	364.06
279.579	368.06
279.81	359.06
280.042	369.06
280.273	387.06
280.505	367.06
280.736	379.06
280.968	392.06
281.199	379.06
281.431	390.06
281.662	371.06
281.894	378.06
282.125	372.06
282.356	378.06
282.588	377.06
282.819	390.06
283.051	383.06
283.282	358.06
283.513	383.06
283.745	378.06
283.976	387.06
284.207	397.06
284.439	404.06
284.67	412.06
284.901	392.06
285.132	384.06
285.364	396.06
285.595	390.06
285.826	411.06
286.057	416.06
286.288	413.06
286.52	387.06
286.751	393.06
286.982	402.06
287.213	424.06
287.444	400.06
287.675	417.06
287.906	411.06
288.138	416.06
288.369	421.06
288.6	416.06
288.831	415.06
289.062	424.06
289.293	437.06
289.524	415.06
289.755	422.06
289.986	436.06
290.217	434.06
290.448	416.06
290.679	412.06
290.91	422.06
291.141	422.06
291.371	445.06
291.602	425.06
291.833	438.06
292.064	437.06
292.295	407.06
292.526	410.06
292.757	399.06
292.987	422.06
293.218	427.06
293.449	445.06
293.68	437.06
293.91	435.06
294.141	435.06
294.372	413.06
294.603	429.06
294.833	434.06
295.064	443.06
295.295	439.06
295.525	429.06
295.756	444.06
295.987	434.06
296.217	456.06
296.448	435.06
296.679	457.06
296.909	451.06
297.14	466.06
297.37	451.06
297.601	448.06
297.831	469.06
298.062	485.06
298.292	472.06
298.523	484.06
298.753	479.06
298.984	480.06
299.214	464.06
299.445	488.06
299.675	473.06
299.905	461.06
300.136	473.06
300.366	469.06
300.597	501.06
300.827	504.06
301.057	489.06
301.288	500.06
301.518	492.06
301.748	500.06
301.979	511.06
302.209	523.06
302.439	496.06
302.669	502.06
302.9	490.06
303.13	506.06
303.36	488.06
303.59	502.06
303.82	490.06
304.051	486.06
304.281	482.06
304.511	488.06
304.741	513.06
304.971	515.06
305.201	517.06
305.431	508.06
305.661	499.06
305.891	483.06
306.121	492.06
306.352	493.06
306.582	465.06
306.812	473.06
307.042	459.06
307.272	469.06
307.502	479.06
307.731	521.06
307.961	483.06
308.191	461.06
308.421	502.06
308.651	461.06
308.881	482.06
309.111	482.06
309.341	491.06
309.571	473.06
309.8	484.06
310.03	485.06
310.26	510.06
310.49	495.06
310.72	484.06
310.949	491.06
311.179	490.06
311.409	516.06
311.639	501.06
311.868	491.06
312.098	479.06
312.328	483.06
312.557	497.06
312.787	502.06
313.017	515.06
313.246	519.06
313.476	531.06
313.706	543.06
313.935	519.06
314.165	525.06
314.394	509.06
314.624	539.06
314.853	523.06
315.083	522.06
315.312	506.06
315.542	521.06
315.771	533.06
316.001	489.06
316.23	515.06
316.46	527.06
316.689	517.06
316.919	515.06
317.148	529.06
317.377	522.06
317.607	491.06
317.836	502.06
318.065	481.06
318.295	509.06
318.524	517.06
318.753	528.06
318.983	507.06
319.212	495.06
319.441	530.06
319.67	516.06
319.9	530.06
320.129	515.06
320.358	546.06
320.587	508.06
320.816	512.06
321.046	500.06
321.275	509.06
321.504	521.06
321.733	517.06
321.962	531.06
322.191	518.06
322.42	555.06
322.649	539.06
322.878	542.06
323.108	525.06
323.337	548.06
323.566	537.06
323.795	537.06
324.024	537.06
324.253	548.06
324.482	548.06
324.71	538.06
324.939	538.06
325.168	553.06
325.397	544.06
325.626	540.06
325.855	569.06
326.084	551.06
326.313	551.06
326.542	559.06
326.77	559.06
326.999	556.06
327.228	533.06
327.457	548.06
327.686	554.06
327.914	560.06
328.143	549.06
328.372	577.06
328.6	567.06
328.829	579.06
329.058	553.06
329.287	569.06
329.515	554.06
329.744	569.06
329.972	573.06
330.201	592.06
330.43	579.06
330.658	575.06
330.887	592.06
331.115	581.06
331.344	618.06
331.572	592.06
331.801	596.06
332.03	584.06
332.258	633.06
332.486	649.06
332.715	653.06
332.943	689.06
333.172	689.06
333.4	736.06
333.629	753.06
333.857	756.06
334.085	733.06
334.314	732.06
334.542	723.06
334.771	740.06
334.999	707.06
335.227	703.06
335.455	710.06
335.684	712.06
335.912	696.06
336.14	678.06
336.369	698.06
336.597	701.06
336.825	700.06
337.053	688.06
337.281	695.06
337.51	675.06
337.738	666.06
337.966	637.06
338.194	639.06
338.422	621.06
338.65	635.06
338.878	615.06
339.106	618.06
339.334	620.06
339.562	623.06
339.79	615.06
340.018	588.06
340.246	573.06
340.474	586.06
340.702	611.06
340.93	605.06
341.158	603.06
341.386	587.06
341.614	623.06
341.842	629.06
342.07	601.06
342.298	580.06
342.526	592.06
342.754	585.06
342.981	601.06
343.209	619.06
343.437	649.06
343.665	668.06
343.893	688.06
344.12	692.06
344.348	695.06
344.576	665.06
344.804	650.06
345.031	619.06
345.259	614.06
345.487	593.06
345.714	607.06
345.942	593.06
346.17	625.06
346.397	583.06
346.625	602.06
346.853	586.06
347.08	548.06
347.308	584.06
347.535	611.06
347.763	600.06
347.99	595.06
348.218	589.06
348.445	601.06
348.673	581.06
348.9	545.06
349.128	573.06
349.355	580.06
349.583	573.06
349.81	560.06
350.037	540.06
350.265	543.06
350.492	565.06
350.72	543.06
350.947	545.06
351.174	539.06
351.402	559.06
351.629	578.06
351.856	573.06
352.083	555.06
352.311	552.06
352.538	577.06
352.765	550.06
352.992	507.06
353.22	546.06
353.447	531.06
353.674	549.06
353.901	515.06
354.128	535.06
354.355	538.06
354.583	528.06
354.81	544.06
355.037	569.06
355.264	548.06
355.491	559.06
355.718	535.06
355.945	554.06
356.172	537.06
356.399	551.06
356.626	555.06
356.853	584.06
357.08	555.06
357.307	561.06
357.534	553.06
357.761	566.06
357.988	553.06
358.215	546.06
358.441	551.06
358.668	527.06
358.895	555.06
359.122	512.06
359.349	551.06
359.576	531.06
359.802	532.06
360.029	535.06
360.256	547.06
360.483	533.06
360.709	519.06
360.936	550.06
361.163	552.06
361.39	558.06
361.616	548.06
361.843	554.06
362.07	553.06
362.296	565.06
362.523	548.06
362.749	533.06
362.976	530.06
363.203	543.06
363.429	544.06
363.656	549.06
363.882	539.06
364.109	557.06
364.335	532.06
364.562	538.06
364.788	499.06
365.015	543.06
365.241	543.06
365.468	536.06
365.694	535.06
365.92	530.06
366.147	524.06
366.373	536.06
366.599	538.06
366.826	564.06
367.052	538.06
367.278	563.06
367.505	553.06
367.731	565.06
367.957	539.06
368.184	548.06
368.41	535.06
368.636	531.06
368.862	548.06
369.089	561.06
369.315	568.06
369.541	567.06
369.767	555.06
369.993	536.06
370.219	564.06
370.445	547.06
370.672	556.06
370.898	566.06
371.124	579.06
371.35	566.06
371.576	587.06
371.802	577.06
372.028	591.06
372.254	576.06
372.48	593.06
372.706	584.06
372.932	582.06
373.158	601.06
373.384	592.06
373.61	595.06
373.835	588.06
374.061	587.06
374.287	610.06
374.513	585.06
374.739	630.06
374.965	612.06
375.191	641.06
375.416	599.06
375.642	636.06
375.868	632.06
376.094	621.06
376.319	593.06
376.545	594.06
376.771	598.06
376.997	580.06
377.222	569.06
377.448	571.06
377.674	586.06
377.899	589.06
378.125	560.06
378.35	561.06
378.576	576.06
378.802	554.06
379.027	576.06
379.253	585.06
379.478	576.06
379.704	574.06
379.929	568.06
380.155	577.06
380.38	562.06
380.606	577.06
380.831	581.06
381.057	578.06
381.282	581.06
381.507	589.06
381.733	599.06
381.958	590.06
382.184	606.06
382.409	619.06
382.634	573.06
382.86	611.06
383.085	615.06
383.31	590.06
383.535	637.06
383.761	647.06
383.986	617.06
384.211	635.06
384.436	657.06
384.662	660.06
384.887	668.06
385.112	676.06
385.337	672.06
385.562	677.06
385.787	693.06
386.013	681.06
386.238	709.06
386.463	686.06
386.688	680.06
386.913	701.06
387.138	645.06
387.363	682.06
387.588	657.06
387.813	679.06
388.038	675.06
388.263	690.06
388.488	681.06
388.713	673.06
388.938	660.06
389.163	657.06
389.387	654.06
389.612	691.06
389.837	687.06
390.062	654.06
390.287	664.06
390.512	664.06
390.736	696.06
390.961	698.06
391.186	704.06
391.411	721.06
391.636	743.06
391.86	768.06
392.085	777.06
392.31	756.06
392.534	757.06
392.759	743.06
392.984	738.06
393.208	739.06
393.433	721.06
393.658	729.06
393.882	732.06
394.107	754.06
394.331	720.06
394.556	711.06
394.78	735.06
395.005	756.06
395.229	743.06
395.454	743.06
395.678	759.06
395.903	773.06
396.127	769.06
396.352	748.06
396.576	724.06
396.801	735.06
397.025	732.06
397.249	770.06
397.474	763.06
397.698	767.06
397.922	795.06
398.147	790.06
398.371	801.06
398.595	833.06
398.82	823.06
399.044	895.06
399.268	981.06
399.492	1100.06
399.717	1193.06
399.941	1205.06
400.165	1113.06
400.389	1007.06
400.613	969.06
400.837	937.06
401.062	903.06
401.286	875.06
401.51	884.06
401.734	825.06
401.958	851.06
402.182	858.06
402.406	892.06
402.63	883.06
402.854	892.06
403.078	906.06
403.302	916.06
403.526	947.06
403.75	947.06
403.974	955.06
404.198	970.06
404.422	944.06
404.645	938.06
404.869	943.06
405.093	954.06
405.317	929.06
405.541	955.06
405.765	948.06
405.988	941.06
406.212	972.06
406.436	946.06
406.66	945.06
406.883	989.06
407.107	1012.06
407.331	1044.06
407.555	1106.06
407.778	1084.06
408.002	1071.06
408.226	1055.06
408.449	1042.06
408.673	985.06
408.896	979.06
409.12	961.06
409.344	997.06
409.567	978.06
409.791	970.06
410.014	957.06
410.238	957.06
410.461	957.06
410.685	935.06
410.908	937.06
411.132	903.06
411.355	890.06
411.578	879.06
411.802	906.06
412.025	907.06
412.249	918.06
412.472	901.06
412.695	890.06
412.919	876.06
413.142	867.06
413.365	858.06
413.589	876.06
413.812	860.06
414.035	863.06
414.258	892.06
414.482	869.06
414.705	891.06
414.928	897.06
415.151	888.06
415.374	880.06
415.597	876.06
415.821	858.06
416.044	858.06
416.267	842.06
416.49	847.06
416.713	867.06
416.936	835.06
417.159	845.06
417.382	851.06
417.605	805.06
417.828	838.06
418.051	872.06
418.274	873.06
418.497	849.06
418.72	892.06
418.943	868.06
419.166	938.06
419.389	980.06
419.611	961.06
419.834	954.06
420.057	916.06
420.28	880.06
420.503	856.06
420.726	852.06
420.948	844.06
421.171	843.06
421.394	870.06
421.617	884.06
421.839	855.06
422.062	873.06
422.285	863.06
422.507	877.06
422.73	883.06
422.953	874.06
423.175	886.06
423.398	894.06
423.621	851.06
423.843	879.06
424.066	879.06
424.288	865.06
424.511	864.06
424.733	886.06
424.956	895.06
425.178	870.06
425.401	889.06
425.623	854.06
425.846	863.06
426.068	818.06
426.291	829.06
426.513	813.06
426.735	831.06
426.958	833.06
427.18	793.06
427.402	790.06
427.625	802.06
427.847	802.06
428.069	789.06
428.292	817.06
428.514	785.06
428.736	787.06
428.958	811.06
429.181	786.06
429.403	763.06
429.625	782.06
429.847	754.06
430.069	765.06
430.292	794.06
430.514	760.06
430.736	767.06
430.958	778.06
431.18	769.06
431.402	795.06
431.624	743.06
431.846	807.06
432.068	779.06
432.29	815.06
432.512	801.06
432.734	798.06
432.956	802.06
433.178	785.06
433.4	789.06
433.622	803.06
433.844	799.06
434.066	812.06
434.287	834.06
434.509	804.06
434.731	863.06
434.953	888.06
435.175	874.06
435.397	857.06
435.618	827.06
435.84	825.06
436.062	772.06
436.284	769.06
436.505	784.06
436.727	782.06
436.949	794.06
437.17	780.06
437.392	770.06
437.614	776.06
437.835	748.06
438.057	760.06
438.278	743.06
438.5	745.06
438.721	762.06
438.943	801.06
439.165	741.06
439.386	782.06
439.608	787.06
439.829	773.06
440.05	805.06
440.272	817.06
440.493	810.06
440.715	825.06
440.936	836.06
441.158	821.06
441.379	838.06
441.6	893.06
441.822	895.06
442.043	910.06
442.264	858.06
442.486	860.06
442.707	877.06
442.928	868.06
443.149	860.06
443.371	851.06
443.592	880.06
443.813	882.06
444.034	885.06
444.255	888.06
444.476	940.06
444.698	999.06
444.919	1004.06
445.14	1101.06
445.361	989.06
445.582	927.06
445.803	864.06
446.024	851.06
446.245	858.06
446.466	834.06
446.687	819.06
446.908	793.06
447.129	801.06
447.35	788.06
447.571	773.06
447.792	756.06
448.013	772.06
448.234	764.06
448.455	727.06
448.675	753.06
448.896	744.06
449.117	724.06
449.338	743.06
449.559	715.06
449.779	731.06
450	712.06
450.221	753.06
450.442	744.06
450.662	751.06
450.883	750.06
451.104	779.06
451.324	737.06
451.545	754.06
451.766	759.06
451.986	705.06
452.207	731.06
452.428	740.06
452.648	716.06
452.869	717.06
453.089	710.06
453.31	721.06
453.53	695.06
453.751	717.06
453.971	716.06
454.192	699.06
454.412	693.06
454.633	712.06
454.853	696.06
455.073	689.06
455.294	697.06
455.514	685.06
455.734	699.06
455.955	707.06
456.175	680.06
456.395	682.06
456.616	667.06
456.836	687.06
457.056	679.06
457.276	675.06
457.497	714.06
457.717	714.06
457.937	714.06
458.157	714.06
458.377	710.06
458.598	732.06
458.818	729.06
459.038	773.06
459.258	775.06
459.478	805.06
459.698	821.06
459.918	864.06
460.138	881.06
460.358	913.06
460.578	921.06
460.798	924.06
461.018	929.06
461.238	941.06
461.458	951.06
461.678	911.06
461.898	957.06
462.118	964.06
462.338	1002.06
462.558	1030.06
462.777	1049.06
462.997	1111.06
463.217	1196.06
463.437	1211.06
463.657	1120.06
463.876	1094.06
464.096	1090.06
464.316	1086.06
464.536	1100.06
464.755	1045.06
464.975	1027.06
465.195	953.06
465.414	928.06
465.634	863.06
465.854	851.06
466.073	847.06
466.293	830.06
466.512	815.06
466.732	782.06
466.951	792.06
467.171	763.06
467.391	749.06
467.61	765.06
467.829	757.06
468.049	792.06
468.268	742.06
468.488	738.06
468.707	752.06
468.927	771.06
469.146	751.06
469.365	740.06
469.585	743.06
469.804	773.06
470.023	786.06
470.243	787.06
470.462	797.06
470.681	800.06
470.901	817.06
471.12	790.06
471.339	777.06
471.558	759.06
471.777	761.06
471.997	725.06
472.216	753.06
472.435	759.06
472.654	732.06
472.873	718.06
473.092	724.06
473.311	729.06
473.53	727.06
473.749	725.06
473.968	716.06
474.187	711.06
474.406	714.06
474.625	733.06
474.844	721.06
475.063	730.06
475.282	737.06
475.501	723.06
475.72	726.06
475.939	737.06
476.158	738.06
476.377	782.06
476.596	772.06
476.814	770.06
477.033	753.06
477.252	791.06
477.471	798.06
477.69	827.06
477.908	828.06
478.127	844.06
478.346	859.06
478.564	882.06
478.783	881.06
479.002	884.06
479.22	880.06
479.439	892.06
479.658	880.06
479.876	911.06
480.095	905.06
480.313	926.06
480.532	923.06
480.751	945.06
480.969	899.06
481.188	892.06
481.406	873.06
481.624	823.06
481.843	833.06
482.061	852.06
482.28	852.06
482.498	815.06
482.717	812.06
482.935	827.06
483.153	807.06
483.372	854.06
483.59	832.06
483.808	828.06
484.027	844.06
484.245	844.06
484.463	852.06
484.681	864.06
484.9	852.06
485.118	864.06
485.336	856.06
485.554	857.06
485.772	862.06
485.99	871.06
486.209	893.06
486.427	898.06
486.645	895.06
486.863	893.06
487.081	876.06
487.299	868.06
487.517	856.06
487.735	853.06
487.953	895.06
488.171	894.06
488.389	864.06
488.607	855.06
488.825	885.06
489.043	825.06
489.261	861.06
489.479	876.06
489.696	853.06
489.914	896.06
490.132	860.06
490.35	888.06
490.568	895.06
490.786	888.06
491.003	842.06
491.221	869.06
491.439	891.06
491.657	908.06
491.874	925.06
492.092	911.06
492.31	905.06
492.527	913.06
492.745	921.06
492.963	912.06
493.18	932.06
493.398	915.06
493.615	912.06
493.833	915.06
494.05	920.06
494.268	952.06
494.485	940.06
494.703	900.06
494.92	931.06
495.138	949.06
495.355	945.06
495.573	940.06
495.79	934.06
496.008	965.06
496.225	931.06
496.442	941.06
496.66	976.06
496.877	1005.06
497.094	993.06
497.312	1014.06
497.529	1041.06
497.746	1041.06
497.963	1081.06
498.181	1110.06
498.398	1162.06
498.615	1248.06
498.832	1325.06
499.049	1396.06
499.267	1484.06
499.484	1661.06
499.701	1831.06
499.918	1969.06
500.135	2237.06
500.352	2439.06
500.569	2571.06
500.786	2480.06
501.003	2383.06
