Data from NiCl2@0.0625M.TitratingCurve.Agarose3%dH2O.NegLispCup.LampEnergy10.LIBS07252019_HRD10591_18-35-05-579.txt Node
Date: Thu Jul 25 18:35:05 EDT 2019
User: cochatt
Spectrometer: HR+D1059
Trigger mode: 1
Integration Time (sec): 1.000000E-1
Scans to average: 1
Electric dark correction enabled: true
Nonlinearity correction enabled: false
Boxcar width: 0
XAxis mode: Wavelengths
Number of Pixels in Spectrum: 2048
>>>>>Begin Spectral Data<<<<<
223.165	-6.88
223.4	-6.88
223.635	-6.88
223.869	-17.88
224.104	-16.88
224.338	-26.88
224.573	-4.88
224.808	-14.88
225.042	2.12
225.277	-4.88
225.511	-1.88
225.746	13.12
225.98	1.12
226.215	11.12
226.449	15.12
226.683	12.12
226.918	14.12
227.152	26.12
227.387	23.12
227.621	37.12
227.856	46.12
228.09	51.12
228.324	49.12
228.559	65.12
228.793	73.12
229.027	126.12
229.262	134.12
229.496	146.12
229.73	151.12
229.964	139.12
230.199	160.12
230.433	153.12
230.667	175.12
230.901	154.12
231.136	150.12
231.37	157.12
231.604	170.12
231.838	184.12
232.072	180.12
232.306	193.12
232.541	173.12
232.775	172.12
233.009	185.12
233.243	184.12
233.477	195.12
233.711	198.12
233.945	186.12
234.179	176.12
234.413	181.12
234.647	194.12
234.881	175.12
235.115	193.12
235.349	201.12
235.583	198.12
235.817	202.12
236.051	206.12
236.285	205.12
236.519	194.12
236.753	200.12
236.987	185.12
237.221	187.12
237.455	201.12
237.689	220.12
237.922	215.12
238.156	225.12
238.39	198.12
238.624	232.12
238.858	221.12
239.091	231.12
239.325	226.12
239.559	243.12
239.793	224.12
240.027	254.12
240.26	227.12
240.494	229.12
240.728	252.12
240.961	242.12
241.195	247.12
241.429	250.12
241.662	278.12
241.896	263.12
242.13	267.12
242.363	254.12
242.597	270.12
242.83	273.12
243.064	280.12
243.298	261.12
243.531	280.12
243.765	288.12
243.998	283.12
244.232	285.12
244.465	281.12
244.699	289.12
244.932	300.12
245.166	291.12
245.399	309.12
245.633	305.12
245.866	302.12
246.099	310.12
246.333	325.12
246.566	307.12
246.8	326.12
247.033	307.12
247.266	299.12
247.5	303.12
247.733	337.12
247.966	340.12
248.2	329.12
248.433	325.12
248.666	346.12
248.899	331.12
249.133	329.12
249.366	337.12
249.599	343.12
249.832	341.12
250.066	352.12
250.299	370.12
250.532	369.12
250.765	346.12
250.998	351.12
251.231	361.12
251.465	381.12
251.698	358.12
251.931	382.12
252.164	368.12
252.397	362.12
252.63	376.12
252.863	373.12
253.096	377.12
253.329	426.12
253.562	385.12
253.795	398.12
254.028	405.12
254.261	377.12
254.494	388.12
254.727	393.12
254.96	420.12
255.193	435.12
255.426	407.12
255.659	401.12
255.892	409.12
256.124	426.12
256.357	403.12
256.59	414.12
256.823	409.12
257.056	419.12
257.289	430.12
257.521	438.12
257.754	425.12
257.987	438.12
258.22	432.12
258.452	433.12
258.685	431.12
258.918	461.12
259.151	441.12
259.383	437.12
259.616	435.12
259.849	450.12
260.081	459.12
260.314	442.12
260.547	445.12
260.779	456.12
261.012	458.12
261.244	458.12
261.477	473.12
261.71	444.12
261.942	477.12
262.175	479.12
262.407	480.12
262.64	490.12
262.872	466.12
263.105	485.12
263.337	496.12
263.57	521.12
263.802	494.12
264.035	486.12
264.267	476.12
264.499	491.12
264.732	503.12
264.964	505.12
265.197	495.12
265.429	499.12
265.661	512.12
265.894	497.12
266.126	524.12
266.358	513.12
266.591	501.12
266.823	549.12
267.055	531.12
267.287	535.12
267.52	517.12
267.752	533.12
267.984	552.12
268.216	538.12
268.448	552.12
268.681	547.12
268.913	552.12
269.145	534.12
269.377	529.12
269.609	558.12
269.841	545.12
270.073	549.12
270.306	559.12
270.538	554.12
270.77	569.12
271.002	569.12
271.234	577.12
271.466	567.12
271.698	567.12
271.93	591.12
272.162	587.12
272.394	582.12
272.626	553.12
272.858	589.12
273.09	609.12
273.322	584.12
273.553	566.12
273.785	607.12
274.017	600.12
274.249	597.12
274.481	602.12
274.713	598.12
274.945	600.12
275.176	599.12
275.408	599.12
275.64	631.12
275.872	610.12
276.104	614.12
276.335	647.12
276.567	617.12
276.799	622.12
277.031	627.12
277.262	617.12
277.494	622.12
277.726	635.12
277.957	645.12
278.189	664.12
278.421	636.12
278.652	638.12
278.884	657.12
279.115	657.12
279.347	655.12
279.579	660.12
279.81	658.12
280.042	648.12
280.273	671.12
280.505	681.12
280.736	667.12
280.968	690.12
281.199	669.12
281.431	693.12
281.662	695.12
281.894	710.12
282.125	693.12
282.356	685.12
282.588	688.12
282.819	717.12
283.051	703.12
283.282	715.12
283.513	710.12
283.745	700.12
283.976	706.12
284.207	706.12
284.439	714.12
284.67	708.12
284.901	696.12
285.132	721.12
285.364	702.12
285.595	747.12
285.826	731.12
286.057	724.12
286.288	742.12
286.52	738.12
286.751	751.12
286.982	752.12
287.213	750.12
287.444	746.12
287.675	740.12
287.906	749.12
288.138	761.12
288.369	763.12
288.6	778.12
288.831	754.12
289.062	785.12
289.293	753.12
289.524	739.12
289.755	758.12
289.986	750.12
290.217	754.12
290.448	774.12
290.679	776.12
290.91	816.12
291.141	791.12
291.371	784.12
291.602	787.12
291.833	763.12
292.064	742.12
292.295	804.12
292.526	769.12
292.757	756.12
292.987	763.12
293.218	795.12
293.449	805.12
293.68	809.12
293.91	765.12
294.141	761.12
294.372	791.12
294.603	808.12
294.833	784.12
295.064	815.12
295.295	815.12
295.525	797.12
295.756	783.12
295.987	819.12
296.217	787.12
296.448	819.12
296.679	801.12
296.909	801.12
297.14	827.12
297.37	844.12
297.601	817.12
297.831	821.12
298.062	851.12
298.292	815.12
298.523	845.12
298.753	857.12
298.984	857.12
299.214	836.12
299.445	842.12
299.675	844.12
299.905	859.12
300.136	841.12
300.366	854.12
300.597	863.12
300.827	882.12
301.057	897.12
301.288	883.12
301.518	884.12
301.748	889.12
301.979	907.12
302.209	889.12
302.439	877.12
302.669	919.12
302.9	901.12
303.13	870.12
303.36	885.12
303.59	903.12
303.82	887.12
304.051	877.12
304.281	878.12
304.511	903.12
304.741	872.12
304.971	895.12
305.201	915.12
305.431	880.12
305.661	873.12
305.891	871.12
306.121	885.12
306.352	877.12
306.582	882.12
306.812	859.12
307.042	891.12
307.272	890.12
307.502	884.12
307.731	880.12
307.961	879.12
308.191	881.12
308.421	874.12
308.651	901.12
308.881	854.12
309.111	864.12
309.341	887.12
309.571	893.12
309.8	906.12
310.03	887.12
310.26	904.12
310.49	861.12
310.72	897.12
310.949	901.12
311.179	877.12
311.409	903.12
311.639	896.12
311.868	893.12
312.098	885.12
312.328	907.12
312.557	929.12
312.787	936.12
313.017	913.12
313.246	926.12
313.476	959.12
313.706	930.12
313.935	958.12
314.165	959.12
314.394	951.12
314.624	964.12
314.853	938.12
315.083	933.12
315.312	935.12
315.542	951.12
315.771	958.12
316.001	952.12
316.23	949.12
316.46	923.12
316.689	975.12
316.919	944.12
317.148	949.12
317.377	927.12
317.607	939.12
317.836	927.12
318.065	911.12
318.295	939.12
318.524	954.12
318.753	928.12
318.983	928.12
319.212	931.12
319.441	939.12
319.67	936.12
319.9	915.12
320.129	952.12
320.358	952.12
320.587	919.12
320.816	929.12
321.046	953.12
321.275	948.12
321.504	950.12
321.733	951.12
321.962	945.12
322.191	947.12
322.42	937.12
322.649	933.12
322.878	953.12
323.108	943.12
323.337	983.12
323.566	955.12
323.795	976.12
324.024	982.12
324.253	980.12
324.482	934.12
324.71	970.12
324.939	978.12
325.168	1031.12
325.397	952.12
325.626	978.12
325.855	1001.12
326.084	994.12
326.313	1029.12
326.542	1037.12
326.77	1017.12
326.999	1004.12
327.228	1004.12
327.457	1048.12
327.686	996.12
327.914	1011.12
328.143	1024.12
328.372	1045.12
328.6	1016.12
328.829	1003.12
329.058	1009.12
329.287	1011.12
329.515	1036.12
329.744	1010.12
329.972	1011.12
330.201	1049.12
330.43	1056.12
330.658	1065.12
330.887	1058.12
331.115	1048.12
331.344	1064.12
331.572	1105.12
331.801	1095.12
332.03	1122.12
332.258	1131.12
332.486	1127.12
332.715	1177.12
332.943	1205.12
333.172	1233.12
333.4	1238.12
333.629	1288.12
333.857	1336.12
334.085	1257.12
334.314	1280.12
334.542	1305.12
334.771	1290.12
334.999	1252.12
335.227	1269.12
335.455	1290.12
335.684	1252.12
335.912	1221.12
336.14	1255.12
336.369	1206.12
336.597	1220.12
336.825	1230.12
337.053	1209.12
337.281	1178.12
337.51	1176.12
337.738	1184.12
337.966	1138.12
338.194	1134.12
338.422	1126.12
338.65	1114.12
338.878	1106.12
339.106	1146.12
339.334	1102.12
339.562	1110.12
339.79	1073.12
340.018	1086.12
340.246	1072.12
340.474	1057.12
340.702	1100.12
340.93	1107.12
341.158	1071.12
341.386	1087.12
341.614	1103.12
341.842	1071.12
342.07	1080.12
342.298	1082.12
342.526	1096.12
342.754	1065.12
342.981	1091.12
343.209	1102.12
343.437	1141.12
343.665	1154.12
343.893	1225.12
344.12	1266.12
344.348	1226.12
344.576	1194.12
344.804	1171.12
345.031	1153.12
345.259	1103.12
345.487	1099.12
345.714	1073.12
345.942	1081.12
346.17	1054.12
346.397	1052.12
346.625	1041.12
346.853	1051.12
347.08	1025.12
347.308	1048.12
347.535	1028.12
347.763	1027.12
347.99	1032.12
348.218	1032.12
348.445	1073.12
348.673	1027.12
348.9	1053.12
349.128	1025.12
349.355	1008.12
349.583	1020.12
349.81	1020.12
350.037	1011.12
350.265	1011.12
350.492	1012.12
350.72	987.12
350.947	993.12
351.174	1009.12
351.402	1014.12
351.629	999.12
351.856	999.12
352.083	984.12
352.311	976.12
352.538	1027.12
352.765	982.12
352.992	961.12
353.22	985.12
353.447	969.12
353.674	992.12
353.901	997.12
354.128	993.12
354.355	964.12
354.583	1002.12
354.81	1006.12
355.037	1018.12
355.264	981.12
355.491	997.12
355.718	960.12
355.945	966.12
356.172	1000.12
356.399	993.12
356.626	987.12
356.853	1009.12
357.08	989.12
357.307	999.12
357.534	1009.12
357.761	1021.12
357.988	1024.12
358.215	978.12
358.441	1000.12
358.668	1018.12
358.895	1015.12
359.122	1005.12
359.349	986.12
359.576	971.12
359.802	991.12
360.029	1002.12
360.256	966.12
360.483	978.12
360.709	975.12
360.936	987.12
361.163	1013.12
361.39	1000.12
361.616	981.12
361.843	1005.12
362.07	997.12
362.296	1019.12
362.523	998.12
362.749	1019.12
362.976	989.12
363.203	976.12
363.429	982.12
363.656	995.12
363.882	1015.12
364.109	979.12
364.335	956.12
364.562	995.12
364.788	1014.12
365.015	998.12
365.241	996.12
365.468	987.12
365.694	987.12
365.92	1005.12
366.147	983.12
366.373	982.12
366.599	985.12
366.826	970.12
367.052	1022.12
367.278	1003.12
367.505	986.12
367.731	1015.12
367.957	1013.12
368.184	1023.12
368.41	1016.12
368.636	1019.12
368.862	1003.12
369.089	1034.12
369.315	1030.12
369.541	1029.12
369.767	1058.12
369.993	1048.12
370.219	1046.12
370.445	1076.12
370.672	1041.12
370.898	1051.12
371.124	1086.12
371.35	1070.12
371.576	1105.12
371.802	1076.12
372.028	1125.12
372.254	1099.12
372.48	1092.12
372.706	1107.12
372.932	1126.12
373.158	1135.12
373.384	1099.12
373.61	1088.12
373.835	1110.12
374.061	1037.12
374.287	1083.12
374.513	1145.12
374.739	1162.12
374.965	1169.12
375.191	1162.12
375.416	1186.12
375.642	1147.12
375.868	1139.12
376.094	1128.12
376.319	1074.12
376.545	1118.12
376.771	1072.12
376.997	1068.12
377.222	1081.12
377.448	1030.12
377.674	1093.12
377.899	1067.12
378.125	1079.12
378.35	1060.12
378.576	1055.12
378.802	1062.12
379.027	1056.12
379.253	1094.12
379.478	1031.12
379.704	1071.12
379.929	1094.12
380.155	1055.12
380.38	1083.12
380.606	1071.12
380.831	1096.12
381.057	1079.12
381.282	1061.12
381.507	1105.12
381.733	1077.12
381.958	1090.12
382.184	1075.12
382.409	1091.12
382.634	1138.12
382.86	1121.12
383.085	1157.12
383.31	1146.12
383.535	1159.12
383.761	1146.12
383.986	1178.12
384.211	1194.12
384.436	1173.12
384.662	1213.12
384.887	1256.12
385.112	1219.12
385.337	1269.12
385.562	1274.12
385.787	1263.12
386.013	1273.12
386.238	1257.12
386.463	1311.12
386.688	1293.12
386.913	1283.12
387.138	1279.12
387.363	1281.12
387.588	1272.12
387.813	1259.12
388.038	1248.12
388.263	1277.12
388.488	1270.12
388.713	1266.12
388.938	1262.12
389.163	1237.12
389.387	1259.12
389.612	1251.12
389.837	1272.12
390.062	1255.12
390.287	1282.12
390.512	1243.12
390.736	1303.12
390.961	1292.12
391.186	1317.12
391.411	1367.12
391.636	1386.12
391.86	1388.12
392.085	1449.12
392.31	1408.12
392.534	1411.12
392.759	1405.12
392.984	1339.12
393.208	1297.12
393.433	1386.12
393.658	1350.12
393.882	1310.12
394.107	1321.12
394.331	1341.12
394.556	1338.12
394.78	1367.12
395.005	1374.12
395.229	1387.12
395.454	1397.12
395.678	1420.12
395.903	1420.12
396.127	1435.12
396.352	1371.12
396.576	1361.12
396.801	1378.12
397.025	1410.12
397.249	1395.12
397.474	1426.12
397.698	1449.12
397.922	1442.12
398.147	1451.12
398.371	1503.12
398.595	1493.12
398.82	1596.12
399.044	1660.12
399.268	1774.12
399.492	2011.12
399.717	2166.12
399.941	2182.12
400.165	2024.12
400.389	1869.12
400.613	1803.12
400.837	1693.12
401.062	1649.12
401.286	1599.12
401.51	1586.12
401.734	1562.12
401.958	1602.12
402.182	1603.12
402.406	1579.12
402.63	1612.12
402.854	1691.12
403.078	1624.12
403.302	1689.12
403.526	1715.12
403.75	1673.12
403.974	1742.12
404.198	1719.12
404.422	1751.12
404.645	1691.12
404.869	1673.12
405.093	1741.12
405.317	1658.12
405.541	1709.12
405.765	1732.12
405.988	1716.12
406.212	1714.12
406.436	1700.12
406.66	1771.12
406.883	1750.12
407.107	1867.12
407.331	1895.12
407.555	1970.12
407.778	2049.12
408.002	1917.12
408.226	1947.12
408.449	1930.12
408.673	1788.12
408.896	1780.12
409.12	1737.12
409.344	1797.12
409.567	1791.12
409.791	1746.12
410.014	1699.12
410.238	1728.12
410.461	1747.12
410.685	1739.12
410.908	1729.12
411.132	1711.12
411.355	1686.12
411.578	1620.12
411.802	1654.12
412.025	1658.12
412.249	1667.12
412.472	1666.12
412.695	1600.12
412.919	1654.12
413.142	1644.12
413.365	1604.12
413.589	1635.12
413.812	1629.12
414.035	1577.12
414.258	1594.12
414.482	1621.12
414.705	1605.12
414.928	1570.12
415.151	1622.12
415.374	1577.12
415.597	1538.12
415.821	1542.12
416.044	1555.12
416.267	1528.12
416.49	1511.12
416.713	1534.12
416.936	1547.12
417.159	1565.12
417.382	1515.12
417.605	1513.12
417.828	1506.12
418.051	1523.12
418.274	1546.12
418.497	1554.12
418.72	1576.12
418.943	1571.12
419.166	1630.12
419.389	1759.12
419.611	1754.12
419.834	1669.12
420.057	1623.12
420.28	1548.12
420.503	1514.12
420.726	1464.12
420.948	1538.12
421.171	1493.12
421.394	1533.12
421.617	1489.12
421.839	1515.12
422.062	1531.12
422.285	1499.12
422.507	1546.12
422.73	1549.12
422.953	1532.12
423.175	1617.12
423.398	1621.12
423.621	1539.12
423.843	1543.12
424.066	1559.12
424.288	1556.12
424.511	1546.12
424.733	1512.12
424.956	1534.12
425.178	1551.12
425.401	1542.12
425.623	1542.12
425.846	1483.12
426.068	1506.12
426.291	1472.12
426.513	1480.12
426.735	1471.12
426.958	1509.12
427.18	1409.12
427.402	1442.12
427.625	1443.12
427.847	1402.12
428.069	1409.12
428.292	1438.12
428.514	1392.12
428.736	1422.12
428.958	1402.12
429.181	1364.12
429.403	1361.12
429.625	1380.12
429.847	1416.12
430.069	1359.12
430.292	1350.12
430.514	1378.12
430.736	1363.12
430.958	1376.12
431.18	1390.12
431.402	1381.12
431.624	1395.12
431.846	1370.12
432.068	1413.12
432.29	1447.12
432.512	1412.12
432.734	1450.12
432.956	1386.12
433.178	1389.12
433.4	1423.12
433.622	1434.12
433.844	1468.12
434.066	1443.12
434.287	1433.12
434.509	1527.12
434.731	1535.12
434.953	1549.12
435.175	1542.12
435.397	1560.12
435.618	1513.12
435.84	1471.12
436.062	1409.12
436.284	1415.12
436.505	1419.12
436.727	1418.12
436.949	1401.12
437.17	1411.12
437.392	1386.12
437.614	1364.12
437.835	1334.12
438.057	1341.12
438.278	1323.12
438.5	1340.12
438.721	1344.12
438.943	1345.12
439.165	1346.12
439.386	1370.12
439.608	1370.12
439.829	1357.12
440.05	1354.12
440.272	1380.12
440.493	1400.12
440.715	1405.12
440.936	1402.12
441.158	1420.12
441.379	1475.12
441.6	1515.12
441.822	1501.12
442.043	1519.12
442.264	1481.12
442.486	1449.12
442.707	1485.12
442.928	1489.12
443.149	1455.12
443.371	1478.12
443.592	1519.12
443.813	1539.12
444.034	1554.12
444.255	1537.12
444.476	1597.12
444.698	1635.12
444.919	1707.12
445.14	1799.12
445.361	1610.12
445.582	1538.12
445.803	1493.12
446.024	1437.12
446.245	1425.12
446.466	1411.12
446.687	1361.12
446.908	1362.12
447.129	1331.12
447.35	1341.12
447.571	1299.12
447.792	1290.12
448.013	1299.12
448.234	1280.12
448.455	1288.12
448.675	1242.12
448.896	1237.12
449.117	1247.12
449.338	1258.12
449.559	1282.12
449.779	1265.12
450	1267.12
450.221	1231.12
450.442	1229.12
450.662	1239.12
450.883	1246.12
451.104	1236.12
451.324	1250.12
451.545	1233.12
451.766	1239.12
451.986	1218.12
452.207	1229.12
452.428	1241.12
452.648	1235.12
452.869	1201.12
453.089	1178.12
453.31	1202.12
453.53	1194.12
453.751	1173.12
453.971	1162.12
454.192	1230.12
454.412	1175.12
454.633	1197.12
454.853	1176.12
455.073	1193.12
455.294	1172.12
455.514	1186.12
455.734	1183.12
455.955	1161.12
456.175	1159.12
456.395	1151.12
456.616	1163.12
456.836	1177.12
457.056	1127.12
457.276	1122.12
457.497	1178.12
457.717	1197.12
457.937	1178.12
458.157	1194.12
458.377	1249.12
458.598	1233.12
458.818	1277.12
459.038	1294.12
459.258	1326.12
459.478	1388.12
459.698	1423.12
459.918	1440.12
460.138	1439.12
460.358	1562.12
460.578	1561.12
460.798	1582.12
461.018	1583.12
461.238	1559.12
461.458	1535.12
461.678	1558.12
461.898	1609.12
462.118	1612.12
462.338	1671.12
462.558	1695.12
462.777	1728.12
462.997	1856.12
463.217	1924.12
463.437	1970.12
463.657	1877.12
463.876	1797.12
464.096	1807.12
464.316	1803.12
464.536	1801.12
464.755	1717.12
464.975	1654.12
465.195	1646.12
465.414	1576.12
465.634	1457.12
465.854	1421.12
466.073	1382.12
466.293	1373.12
466.512	1340.12
466.732	1309.12
466.951	1323.12
467.171	1320.12
467.391	1322.12
467.61	1298.12
467.829	1269.12
468.049	1309.12
468.268	1236.12
468.488	1250.12
468.707	1234.12
468.927	1297.12
469.146	1264.12
469.365	1286.12
469.585	1286.12
469.804	1320.12
470.023	1311.12
470.243	1332.12
470.462	1373.12
470.681	1349.12
470.901	1344.12
471.12	1345.12
471.339	1295.12
471.558	1305.12
471.777	1289.12
471.997	1276.12
472.216	1305.12
472.435	1282.12
472.654	1249.12
472.873	1238.12
473.092	1241.12
473.311	1283.12
473.53	1256.12
473.749	1238.12
473.968	1237.12
474.187	1267.12
474.406	1232.12
474.625	1256.12
474.844	1250.12
475.063	1253.12
475.282	1269.12
475.501	1277.12
475.72	1300.12
475.939	1285.12
476.158	1296.12
476.377	1335.12
476.596	1315.12
476.814	1352.12
477.033	1350.12
477.252	1355.12
477.471	1376.12
477.69	1422.12
477.908	1409.12
478.127	1436.12
478.346	1467.12
478.564	1505.12
478.783	1527.12
479.002	1569.12
479.22	1533.12
479.439	1569.12
479.658	1541.12
479.876	1562.12
480.095	1562.12
480.313	1618.12
480.532	1674.12
480.751	1643.12
480.969	1631.12
481.188	1593.12
481.406	1555.12
481.624	1530.12
481.843	1484.12
482.061	1519.12
482.28	1471.12
482.498	1523.12
482.717	1515.12
482.935	1527.12
483.153	1523.12
483.372	1552.12
483.59	1518.12
483.808	1539.12
484.027	1569.12
484.245	1592.12
484.463	1604.12
484.681	1624.12
484.9	1645.12
485.118	1639.12
485.336	1616.12
485.554	1631.12
485.772	1670.12
485.99	1682.12
486.209	1682.12
486.427	1689.12
486.645	1684.12
486.863	1634.12
487.081	1636.12
487.299	1657.12
487.517	1642.12
487.735	1636.12
487.953	1636.12
488.171	1634.12
488.389	1621.12
488.607	1591.12
488.825	1592.12
489.043	1582.12
489.261	1546.12
489.479	1587.12
489.696	1584.12
489.914	1577.12
490.132	1547.12
490.35	1575.12
490.568	1574.12
490.786	1575.12
491.003	1607.12
491.221	1562.12
491.439	1595.12
491.657	1569.12
491.874	1547.12
492.092	1559.12
