Data from NiCl2@0.5M.TitratingCurve.Agarose3%dH2O.NegLispCup.LampEnergy10.LIBS07252019_HRD10591_18-20-06-571.txt Node
Date: Thu Jul 25 18:20:06 EDT 2019
User: cochatt
Spectrometer: HR+D1059
Trigger mode: 1
Integration Time (sec): 1.000000E-1
Scans to average: 1
Electric dark correction enabled: true
Nonlinearity correction enabled: false
Boxcar width: 0
XAxis mode: Wavelengths
Number of Pixels in Spectrum: 2048
>>>>>Begin Spectral Data<<<<<
223.165	-29.88
223.4	-29.88
223.635	-29.88
223.869	-19.88
224.104	-27.88
224.338	-14.88
224.573	-9.88
224.808	-19.88
225.042	1.12
225.277	-5.88
225.511	7.12
225.746	19.12
225.98	13.12
226.215	3.12
226.449	9.12
226.683	13.12
226.918	25.12
227.152	37.12
227.387	25.12
227.621	35.12
227.856	47.12
228.09	52.12
228.324	47.12
228.559	43.12
228.793	63.12
229.027	92.12
229.262	106.12
229.496	107.12
229.73	114.12
229.964	111.12
230.199	124.12
230.433	116.12
230.667	116.12
230.901	119.12
231.136	121.12
231.37	135.12
231.604	123.12
231.838	123.12
232.072	136.12
232.306	133.12
232.541	129.12
232.775	137.12
233.009	126.12
233.243	142.12
233.477	139.12
233.711	127.12
233.945	124.12
234.179	145.12
234.413	134.12
234.647	147.12
234.881	141.12
235.115	134.12
235.349	151.12
235.583	156.12
235.817	137.12
236.051	137.12
236.285	130.12
236.519	129.12
236.753	141.12
236.987	138.12
237.221	148.12
237.455	156.12
237.689	133.12
237.922	140.12
238.156	143.12
238.39	143.12
238.624	148.12
238.858	138.12
239.091	143.12
239.325	142.12
239.559	148.12
239.793	160.12
240.027	135.12
240.26	167.12
240.494	142.12
240.728	158.12
240.961	159.12
241.195	159.12
241.429	162.12
241.662	161.12
241.896	185.12
242.13	184.12
242.363	180.12
242.597	157.12
242.83	175.12
243.064	181.12
243.298	181.12
243.531	165.12
243.765	188.12
243.998	173.12
244.232	171.12
244.465	182.12
244.699	187.12
244.932	174.12
245.166	196.12
245.399	203.12
245.633	195.12
245.866	192.12
246.099	197.12
246.333	185.12
246.566	182.12
246.8	185.12
247.033	201.12
247.266	192.12
247.5	212.12
247.733	190.12
247.966	203.12
248.2	216.12
248.433	197.12
248.666	198.12
248.899	211.12
249.133	199.12
249.366	215.12
249.599	211.12
249.832	195.12
250.066	214.12
250.299	213.12
250.532	218.12
250.765	209.12
250.998	230.12
251.231	226.12
251.465	215.12
251.698	226.12
251.931	219.12
252.164	227.12
252.397	237.12
252.63	234.12
252.863	226.12
253.096	248.12
253.329	244.12
253.562	224.12
253.795	250.12
254.028	242.12
254.261	242.12
254.494	229.12
254.727	240.12
254.96	243.12
255.193	257.12
255.426	247.12
255.659	245.12
255.892	258.12
256.124	248.12
256.357	244.12
256.59	267.12
256.823	246.12
257.056	252.12
257.289	260.12
257.521	266.12
257.754	257.12
257.987	246.12
258.22	256.12
258.452	250.12
258.685	276.12
258.918	253.12
259.151	269.12
259.383	268.12
259.616	262.12
259.849	272.12
260.081	267.12
260.314	252.12
260.547	256.12
260.779	276.12
261.012	287.12
261.244	281.12
261.477	286.12
261.71	277.12
261.942	300.12
262.175	291.12
262.407	257.12
262.64	290.12
262.872	291.12
263.105	289.12
263.337	281.12
263.57	274.12
263.802	287.12
264.035	297.12
264.267	288.12
264.499	283.12
264.732	296.12
264.964	300.12
265.197	288.12
265.429	279.12
265.661	319.12
265.894	309.12
266.126	298.12
266.358	307.12
266.591	307.12
266.823	294.12
267.055	311.12
267.287	315.12
267.52	309.12
267.752	315.12
267.984	323.12
268.216	322.12
268.448	334.12
268.681	299.12
268.913	323.12
269.145	318.12
269.377	321.12
269.609	324.12
269.841	325.12
270.073	323.12
270.306	320.12
270.538	332.12
270.77	331.12
271.002	317.12
271.234	330.12
271.466	334.12
271.698	335.12
271.93	338.12
272.162	330.12
272.394	351.12
272.626	325.12
272.858	355.12
273.09	346.12
273.322	355.12
273.553	355.12
273.785	349.12
274.017	340.12
274.249	364.12
274.481	342.12
274.713	358.12
274.945	355.12
275.176	377.12
275.408	372.12
275.64	358.12
275.872	338.12
276.104	375.12
276.335	374.12
276.567	372.12
276.799	363.12
277.031	359.12
277.262	355.12
277.494	366.12
277.726	381.12
277.957	375.12
278.189	365.12
278.421	383.12
278.652	360.12
278.884	378.12
279.115	360.12
279.347	381.12
279.579	389.12
279.81	379.12
280.042	378.12
280.273	370.12
280.505	391.12
280.736	379.12
280.968	406.12
281.199	411.12
281.431	383.12
281.662	378.12
281.894	421.12
282.125	397.12
282.356	399.12
282.588	417.12
282.819	387.12
283.051	405.12
283.282	405.12
283.513	389.12
283.745	399.12
283.976	404.12
284.207	413.12
284.439	398.12
284.67	405.12
284.901	403.12
285.132	399.12
285.364	416.12
285.595	418.12
285.826	420.12
286.057	420.12
286.288	424.12
286.52	424.12
286.751	422.12
286.982	431.12
287.213	437.12
287.444	437.12
287.675	437.12
287.906	451.12
288.138	425.12
288.369	418.12
288.6	434.12
288.831	444.12
289.062	425.12
289.293	443.12
289.524	420.12
289.755	447.12
289.986	431.12
290.217	455.12
290.448	464.12
290.679	452.12
290.91	450.12
291.141	469.12
291.371	458.12
291.602	453.12
291.833	466.12
292.064	435.12
292.295	442.12
292.526	455.12
292.757	436.12
292.987	455.12
293.218	463.12
293.449	460.12
293.68	450.12
293.91	435.12
294.141	458.12
294.372	457.12
294.603	466.12
294.833	433.12
295.064	464.12
295.295	468.12
295.525	455.12
295.756	467.12
295.987	473.12
296.217	459.12
296.448	479.12
296.679	458.12
296.909	466.12
297.14	487.12
297.37	460.12
297.601	480.12
297.831	497.12
298.062	491.12
298.292	507.12
298.523	496.12
298.753	504.12
298.984	500.12
299.214	502.12
299.445	487.12
299.675	508.12
299.905	499.12
300.136	504.12
300.366	492.12
300.597	495.12
300.827	535.12
301.057	531.12
301.288	536.12
301.518	520.12
301.748	514.12
301.979	537.12
302.209	507.12
302.439	515.12
302.669	532.12
302.9	509.12
303.13	511.12
303.36	521.12
303.59	530.12
303.82	542.12
304.051	521.12
304.281	541.12
304.511	495.12
304.741	531.12
304.971	525.12
305.201	517.12
305.431	540.12
305.661	528.12
305.891	535.12
306.121	540.12
306.352	518.12
306.582	510.12
306.812	511.12
307.042	510.12
307.272	500.12
307.502	521.12
307.731	492.12
307.961	526.12
308.191	533.12
308.421	525.12
308.651	495.12
308.881	507.12
309.111	531.12
309.341	519.12
309.571	482.12
309.8	505.12
310.03	530.12
310.26	515.12
310.49	520.12
310.72	499.12
310.949	521.12
311.179	520.12
311.409	518.12
311.639	520.12
311.868	536.12
312.098	537.12
312.328	524.12
312.557	533.12
312.787	538.12
313.017	537.12
313.246	570.12
313.476	577.12
313.706	568.12
313.935	572.12
314.165	571.12
314.394	552.12
314.624	557.12
314.853	586.12
315.083	553.12
315.312	551.12
315.542	564.12
315.771	555.12
316.001	554.12
316.23	535.12
316.46	566.12
316.689	565.12
316.919	557.12
317.148	565.12
317.377	569.12
317.607	562.12
317.836	530.12
318.065	536.12
318.295	543.12
318.524	549.12
318.753	526.12
318.983	551.12
319.212	543.12
319.441	552.12
319.67	561.12
319.9	552.12
320.129	559.12
320.358	540.12
320.587	556.12
320.816	549.12
321.046	537.12
321.275	547.12
321.504	557.12
321.733	570.12
321.962	561.12
322.191	549.12
322.42	547.12
322.649	568.12
322.878	563.12
323.108	577.12
323.337	569.12
323.566	593.12
323.795	579.12
324.024	581.12
324.253	563.12
324.482	588.12
324.71	581.12
324.939	563.12
325.168	567.12
325.397	578.12
325.626	583.12
325.855	607.12
326.084	602.12
326.313	607.12
326.542	613.12
326.77	599.12
326.999	597.12
327.228	608.12
327.457	584.12
327.686	588.12
327.914	581.12
328.143	601.12
328.372	597.12
328.6	607.12
328.829	586.12
329.058	589.12
329.287	630.12
329.515	601.12
329.744	603.12
329.972	615.12
330.201	611.12
330.43	612.12
330.658	618.12
330.887	621.12
331.115	646.12
331.344	639.12
331.572	625.12
331.801	654.12
332.03	668.12
332.258	674.12
332.486	702.12
332.715	727.12
332.943	722.12
333.172	748.12
333.4	784.12
333.629	785.12
333.857	799.12
334.085	813.12
334.314	785.12
334.542	748.12
334.771	739.12
334.999	725.12
335.227	753.12
335.455	742.12
335.684	748.12
335.912	732.12
336.14	736.12
336.369	695.12
336.597	721.12
336.825	735.12
337.053	724.12
337.281	723.12
337.51	678.12
337.738	679.12
337.966	684.12
338.194	689.12
338.422	665.12
338.65	667.12
338.878	664.12
339.106	645.12
339.334	673.12
339.562	648.12
339.79	677.12
340.018	627.12
340.246	648.12
340.474	608.12
340.702	618.12
340.93	615.12
341.158	634.12
341.386	643.12
341.614	656.12
341.842	659.12
342.07	651.12
342.298	625.12
342.526	604.12
342.754	639.12
342.981	621.12
343.209	634.12
343.437	671.12
343.665	697.12
343.893	752.12
344.12	751.12
344.348	748.12
344.576	693.12
344.804	693.12
345.031	657.12
345.259	660.12
345.487	648.12
345.714	643.12
345.942	639.12
346.17	637.12
346.397	635.12
346.625	632.12
346.853	605.12
347.08	604.12
347.308	635.12
347.535	613.12
347.763	599.12
347.99	603.12
348.218	608.12
348.445	605.12
348.673	604.12
348.9	592.12
349.128	610.12
349.355	600.12
349.583	619.12
349.81	602.12
350.037	606.12
350.265	595.12
350.492	595.12
350.72	581.12
350.947	587.12
351.174	585.12
351.402	603.12
351.629	572.12
351.856	591.12
352.083	584.12
352.311	602.12
352.538	615.12
352.765	625.12
352.992	573.12
353.22	565.12
353.447	567.12
353.674	589.12
353.901	580.12
354.128	581.12
354.355	573.12
354.583	591.12
354.81	587.12
355.037	599.12
355.264	594.12
355.491	588.12
355.718	580.12
355.945	574.12
356.172	587.12
356.399	580.12
356.626	590.12
356.853	585.12
357.08	583.12
357.307	565.12
357.534	576.12
357.761	580.12
357.988	577.12
358.215	585.12
358.441	589.12
358.668	583.12
358.895	584.12
359.122	563.12
359.349	579.12
359.576	575.12
359.802	577.12
360.029	576.12
360.256	590.12
360.483	573.12
360.709	575.12
360.936	589.12
361.163	593.12
361.39	590.12
361.616	589.12
361.843	574.12
362.07	603.12
362.296	575.12
362.523	600.12
362.749	586.12
362.976	579.12
363.203	574.12
363.429	583.12
363.656	574.12
363.882	578.12
364.109	566.12
364.335	559.12
364.562	580.12
364.788	557.12
365.015	572.12
365.241	578.12
365.468	573.12
365.694	575.12
365.92	563.12
366.147	563.12
366.373	576.12
366.599	575.12
366.826	579.12
367.052	566.12
367.278	552.12
367.505	581.12
367.731	598.12
367.957	601.12
368.184	585.12
368.41	580.12
368.636	573.12
368.862	592.12
369.089	576.12
369.315	588.12
369.541	569.12
369.767	620.12
369.993	610.12
370.219	596.12
370.445	598.12
370.672	614.12
370.898	633.12
371.124	621.12
371.35	648.12
371.576	615.12
371.802	644.12
372.028	625.12
372.254	603.12
372.48	631.12
372.706	632.12
372.932	637.12
373.158	616.12
373.384	617.12
373.61	611.12
373.835	627.12
374.061	644.12
374.287	641.12
374.513	624.12
374.739	634.12
374.965	645.12
375.191	677.12
375.416	657.12
375.642	666.12
375.868	640.12
376.094	629.12
376.319	612.12
376.545	609.12
376.771	615.12
376.997	594.12
377.222	618.12
377.448	599.12
377.674	614.12
377.899	605.12
378.125	607.12
378.35	635.12
378.576	626.12
378.802	598.12
379.027	604.12
379.253	603.12
379.478	610.12
379.704	606.12
379.929	607.12
380.155	609.12
380.38	600.12
380.606	576.12
380.831	605.12
381.057	610.12
381.282	602.12
381.507	568.12
381.733	600.12
381.958	615.12
382.184	591.12
382.409	642.12
382.634	635.12
382.86	609.12
383.085	643.12
383.31	639.12
383.535	666.12
383.761	663.12
383.986	701.12
384.211	683.12
384.436	687.12
384.662	692.12
384.887	687.12
385.112	668.12
385.337	683.12
385.562	691.12
385.787	720.12
386.013	745.12
386.238	735.12
386.463	733.12
386.688	709.12
386.913	707.12
387.138	710.12
387.363	692.12
387.588	730.12
387.813	682.12
388.038	710.12
388.263	709.12
388.488	704.12
388.713	707.12
388.938	709.12
389.163	690.12
389.387	669.12
389.612	697.12
389.837	721.12
390.062	713.12
390.287	691.12
390.512	698.12
390.736	709.12
390.961	730.12
391.186	740.12
391.411	745.12
391.636	776.12
391.86	785.12
392.085	802.12
392.31	794.12
392.534	748.12
392.759	765.12
392.984	755.12
393.208	747.12
393.433	754.12
393.658	785.12
393.882	746.12
394.107	769.12
394.331	761.12
394.556	756.12
394.78	749.12
395.005	771.12
395.229	781.12
395.454	812.12
395.678	791.12
395.903	790.12
396.127	788.12
396.352	741.12
396.576	771.12
396.801	773.12
397.025	761.12
397.249	805.12
397.474	796.12
397.698	815.12
397.922	845.12
398.147	815.12
398.371	817.12
398.595	856.12
398.82	899.12
399.044	927.12
399.268	997.12
399.492	1161.12
399.717	1312.12
399.941	1276.12
400.165	1154.12
400.389	1062.12
400.613	995.12
400.837	909.12
401.062	909.12
401.286	910.12
401.51	888.12
401.734	876.12
401.958	884.12
402.182	899.12
402.406	899.12
402.63	928.12
402.854	951.12
403.078	969.12
403.302	955.12
403.526	979.12
403.75	976.12
403.974	1024.12
404.198	1022.12
404.422	1003.12
404.645	983.12
404.869	1000.12
405.093	981.12
405.317	965.12
405.541	972.12
405.765	977.12
405.988	965.12
406.212	989.12
406.436	1004.12
406.66	1023.12
406.883	1055.12
407.107	1066.12
407.331	1096.12
407.555	1139.12
407.778	1153.12
408.002	1114.12
408.226	1077.12
408.449	1056.12
408.673	1038.12
408.896	1033.12
409.12	1005.12
409.344	1055.12
409.567	1032.12
409.791	1022.12
410.014	1007.12
410.238	982.12
410.461	1007.12
410.685	990.12
410.908	941.12
411.132	961.12
411.355	940.12
411.578	923.12
411.802	947.12
412.025	956.12
412.249	948.12
412.472	949.12
412.695	899.12
412.919	903.12
413.142	893.12
413.365	908.12
413.589	935.12
413.812	916.12
414.035	883.12
414.258	900.12
414.482	884.12
414.705	912.12
414.928	904.12
415.151	898.12
415.374	899.12
415.597	909.12
415.821	891.12
416.044	911.12
416.267	889.12
416.49	883.12
416.713	871.12
416.936	904.12
417.159	889.12
417.382	889.12
417.605	893.12
417.828	897.12
418.051	902.12
418.274	893.12
418.497	895.12
418.72	914.12
418.943	944.12
419.166	954.12
419.389	1026.12
419.611	982.12
419.834	968.12
420.057	933.12
420.28	914.12
420.503	895.12
420.726	903.12
420.948	864.12
421.171	891.12
421.394	905.12
421.617	891.12
421.839	900.12
422.062	892.12
422.285	868.12
422.507	934.12
422.73	917.12
422.953	904.12
423.175	934.12
423.398	935.12
423.621	955.12
423.843	956.12
424.066	957.12
424.288	931.12
424.511	977.12
424.733	945.12
424.956	905.12
425.178	925.12
425.401	909.12
425.623	900.12
425.846	852.12
426.068	857.12
426.291	869.12
426.513	837.12
426.735	852.12
426.958	837.12
427.18	844.12
427.402	839.12
427.625	840.12
427.847	835.12
428.069	810.12
428.292	793.12
428.514	844.12
428.736	815.12
428.958	821.12
429.181	808.12
429.403	790.12
429.625	812.12
429.847	798.12
430.069	812.12
430.292	810.12
430.514	789.12
430.736	794.12
430.958	802.12
431.18	801.12
431.402	825.12
431.624	808.12
431.846	818.12
432.068	813.12
432.29	853.12
432.512	831.12
432.734	811.12
432.956	816.12
433.178	823.12
433.4	821.12
433.622	850.12
433.844	864.12
434.066	863.12
434.287	865.12
434.509	837.12
434.731	880.12
434.953	928.12
435.175	911.12
435.397	933.12
435.618	875.12
435.84	836.12
436.062	851.12
436.284	821.12
436.505	815.12
436.727	817.12
436.949	819.12
437.17	837.12
437.392	824.12
437.614	823.12
437.835	753.12
438.057	788.12
438.278	796.12
438.5	784.12
438.721	781.12
438.943	789.12
439.165	820.12
439.386	818.12
439.608	826.12
439.829	824.12
440.05	828.12
440.272	831.12
440.493	855.12
440.715	854.12
440.936	860.12
441.158	881.12
441.379	919.12
441.6	904.12
441.822	912.12
442.043	930.12
442.264	933.12
442.486	924.12
442.707	904.12
442.928	898.12
443.149	920.12
443.371	896.12
443.592	910.12
443.813	925.12
444.034	937.12
444.255	966.12
444.476	1019.12
444.698	1074.12
444.919	1100.12
445.14	1171.12
445.361	1033.12
445.582	951.12
445.803	904.12
446.024	893.12
446.245	882.12
446.466	888.12
446.687	829.12
446.908	845.12
447.129	812.12
447.35	812.12
447.571	807.12
447.792	812.12
448.013	796.12
448.234	788.12
448.455	787.12
448.675	803.12
448.896	778.12
449.117	769.12
449.338	791.12
449.559	759.12
449.779	751.12
450	754.12
450.221	762.12
450.442	770.12
450.662	777.12
450.883	806.12
451.104	803.12
451.324	781.12
451.545	775.12
451.766	777.12
451.986	787.12
452.207	745.12
452.428	758.12
452.648	767.12
452.869	769.12
453.089	733.12
453.31	773.12
453.53	740.12
453.751	761.12
453.971	744.12
454.192	736.12
454.412	769.12
454.633	731.12
454.853	735.12
455.073	727.12
455.294	745.12
455.514	730.12
455.734	711.12
455.955	704.12
456.175	730.12
456.395	716.12
456.616	722.12
456.836	722.12
457.056	725.12
457.276	704.12
457.497	756.12
457.717	718.12
457.937	767.12
458.157	747.12
458.377	733.12
458.598	777.12
458.818	768.12
459.038	788.12
459.258	831.12
459.478	819.12
459.698	872.12
459.918	870.12
460.138	921.12
460.358	966.12
460.578	977.12
460.798	994.12
461.018	989.12
461.238	964.12
461.458	979.12
461.678	955.12
461.898	997.12
462.118	989.12
462.338	1033.12
462.558	1063.12
462.777	1106.12
462.997	1203.12
463.217	1269.12
463.437	1265.12
463.657	1175.12
463.876	1152.12
464.096	1107.12
464.316	1138.12
464.536	1143.12
464.755	1096.12
464.975	1033.12
465.195	997.12
465.414	932.12
465.634	897.12
465.854	871.12
466.073	866.12
466.293	849.12
466.512	842.12
466.732	809.12
466.951	821.12
467.171	812.12
467.391	829.12
467.61	801.12
467.829	817.12
468.049	815.12
468.268	785.12
468.488	780.12
468.707	793.12
468.927	799.12
469.146	794.12
469.365	800.12
469.585	804.12
469.804	831.12
470.023	824.12
470.243	821.12
470.462	848.12
470.681	838.12
470.901	832.12
471.12	812.12
471.339	835.12
471.558	815.12
471.777	809.12
471.997	806.12
472.216	808.12
472.435	760.12
472.654	758.12
472.873	788.12
473.092	769.12
473.311	768.12
473.53	752.12
473.749	752.12
473.968	787.12
474.187	773.12
474.406	730.12
474.625	792.12
474.844	803.12
475.063	779.12
475.282	775.12
475.501	797.12
475.72	775.12
475.939	811.12
476.158	814.12
476.377	786.12
476.596	801.12
476.814	809.12
477.033	808.12
477.252	829.12
477.471	865.12
477.69	881.12
477.908	899.12
478.127	896.12
478.346	915.12
478.564	911.12
478.783	939.12
479.002	940.12
479.22	954.12
479.439	957.12
479.658	970.12
479.876	938.12
480.095	978.12
480.313	1005.12
480.532	1021.12
480.751	1004.12
480.969	949.12
481.188	945.12
481.406	923.12
481.624	904.12
481.843	905.12
482.061	892.12
482.28	892.12
482.498	871.12
482.717	901.12
482.935	859.12
483.153	894.12
483.372	869.12
483.59	911.12
483.808	895.12
484.027	918.12
484.245	891.12
484.463	895.12
484.681	931.12
484.9	891.12
485.118	903.12
485.336	920.12
485.554	922.12
485.772	916.12
485.99	921.12
486.209	953.12
486.427	933.12
486.645	933.12
486.863	913.12
487.081	945.12
487.299	941.12
487.517	917.12
487.735	914.12
487.953	951.12
488.171	949.12
488.389	925.12
488.607	923.12
488.825	920.12
489.043	903.12
489.261	934.12
489.479	939.12
489.696	923.12
489.914	912.12
490.132	936.12
490.35	946.12
490.568	939.12
490.786	951.12
491.003	939.12
491.221	953.12
491.439	956.12
491.657	961.12
491.874	964.12
492.092	983.12
492.31	1003.12
492.527	997.12
492.745	994.12
492.963	965.12
493.18	981.12
493.398	992.12
493.615	1003.12
493.833	1005.12
494.05	993.12
494.268	1024.12
494.485	1008.12
494.703	963.12
494.92	978.12
495.138	999.12
495.355	989.12
495.573	986.12
495.79	995.12
496.008	1008.12
496.225	1019.12
496.442	1012.12
496.66	1040.12
496.877	1040.12
497.094	1063.12
497.312	1101.12
497.529	1083.12
497.746	1150.12
497.963	1158.12
498.181	1186.12
498.398	1219.12
498.615	1296.12
498.832	1385.12
499.049	1476.12
499.267	1591.12
499.484	1741.12
499.701	1888.12
499.918	2075.12
500.135	2357.12
500.352	2646.12
500.569	2763.12
