Data from NiCl2@0.5M.TitratingCurve.Agarose3%dH2O.NegLispCup.LampEnergy10.LIBS07252019_HRD10591_18-21-15-572.txt Node
Date: Thu Jul 25 18:21:15 EDT 2019
User: cochatt
Spectrometer: HR+D1059
Trigger mode: 1
Integration Time (sec): 1.000000E-1
Scans to average: 1
Electric dark correction enabled: true
Nonlinearity correction enabled: false
Boxcar width: 0
XAxis mode: Wavelengths
Number of Pixels in Spectrum: 2048
>>>>>Begin Spectral Data<<<<<
223.165	-7.06
223.4	-7.06
223.635	-7.06
223.869	-11.06
224.104	-34.06
224.338	-9.06
224.573	-18.06
224.808	-3.06
225.042	-6.06
225.277	-7.06
225.511	-9.06
225.746	1.94
225.98	3.94
226.215	5.94
226.449	27.94
226.683	26.94
226.918	15.94
227.152	21.94
227.387	27.94
227.621	41.94
227.856	46.94
228.09	40.94
228.324	50.94
228.559	50.94
228.793	57.94
229.027	82.94
229.262	99.94
229.496	115.94
229.73	121.94
229.964	113.94
230.199	122.94
230.433	110.94
230.667	117.94
230.901	106.94
231.136	129.94
231.37	116.94
231.604	133.94
231.838	134.94
232.072	126.94
232.306	123.94
232.541	137.94
232.775	131.94
233.009	133.94
233.243	126.94
233.477	122.94
233.711	129.94
233.945	139.94
234.179	136.94
234.413	149.94
234.647	132.94
234.881	135.94
235.115	127.94
235.349	143.94
235.583	153.94
235.817	142.94
236.051	160.94
236.285	148.94
236.519	141.94
236.753	144.94
236.987	141.94
237.221	130.94
237.455	154.94
237.689	137.94
237.922	144.94
238.156	165.94
238.39	166.94
238.624	156.94
238.858	171.94
239.091	155.94
239.325	153.94
239.559	159.94
239.793	163.94
240.027	153.94
240.26	155.94
240.494	171.94
240.728	186.94
240.961	158.94
241.195	181.94
241.429	179.94
241.662	175.94
241.896	181.94
242.13	169.94
242.363	162.94
242.597	172.94
242.83	185.94
243.064	153.94
243.298	179.94
243.531	181.94
243.765	169.94
243.998	196.94
244.232	189.94
244.465	194.94
244.699	181.94
244.932	202.94
245.166	195.94
245.399	196.94
245.633	189.94
245.866	195.94
246.099	199.94
246.333	208.94
246.566	189.94
246.8	202.94
247.033	190.94
247.266	186.94
247.5	209.94
247.733	195.94
247.966	217.94
248.2	207.94
248.433	216.94
248.666	207.94
248.899	212.94
249.133	230.94
249.366	218.94
249.599	217.94
249.832	230.94
250.066	223.94
250.299	213.94
250.532	233.94
250.765	228.94
250.998	242.94
251.231	210.94
251.465	214.94
251.698	223.94
251.931	231.94
252.164	221.94
252.397	262.94
252.63	246.94
252.863	228.94
253.096	251.94
253.329	245.94
253.562	231.94
253.795	249.94
254.028	253.94
254.261	248.94
254.494	252.94
254.727	240.94
254.96	241.94
255.193	248.94
255.426	255.94
255.659	245.94
255.892	268.94
256.124	255.94
256.357	270.94
256.59	271.94
256.823	267.94
257.056	259.94
257.289	269.94
257.521	281.94
257.754	255.94
257.987	275.94
258.22	269.94
258.452	274.94
258.685	294.94
258.918	274.94
259.151	265.94
259.383	281.94
259.616	279.94
259.849	289.94
260.081	296.94
260.314	277.94
260.547	288.94
260.779	297.94
261.012	286.94
261.244	286.94
261.477	286.94
261.71	295.94
261.942	270.94
262.175	290.94
262.407	290.94
262.64	302.94
262.872	291.94
263.105	315.94
263.337	281.94
263.57	304.94
263.802	304.94
264.035	304.94
264.267	315.94
264.499	294.94
264.732	303.94
264.964	307.94
265.197	307.94
265.429	324.94
265.661	285.94
265.894	319.94
266.126	317.94
266.358	304.94
266.591	338.94
266.823	339.94
267.055	295.94
267.287	334.94
267.52	325.94
267.752	342.94
267.984	328.94
268.216	322.94
268.448	332.94
268.681	322.94
268.913	339.94
269.145	332.94
269.377	339.94
269.609	352.94
269.841	324.94
270.073	351.94
270.306	329.94
270.538	349.94
270.77	342.94
271.002	340.94
271.234	339.94
271.466	347.94
271.698	343.94
271.93	354.94
272.162	350.94
272.394	364.94
272.626	346.94
272.858	342.94
273.09	365.94
273.322	358.94
273.553	353.94
273.785	351.94
274.017	372.94
274.249	354.94
274.481	353.94
274.713	360.94
274.945	374.94
275.176	367.94
275.408	374.94
275.64	370.94
275.872	372.94
276.104	361.94
276.335	395.94
276.567	381.94
276.799	383.94
277.031	388.94
277.262	401.94
277.494	383.94
277.726	401.94
277.957	375.94
278.189	391.94
278.421	394.94
278.652	385.94
278.884	395.94
279.115	393.94
279.347	380.94
279.579	403.94
279.81	397.94
280.042	402.94
280.273	405.94
280.505	390.94
280.736	395.94
280.968	395.94
281.199	394.94
281.431	409.94
281.662	421.94
281.894	415.94
282.125	415.94
282.356	427.94
282.588	413.94
282.819	415.94
283.051	421.94
283.282	427.94
283.513	436.94
283.745	429.94
283.976	418.94
284.207	418.94
284.439	437.94
284.67	435.94
284.901	449.94
285.132	445.94
285.364	432.94
285.595	437.94
285.826	435.94
286.057	459.94
286.288	441.94
286.52	446.94
286.751	424.94
286.982	439.94
287.213	469.94
287.444	457.94
287.675	463.94
287.906	453.94
288.138	454.94
288.369	451.94
288.6	457.94
288.831	442.94
289.062	465.94
289.293	439.94
289.524	452.94
289.755	437.94
289.986	463.94
290.217	479.94
290.448	482.94
290.679	479.94
290.91	456.94
291.141	482.94
291.371	500.94
291.602	487.94
291.833	463.94
292.064	483.94
292.295	462.94
292.526	470.94
292.757	472.94
292.987	472.94
293.218	471.94
293.449	491.94
293.68	462.94
293.91	470.94
294.141	478.94
294.372	469.94
294.603	480.94
294.833	475.94
295.064	494.94
295.295	459.94
295.525	471.94
295.756	480.94
295.987	478.94
296.217	480.94
296.448	490.94
296.679	479.94
296.909	496.94
297.14	513.94
297.37	513.94
297.601	511.94
297.831	500.94
298.062	519.94
298.292	525.94
298.523	535.94
298.753	533.94
298.984	536.94
299.214	522.94
299.445	528.94
299.675	533.94
299.905	510.94
300.136	516.94
300.366	517.94
300.597	541.94
300.827	531.94
301.057	524.94
301.288	562.94
301.518	576.94
301.748	558.94
301.979	550.94
302.209	578.94
302.439	537.94
302.669	554.94
302.9	543.94
303.13	538.94
303.36	558.94
303.59	565.94
303.82	538.94
304.051	569.94
304.281	530.94
304.511	525.94
304.741	547.94
304.971	560.94
305.201	577.94
305.431	571.94
305.661	567.94
305.891	535.94
306.121	537.94
306.352	531.94
306.582	541.94
306.812	552.94
307.042	522.94
307.272	526.94
307.502	532.94
307.731	536.94
307.961	519.94
308.191	535.94
308.421	545.94
308.651	531.94
308.881	549.94
309.111	538.94
309.341	513.94
309.571	537.94
309.8	544.94
310.03	549.94
310.26	559.94
310.49	548.94
310.72	567.94
310.949	539.94
311.179	563.94
311.409	548.94
311.639	561.94
311.868	559.94
312.098	577.94
312.328	559.94
312.557	574.94
312.787	569.94
313.017	562.94
313.246	597.94
313.476	574.94
313.706	607.94
313.935	609.94
314.165	590.94
314.394	566.94
314.624	581.94
314.853	590.94
315.083	582.94
315.312	564.94
315.542	575.94
315.771	586.94
316.001	583.94
316.23	612.94
316.46	582.94
316.689	582.94
316.919	583.94
317.148	587.94
317.377	573.94
317.607	571.94
317.836	578.94
318.065	565.94
318.295	605.94
318.524	610.94
318.753	570.94
318.983	543.94
319.212	575.94
319.441	562.94
319.67	577.94
319.9	587.94
320.129	595.94
320.358	579.94
320.587	582.94
320.816	569.94
321.046	578.94
321.275	603.94
321.504	578.94
321.733	591.94
321.962	594.94
322.191	601.94
322.42	589.94
322.649	590.94
322.878	578.94
323.108	599.94
323.337	613.94
323.566	602.94
323.795	614.94
324.024	616.94
324.253	601.94
324.482	596.94
324.71	603.94
324.939	602.94
325.168	625.94
325.397	601.94
325.626	603.94
325.855	621.94
326.084	637.94
326.313	619.94
326.542	631.94
326.77	639.94
326.999	610.94
327.228	604.94
327.457	634.94
327.686	643.94
327.914	633.94
328.143	630.94
328.372	607.94
328.6	619.94
328.829	632.94
329.058	636.94
329.287	619.94
329.515	637.94
329.744	633.94
329.972	656.94
330.201	658.94
330.43	671.94
330.658	652.94
330.887	655.94
331.115	664.94
331.344	657.94
331.572	657.94
331.801	698.94
332.03	703.94
332.258	687.94
332.486	731.94
332.715	731.94
332.943	781.94
333.172	770.94
333.4	801.94
333.629	851.94
333.857	833.94
334.085	832.94
334.314	824.94
334.542	807.94
334.771	805.94
334.999	791.94
335.227	792.94
335.455	808.94
335.684	820.94
335.912	801.94
336.14	765.94
336.369	754.94
336.597	792.94
336.825	765.94
337.053	765.94
337.281	743.94
337.51	728.94
337.738	724.94
337.966	729.94
338.194	736.94
338.422	730.94
338.65	714.94
338.878	693.94
339.106	683.94
339.334	689.94
339.562	691.94
339.79	655.94
340.018	651.94
340.246	662.94
340.474	678.94
340.702	688.94
340.93	664.94
341.158	698.94
341.386	659.94
341.614	680.94
341.842	695.94
342.07	670.94
342.298	650.94
342.526	686.94
342.754	665.94
342.981	658.94
343.209	696.94
343.437	713.94
343.665	769.94
343.893	817.94
344.12	788.94
344.348	772.94
344.576	759.94
344.804	741.94
345.031	704.94
345.259	704.94
345.487	699.94
345.714	679.94
345.942	697.94
346.17	687.94
346.397	679.94
346.625	649.94
346.853	659.94
347.08	653.94
347.308	664.94
347.535	645.94
347.763	657.94
347.99	637.94
348.218	634.94
348.445	659.94
348.673	662.94
348.9	646.94
349.128	632.94
349.355	693.94
349.583	686.94
349.81	626.94
350.037	637.94
350.265	630.94
350.492	626.94
350.72	625.94
350.947	651.94
351.174	646.94
351.402	667.94
351.629	629.94
351.856	645.94
352.083	625.94
352.311	636.94
352.538	636.94
352.765	651.94
352.992	622.94
353.22	610.94
353.447	645.94
353.674	615.94
353.901	622.94
354.128	602.94
354.355	614.94
354.583	608.94
354.81	599.94
355.037	607.94
355.264	626.94
355.491	616.94
355.718	609.94
355.945	617.94
356.172	642.94
356.399	643.94
356.626	648.94
356.853	646.94
357.08	633.94
357.307	607.94
357.534	646.94
357.761	616.94
357.988	631.94
358.215	603.94
358.441	610.94
358.668	617.94
358.895	589.94
359.122	617.94
359.349	605.94
359.576	631.94
359.802	617.94
360.029	650.94
360.256	630.94
360.483	629.94
360.709	624.94
360.936	615.94
361.163	623.94
361.39	613.94
361.616	613.94
361.843	631.94
362.07	665.94
362.296	637.94
362.523	622.94
362.749	616.94
362.976	617.94
363.203	617.94
363.429	602.94
363.656	618.94
363.882	618.94
364.109	624.94
364.335	632.94
364.562	623.94
364.788	611.94
365.015	625.94
365.241	621.94
365.468	610.94
365.694	618.94
365.92	610.94
366.147	616.94
366.373	617.94
366.599	617.94
366.826	626.94
367.052	603.94
367.278	609.94
367.505	618.94
367.731	623.94
367.957	614.94
368.184	624.94
368.41	617.94
368.636	610.94
368.862	634.94
369.089	615.94
369.315	625.94
369.541	647.94
369.767	618.94
369.993	642.94
370.219	619.94
370.445	627.94
370.672	651.94
370.898	655.94
371.124	649.94
371.35	658.94
371.576	655.94
371.802	655.94
372.028	646.94
372.254	671.94
372.48	655.94
372.706	650.94
372.932	692.94
373.158	664.94
373.384	686.94
373.61	675.94
373.835	657.94
374.061	640.94
374.287	655.94
374.513	687.94
374.739	692.94
374.965	737.94
375.191	746.94
375.416	731.94
375.642	693.94
375.868	712.94
376.094	694.94
376.319	660.94
376.545	678.94
376.771	658.94
376.997	687.94
377.222	645.94
377.448	677.94
377.674	690.94
377.899	645.94
378.125	649.94
378.35	639.94
378.576	615.94
378.802	657.94
379.027	642.94
379.253	637.94
379.478	627.94
379.704	636.94
379.929	639.94
380.155	650.94
380.38	637.94
380.606	650.94
380.831	672.94
381.057	655.94
381.282	641.94
381.507	655.94
381.733	671.94
381.958	671.94
382.184	677.94
382.409	678.94
382.634	685.94
382.86	688.94
383.085	705.94
383.31	714.94
383.535	694.94
383.761	713.94
383.986	737.94
384.211	746.94
384.436	746.94
384.662	763.94
384.887	769.94
385.112	749.94
385.337	771.94
385.562	742.94
385.787	795.94
386.013	815.94
386.238	814.94
386.463	775.94
386.688	807.94
386.913	780.94
387.138	778.94
387.363	768.94
387.588	769.94
387.813	761.94
388.038	769.94
388.263	761.94
388.488	759.94
388.713	760.94
388.938	787.94
389.163	759.94
389.387	767.94
389.612	747.94
389.837	761.94
390.062	764.94
390.287	747.94
390.512	774.94
390.736	789.94
390.961	777.94
391.186	769.94
391.411	824.94
391.636	826.94
391.86	841.94
392.085	851.94
392.31	893.94
392.534	819.94
392.759	838.94
392.984	834.94
393.208	808.94
393.433	819.94
393.658	813.94
393.882	823.94
394.107	830.94
394.331	827.94
394.556	831.94
394.78	837.94
395.005	826.94
395.229	836.94
395.454	882.94
395.678	859.94
395.903	884.94
396.127	848.94
396.352	834.94
396.576	835.94
396.801	819.94
397.025	828.94
397.249	847.94
397.474	897.94
397.698	889.94
397.922	862.94
398.147	858.94
398.371	908.94
398.595	929.94
398.82	961.94
399.044	1045.94
399.268	1153.94
399.492	1274.94
399.717	1378.94
399.941	1387.94
400.165	1267.94
400.389	1161.94
400.613	1058.94
400.837	1020.94
401.062	1029.94
401.286	984.94
401.51	968.94
401.734	966.94
401.958	1011.94
402.182	1020.94
402.406	992.94
402.63	1005.94
402.854	1029.94
403.078	1028.94
403.302	1066.94
403.526	1073.94
403.75	1055.94
403.974	1130.94
404.198	1078.94
404.422	1096.94
404.645	1070.94
404.869	1102.94
405.093	1092.94
405.317	1055.94
405.541	1089.94
405.765	1072.94
405.988	1083.94
406.212	1071.94
406.436	1041.94
406.66	1113.94
406.883	1082.94
407.107	1169.94
407.331	1197.94
407.555	1251.94
407.778	1215.94
408.002	1205.94
408.226	1178.94
408.449	1137.94
408.673	1126.94
408.896	1087.94
409.12	1113.94
409.344	1104.94
409.567	1086.94
409.791	1113.94
410.014	1081.94
410.238	1073.94
410.461	1085.94
410.685	1099.94
410.908	1034.94
411.132	1049.94
411.355	1001.94
411.578	1035.94
411.802	1006.94
412.025	1021.94
412.249	1041.94
412.472	1035.94
412.695	992.94
412.919	976.94
413.142	1006.94
413.365	991.94
413.589	1011.94
413.812	965.94
414.035	957.94
414.258	963.94
414.482	977.94
414.705	973.94
414.928	1006.94
415.151	991.94
415.374	1012.94
415.597	981.94
415.821	950.94
416.044	943.94
416.267	943.94
416.49	922.94
416.713	921.94
416.936	970.94
417.159	964.94
417.382	941.94
417.605	947.94
417.828	936.94
418.051	944.94
418.274	985.94
418.497	957.94
418.72	994.94
418.943	987.94
419.166	1042.94
419.389	1074.94
419.611	1081.94
419.834	1047.94
420.057	1006.94
420.28	962.94
420.503	947.94
420.726	921.94
420.948	948.94
421.171	967.94
421.394	985.94
421.617	971.94
421.839	971.94
422.062	964.94
422.285	938.94
422.507	990.94
422.73	965.94
422.953	1009.94
423.175	1012.94
423.398	1021.94
423.621	1013.94
423.843	1033.94
424.066	1023.94
424.288	986.94
424.511	991.94
424.733	1010.94
424.956	980.94
425.178	971.94
425.401	966.94
425.623	974.94
425.846	925.94
426.068	930.94
426.291	938.94
426.513	931.94
426.735	917.94
426.958	927.94
427.18	903.94
427.402	882.94
427.625	893.94
427.847	895.94
428.069	888.94
428.292	909.94
428.514	893.94
428.736	855.94
428.958	891.94
429.181	858.94
429.403	854.94
429.625	866.94
429.847	886.94
430.069	901.94
430.292	885.94
430.514	863.94
430.736	871.94
430.958	859.94
431.18	881.94
431.402	863.94
431.624	881.94
431.846	875.94
432.068	877.94
432.29	905.94
432.512	891.94
432.734	867.94
432.956	889.94
433.178	905.94
433.4	901.94
433.622	872.94
433.844	881.94
434.066	922.94
434.287	910.94
434.509	925.94
434.731	971.94
434.953	991.94
435.175	968.94
435.397	983.94
435.618	927.94
435.84	921.94
436.062	903.94
436.284	894.94
436.505	890.94
436.727	915.94
436.949	912.94
437.17	878.94
437.392	867.94
437.614	863.94
437.835	834.94
438.057	849.94
438.278	841.94
438.5	848.94
438.721	873.94
438.943	869.94
439.165	848.94
439.386	853.94
439.608	879.94
439.829	897.94
440.05	890.94
440.272	895.94
440.493	904.94
440.715	917.94
440.936	936.94
441.158	913.94
441.379	952.94
441.6	994.94
441.822	973.94
442.043	984.94
442.264	962.94
442.486	965.94
442.707	944.94
442.928	969.94
443.149	985.94
443.371	969.94
443.592	986.94
443.813	1026.94
444.034	981.94
444.255	995.94
444.476	1045.94
444.698	1104.94
444.919	1151.94
445.14	1211.94
445.361	1102.94
445.582	1041.94
445.803	968.94
446.024	943.94
446.245	937.94
446.466	943.94
446.687	913.94
446.908	899.94
447.129	867.94
447.35	852.94
447.571	873.94
447.792	853.94
448.013	833.94
448.234	810.94
448.455	844.94
448.675	811.94
448.896	825.94
449.117	813.94
449.338	813.94
449.559	822.94
449.779	799.94
450	807.94
450.221	830.94
450.442	827.94
450.662	825.94
450.883	823.94
451.104	850.94
451.324	839.94
451.545	843.94
451.766	816.94
451.986	808.94
452.207	842.94
452.428	806.94
452.648	807.94
452.869	813.94
453.089	805.94
453.31	782.94
453.53	805.94
453.751	790.94
453.971	763.94
454.192	792.94
454.412	779.94
454.633	790.94
454.853	773.94
455.073	776.94
455.294	778.94
455.514	766.94
455.734	769.94
455.955	770.94
456.175	763.94
456.395	742.94
456.616	743.94
456.836	776.94
457.056	759.94
457.276	738.94
457.497	771.94
457.717	754.94
457.937	759.94
458.157	790.94
458.377	786.94
458.598	795.94
458.818	830.94
459.038	843.94
459.258	852.94
459.478	941.94
459.698	928.94
459.918	922.94
460.138	944.94
460.358	1030.94
460.578	1033.94
460.798	1051.94
461.018	1054.94
461.238	1061.94
461.458	1054.94
461.678	1021.94
461.898	1025.94
462.118	1057.94
462.338	1087.94
462.558	1161.94
462.777	1181.94
462.997	1277.94
463.217	1349.94
463.437	1350.94
463.657	1264.94
463.876	1198.94
464.096	1209.94
464.316	1208.94
464.536	1202.94
464.755	1180.94
464.975	1099.94
465.195	1071.94
465.414	1018.94
465.634	950.94
465.854	945.94
466.073	905.94
466.293	911.94
466.512	887.94
466.732	878.94
466.951	874.94
467.171	870.94
467.391	870.94
467.61	881.94
467.829	853.94
468.049	871.94
468.268	850.94
468.488	833.94
468.707	825.94
468.927	839.94
469.146	844.94
469.365	845.94
469.585	872.94
469.804	878.94
470.023	877.94
470.243	894.94
470.462	917.94
470.681	856.94
470.901	919.94
471.12	881.94
471.339	852.94
471.558	859.94
471.777	828.94
471.997	841.94
472.216	844.94
472.435	823.94
472.654	799.94
472.873	782.94
473.092	810.94
473.311	808.94
473.53	792.94
473.749	811.94
473.968	826.94
474.187	824.94
474.406	827.94
474.625	805.94
474.844	822.94
475.063	840.94
475.282	806.94
475.501	829.94
475.72	833.94
475.939	849.94
476.158	856.94
476.377	870.94
476.596	847.94
476.814	859.94
477.033	862.94
477.252	880.94
477.471	913.94
477.69	922.94
477.908	950.94
478.127	949.94
478.346	957.94
478.564	993.94
478.783	995.94
479.002	1016.94
479.22	1006.94
479.439	1012.94
479.658	1012.94
479.876	1003.94
480.095	1040.94
480.313	1056.94
480.532	1066.94
480.751	1066.94
480.969	1042.94
481.188	1015.94
481.406	1012.94
481.624	970.94
481.843	962.94
482.061	936.94
482.28	954.94
482.498	937.94
482.717	948.94
482.935	985.94
483.153	959.94
483.372	955.94
483.59	950.94
483.808	987.94
484.027	969.94
484.245	959.94
484.463	992.94
484.681	979.94
484.9	958.94
485.118	999.94
485.336	989.94
485.554	982.94
485.772	1014.94
485.99	1002.94
486.209	1002.94
486.427	1014.94
486.645	1015.94
486.863	1018.94
487.081	1010.94
487.299	1003.94
487.517	990.94
487.735	994.94
487.953	956.94
488.171	1017.94
488.389	995.94
488.607	966.94
488.825	974.94
489.043	971.94
489.261	959.94
489.479	961.94
489.696	992.94
489.914	991.94
490.132	991.94
490.35	1005.94
490.568	1018.94
490.786	993.94
491.003	996.94
491.221	992.94
491.439	1014.94
491.657	997.94
491.874	1003.94
492.092	1019.94
492.31	1037.94
492.527	1031.94
492.745	1025.94
492.963	1041.94
493.18	1042.94
493.398	1034.94
493.615	1046.94
493.833	1039.94
494.05	1043.94
494.268	1042.94
494.485	1071.94
494.703	1048.94
494.92	1081.94
495.138	1042.94
495.355	1062.94
495.573	1058.94
495.79	1080.94
496.008	1079.94
496.225	1102.94
496.442	1073.94
496.66	1105.94
496.877	1123.94
497.094	1142.94
497.312	1173.94
497.529	1194.94
497.746	1179.94
497.963	1227.94
498.181	1269.94
498.398	1336.94
498.615	1407.94
498.832	1503.94
499.049	1582.94
499.267	1695.94
499.484	1880.94
