Data from NiCl2@0.0625M.TitratingCurve.Agarose3%dH2O.NegLispCup.LampEnergy10.LIBS07252019_HRD10591_18-33-20-576.txt Node
Date: Thu Jul 25 18:33:20 EDT 2019
User: cochatt
Spectrometer: HR+D1059
Trigger mode: 1
Integration Time (sec): 1.000000E-1
Scans to average: 1
Electric dark correction enabled: true
Nonlinearity correction enabled: false
Boxcar width: 0
XAxis mode: Wavelengths
Number of Pixels in Spectrum: 2048
>>>>>Begin Spectral Data<<<<<
223.165	-15.75
223.4	-15.75
223.635	-15.75
223.869	-27.75
224.104	-6.75
224.338	-24.75
224.573	-5.75
224.808	-2.75
225.042	-7.75
225.277	-5.75
225.511	0.25
225.746	-5.75
225.98	7.25
226.215	6.25
226.449	11.25
226.683	25.25
226.918	18.25
227.152	34.25
227.387	39.25
227.621	48.25
227.856	42.25
228.09	50.25
228.324	50.25
228.559	70.25
228.793	82.25
229.027	148.25
229.262	156.25
229.496	158.25
229.73	171.25
229.964	180.25
230.199	179.25
230.433	172.25
230.667	184.25
230.901	174.25
231.136	177.25
231.37	196.25
231.604	198.25
231.838	195.25
232.072	194.25
232.306	201.25
232.541	203.25
232.775	193.25
233.009	214.25
233.243	214.25
233.477	216.25
233.711	228.25
233.945	223.25
234.179	215.25
234.413	221.25
234.647	233.25
234.881	227.25
235.115	228.25
235.349	235.25
235.583	226.25
235.817	223.25
236.051	236.25
236.285	224.25
236.519	223.25
236.753	225.25
236.987	234.25
237.221	245.25
237.455	245.25
237.689	240.25
237.922	257.25
238.156	247.25
238.39	253.25
238.624	266.25
238.858	276.25
239.091	263.25
239.325	288.25
239.559	267.25
239.793	280.25
240.027	280.25
240.26	295.25
240.494	287.25
240.728	278.25
240.961	283.25
241.195	285.25
241.429	300.25
241.662	304.25
241.896	311.25
242.13	315.25
242.363	312.25
242.597	314.25
242.83	323.25
243.064	310.25
243.298	322.25
243.531	318.25
243.765	324.25
243.998	338.25
244.232	332.25
244.465	341.25
244.699	333.25
244.932	331.25
245.166	366.25
245.399	346.25
245.633	367.25
245.866	376.25
246.099	369.25
246.333	350.25
246.566	363.25
246.8	390.25
247.033	370.25
247.266	380.25
247.5	387.25
247.733	380.25
247.966	376.25
248.2	395.25
248.433	423.25
248.666	391.25
248.899	403.25
249.133	406.25
249.366	411.25
249.599	410.25
249.832	427.25
250.066	425.25
250.299	402.25
250.532	415.25
250.765	417.25
250.998	433.25
251.231	421.25
251.465	439.25
251.698	449.25
251.931	448.25
252.164	480.25
252.397	456.25
252.63	471.25
252.863	472.25
253.096	474.25
253.329	461.25
253.562	458.25
253.795	452.25
254.028	470.25
254.261	486.25
254.494	465.25
254.727	455.25
254.96	469.25
255.193	479.25
255.426	469.25
255.659	474.25
255.892	481.25
256.124	480.25
256.357	510.25
256.59	518.25
256.823	490.25
257.056	488.25
257.289	496.25
257.521	492.25
257.754	513.25
257.987	508.25
258.22	510.25
258.452	526.25
258.685	525.25
258.918	518.25
259.151	529.25
259.383	524.25
259.616	552.25
259.849	569.25
260.081	544.25
260.314	560.25
260.547	544.25
260.779	560.25
261.012	554.25
261.244	574.25
261.477	540.25
261.71	569.25
261.942	560.25
262.175	569.25
262.407	547.25
262.64	571.25
262.872	585.25
263.105	579.25
263.337	597.25
263.57	584.25
263.802	605.25
264.035	606.25
264.267	605.25
264.499	576.25
264.732	609.25
264.964	617.25
265.197	597.25
265.429	608.25
265.661	612.25
265.894	625.25
266.126	636.25
266.358	619.25
266.591	613.25
266.823	629.25
267.055	631.25
267.287	631.25
267.52	623.25
267.752	626.25
267.984	652.25
268.216	655.25
268.448	664.25
268.681	670.25
268.913	658.25
269.145	656.25
269.377	650.25
269.609	664.25
269.841	664.25
270.073	681.25
270.306	658.25
270.538	660.25
270.77	682.25
271.002	700.25
271.234	672.25
271.466	688.25
271.698	681.25
271.93	668.25
272.162	710.25
272.394	705.25
272.626	700.25
272.858	687.25
273.09	715.25
273.322	711.25
273.553	698.25
273.785	706.25
274.017	743.25
274.249	713.25
274.481	714.25
274.713	704.25
274.945	755.25
275.176	736.25
275.408	741.25
275.64	751.25
275.872	750.25
276.104	747.25
276.335	727.25
276.567	744.25
276.799	752.25
277.031	770.25
277.262	762.25
277.494	754.25
277.726	768.25
277.957	766.25
278.189	786.25
278.421	763.25
278.652	782.25
278.884	804.25
279.115	780.25
279.347	773.25
279.579	800.25
279.81	788.25
280.042	822.25
280.273	822.25
280.505	837.25
280.736	811.25
280.968	802.25
281.199	806.25
281.431	820.25
281.662	841.25
281.894	833.25
282.125	834.25
282.356	857.25
282.588	864.25
282.819	855.25
283.051	839.25
283.282	850.25
283.513	863.25
283.745	865.25
283.976	869.25
284.207	882.25
284.439	854.25
284.67	876.25
284.901	898.25
285.132	880.25
285.364	858.25
285.595	880.25
285.826	870.25
286.057	896.25
286.288	887.25
286.52	897.25
286.751	856.25
286.982	900.25
287.213	874.25
287.444	908.25
287.675	907.25
287.906	908.25
288.138	921.25
288.369	923.25
288.6	922.25
288.831	938.25
289.062	914.25
289.293	927.25
289.524	916.25
289.755	929.25
289.986	944.25
290.217	914.25
290.448	901.25
290.679	946.25
290.91	908.25
291.141	947.25
291.371	916.25
291.602	960.25
291.833	933.25
292.064	955.25
292.295	951.25
292.526	928.25
292.757	959.25
292.987	911.25
293.218	951.25
293.449	948.25
293.68	977.25
293.91	957.25
294.141	961.25
294.372	958.25
294.603	955.25
294.833	965.25
295.064	982.25
295.295	958.25
295.525	966.25
295.756	993.25
295.987	970.25
296.217	952.25
296.448	977.25
296.679	972.25
296.909	970.25
297.14	990.25
297.37	980.25
297.601	1024.25
297.831	991.25
298.062	981.25
298.292	1040.25
298.523	1035.25
298.753	1039.25
298.984	1023.25
299.214	1023.25
299.445	997.25
299.675	1026.25
299.905	1036.25
300.136	1045.25
300.366	1015.25
300.597	1043.25
300.827	1019.25
301.057	1054.25
301.288	1065.25
301.518	1057.25
301.748	1107.25
301.979	1108.25
302.209	1106.25
302.439	1082.25
302.669	1060.25
302.9	1096.25
303.13	1055.25
303.36	1093.25
303.59	1054.25
303.82	1064.25
304.051	1088.25
304.281	1092.25
304.511	1059.25
304.741	1071.25
304.971	1038.25
305.201	1062.25
305.431	1056.25
305.661	1100.25
305.891	1089.25
306.121	1093.25
306.352	1037.25
306.582	1067.25
306.812	1063.25
307.042	1043.25
307.272	1076.25
307.502	1070.25
307.731	1076.25
307.961	1072.25
308.191	1063.25
308.421	1082.25
308.651	1062.25
308.881	1062.25
309.111	1048.25
309.341	1048.25
309.571	1074.25
309.8	1106.25
310.03	1066.25
310.26	1080.25
310.49	1090.25
310.72	1094.25
310.949	1072.25
311.179	1079.25
311.409	1074.25
311.639	1089.25
311.868	1094.25
312.098	1106.25
312.328	1153.25
312.557	1132.25
312.787	1133.25
313.017	1140.25
313.246	1095.25
313.476	1162.25
313.706	1143.25
313.935	1156.25
314.165	1152.25
314.394	1156.25
314.624	1128.25
314.853	1115.25
315.083	1128.25
315.312	1140.25
315.542	1161.25
315.771	1147.25
316.001	1161.25
316.23	1132.25
316.46	1144.25
316.689	1129.25
316.919	1141.25
317.148	1140.25
317.377	1179.25
317.607	1148.25
317.836	1144.25
318.065	1133.25
318.295	1142.25
318.524	1186.25
318.753	1138.25
318.983	1141.25
319.212	1125.25
319.441	1140.25
319.67	1143.25
319.9	1150.25
320.129	1107.25
320.358	1133.25
320.587	1128.25
320.816	1142.25
321.046	1148.25
321.275	1149.25
321.504	1123.25
321.733	1158.25
321.962	1170.25
322.191	1159.25
322.42	1178.25
322.649	1160.25
322.878	1172.25
323.108	1155.25
323.337	1182.25
323.566	1190.25
323.795	1189.25
324.024	1174.25
324.253	1179.25
324.482	1176.25
324.71	1223.25
324.939	1191.25
325.168	1206.25
325.397	1202.25
325.626	1215.25
325.855	1243.25
326.084	1233.25
326.313	1242.25
326.542	1242.25
326.77	1303.25
326.999	1251.25
327.228	1215.25
327.457	1226.25
327.686	1237.25
327.914	1254.25
328.143	1261.25
328.372	1246.25
328.6	1211.25
328.829	1242.25
329.058	1232.25
329.287	1256.25
329.515	1256.25
329.744	1250.25
329.972	1275.25
330.201	1278.25
330.43	1291.25
330.658	1306.25
330.887	1302.25
331.115	1339.25
331.344	1320.25
331.572	1359.25
331.801	1347.25
332.03	1352.25
332.258	1404.25
332.486	1399.25
332.715	1445.25
332.943	1476.25
333.172	1507.25
333.4	1552.25
333.629	1566.25
333.857	1597.25
334.085	1577.25
334.314	1616.25
334.542	1591.25
334.771	1573.25
334.999	1545.25
335.227	1552.25
335.455	1566.25
335.684	1562.25
335.912	1542.25
336.14	1520.25
336.369	1477.25
336.597	1502.25
336.825	1477.25
337.053	1494.25
337.281	1445.25
337.51	1461.25
337.738	1435.25
337.966	1416.25
338.194	1394.25
338.422	1394.25
338.65	1372.25
338.878	1374.25
339.106	1366.25
339.334	1381.25
339.562	1349.25
339.79	1302.25
340.018	1356.25
340.246	1325.25
340.474	1316.25
340.702	1339.25
340.93	1341.25
341.158	1309.25
341.386	1321.25
341.614	1314.25
341.842	1304.25
342.07	1256.25
342.298	1310.25
342.526	1310.25
342.754	1296.25
342.981	1346.25
343.209	1322.25
343.437	1347.25
343.665	1415.25
343.893	1511.25
344.12	1539.25
344.348	1531.25
344.576	1493.25
344.804	1412.25
345.031	1393.25
345.259	1329.25
345.487	1326.25
345.714	1297.25
345.942	1300.25
346.17	1320.25
346.397	1303.25
346.625	1257.25
346.853	1252.25
347.08	1257.25
347.308	1267.25
347.535	1266.25
347.763	1264.25
347.99	1263.25
348.218	1258.25
348.445	1264.25
348.673	1252.25
348.9	1258.25
349.128	1242.25
349.355	1230.25
349.583	1247.25
349.81	1242.25
350.037	1240.25
350.265	1236.25
350.492	1222.25
350.72	1216.25
350.947	1242.25
351.174	1226.25
351.402	1206.25
351.629	1207.25
351.856	1204.25
352.083	1219.25
352.311	1205.25
352.538	1191.25
352.765	1225.25
352.992	1210.25
353.22	1189.25
353.447	1158.25
353.674	1188.25
353.901	1198.25
354.128	1174.25
354.355	1179.25
354.583	1195.25
354.81	1195.25
355.037	1212.25
355.264	1195.25
355.491	1193.25
355.718	1218.25
355.945	1200.25
356.172	1250.25
356.399	1209.25
356.626	1239.25
356.853	1202.25
357.08	1231.25
357.307	1218.25
357.534	1212.25
357.761	1216.25
357.988	1241.25
358.215	1238.25
358.441	1222.25
358.668	1241.25
358.895	1193.25
359.122	1191.25
359.349	1217.25
359.576	1216.25
359.802	1201.25
360.029	1229.25
360.256	1215.25
360.483	1219.25
360.709	1211.25
360.936	1208.25
361.163	1219.25
361.39	1230.25
361.616	1211.25
361.843	1224.25
362.07	1225.25
362.296	1187.25
362.523	1214.25
362.749	1236.25
362.976	1216.25
363.203	1210.25
363.429	1222.25
363.656	1223.25
363.882	1226.25
364.109	1201.25
364.335	1221.25
364.562	1194.25
364.788	1233.25
365.015	1205.25
365.241	1190.25
365.468	1223.25
365.694	1196.25
365.92	1208.25
366.147	1200.25
366.373	1227.25
366.599	1230.25
366.826	1242.25
367.052	1191.25
367.278	1203.25
367.505	1238.25
367.731	1222.25
367.957	1233.25
368.184	1236.25
368.41	1241.25
368.636	1225.25
368.862	1234.25
369.089	1234.25
369.315	1265.25
369.541	1240.25
369.767	1243.25
369.993	1259.25
370.219	1253.25
370.445	1305.25
370.672	1279.25
370.898	1280.25
371.124	1303.25
371.35	1304.25
371.576	1312.25
371.802	1341.25
372.028	1333.25
372.254	1290.25
372.48	1316.25
372.706	1376.25
372.932	1386.25
373.158	1329.25
373.384	1363.25
373.61	1305.25
373.835	1320.25
374.061	1328.25
374.287	1322.25
374.513	1348.25
374.739	1398.25
374.965	1434.25
375.191	1447.25
375.416	1418.25
375.642	1400.25
375.868	1368.25
376.094	1351.25
376.319	1369.25
376.545	1334.25
376.771	1376.25
376.997	1334.25
377.222	1306.25
377.448	1306.25
377.674	1281.25
377.899	1284.25
378.125	1314.25
378.35	1260.25
378.576	1328.25
378.802	1315.25
379.027	1302.25
379.253	1287.25
379.478	1289.25
379.704	1320.25
379.929	1272.25
380.155	1327.25
380.38	1293.25
380.606	1279.25
380.831	1297.25
381.057	1334.25
381.282	1310.25
381.507	1346.25
381.733	1339.25
381.958	1315.25
382.184	1341.25
382.409	1379.25
382.634	1370.25
382.86	1394.25
383.085	1411.25
383.31	1413.25
383.535	1421.25
383.761	1406.25
383.986	1445.25
384.211	1497.25
384.436	1475.25
384.662	1505.25
384.887	1554.25
385.112	1513.25
385.337	1599.25
385.562	1554.25
385.787	1575.25
386.013	1569.25
386.238	1582.25
386.463	1617.25
386.688	1578.25
386.913	1571.25
387.138	1584.25
387.363	1589.25
387.588	1555.25
387.813	1571.25
388.038	1570.25
388.263	1577.25
388.488	1629.25
388.713	1609.25
388.938	1540.25
389.163	1565.25
389.387	1566.25
389.612	1567.25
389.837	1566.25
390.062	1567.25
390.287	1560.25
390.512	1557.25
390.736	1593.25
390.961	1645.25
391.186	1632.25
391.411	1654.25
391.636	1643.25
391.86	1707.25
392.085	1713.25
392.31	1739.25
392.534	1683.25
392.759	1698.25
392.984	1679.25
393.208	1656.25
393.433	1714.25
393.658	1676.25
393.882	1666.25
394.107	1663.25
394.331	1640.25
394.556	1670.25
394.78	1689.25
395.005	1739.25
395.229	1698.25
395.454	1732.25
395.678	1712.25
395.903	1783.25
396.127	1761.25
396.352	1698.25
396.576	1683.25
396.801	1693.25
397.025	1721.25
397.249	1767.25
397.474	1761.25
397.698	1770.25
397.922	1812.25
398.147	1774.25
398.371	1835.25
398.595	1870.25
398.82	1910.25
399.044	2066.25
399.268	2218.25
399.492	2444.25
399.717	2687.25
399.941	2713.25
400.165	2495.25
400.389	2326.25
400.613	2178.25
400.837	2091.25
401.062	2034.25
401.286	1988.25
401.51	1946.25
401.734	1986.25
401.958	1976.25
402.182	1981.25
402.406	1990.25
402.63	1979.25
402.854	2004.25
403.078	2043.25
403.302	2080.25
403.526	2098.25
403.75	2074.25
403.974	2135.25
404.198	2117.25
404.422	2151.25
404.645	2148.25
404.869	2110.25
405.093	2110.25
405.317	2129.25
405.541	2093.25
405.765	2097.25
405.988	2111.25
406.212	2121.25
406.436	2110.25
406.66	2203.25
406.883	2186.25
407.107	2315.25
407.331	2386.25
407.555	2419.25
407.778	2420.25
408.002	2405.25
408.226	2306.25
408.449	2296.25
408.673	2210.25
408.896	2220.25
409.12	2187.25
409.344	2179.25
409.567	2153.25
409.791	2178.25
410.014	2168.25
410.238	2135.25
410.461	2171.25
410.685	2165.25
410.908	2109.25
411.132	2062.25
411.355	2020.25
411.578	2027.25
411.802	2002.25
412.025	2018.25
412.249	2019.25
412.472	2097.25
412.695	2007.25
412.919	1970.25
413.142	1968.25
413.365	1944.25
413.589	1957.25
413.812	1937.25
414.035	1910.25
414.258	1947.25
414.482	1919.25
414.705	1958.25
414.928	1959.25
415.151	1950.25
415.374	1953.25
415.597	1876.25
415.821	1881.25
416.044	1879.25
416.267	1874.25
416.49	1858.25
416.713	1881.25
416.936	1870.25
417.159	1850.25
417.382	1883.25
417.605	1868.25
417.828	1896.25
418.051	1858.25
418.274	1887.25
418.497	1883.25
418.72	1878.25
418.943	1911.25
419.166	2013.25
419.389	2162.25
419.611	2100.25
419.834	1995.25
420.057	1975.25
420.28	1933.25
420.503	1841.25
420.726	1830.25
420.948	1820.25
421.171	1885.25
421.394	1861.25
421.617	1819.25
421.839	1895.25
422.062	1890.25
422.285	1842.25
422.507	1898.25
422.73	1896.25
422.953	1911.25
423.175	1928.25
423.398	1917.25
423.621	1914.25
423.843	1942.25
424.066	1965.25
424.288	1925.25
424.511	1922.25
424.733	1908.25
424.956	1899.25
425.178	1878.25
425.401	1861.25
425.623	1886.25
425.846	1849.25
426.068	1851.25
426.291	1820.25
426.513	1804.25
426.735	1740.25
426.958	1773.25
427.18	1738.25
427.402	1742.25
427.625	1751.25
427.847	1734.25
428.069	1706.25
428.292	1743.25
428.514	1740.25
428.736	1697.25
428.958	1748.25
429.181	1671.25
429.403	1673.25
429.625	1631.25
429.847	1710.25
430.069	1640.25
430.292	1665.25
430.514	1678.25
430.736	1683.25
430.958	1688.25
431.18	1703.25
431.402	1700.25
431.624	1714.25
431.846	1730.25
432.068	1704.25
432.29	1749.25
432.512	1702.25
432.734	1698.25
432.956	1676.25
433.178	1724.25
433.4	1738.25
433.622	1718.25
433.844	1764.25
434.066	1784.25
434.287	1792.25
434.509	1833.25
434.731	1835.25
434.953	1872.25
435.175	1872.25
435.397	1909.25
435.618	1847.25
435.84	1768.25
436.062	1732.25
436.284	1767.25
436.505	1731.25
436.727	1753.25
436.949	1745.25
437.17	1711.25
437.392	1681.25
437.614	1683.25
437.835	1615.25
438.057	1619.25
438.278	1575.25
438.5	1632.25
438.721	1610.25
438.943	1650.25
439.165	1641.25
439.386	1654.25
439.608	1675.25
439.829	1652.25
440.05	1673.25
440.272	1712.25
440.493	1688.25
440.715	1726.25
440.936	1722.25
441.158	1747.25
441.379	1761.25
441.6	1844.25
441.822	1836.25
442.043	1867.25
442.264	1782.25
442.486	1782.25
442.707	1819.25
442.928	1837.25
443.149	1804.25
443.371	1811.25
443.592	1840.25
443.813	1859.25
444.034	1874.25
444.255	1881.25
444.476	1977.25
444.698	2073.25
444.919	2068.25
445.14	2204.25
445.361	2028.25
445.582	1882.25
445.803	1802.25
446.024	1774.25
446.245	1750.25
446.466	1746.25
446.687	1682.25
446.908	1721.25
447.129	1641.25
447.35	1627.25
447.571	1622.25
447.792	1588.25
448.013	1600.25
448.234	1550.25
448.455	1548.25
448.675	1569.25
448.896	1540.25
449.117	1506.25
449.338	1503.25
449.559	1494.25
449.779	1517.25
450	1507.25
450.221	1484.25
450.442	1499.25
450.662	1496.25
450.883	1529.25
451.104	1543.25
451.324	1506.25
451.545	1552.25
451.766	1499.25
451.986	1499.25
452.207	1505.25
452.428	1484.25
452.648	1539.25
452.869	1481.25
453.089	1472.25
453.31	1504.25
453.53	1464.25
453.751	1441.25
453.971	1474.25
454.192	1445.25
454.412	1446.25
454.633	1414.25
454.853	1434.25
455.073	1430.25
455.294	1467.25
455.514	1384.25
455.734	1404.25
455.955	1391.25
456.175	1382.25
456.395	1426.25
456.616	1398.25
456.836	1429.25
457.056	1415.25
457.276	1402.25
457.497	1473.25
457.717	1426.25
457.937	1446.25
458.157	1476.25
458.377	1467.25
458.598	1511.25
458.818	1582.25
459.038	1638.25
459.258	1615.25
459.478	1731.25
459.698	1731.25
459.918	1755.25
460.138	1784.25
460.358	1903.25
460.578	1914.25
460.798	1920.25
461.018	1941.25
461.238	1911.25
461.458	1931.25
461.678	1936.25
461.898	1944.25
462.118	1984.25
462.338	2020.25
462.558	2089.25
462.777	2153.25
462.997	2309.25
463.217	2398.25
463.437	2418.25
463.657	2324.25
463.876	2222.25
464.096	2243.25
464.316	2208.25
464.536	2183.25
464.755	2167.25
464.975	2053.25
465.195	1979.25
465.414	1943.25
465.634	1780.25
465.854	1744.25
466.073	1690.25
466.293	1721.25
466.512	1646.25
466.732	1635.25
466.951	1626.25
467.171	1605.25
467.391	1625.25
467.61	1585.25
467.829	1587.25
468.049	1578.25
468.268	1525.25
468.488	1520.25
468.707	1553.25
468.927	1506.25
469.146	1534.25
469.365	1547.25
469.585	1575.25
469.804	1557.25
470.023	1605.25
470.243	1627.25
470.462	1621.25
470.681	1649.25
470.901	1656.25
471.12	1652.25
471.339	1599.25
471.558	1602.25
471.777	1614.25
471.997	1559.25
472.216	1572.25
472.435	1546.25
472.654	1528.25
472.873	1537.25
473.092	1525.25
473.311	1513.25
473.53	1538.25
473.749	1554.25
473.968	1535.25
474.187	1539.25
474.406	1542.25
474.625	1515.25
474.844	1544.25
475.063	1526.25
475.282	1557.25
475.501	1562.25
475.72	1560.25
475.939	1579.25
476.158	1608.25
476.377	1612.25
476.596	1649.25
476.814	1625.25
477.033	1637.25
477.252	1635.25
477.471	1713.25
477.69	1746.25
477.908	1748.25
478.127	1786.25
478.346	1822.25
478.564	1839.25
478.783	1882.25
479.002	1913.25
479.22	1930.25
479.439	1917.25
479.658	1914.25
479.876	1938.25
480.095	1967.25
480.313	2003.25
480.532	2022.25
480.751	2083.25
480.969	2004.25
481.188	1923.25
481.406	1927.25
481.624	1881.25
481.843	1842.25
482.061	1846.25
482.28	1847.25
482.498	1874.25
482.717	1832.25
482.935	1881.25
483.153	1842.25
483.372	1878.25
483.59	1925.25
483.808	1882.25
484.027	1932.25
484.245	1944.25
484.463	1982.25
484.681	1976.25
484.9	1957.25
485.118	2027.25
485.336	2016.25
485.554	2007.25
485.772	2056.25
485.99	2048.25
486.209	2067.25
486.427	2063.25
486.645	1996.25
486.863	1994.25
487.081	2036.25
487.299	2009.25
487.517	2009.25
487.735	1989.25
487.953	2031.25
488.171	2004.25
488.389	1982.25
488.607	1960.25
488.825	1953.25
489.043	1962.25
489.261	1948.25
489.479	1968.25
489.696	1938.25
489.914	1952.25
