Data from NiCl2@0.125M.TitratingCurve.Agarose3%dH2O.NegLispCup.LampEnergy10.LIBS07252019_HRD10591_18-30-00-574.txt Node
Date: Thu Jul 25 18:30:00 EDT 2019
User: cochatt
Spectrometer: HR+D1059
Trigger mode: 1
Integration Time (sec): 1.000000E-1
Scans to average: 1
Electric dark correction enabled: true
Nonlinearity correction enabled: false
Boxcar width: 0
XAxis mode: Wavelengths
Number of Pixels in Spectrum: 2048
>>>>>Begin Spectral Data<<<<<
223.165	-19.19
223.4	-19.19
223.635	-19.19
223.869	-17.19
224.104	-23.19
224.338	-16.19
224.573	-11.19
224.808	-15.19
225.042	7.81
225.277	-12.19
225.511	-12.19
225.746	8.81
225.98	1.81
226.215	12.81
226.449	14.81
226.683	12.81
226.918	31.81
227.152	35.81
227.387	39.81
227.621	30.81
227.856	35.81
228.09	49.81
228.324	47.81
228.559	55.81
228.793	61.81
229.027	106.81
229.262	116.81
229.496	124.81
229.73	106.81
229.964	130.81
230.199	120.81
230.433	117.81
230.667	135.81
230.901	138.81
231.136	152.81
231.37	133.81
231.604	144.81
231.838	146.81
232.072	150.81
232.306	150.81
232.541	147.81
232.775	144.81
233.009	164.81
233.243	151.81
233.477	165.81
233.711	153.81
233.945	145.81
234.179	141.81
234.413	149.81
234.647	156.81
234.881	157.81
235.115	160.81
235.349	159.81
235.583	135.81
235.817	146.81
236.051	166.81
236.285	143.81
236.519	152.81
236.753	163.81
236.987	169.81
237.221	159.81
237.455	164.81
237.689	167.81
237.922	170.81
238.156	162.81
238.39	157.81
238.624	163.81
238.858	182.81
239.091	184.81
239.325	171.81
239.559	186.81
239.793	189.81
240.027	177.81
240.26	189.81
240.494	185.81
240.728	197.81
240.961	198.81
241.195	196.81
241.429	197.81
241.662	205.81
241.896	202.81
242.13	201.81
242.363	211.81
242.597	205.81
242.83	202.81
243.064	201.81
243.298	187.81
243.531	192.81
243.765	214.81
243.998	211.81
244.232	221.81
244.465	219.81
244.699	216.81
244.932	230.81
245.166	225.81
245.399	234.81
245.633	246.81
245.866	234.81
246.099	241.81
246.333	236.81
246.566	247.81
246.8	226.81
247.033	216.81
247.266	238.81
247.5	232.81
247.733	256.81
247.966	238.81
248.2	234.81
248.433	242.81
248.666	244.81
248.899	231.81
249.133	240.81
249.366	256.81
249.599	267.81
249.832	258.81
250.066	264.81
250.299	258.81
250.532	267.81
250.765	247.81
250.998	279.81
251.231	262.81
251.465	256.81
251.698	287.81
251.931	270.81
252.164	266.81
252.397	283.81
252.63	290.81
252.863	274.81
253.096	275.81
253.329	287.81
253.562	280.81
253.795	295.81
254.028	298.81
254.261	286.81
254.494	258.81
254.727	288.81
254.96	282.81
255.193	290.81
255.426	268.81
255.659	297.81
255.892	306.81
256.124	309.81
256.357	297.81
256.59	298.81
256.823	295.81
257.056	310.81
257.289	319.81
257.521	310.81
257.754	305.81
257.987	298.81
258.22	332.81
258.452	311.81
258.685	324.81
258.918	318.81
259.151	332.81
259.383	326.81
259.616	323.81
259.849	333.81
260.081	333.81
260.314	323.81
260.547	335.81
260.779	338.81
261.012	330.81
261.244	335.81
261.477	330.81
261.71	338.81
261.942	338.81
262.175	328.81
262.407	336.81
262.64	340.81
262.872	356.81
263.105	356.81
263.337	342.81
263.57	343.81
263.802	362.81
264.035	356.81
264.267	343.81
264.499	367.81
264.732	363.81
264.964	374.81
265.197	358.81
265.429	353.81
265.661	359.81
265.894	379.81
266.126	353.81
266.358	367.81
266.591	352.81
266.823	367.81
267.055	366.81
267.287	387.81
267.52	380.81
267.752	370.81
267.984	367.81
268.216	384.81
268.448	391.81
268.681	382.81
268.913	380.81
269.145	384.81
269.377	370.81
269.609	380.81
269.841	382.81
270.073	377.81
270.306	386.81
270.538	394.81
270.77	399.81
271.002	385.81
271.234	390.81
271.466	397.81
271.698	379.81
271.93	393.81
272.162	400.81
272.394	406.81
272.626	402.81
272.858	402.81
273.09	412.81
273.322	386.81
273.553	403.81
273.785	432.81
274.017	434.81
274.249	413.81
274.481	414.81
274.713	427.81
274.945	417.81
275.176	420.81
275.408	416.81
275.64	439.81
275.872	438.81
276.104	434.81
276.335	425.81
276.567	424.81
276.799	430.81
277.031	434.81
277.262	426.81
277.494	410.81
277.726	435.81
277.957	442.81
278.189	453.81
278.421	436.81
278.652	450.81
278.884	441.81
279.115	466.81
279.347	453.81
279.579	443.81
279.81	433.81
280.042	428.81
280.273	449.81
280.505	460.81
280.736	462.81
280.968	480.81
281.199	470.81
281.431	468.81
281.662	457.81
281.894	479.81
282.125	469.81
282.356	482.81
282.588	479.81
282.819	488.81
283.051	510.81
283.282	491.81
283.513	470.81
283.745	496.81
283.976	490.81
284.207	495.81
284.439	510.81
284.67	512.81
284.901	508.81
285.132	504.81
285.364	514.81
285.595	501.81
285.826	497.81
286.057	520.81
286.288	513.81
286.52	507.81
286.751	515.81
286.982	513.81
287.213	529.81
287.444	517.81
287.675	539.81
287.906	532.81
288.138	523.81
288.369	550.81
288.6	520.81
288.831	541.81
289.062	542.81
289.293	550.81
289.524	522.81
289.755	517.81
289.986	526.81
290.217	515.81
290.448	531.81
290.679	558.81
290.91	540.81
291.141	538.81
291.371	546.81
291.602	532.81
291.833	544.81
292.064	547.81
292.295	560.81
292.526	520.81
292.757	542.81
292.987	542.81
293.218	554.81
293.449	547.81
293.68	544.81
293.91	554.81
294.141	534.81
294.372	543.81
294.603	563.81
294.833	541.81
295.064	547.81
295.295	555.81
295.525	559.81
295.756	554.81
295.987	553.81
296.217	571.81
296.448	574.81
296.679	585.81
296.909	588.81
297.14	577.81
297.37	596.81
297.601	601.81
297.831	591.81
298.062	610.81
298.292	604.81
298.523	601.81
298.753	628.81
298.984	609.81
299.214	592.81
299.445	599.81
299.675	594.81
299.905	620.81
300.136	607.81
300.366	603.81
300.597	635.81
300.827	610.81
301.057	640.81
301.288	649.81
301.518	634.81
301.748	635.81
301.979	610.81
302.209	623.81
302.439	630.81
302.669	644.81
302.9	636.81
303.13	621.81
303.36	615.81
303.59	616.81
303.82	615.81
304.051	615.81
304.281	634.81
304.511	642.81
304.741	602.81
304.971	614.81
305.201	613.81
305.431	626.81
305.661	622.81
305.891	605.81
306.121	607.81
306.352	609.81
306.582	596.81
306.812	606.81
307.042	593.81
307.272	602.81
307.502	599.81
307.731	589.81
307.961	602.81
308.191	587.81
308.421	599.81
308.651	582.81
308.881	587.81
309.111	577.81
309.341	584.81
309.571	630.81
309.8	588.81
310.03	578.81
310.26	609.81
310.49	597.81
310.72	613.81
310.949	595.81
311.179	610.81
311.409	586.81
311.639	591.81
311.868	616.81
312.098	596.81
312.328	615.81
312.557	596.81
312.787	620.81
313.017	608.81
313.246	611.81
313.476	626.81
313.706	636.81
313.935	626.81
314.165	662.81
314.394	643.81
314.624	661.81
314.853	644.81
315.083	647.81
315.312	671.81
315.542	645.81
315.771	627.81
316.001	631.81
316.23	615.81
316.46	627.81
316.689	629.81
316.919	607.81
317.148	620.81
317.377	630.81
317.607	638.81
317.836	614.81
318.065	614.81
318.295	622.81
318.524	625.81
318.753	615.81
318.983	608.81
319.212	610.81
319.441	625.81
319.67	626.81
319.9	631.81
320.129	648.81
320.358	619.81
320.587	614.81
320.816	632.81
321.046	642.81
321.275	626.81
321.504	636.81
321.733	619.81
321.962	615.81
322.191	632.81
322.42	618.81
322.649	627.81
322.878	649.81
323.108	644.81
323.337	624.81
323.566	648.81
323.795	658.81
324.024	655.81
324.253	624.81
324.482	613.81
324.71	626.81
324.939	656.81
325.168	661.81
325.397	660.81
325.626	673.81
325.855	698.81
326.084	686.81
326.313	716.81
326.542	686.81
326.77	683.81
326.999	705.81
327.228	684.81
327.457	640.81
327.686	662.81
327.914	701.81
328.143	677.81
328.372	681.81
328.6	667.81
328.829	650.81
329.058	678.81
329.287	681.81
329.515	702.81
329.744	678.81
329.972	697.81
330.201	708.81
330.43	693.81
330.658	700.81
330.887	691.81
331.115	721.81
331.344	719.81
331.572	716.81
331.801	704.81
332.03	768.81
332.258	778.81
332.486	803.81
332.715	821.81
332.943	849.81
333.172	899.81
333.4	938.81
333.629	954.81
333.857	966.81
334.085	952.81
334.314	909.81
334.542	876.81
334.771	884.81
334.999	892.81
335.227	875.81
335.455	870.81
335.684	848.81
335.912	848.81
336.14	824.81
336.369	831.81
336.597	840.81
336.825	842.81
337.053	825.81
337.281	804.81
337.51	796.81
337.738	770.81
337.966	766.81
338.194	750.81
338.422	747.81
338.65	753.81
338.878	742.81
339.106	738.81
339.334	745.81
339.562	734.81
339.79	717.81
340.018	695.81
340.246	697.81
340.474	699.81
340.702	703.81
340.93	722.81
341.158	711.81
341.386	737.81
341.614	722.81
341.842	720.81
342.07	706.81
342.298	696.81
342.526	696.81
342.754	697.81
342.981	710.81
343.209	726.81
343.437	754.81
343.665	784.81
343.893	874.81
344.12	938.81
344.348	869.81
344.576	810.81
344.804	772.81
345.031	760.81
345.259	711.81
345.487	721.81
345.714	720.81
345.942	711.81
346.17	702.81
346.397	700.81
346.625	720.81
346.853	683.81
347.08	686.81
347.308	698.81
347.535	697.81
347.763	712.81
347.99	702.81
348.218	725.81
348.445	704.81
348.673	673.81
348.9	678.81
349.128	687.81
349.355	673.81
349.583	671.81
349.81	692.81
350.037	660.81
350.265	686.81
350.492	674.81
350.72	680.81
350.947	677.81
351.174	654.81
351.402	644.81
351.629	661.81
351.856	663.81
352.083	668.81
352.311	659.81
352.538	666.81
352.765	660.81
352.992	648.81
353.22	662.81
353.447	649.81
353.674	675.81
353.901	649.81
354.128	658.81
354.355	643.81
354.583	662.81
354.81	664.81
355.037	660.81
355.264	658.81
355.491	660.81
355.718	668.81
355.945	671.81
356.172	672.81
356.399	655.81
356.626	681.81
356.853	689.81
357.08	675.81
357.307	659.81
357.534	663.81
357.761	656.81
357.988	676.81
358.215	663.81
358.441	657.81
358.668	673.81
358.895	676.81
359.122	664.81
359.349	688.81
359.576	648.81
359.802	659.81
360.029	626.81
360.256	693.81
360.483	655.81
360.709	676.81
360.936	652.81
361.163	661.81
361.39	665.81
361.616	678.81
361.843	658.81
362.07	681.81
362.296	678.81
362.523	684.81
362.749	660.81
362.976	671.81
363.203	651.81
363.429	650.81
363.656	675.81
363.882	659.81
364.109	644.81
364.335	655.81
364.562	653.81
364.788	655.81
365.015	656.81
365.241	668.81
365.468	652.81
365.694	657.81
365.92	682.81
366.147	658.81
366.373	652.81
366.599	653.81
366.826	657.81
367.052	656.81
367.278	667.81
367.505	692.81
367.731	678.81
367.957	656.81
368.184	655.81
368.41	661.81
368.636	667.81
368.862	673.81
369.089	674.81
369.315	677.81
369.541	683.81
369.767	695.81
369.993	684.81
370.219	681.81
370.445	696.81
370.672	708.81
370.898	719.81
371.124	719.81
371.35	715.81
371.576	726.81
371.802	750.81
372.028	725.81
372.254	683.81
372.48	728.81
372.706	746.81
372.932	746.81
373.158	748.81
373.384	739.81
373.61	711.81
373.835	713.81
374.061	707.81
374.287	723.81
374.513	746.81
374.739	786.81
374.965	800.81
375.191	828.81
375.416	811.81
375.642	785.81
375.868	779.81
376.094	776.81
376.319	731.81
376.545	745.81
376.771	722.81
376.997	753.81
377.222	752.81
377.448	727.81
377.674	718.81
377.899	737.81
378.125	746.81
378.35	718.81
378.576	731.81
378.802	745.81
379.027	729.81
379.253	709.81
379.478	706.81
379.704	706.81
379.929	704.81
380.155	716.81
380.38	721.81
380.606	698.81
380.831	718.81
381.057	728.81
381.282	713.81
381.507	735.81
381.733	725.81
381.958	739.81
382.184	745.81
382.409	726.81
382.634	758.81
382.86	760.81
383.085	761.81
383.31	772.81
383.535	795.81
383.761	822.81
383.986	839.81
384.211	855.81
384.436	864.81
384.662	873.81
384.887	862.81
385.112	872.81
385.337	890.81
385.562	863.81
385.787	875.81
386.013	880.81
386.238	864.81
386.463	888.81
386.688	886.81
386.913	846.81
387.138	868.81
387.363	869.81
387.588	864.81
387.813	876.81
388.038	869.81
388.263	845.81
388.488	902.81
388.713	850.81
388.938	858.81
389.163	843.81
389.387	830.81
389.612	844.81
389.837	852.81
390.062	845.81
390.287	846.81
390.512	824.81
390.736	879.81
390.961	869.81
391.186	900.81
391.411	920.81
391.636	898.81
391.86	958.81
392.085	972.81
392.31	1008.81
392.534	958.81
392.759	968.81
392.984	924.81
393.208	921.81
393.433	924.81
393.658	919.81
393.882	935.81
394.107	921.81
394.331	918.81
394.556	949.81
394.78	944.81
395.005	944.81
395.229	932.81
395.454	959.81
395.678	978.81
395.903	987.81
396.127	978.81
396.352	944.81
396.576	906.81
396.801	908.81
397.025	930.81
397.249	934.81
397.474	968.81
397.698	957.81
397.922	984.81
398.147	946.81
398.371	996.81
398.595	1017.81
398.82	1070.81
399.044	1171.81
399.268	1270.81
399.492	1463.81
399.717	1725.81
399.941	1756.81
400.165	1546.81
400.389	1318.81
400.613	1254.81
400.837	1127.81
401.062	1121.81
401.286	1101.81
401.51	1085.81
401.734	1089.81
401.958	1101.81
402.182	1097.81
402.406	1136.81
402.63	1157.81
402.854	1171.81
403.078	1198.81
403.302	1210.81
403.526	1279.81
403.75	1296.81
403.974	1303.81
404.198	1317.81
404.422	1329.81
404.645	1276.81
404.869	1297.81
405.093	1276.81
405.317	1254.81
405.541	1235.81
405.765	1233.81
405.988	1209.81
406.212	1225.81
406.436	1210.81
406.66	1239.81
406.883	1243.81
407.107	1312.81
407.331	1392.81
407.555	1462.81
407.778	1441.81
408.002	1456.81
408.226	1363.81
408.449	1365.81
408.673	1280.81
408.896	1251.81
409.12	1240.81
409.344	1262.81
409.567	1284.81
409.791	1294.81
410.014	1311.81
410.238	1259.81
410.461	1276.81
410.685	1225.81
410.908	1189.81
411.132	1194.81
411.355	1152.81
411.578	1132.81
411.802	1172.81
412.025	1161.81
412.249	1184.81
412.472	1165.81
412.695	1162.81
412.919	1094.81
413.142	1084.81
413.365	1100.81
413.589	1118.81
413.812	1095.81
414.035	1083.81
414.258	1090.81
414.482	1115.81
414.705	1128.81
414.928	1121.81
415.151	1132.81
415.374	1104.81
415.597	1115.81
415.821	1115.81
416.044	1105.81
416.267	1056.81
416.49	1072.81
416.713	1053.81
416.936	1112.81
417.159	1094.81
417.382	1068.81
417.605	1100.81
417.828	1075.81
418.051	1111.81
418.274	1125.81
418.497	1088.81
418.72	1110.81
418.943	1146.81
419.166	1210.81
419.389	1296.81
419.611	1255.81
419.834	1188.81
420.057	1172.81
420.28	1130.81
420.503	1111.81
420.726	1063.81
420.948	1104.81
421.171	1083.81
421.394	1112.81
421.617	1071.81
421.839	1082.81
422.062	1094.81
422.285	1080.81
422.507	1141.81
422.73	1114.81
422.953	1118.81
423.175	1154.81
423.398	1204.81
423.621	1175.81
423.843	1211.81
424.066	1177.81
424.288	1195.81
424.511	1154.81
424.733	1142.81
424.956	1153.81
425.178	1119.81
425.401	1124.81
425.623	1110.81
425.846	1063.81
426.068	1050.81
426.291	1058.81
426.513	1046.81
426.735	1003.81
426.958	1022.81
427.18	977.81
427.402	974.81
427.625	999.81
427.847	980.81
428.069	982.81
428.292	978.81
428.514	963.81
428.736	972.81
428.958	970.81
429.181	957.81
429.403	952.81
429.625	974.81
429.847	971.81
430.069	970.81
430.292	959.81
430.514	934.81
430.736	966.81
430.958	931.81
431.18	956.81
431.402	962.81
431.624	956.81
431.846	962.81
432.068	1010.81
432.29	979.81
432.512	986.81
432.734	973.81
432.956	986.81
433.178	992.81
433.4	969.81
433.622	984.81
433.844	992.81
434.066	1004.81
434.287	1012.81
434.509	1081.81
434.731	1076.81
434.953	1140.81
435.175	1121.81
435.397	1062.81
435.618	1032.81
435.84	1040.81
436.062	1022.81
436.284	986.81
436.505	990.81
436.727	972.81
436.949	1003.81
437.17	991.81
437.392	972.81
437.614	956.81
437.835	951.81
438.057	933.81
438.278	927.81
438.5	932.81
438.721	942.81
438.943	935.81
439.165	980.81
439.386	976.81
439.608	969.81
439.829	990.81
440.05	981.81
440.272	997.81
440.493	982.81
440.715	990.81
440.936	1020.81
441.158	1045.81
441.379	1078.81
441.6	1134.81
441.822	1142.81
442.043	1166.81
442.264	1115.81
442.486	1076.81
442.707	1111.81
442.928	1078.81
443.149	1072.81
443.371	1055.81
443.592	1090.81
443.813	1130.81
444.034	1162.81
444.255	1162.81
444.476	1227.81
444.698	1312.81
444.919	1406.81
445.14	1490.81
445.361	1288.81
445.582	1194.81
445.803	1111.81
446.024	1071.81
446.245	1052.81
446.466	1050.81
446.687	1020.81
446.908	1018.81
447.129	980.81
447.35	935.81
447.571	1002.81
447.792	926.81
448.013	927.81
448.234	912.81
448.455	923.81
448.675	939.81
448.896	932.81
449.117	896.81
449.338	869.81
449.559	862.81
449.779	895.81
450	890.81
450.221	894.81
450.442	922.81
450.662	920.81
450.883	920.81
451.104	965.81
451.324	934.81
451.545	934.81
451.766	948.81
451.986	926.81
452.207	946.81
452.428	929.81
452.648	930.81
452.869	908.81
453.089	889.81
453.31	910.81
453.53	910.81
453.751	882.81
453.971	893.81
454.192	883.81
454.412	848.81
454.633	865.81
454.853	872.81
455.073	863.81
455.294	892.81
455.514	852.81
455.734	835.81
455.955	828.81
456.175	838.81
456.395	833.81
456.616	846.81
456.836	890.81
457.056	820.81
457.276	834.81
457.497	854.81
457.717	859.81
457.937	826.81
458.157	848.81
458.377	880.81
458.598	886.81
458.818	913.81
459.038	917.81
459.258	978.81
459.478	1001.81
459.698	1004.81
459.918	1080.81
460.138	1089.81
460.358	1172.81
460.578	1220.81
460.798	1185.81
461.018	1206.81
461.238	1132.81
461.458	1154.81
461.678	1148.81
461.898	1171.81
462.118	1205.81
462.338	1246.81
462.558	1290.81
462.777	1318.81
462.997	1457.81
463.217	1647.81
463.437	1662.81
463.657	1498.81
463.876	1409.81
464.096	1396.81
464.316	1416.81
464.536	1415.81
464.755	1367.81
464.975	1312.81
465.195	1242.81
465.414	1157.81
465.634	1074.81
465.854	1055.81
466.073	1026.81
466.293	975.81
466.512	987.81
466.732	982.81
466.951	951.81
467.171	951.81
467.391	943.81
467.61	966.81
467.829	941.81
468.049	939.81
468.268	922.81
468.488	918.81
468.707	917.81
468.927	907.81
469.146	898.81
469.365	918.81
469.585	926.81
469.804	936.81
470.023	957.81
470.243	1008.81
470.462	999.81
470.681	1006.81
470.901	982.81
471.12	994.81
471.339	987.81
471.558	945.81
471.777	925.81
471.997	938.81
472.216	915.81
472.435	910.81
472.654	903.81
472.873	884.81
473.092	878.81
473.311	868.81
473.53	916.81
473.749	875.81
473.968	891.81
474.187	878.81
474.406	851.81
474.625	898.81
474.844	866.81
475.063	873.81
475.282	865.81
475.501	874.81
475.72	898.81
475.939	915.81
476.158	914.81
476.377	890.81
476.596	928.81
476.814	918.81
477.033	937.81
477.252	950.81
477.471	951.81
477.69	1002.81
477.908	1038.81
478.127	1058.81
478.346	1112.81
478.564	1089.81
478.783	1090.81
479.002	1161.81
479.22	1136.81
479.439	1080.81
479.658	1112.81
479.876	1107.81
480.095	1085.81
480.313	1189.81
480.532	1224.81
480.751	1189.81
480.969	1149.81
481.188	1085.81
481.406	1057.81
481.624	1038.81
481.843	1028.81
482.061	1015.81
482.28	1014.81
482.498	1014.81
482.717	1001.81
482.935	996.81
483.153	972.81
483.372	1010.81
483.59	1032.81
483.808	1000.81
484.027	1048.81
484.245	1037.81
484.463	1018.81
484.681	1066.81
484.9	1028.81
485.118	1064.81
485.336	1067.81
485.554	1069.81
485.772	1095.81
485.99	1054.81
486.209	1086.81
486.427	1108.81
486.645	1108.81
486.863	1074.81
487.081	1093.81
487.299	1055.81
487.517	1058.81
487.735	1077.81
487.953	1057.81
488.171	1076.81
488.389	1067.81
488.607	1056.81
488.825	1064.81
489.043	1050.81
489.261	1035.81
489.479	999.81
489.696	1060.81
489.914	1042.81
490.132	1096.81
490.35	1082.81
490.568	1063.81
490.786	1062.81
491.003	1049.81
491.221	1049.81
491.439	1066.81
491.657	1080.81
491.874	1082.81
492.092	1075.81
492.31	1077.81
492.527	1094.81
492.745	1073.81
492.963	1077.81
493.18	1085.81
493.398	1087.81
493.615	1098.81
493.833	1108.81
494.05	1123.81
494.268	1092.81
494.485	1129.81
494.703	1125.81
494.92	1129.81
495.138	1125.81
495.355	1124.81
495.573	1142.81
495.79	1110.81
496.008	1145.81
496.225	1134.81
496.442	1135.81
496.66	1164.81
496.877	1162.81
497.094	1169.81
497.312	1207.81
497.529	1216.81
