Data from NiCl2@0.125M.TitratingCurve.Agarose3%dH2O.NegLispCup.LampEnergy10.LIBS07252019_HRD10591_18-27-26-574.txt Node
Date: Thu Jul 25 18:27:26 EDT 2019
User: cochatt
Spectrometer: HR+D1059
Trigger mode: 1
Integration Time (sec): 1.000000E-1
Scans to average: 1
Electric dark correction enabled: true
Nonlinearity correction enabled: false
Boxcar width: 0
XAxis mode: Wavelengths
Number of Pixels in Spectrum: 2048
>>>>>Begin Spectral Data<<<<<
223.165	-4.31
223.4	-4.31
223.635	-4.31
223.869	-24.31
224.104	-22.31
224.338	-21.31
224.573	-21.31
224.808	-15.31
225.042	-19.31
225.277	-13.31
225.511	-13.31
225.746	6.69
225.98	20.69
226.215	13.69
226.449	13.69
226.683	34.69
226.918	28.69
227.152	36.69
227.387	38.69
227.621	43.69
227.856	52.69
228.09	30.69
228.324	56.69
228.559	69.69
228.793	69.69
229.027	107.69
229.262	125.69
229.496	117.69
229.73	140.69
229.964	117.69
230.199	131.69
230.433	149.69
230.667	150.69
230.901	142.69
231.136	132.69
231.37	161.69
231.604	163.69
231.838	157.69
232.072	157.69
232.306	155.69
232.541	158.69
232.775	153.69
233.009	154.69
233.243	136.69
233.477	153.69
233.711	158.69
233.945	171.69
234.179	155.69
234.413	148.69
234.647	152.69
234.881	177.69
235.115	171.69
235.349	166.69
235.583	155.69
235.817	171.69
236.051	173.69
236.285	172.69
236.519	170.69
236.753	160.69
236.987	172.69
237.221	174.69
237.455	158.69
237.689	190.69
237.922	179.69
238.156	171.69
238.39	177.69
238.624	191.69
238.858	185.69
239.091	178.69
239.325	202.69
239.559	193.69
239.793	176.69
240.027	193.69
240.26	199.69
240.494	209.69
240.728	177.69
240.961	187.69
241.195	206.69
241.429	204.69
241.662	198.69
241.896	202.69
242.13	210.69
242.363	221.69
242.597	198.69
242.83	235.69
243.064	204.69
243.298	215.69
243.531	226.69
243.765	216.69
243.998	230.69
244.232	236.69
244.465	225.69
244.699	214.69
244.932	246.69
245.166	240.69
245.399	236.69
245.633	242.69
245.866	244.69
246.099	234.69
246.333	256.69
246.566	254.69
246.8	248.69
247.033	260.69
247.266	235.69
247.5	261.69
247.733	241.69
247.966	243.69
248.2	268.69
248.433	247.69
248.666	250.69
248.899	276.69
249.133	267.69
249.366	271.69
249.599	260.69
249.832	270.69
250.066	289.69
250.299	265.69
250.532	275.69
250.765	288.69
250.998	281.69
251.231	265.69
251.465	289.69
251.698	296.69
251.931	312.69
252.164	294.69
252.397	304.69
252.63	291.69
252.863	304.69
253.096	299.69
253.329	310.69
253.562	315.69
253.795	301.69
254.028	328.69
254.261	307.69
254.494	316.69
254.727	324.69
254.96	311.69
255.193	322.69
255.426	322.69
255.659	334.69
255.892	312.69
256.124	333.69
256.357	310.69
256.59	335.69
256.823	317.69
257.056	335.69
257.289	321.69
257.521	328.69
257.754	340.69
257.987	330.69
258.22	345.69
258.452	345.69
258.685	310.69
258.918	324.69
259.151	345.69
259.383	342.69
259.616	343.69
259.849	358.69
260.081	360.69
260.314	349.69
260.547	342.69
260.779	350.69
261.012	353.69
261.244	362.69
261.477	368.69
261.71	362.69
261.942	363.69
262.175	354.69
262.407	356.69
262.64	359.69
262.872	371.69
263.105	380.69
263.337	372.69
263.57	366.69
263.802	376.69
264.035	373.69
264.267	367.69
264.499	370.69
264.732	374.69
264.964	383.69
265.197	388.69
265.429	395.69
265.661	383.69
265.894	392.69
266.126	397.69
266.358	403.69
266.591	396.69
266.823	390.69
267.055	414.69
267.287	421.69
267.52	399.69
267.752	399.69
267.984	414.69
268.216	417.69
268.448	412.69
268.681	408.69
268.913	401.69
269.145	421.69
269.377	401.69
269.609	419.69
269.841	410.69
270.073	394.69
270.306	435.69
270.538	411.69
270.77	412.69
271.002	429.69
271.234	425.69
271.466	439.69
271.698	428.69
271.93	408.69
272.162	425.69
272.394	460.69
272.626	438.69
272.858	442.69
273.09	450.69
273.322	441.69
273.553	466.69
273.785	432.69
274.017	451.69
274.249	462.69
274.481	454.69
274.713	450.69
274.945	451.69
275.176	456.69
275.408	472.69
275.64	446.69
275.872	469.69
276.104	475.69
276.335	466.69
276.567	454.69
276.799	475.69
277.031	466.69
277.262	467.69
277.494	468.69
277.726	478.69
277.957	489.69
278.189	482.69
278.421	485.69
278.652	504.69
278.884	512.69
279.115	482.69
279.347	510.69
279.579	497.69
279.81	498.69
280.042	498.69
280.273	521.69
280.505	497.69
280.736	494.69
280.968	505.69
281.199	517.69
281.431	513.69
281.662	524.69
281.894	507.69
282.125	533.69
282.356	516.69
282.588	542.69
282.819	515.69
283.051	536.69
283.282	531.69
283.513	537.69
283.745	510.69
283.976	520.69
284.207	530.69
284.439	540.69
284.67	550.69
284.901	557.69
285.132	542.69
285.364	544.69
285.595	522.69
285.826	529.69
286.057	549.69
286.288	567.69
286.52	548.69
286.751	552.69
286.982	542.69
287.213	558.69
287.444	587.69
287.675	570.69
287.906	587.69
288.138	565.69
288.369	573.69
288.6	570.69
288.831	582.69
289.062	578.69
289.293	586.69
289.524	547.69
289.755	590.69
289.986	584.69
290.217	594.69
290.448	606.69
290.679	594.69
290.91	588.69
291.141	573.69
291.371	594.69
291.602	596.69
291.833	593.69
292.064	600.69
292.295	617.69
292.526	574.69
292.757	581.69
292.987	597.69
293.218	588.69
293.449	599.69
293.68	584.69
293.91	588.69
294.141	597.69
294.372	587.69
294.603	583.69
294.833	580.69
295.064	606.69
295.295	608.69
295.525	592.69
295.756	590.69
295.987	605.69
296.217	611.69
296.448	634.69
296.679	609.69
296.909	626.69
297.14	612.69
297.37	635.69
297.601	622.69
297.831	627.69
298.062	642.69
298.292	627.69
298.523	653.69
298.753	651.69
298.984	653.69
299.214	634.69
299.445	634.69
299.675	654.69
299.905	620.69
300.136	621.69
300.366	650.69
300.597	634.69
300.827	670.69
301.057	661.69
301.288	701.69
301.518	680.69
301.748	651.69
301.979	661.69
302.209	689.69
302.439	700.69
302.669	667.69
302.9	660.69
303.13	650.69
303.36	674.69
303.59	672.69
303.82	694.69
304.051	676.69
304.281	677.69
304.511	653.69
304.741	697.69
304.971	681.69
305.201	670.69
305.431	677.69
305.661	683.69
305.891	666.69
306.121	660.69
306.352	661.69
306.582	666.69
306.812	663.69
307.042	650.69
307.272	648.69
307.502	646.69
307.731	640.69
307.961	674.69
308.191	660.69
308.421	658.69
308.651	648.69
308.881	630.69
309.111	648.69
309.341	659.69
309.571	656.69
309.8	666.69
310.03	639.69
310.26	655.69
310.49	658.69
310.72	655.69
310.949	658.69
311.179	678.69
311.409	666.69
311.639	666.69
311.868	658.69
312.098	664.69
312.328	669.69
312.557	697.69
312.787	703.69
313.017	670.69
313.246	704.69
313.476	697.69
313.706	711.69
313.935	708.69
314.165	697.69
314.394	705.69
314.624	723.69
314.853	719.69
315.083	707.69
315.312	716.69
315.542	693.69
315.771	676.69
316.001	679.69
316.23	721.69
316.46	678.69
316.689	710.69
316.919	692.69
317.148	717.69
317.377	711.69
317.607	693.69
317.836	698.69
318.065	708.69
318.295	704.69
318.524	717.69
318.753	684.69
318.983	701.69
319.212	688.69
319.441	696.69
319.67	712.69
319.9	695.69
320.129	716.69
320.358	682.69
320.587	681.69
320.816	690.69
321.046	672.69
321.275	710.69
321.504	693.69
321.733	705.69
321.962	695.69
322.191	717.69
322.42	697.69
322.649	697.69
322.878	717.69
323.108	712.69
323.337	702.69
323.566	729.69
323.795	728.69
324.024	726.69
324.253	685.69
324.482	724.69
324.71	729.69
324.939	716.69
325.168	726.69
325.397	749.69
325.626	733.69
325.855	729.69
326.084	756.69
326.313	760.69
326.542	780.69
326.77	763.69
326.999	767.69
327.228	788.69
327.457	754.69
327.686	779.69
327.914	745.69
328.143	768.69
328.372	766.69
328.6	757.69
328.829	782.69
329.058	766.69
329.287	781.69
329.515	797.69
329.744	787.69
329.972	780.69
330.201	772.69
330.43	774.69
330.658	798.69
330.887	800.69
331.115	802.69
331.344	794.69
331.572	832.69
331.801	830.69
332.03	837.69
332.258	872.69
332.486	906.69
332.715	904.69
332.943	918.69
333.172	984.69
333.4	998.69
333.629	1032.69
333.857	1028.69
334.085	999.69
334.314	1016.69
334.542	960.69
334.771	985.69
334.999	966.69
335.227	992.69
335.455	965.69
335.684	956.69
335.912	933.69
336.14	916.69
336.369	911.69
336.597	928.69
336.825	908.69
337.053	896.69
337.281	913.69
337.51	907.69
337.738	888.69
337.966	863.69
338.194	881.69
338.422	856.69
338.65	835.69
338.878	851.69
339.106	840.69
339.334	848.69
339.562	822.69
339.79	782.69
340.018	789.69
340.246	802.69
340.474	811.69
340.702	773.69
340.93	818.69
341.158	806.69
341.386	818.69
341.614	824.69
341.842	807.69
342.07	785.69
342.298	771.69
342.526	786.69
342.754	809.69
342.981	794.69
343.209	803.69
343.437	852.69
343.665	897.69
343.893	946.69
344.12	1013.69
344.348	972.69
344.576	905.69
344.804	849.69
345.031	834.69
345.259	825.69
345.487	809.69
345.714	801.69
345.942	793.69
346.17	789.69
346.397	780.69
346.625	784.69
346.853	766.69
347.08	758.69
347.308	766.69
347.535	766.69
347.763	787.69
347.99	797.69
348.218	770.69
348.445	764.69
348.673	769.69
348.9	783.69
349.128	764.69
349.355	754.69
349.583	763.69
349.81	792.69
350.037	768.69
350.265	741.69
350.492	770.69
350.72	761.69
350.947	737.69
351.174	748.69
351.402	737.69
351.629	737.69
351.856	742.69
352.083	731.69
352.311	741.69
352.538	732.69
352.765	734.69
352.992	715.69
353.22	716.69
353.447	734.69
353.674	740.69
353.901	736.69
354.128	707.69
354.355	729.69
354.583	726.69
354.81	724.69
355.037	749.69
355.264	752.69
355.491	751.69
355.718	778.69
355.945	738.69
356.172	754.69
356.399	758.69
356.626	728.69
356.853	747.69
357.08	744.69
357.307	732.69
357.534	763.69
357.761	762.69
357.988	732.69
358.215	748.69
358.441	739.69
358.668	717.69
358.895	746.69
359.122	750.69
359.349	733.69
359.576	742.69
359.802	756.69
360.029	739.69
360.256	748.69
360.483	764.69
360.709	743.69
360.936	754.69
361.163	771.69
361.39	758.69
361.616	748.69
361.843	752.69
362.07	732.69
362.296	736.69
362.523	738.69
362.749	755.69
362.976	733.69
363.203	766.69
363.429	751.69
363.656	735.69
363.882	756.69
364.109	743.69
364.335	730.69
364.562	737.69
364.788	760.69
365.015	760.69
365.241	738.69
365.468	752.69
365.694	749.69
365.92	770.69
366.147	705.69
366.373	753.69
366.599	746.69
366.826	742.69
367.052	743.69
367.278	758.69
367.505	753.69
367.731	772.69
367.957	759.69
368.184	739.69
368.41	769.69
368.636	757.69
368.862	774.69
369.089	782.69
369.315	794.69
369.541	761.69
369.767	803.69
369.993	778.69
370.219	780.69
370.445	791.69
370.672	796.69
370.898	801.69
371.124	787.69
371.35	812.69
371.576	804.69
371.802	804.69
372.028	814.69
372.254	806.69
372.48	833.69
372.706	829.69
372.932	854.69
373.158	851.69
373.384	843.69
373.61	817.69
373.835	818.69
374.061	824.69
374.287	820.69
374.513	833.69
374.739	878.69
374.965	877.69
375.191	901.69
375.416	890.69
375.642	888.69
375.868	863.69
376.094	870.69
376.319	838.69
376.545	823.69
376.771	824.69
376.997	825.69
377.222	857.69
377.448	836.69
377.674	840.69
377.899	802.69
378.125	810.69
378.35	800.69
378.576	800.69
378.802	810.69
379.027	804.69
379.253	813.69
379.478	814.69
379.704	804.69
379.929	822.69
380.155	809.69
380.38	801.69
380.606	793.69
380.831	805.69
381.057	801.69
381.282	827.69
381.507	815.69
381.733	830.69
381.958	817.69
382.184	832.69
382.409	849.69
382.634	861.69
382.86	853.69
383.085	865.69
383.31	884.69
383.535	906.69
383.761	886.69
383.986	887.69
384.211	928.69
384.436	958.69
384.662	956.69
384.887	932.69
385.112	972.69
385.337	1001.69
385.562	997.69
385.787	987.69
386.013	1001.69
386.238	965.69
386.463	983.69
386.688	997.69
386.913	956.69
387.138	960.69
387.363	965.69
387.588	965.69
387.813	958.69
388.038	967.69
388.263	978.69
388.488	1013.69
388.713	986.69
388.938	953.69
389.163	925.69
389.387	960.69
389.612	988.69
389.837	1001.69
390.062	941.69
390.287	954.69
390.512	996.69
390.736	991.69
390.961	1005.69
391.186	990.69
391.411	1036.69
391.636	1036.69
391.86	1100.69
392.085	1104.69
392.31	1131.69
392.534	1125.69
392.759	1039.69
392.984	1050.69
393.208	1042.69
393.433	1020.69
393.658	1025.69
393.882	1037.69
394.107	1037.69
394.331	1042.69
394.556	1039.69
394.78	1052.69
395.005	1056.69
395.229	1081.69
395.454	1078.69
395.678	1089.69
395.903	1118.69
396.127	1088.69
396.352	1063.69
396.576	1042.69
396.801	1000.69
397.025	1031.69
397.249	1084.69
397.474	1100.69
397.698	1107.69
397.922	1105.69
398.147	1086.69
398.371	1141.69
398.595	1165.69
398.82	1185.69
399.044	1305.69
399.268	1431.69
399.492	1648.69
399.717	1835.69
399.941	1802.69
400.165	1592.69
400.389	1474.69
400.613	1369.69
400.837	1276.69
401.062	1253.69
401.286	1238.69
401.51	1245.69
401.734	1227.69
401.958	1231.69
402.182	1246.69
402.406	1275.69
402.63	1264.69
402.854	1320.69
403.078	1330.69
403.302	1361.69
403.526	1363.69
403.75	1415.69
403.974	1414.69
404.198	1402.69
404.422	1400.69
404.645	1414.69
404.869	1379.69
405.093	1383.69
405.317	1367.69
405.541	1359.69
405.765	1363.69
405.988	1354.69
406.212	1373.69
406.436	1363.69
406.66	1376.69
406.883	1364.69
407.107	1485.69
407.331	1542.69
407.555	1588.69
407.778	1578.69
408.002	1565.69
408.226	1505.69
408.449	1461.69
408.673	1416.69
408.896	1377.69
409.12	1370.69
409.344	1396.69
409.567	1398.69
409.791	1370.69
410.014	1402.69
410.238	1366.69
410.461	1378.69
410.685	1351.69
410.908	1349.69
411.132	1290.69
411.355	1300.69
411.578	1290.69
411.802	1278.69
412.025	1289.69
412.249	1333.69
412.472	1298.69
412.695	1251.69
412.919	1224.69
413.142	1224.69
413.365	1260.69
413.589	1244.69
413.812	1243.69
414.035	1265.69
414.258	1223.69
414.482	1206.69
414.705	1248.69
414.928	1272.69
415.151	1288.69
415.374	1253.69
415.597	1219.69
415.821	1193.69
416.044	1219.69
416.267	1221.69
416.49	1173.69
416.713	1207.69
416.936	1224.69
417.159	1205.69
417.382	1174.69
417.605	1230.69
417.828	1186.69
418.051	1217.69
418.274	1221.69
418.497	1197.69
418.72	1265.69
418.943	1242.69
419.166	1311.69
419.389	1400.69
419.611	1408.69
419.834	1304.69
420.057	1273.69
420.28	1242.69
420.503	1173.69
420.726	1227.69
420.948	1238.69
421.171	1207.69
421.394	1219.69
421.617	1220.69
421.839	1220.69
422.062	1240.69
422.285	1201.69
422.507	1226.69
422.73	1230.69
422.953	1251.69
423.175	1261.69
423.398	1283.69
423.621	1251.69
423.843	1264.69
424.066	1315.69
424.288	1241.69
424.511	1244.69
424.733	1286.69
424.956	1236.69
425.178	1197.69
425.401	1233.69
425.623	1236.69
425.846	1193.69
426.068	1174.69
426.291	1162.69
426.513	1186.69
426.735	1157.69
426.958	1162.69
427.18	1119.69
427.402	1095.69
427.625	1105.69
427.847	1112.69
428.069	1093.69
428.292	1088.69
428.514	1094.69
428.736	1093.69
428.958	1067.69
429.181	1078.69
429.403	1036.69
429.625	1074.69
429.847	1057.69
430.069	1034.69
430.292	1061.69
430.514	1060.69
430.736	1075.69
430.958	1035.69
431.18	1089.69
431.402	1072.69
431.624	1075.69
431.846	1057.69
432.068	1075.69
432.29	1070.69
432.512	1072.69
432.734	1104.69
432.956	1069.69
433.178	1084.69
433.4	1097.69
433.622	1086.69
433.844	1114.69
434.066	1124.69
434.287	1096.69
434.509	1148.69
434.731	1160.69
434.953	1197.69
435.175	1242.69
435.397	1198.69
435.618	1172.69
435.84	1122.69
436.062	1078.69
436.284	1075.69
436.505	1083.69
436.727	1089.69
436.949	1087.69
437.17	1081.69
437.392	1089.69
437.614	1068.69
437.835	1044.69
438.057	1057.69
438.278	1038.69
438.5	1027.69
438.721	1065.69
438.943	1063.69
439.165	1076.69
439.386	1077.69
439.608	1078.69
439.829	1072.69
440.05	1102.69
440.272	1092.69
440.493	1103.69
440.715	1129.69
440.936	1174.69
441.158	1140.69
441.379	1176.69
441.6	1202.69
441.822	1216.69
442.043	1208.69
442.264	1204.69
442.486	1176.69
442.707	1161.69
442.928	1204.69
443.149	1184.69
443.371	1182.69
443.592	1179.69
443.813	1226.69
444.034	1235.69
444.255	1266.69
444.476	1301.69
444.698	1383.69
444.919	1456.69
445.14	1505.69
445.361	1376.69
445.582	1291.69
445.803	1191.69
446.024	1158.69
446.245	1139.69
446.466	1147.69
446.687	1102.69
446.908	1109.69
447.129	1068.69
447.35	1066.69
447.571	1051.69
447.792	1028.69
448.013	1035.69
448.234	1000.69
448.455	1003.69
448.675	993.69
448.896	988.69
449.117	968.69
449.338	1005.69
449.559	978.69
449.779	980.69
450	981.69
450.221	1016.69
450.442	1007.69
450.662	1008.69
450.883	1034.69
451.104	1015.69
451.324	1000.69
451.545	993.69
451.766	1020.69
451.986	1006.69
452.207	1011.69
452.428	982.69
452.648	1008.69
452.869	958.69
453.089	964.69
453.31	956.69
453.53	951.69
453.751	957.69
453.971	953.69
454.192	965.69
454.412	935.69
454.633	946.69
454.853	928.69
455.073	931.69
455.294	929.69
455.514	915.69
455.734	913.69
455.955	924.69
456.175	926.69
456.395	890.69
456.616	912.69
456.836	936.69
457.056	913.69
457.276	883.69
457.497	918.69
457.717	913.69
457.937	925.69
458.157	908.69
458.377	937.69
458.598	955.69
458.818	985.69
459.038	1029.69
459.258	1063.69
459.478	1081.69
459.698	1102.69
459.918	1134.69
460.138	1139.69
460.358	1238.69
460.578	1253.69
460.798	1257.69
461.018	1291.69
461.238	1255.69
461.458	1248.69
461.678	1256.69
461.898	1268.69
462.118	1294.69
462.338	1351.69
462.558	1355.69
462.777	1403.69
462.997	1540.69
463.217	1663.69
463.437	1675.69
463.657	1542.69
463.876	1479.69
464.096	1468.69
464.316	1433.69
464.536	1470.69
464.755	1410.69
464.975	1349.69
465.195	1323.69
465.414	1235.69
465.634	1186.69
465.854	1128.69
466.073	1133.69
466.293	1089.69
466.512	1073.69
466.732	1040.69
466.951	1012.69
467.171	996.69
467.391	1019.69
467.61	1059.69
467.829	985.69
468.049	1008.69
468.268	976.69
468.488	993.69
468.707	1008.69
468.927	981.69
469.146	996.69
469.365	986.69
469.585	997.69
469.804	1021.69
470.023	1057.69
470.243	1084.69
470.462	1058.69
470.681	1084.69
470.901	1069.69
471.12	1097.69
471.339	1061.69
471.558	999.69
471.777	1008.69
471.997	998.69
472.216	984.69
472.435	995.69
472.654	971.69
472.873	972.69
473.092	967.69
473.311	972.69
473.53	949.69
473.749	966.69
473.968	948.69
474.187	968.69
474.406	950.69
474.625	952.69
474.844	952.69
475.063	957.69
475.282	957.69
475.501	988.69
475.72	984.69
475.939	972.69
476.158	1004.69
476.377	984.69
476.596	985.69
476.814	1001.69
477.033	996.69
477.252	1039.69
477.471	1038.69
477.69	1053.69
477.908	1085.69
478.127	1127.69
478.346	1176.69
478.564	1142.69
478.783	1187.69
479.002	1191.69
479.22	1204.69
479.439	1196.69
479.658	1194.69
479.876	1200.69
480.095	1206.69
480.313	1248.69
480.532	1264.69
480.751	1245.69
480.969	1230.69
481.188	1168.69
481.406	1165.69
481.624	1105.69
481.843	1100.69
482.061	1094.69
482.28	1078.69
482.498	1055.69
482.717	1071.69
482.935	1088.69
483.153	1105.69
483.372	1101.69
483.59	1117.69
483.808	1107.69
484.027	1106.69
484.245	1100.69
484.463	1094.69
484.681	1138.69
484.9	1134.69
485.118	1093.69
485.336	1123.69
485.554	1155.69
485.772	1114.69
485.99	1148.69
486.209	1181.69
486.427	1133.69
486.645	1146.69
486.863	1142.69
487.081	1180.69
487.299	1132.69
487.517	1128.69
487.735	1125.69
487.953	1140.69
488.171	1140.69
488.389	1133.69
488.607	1163.69
488.825	1139.69
489.043	1124.69
489.261	1134.69
489.479	1150.69
489.696	1118.69
489.914	1143.69
490.132	1164.69
490.35	1137.69
490.568	1148.69
490.786	1131.69
491.003	1152.69
491.221	1166.69
491.439	1149.69
491.657	1172.69
491.874	1174.69
492.092	1179.69
492.31	1214.69
492.527	1167.69
492.745	1169.69
492.963	1217.69
493.18	1197.69
493.398	1194.69
493.615	1168.69
493.833	1194.69
494.05	1196.69
494.268	1212.69
494.485	1202.69
494.703	1203.69
494.92	1206.69
495.138	1214.69
495.355	1197.69
495.573	1228.69
495.79	1235.69
496.008	1252.69
