Data from NiCl2@0.25M.TitratingCurve.Agarose3%dH2O.NegLispCup.LampEnergy10.LIBS07252019_HRD10591_18-24-26-573.txt Node
Date: Thu Jul 25 18:24:26 EDT 2019
User: cochatt
Spectrometer: HR+D1059
Trigger mode: 1
Integration Time (sec): 1.000000E-1
Scans to average: 1
Electric dark correction enabled: true
Nonlinearity correction enabled: false
Boxcar width: 0
XAxis mode: Wavelengths
Number of Pixels in Spectrum: 2048
>>>>>Begin Spectral Data<<<<<
223.165	-8.5
223.4	-8.5
223.635	-8.5
223.869	-14.5
224.104	-6.5
224.338	-10.5
224.573	-17.5
224.808	-18.5
225.042	-15.5
225.277	-20.5
225.511	1.5
225.746	4.5
225.98	-7.5
226.215	0.5
226.449	15.5
226.683	16.5
226.918	44.5
227.152	36.5
227.387	37.5
227.621	42.5
227.856	50.5
228.09	50.5
228.324	46.5
228.559	68.5
228.793	75.5
229.027	124.5
229.262	143.5
229.496	136.5
229.73	150.5
229.964	157.5
230.199	150.5
230.433	164.5
230.667	142.5
230.901	171.5
231.136	166.5
231.37	169.5
231.604	182.5
231.838	178.5
232.072	201.5
232.306	188.5
232.541	186.5
232.775	181.5
233.009	188.5
233.243	194.5
233.477	184.5
233.711	177.5
233.945	197.5
234.179	179.5
234.413	180.5
234.647	189.5
234.881	198.5
235.115	204.5
235.349	210.5
235.583	219.5
235.817	199.5
236.051	213.5
236.285	209.5
236.519	212.5
236.753	213.5
236.987	208.5
237.221	197.5
237.455	213.5
237.689	205.5
237.922	186.5
238.156	211.5
238.39	225.5
238.624	199.5
238.858	232.5
239.091	233.5
239.325	221.5
239.559	231.5
239.793	238.5
240.027	226.5
240.26	243.5
240.494	249.5
240.728	255.5
240.961	259.5
241.195	254.5
241.429	272.5
241.662	240.5
241.896	262.5
242.13	249.5
242.363	261.5
242.597	286.5
242.83	278.5
243.064	282.5
243.298	256.5
243.531	276.5
243.765	295.5
243.998	291.5
244.232	278.5
244.465	288.5
244.699	302.5
244.932	300.5
245.166	307.5
245.399	317.5
245.633	335.5
245.866	307.5
246.099	304.5
246.333	299.5
246.566	316.5
246.8	301.5
247.033	310.5
247.266	306.5
247.5	323.5
247.733	323.5
247.966	312.5
248.2	325.5
248.433	318.5
248.666	340.5
248.899	326.5
249.133	343.5
249.366	334.5
249.599	349.5
249.832	353.5
250.066	330.5
250.299	342.5
250.532	354.5
250.765	368.5
250.998	380.5
251.231	381.5
251.465	378.5
251.698	369.5
251.931	358.5
252.164	362.5
252.397	370.5
252.63	378.5
252.863	403.5
253.096	413.5
253.329	390.5
253.562	396.5
253.795	410.5
254.028	389.5
254.261	377.5
254.494	398.5
254.727	408.5
254.96	396.5
255.193	402.5
255.426	412.5
255.659	411.5
255.892	419.5
256.124	408.5
256.357	408.5
256.59	419.5
256.823	418.5
257.056	418.5
257.289	423.5
257.521	439.5
257.754	427.5
257.987	428.5
258.22	407.5
258.452	422.5
258.685	434.5
258.918	439.5
259.151	431.5
259.383	444.5
259.616	459.5
259.849	454.5
260.081	467.5
260.314	454.5
260.547	438.5
260.779	452.5
261.012	466.5
261.244	448.5
261.477	464.5
261.71	471.5
261.942	460.5
262.175	467.5
262.407	486.5
262.64	463.5
262.872	478.5
263.105	506.5
263.337	479.5
263.57	481.5
263.802	505.5
264.035	491.5
264.267	510.5
264.499	490.5
264.732	493.5
264.964	489.5
265.197	509.5
265.429	532.5
265.661	524.5
265.894	523.5
266.126	535.5
266.358	524.5
266.591	500.5
266.823	510.5
267.055	515.5
267.287	520.5
267.52	526.5
267.752	534.5
267.984	535.5
268.216	540.5
268.448	548.5
268.681	544.5
268.913	546.5
269.145	540.5
269.377	516.5
269.609	553.5
269.841	556.5
270.073	545.5
270.306	549.5
270.538	548.5
270.77	543.5
271.002	557.5
271.234	560.5
271.466	570.5
271.698	569.5
271.93	563.5
272.162	570.5
272.394	603.5
272.626	567.5
272.858	570.5
273.09	581.5
273.322	604.5
273.553	588.5
273.785	597.5
274.017	572.5
274.249	593.5
274.481	588.5
274.713	605.5
274.945	608.5
275.176	609.5
275.408	615.5
275.64	629.5
275.872	612.5
276.104	631.5
276.335	578.5
276.567	624.5
276.799	598.5
277.031	630.5
277.262	611.5
277.494	646.5
277.726	646.5
277.957	660.5
278.189	628.5
278.421	652.5
278.652	626.5
278.884	646.5
279.115	636.5
279.347	676.5
279.579	646.5
279.81	654.5
280.042	665.5
280.273	651.5
280.505	674.5
280.736	676.5
280.968	651.5
281.199	689.5
281.431	706.5
281.662	670.5
281.894	706.5
282.125	705.5
282.356	700.5
282.588	715.5
282.819	693.5
283.051	707.5
283.282	689.5
283.513	722.5
283.745	699.5
283.976	707.5
284.207	694.5
284.439	697.5
284.67	734.5
284.901	730.5
285.132	722.5
285.364	740.5
285.595	729.5
285.826	745.5
286.057	736.5
286.288	744.5
286.52	734.5
286.751	739.5
286.982	746.5
287.213	716.5
287.444	755.5
287.675	755.5
287.906	773.5
288.138	748.5
288.369	785.5
288.6	772.5
288.831	756.5
289.062	758.5
289.293	775.5
289.524	762.5
289.755	792.5
289.986	787.5
290.217	788.5
290.448	808.5
290.679	773.5
290.91	781.5
291.141	768.5
291.371	777.5
291.602	795.5
291.833	782.5
292.064	813.5
292.295	802.5
292.526	789.5
292.757	759.5
292.987	796.5
293.218	786.5
293.449	778.5
293.68	796.5
293.91	790.5
294.141	792.5
294.372	799.5
294.603	791.5
294.833	762.5
295.064	794.5
295.295	808.5
295.525	793.5
295.756	778.5
295.987	786.5
296.217	802.5
296.448	807.5
296.679	802.5
296.909	835.5
297.14	823.5
297.37	836.5
297.601	839.5
297.831	846.5
298.062	877.5
298.292	862.5
298.523	896.5
298.753	869.5
298.984	870.5
299.214	853.5
299.445	863.5
299.675	845.5
299.905	866.5
300.136	867.5
300.366	885.5
300.597	862.5
300.827	895.5
301.057	894.5
301.288	911.5
301.518	897.5
301.748	894.5
301.979	914.5
302.209	908.5
302.439	910.5
302.669	901.5
302.9	901.5
303.13	855.5
303.36	875.5
303.59	897.5
303.82	892.5
304.051	916.5
304.281	860.5
304.511	886.5
304.741	906.5
304.971	894.5
305.201	876.5
305.431	893.5
305.661	889.5
305.891	860.5
306.121	914.5
306.352	898.5
306.582	883.5
306.812	878.5
307.042	876.5
307.272	869.5
307.502	860.5
307.731	886.5
307.961	858.5
308.191	878.5
308.421	864.5
308.651	861.5
308.881	879.5
309.111	881.5
309.341	851.5
309.571	865.5
309.8	891.5
310.03	885.5
310.26	885.5
310.49	889.5
310.72	869.5
310.949	867.5
311.179	878.5
311.409	883.5
311.639	886.5
311.868	902.5
312.098	900.5
312.328	914.5
312.557	929.5
312.787	903.5
313.017	912.5
313.246	936.5
313.476	916.5
313.706	926.5
313.935	939.5
314.165	974.5
314.394	920.5
314.624	948.5
314.853	941.5
315.083	955.5
315.312	978.5
315.542	924.5
315.771	931.5
316.001	925.5
316.23	958.5
316.46	948.5
316.689	962.5
316.919	953.5
317.148	960.5
317.377	937.5
317.607	910.5
317.836	906.5
318.065	924.5
318.295	923.5
318.524	954.5
318.753	923.5
318.983	954.5
319.212	896.5
319.441	903.5
319.67	924.5
319.9	944.5
320.129	930.5
320.358	932.5
320.587	925.5
320.816	921.5
321.046	945.5
321.275	920.5
321.504	933.5
321.733	928.5
321.962	927.5
322.191	925.5
322.42	941.5
322.649	921.5
322.878	925.5
323.108	924.5
323.337	932.5
323.566	949.5
323.795	942.5
324.024	979.5
324.253	946.5
324.482	944.5
324.71	965.5
324.939	961.5
325.168	967.5
325.397	965.5
325.626	1011.5
325.855	992.5
326.084	999.5
326.313	1035.5
326.542	1028.5
326.77	1024.5
326.999	998.5
327.228	1014.5
327.457	967.5
327.686	986.5
327.914	988.5
328.143	1026.5
328.372	1016.5
328.6	1021.5
328.829	1024.5
329.058	1022.5
329.287	1011.5
329.515	1044.5
329.744	1002.5
329.972	1044.5
330.201	1044.5
330.43	1042.5
330.658	1065.5
330.887	1060.5
331.115	1069.5
331.344	1028.5
331.572	1088.5
331.801	1105.5
332.03	1143.5
332.258	1191.5
332.486	1205.5
332.715	1236.5
332.943	1218.5
333.172	1290.5
333.4	1403.5
333.629	1378.5
333.857	1442.5
334.085	1433.5
334.314	1373.5
334.542	1370.5
334.771	1340.5
334.999	1315.5
335.227	1303.5
335.455	1301.5
335.684	1308.5
335.912	1272.5
336.14	1270.5
336.369	1239.5
336.597	1238.5
336.825	1238.5
337.053	1258.5
337.281	1214.5
337.51	1186.5
337.738	1188.5
337.966	1158.5
338.194	1186.5
338.422	1098.5
338.65	1101.5
338.878	1121.5
339.106	1109.5
339.334	1108.5
339.562	1104.5
339.79	1098.5
340.018	1085.5
340.246	1061.5
340.474	1060.5
340.702	1067.5
340.93	1056.5
341.158	1087.5
341.386	1086.5
341.614	1084.5
341.842	1043.5
342.07	1044.5
342.298	1067.5
342.526	1061.5
342.754	1044.5
342.981	1045.5
343.209	1094.5
343.437	1127.5
343.665	1204.5
343.893	1289.5
344.12	1376.5
344.348	1272.5
344.576	1223.5
344.804	1176.5
345.031	1101.5
345.259	1094.5
345.487	1051.5
345.714	1082.5
345.942	1042.5
346.17	1044.5
346.397	1017.5
346.625	1016.5
346.853	1031.5
347.08	998.5
347.308	1021.5
347.535	1022.5
347.763	1042.5
347.99	1031.5
348.218	1030.5
348.445	1054.5
348.673	1000.5
348.9	1011.5
349.128	1036.5
349.355	1006.5
349.583	1028.5
349.81	1005.5
350.037	1008.5
350.265	1001.5
350.492	983.5
350.72	978.5
350.947	987.5
351.174	962.5
351.402	984.5
351.629	973.5
351.856	968.5
352.083	976.5
352.311	956.5
352.538	970.5
352.765	996.5
352.992	940.5
353.22	954.5
353.447	955.5
353.674	963.5
353.901	951.5
354.128	967.5
354.355	979.5
354.583	967.5
354.81	968.5
355.037	941.5
355.264	964.5
355.491	998.5
355.718	1002.5
355.945	967.5
356.172	973.5
356.399	986.5
356.626	979.5
356.853	984.5
357.08	1024.5
357.307	989.5
357.534	986.5
357.761	980.5
357.988	968.5
358.215	985.5
358.441	971.5
358.668	967.5
358.895	969.5
359.122	994.5
359.349	971.5
359.576	1009.5
359.802	997.5
360.029	992.5
360.256	1003.5
360.483	996.5
360.709	1000.5
360.936	984.5
361.163	977.5
361.39	990.5
361.616	1000.5
361.843	960.5
362.07	989.5
362.296	994.5
362.523	993.5
362.749	994.5
362.976	986.5
363.203	960.5
363.429	953.5
363.656	973.5
363.882	992.5
364.109	955.5
364.335	981.5
364.562	990.5
364.788	965.5
365.015	967.5
365.241	975.5
365.468	961.5
365.694	981.5
365.92	971.5
366.147	978.5
366.373	974.5
366.599	980.5
366.826	958.5
367.052	969.5
367.278	974.5
367.505	989.5
367.731	978.5
367.957	985.5
368.184	1025.5
368.41	995.5
368.636	978.5
368.862	997.5
369.089	1013.5
369.315	999.5
369.541	1012.5
369.767	1014.5
369.993	1014.5
370.219	1031.5
370.445	1030.5
370.672	1027.5
370.898	1052.5
371.124	1043.5
371.35	1105.5
371.576	1072.5
371.802	1047.5
372.028	1055.5
372.254	1069.5
372.48	1072.5
372.706	1088.5
372.932	1128.5
373.158	1096.5
373.384	1082.5
373.61	1067.5
373.835	1064.5
374.061	1069.5
374.287	1118.5
374.513	1101.5
374.739	1150.5
374.965	1155.5
375.191	1202.5
375.416	1191.5
375.642	1131.5
375.868	1166.5
376.094	1076.5
376.319	1118.5
376.545	1103.5
376.771	1080.5
376.997	1053.5
377.222	1046.5
377.448	1066.5
377.674	1061.5
377.899	1053.5
378.125	1059.5
378.35	1072.5
378.576	1039.5
378.802	1069.5
379.027	1083.5
379.253	1069.5
379.478	1073.5
379.704	1075.5
379.929	1056.5
380.155	1079.5
380.38	1061.5
380.606	1048.5
380.831	1084.5
381.057	1058.5
381.282	1063.5
381.507	1053.5
381.733	1070.5
381.958	1108.5
382.184	1093.5
382.409	1114.5
382.634	1102.5
382.86	1133.5
383.085	1106.5
383.31	1131.5
383.535	1173.5
383.761	1180.5
383.986	1204.5
384.211	1222.5
384.436	1241.5
384.662	1253.5
384.887	1278.5
385.112	1315.5
385.337	1324.5
385.562	1325.5
385.787	1317.5
386.013	1330.5
386.238	1346.5
386.463	1336.5
386.688	1294.5
386.913	1319.5
387.138	1286.5
387.363	1300.5
387.588	1284.5
387.813	1275.5
388.038	1259.5
388.263	1318.5
388.488	1299.5
388.713	1295.5
388.938	1284.5
389.163	1258.5
389.387	1259.5
389.612	1254.5
389.837	1250.5
390.062	1240.5
390.287	1262.5
390.512	1279.5
390.736	1282.5
390.961	1298.5
391.186	1328.5
391.411	1396.5
391.636	1412.5
391.86	1457.5
392.085	1518.5
392.31	1468.5
392.534	1462.5
392.759	1442.5
392.984	1361.5
393.208	1369.5
393.433	1363.5
393.658	1338.5
393.882	1386.5
394.107	1373.5
394.331	1388.5
394.556	1387.5
394.78	1405.5
395.005	1428.5
395.229	1431.5
395.454	1444.5
395.678	1460.5
395.903	1478.5
396.127	1456.5
396.352	1404.5
396.576	1365.5
396.801	1376.5
397.025	1384.5
397.249	1457.5
397.474	1467.5
397.698	1485.5
397.922	1500.5
398.147	1490.5
398.371	1510.5
398.595	1541.5
398.82	1653.5
399.044	1771.5
399.268	1965.5
399.492	2307.5
399.717	2556.5
399.941	2589.5
400.165	2330.5
400.389	2066.5
400.613	1905.5
400.837	1745.5
401.062	1732.5
401.286	1700.5
401.51	1662.5
401.734	1675.5
401.958	1692.5
402.182	1715.5
402.406	1743.5
402.63	1731.5
402.854	1760.5
403.078	1785.5
403.302	1876.5
403.526	1860.5
403.75	1897.5
403.974	1932.5
404.198	1954.5
404.422	1981.5
404.645	1968.5
404.869	1900.5
405.093	1899.5
405.317	1884.5
405.541	1863.5
405.765	1821.5
405.988	1800.5
406.212	1846.5
406.436	1827.5
406.66	1900.5
406.883	1916.5
407.107	2010.5
407.331	2123.5
407.555	2192.5
407.778	2158.5
408.002	2132.5
408.226	2068.5
408.449	1983.5
408.673	1920.5
408.896	1869.5
409.12	1846.5
409.344	1867.5
409.567	1840.5
409.791	1870.5
410.014	1827.5
410.238	1797.5
410.461	1843.5
410.685	1783.5
410.908	1771.5
411.132	1733.5
411.355	1689.5
411.578	1745.5
411.802	1743.5
412.025	1732.5
412.249	1774.5
412.472	1736.5
412.695	1669.5
412.919	1684.5
413.142	1651.5
413.365	1619.5
413.589	1685.5
413.812	1602.5
414.035	1658.5
414.258	1648.5
414.482	1626.5
414.705	1693.5
414.928	1645.5
415.151	1696.5
415.374	1670.5
415.597	1643.5
415.821	1600.5
416.044	1580.5
416.267	1572.5
416.49	1579.5
416.713	1611.5
416.936	1610.5
417.159	1594.5
417.382	1586.5
417.605	1615.5
417.828	1594.5
418.051	1643.5
418.274	1612.5
418.497	1630.5
418.72	1673.5
418.943	1645.5
419.166	1771.5
419.389	1898.5
419.611	1855.5
419.834	1769.5
420.057	1706.5
420.28	1667.5
420.503	1592.5
420.726	1636.5
420.948	1633.5
421.171	1614.5
421.394	1623.5
421.617	1627.5
421.839	1635.5
422.062	1642.5
422.285	1584.5
422.507	1625.5
422.73	1645.5
422.953	1670.5
423.175	1686.5
423.398	1700.5
423.621	1720.5
423.843	1717.5
424.066	1712.5
424.288	1699.5
424.511	1664.5
424.733	1723.5
424.956	1679.5
425.178	1636.5
425.401	1607.5
425.623	1620.5
425.846	1563.5
426.068	1565.5
426.291	1524.5
426.513	1531.5
426.735	1510.5
426.958	1529.5
427.18	1456.5
427.402	1485.5
427.625	1478.5
427.847	1462.5
428.069	1452.5
428.292	1435.5
428.514	1456.5
428.736	1431.5
428.958	1464.5
429.181	1418.5
429.403	1388.5
429.625	1413.5
429.847	1380.5
430.069	1356.5
430.292	1401.5
430.514	1352.5
430.736	1368.5
430.958	1365.5
431.18	1396.5
431.402	1396.5
431.624	1404.5
431.846	1412.5
432.068	1417.5
432.29	1466.5
432.512	1393.5
432.734	1399.5
432.956	1400.5
433.178	1449.5
433.4	1383.5
433.622	1424.5
433.844	1442.5
434.066	1437.5
434.287	1499.5
434.509	1514.5
434.731	1531.5
434.953	1626.5
435.175	1625.5
435.397	1582.5
435.618	1499.5
435.84	1456.5
436.062	1413.5
436.284	1440.5
436.505	1423.5
436.727	1445.5
436.949	1416.5
437.17	1397.5
437.392	1386.5
437.614	1375.5
437.835	1365.5
438.057	1380.5
438.278	1314.5
438.5	1352.5
438.721	1365.5
438.943	1392.5
439.165	1328.5
439.386	1343.5
439.608	1372.5
439.829	1347.5
440.05	1398.5
440.272	1396.5
440.493	1430.5
440.715	1422.5
440.936	1480.5
441.158	1512.5
441.379	1535.5
441.6	1589.5
441.822	1627.5
442.043	1594.5
442.264	1558.5
442.486	1579.5
442.707	1581.5
442.928	1564.5
443.149	1545.5
443.371	1574.5
443.592	1586.5
443.813	1612.5
444.034	1586.5
444.255	1692.5
444.476	1752.5
444.698	1839.5
444.919	1888.5
445.14	1961.5
445.361	1792.5
445.582	1664.5
445.803	1593.5
446.024	1510.5
446.245	1491.5
446.466	1469.5
446.687	1401.5
446.908	1446.5
447.129	1372.5
447.35	1339.5
447.571	1360.5
447.792	1325.5
448.013	1342.5
448.234	1306.5
448.455	1297.5
448.675	1278.5
448.896	1294.5
449.117	1251.5
449.338	1298.5
449.559	1283.5
449.779	1262.5
450	1241.5
450.221	1269.5
450.442	1294.5
450.662	1265.5
450.883	1307.5
451.104	1360.5
451.324	1305.5
451.545	1271.5
451.766	1294.5
451.986	1272.5
452.207	1268.5
452.428	1245.5
452.648	1266.5
452.869	1216.5
453.089	1216.5
453.31	1249.5
453.53	1210.5
453.751	1235.5
453.971	1225.5
454.192	1254.5
454.412	1213.5
454.633	1196.5
454.853	1228.5
455.073	1190.5
455.294	1186.5
455.514	1208.5
455.734	1207.5
455.955	1189.5
456.175	1204.5
456.395	1189.5
456.616	1176.5
456.836	1204.5
457.056	1198.5
457.276	1170.5
457.497	1194.5
457.717	1202.5
457.937	1206.5
458.157	1196.5
458.377	1238.5
458.598	1277.5
458.818	1293.5
459.038	1314.5
459.258	1383.5
459.478	1444.5
459.698	1437.5
459.918	1490.5
460.138	1593.5
460.358	1656.5
460.578	1684.5
460.798	1697.5
461.018	1707.5
461.238	1706.5
461.458	1652.5
461.678	1629.5
461.898	1716.5
462.118	1741.5
462.338	1809.5
462.558	1857.5
462.777	1910.5
462.997	2134.5
463.217	2280.5
463.437	2290.5
463.657	2111.5
463.876	2030.5
464.096	2001.5
464.316	1989.5
464.536	1993.5
464.755	1919.5
464.975	1842.5
465.195	1712.5
465.414	1663.5
465.634	1550.5
465.854	1491.5
466.073	1415.5
466.293	1428.5
466.512	1398.5
466.732	1373.5
466.951	1376.5
467.171	1377.5
467.391	1351.5
467.61	1336.5
467.829	1319.5
468.049	1360.5
468.268	1258.5
468.488	1326.5
468.707	1289.5
468.927	1282.5
469.146	1268.5
469.365	1293.5
469.585	1321.5
469.804	1352.5
470.023	1343.5
470.243	1375.5
470.462	1428.5
470.681	1374.5
470.901	1378.5
471.12	1374.5
471.339	1374.5
471.558	1345.5
471.777	1317.5
471.997	1333.5
472.216	1304.5
472.435	1312.5
472.654	1251.5
472.873	1259.5
473.092	1239.5
473.311	1236.5
473.53	1238.5
473.749	1251.5
473.968	1234.5
474.187	1230.5
474.406	1241.5
474.625	1249.5
474.844	1237.5
475.063	1262.5
475.282	1240.5
475.501	1274.5
475.72	1308.5
475.939	1294.5
476.158	1287.5
476.377	1294.5
476.596	1284.5
476.814	1333.5
477.033	1339.5
477.252	1344.5
477.471	1392.5
477.69	1411.5
477.908	1484.5
478.127	1501.5
478.346	1512.5
478.564	1555.5
478.783	1596.5
479.002	1647.5
479.22	1581.5
479.439	1613.5
479.658	1578.5
479.876	1580.5
480.095	1624.5
480.313	1684.5
480.532	1727.5
480.751	1732.5
480.969	1648.5
481.188	1556.5
481.406	1532.5
481.624	1511.5
481.843	1472.5
482.061	1479.5
482.28	1438.5
482.498	1436.5
482.717	1401.5
482.935	1416.5
483.153	1412.5
483.372	1428.5
483.59	1445.5
483.808	1434.5
484.027	1427.5
484.245	1457.5
484.463	1453.5
484.681	1456.5
484.9	1458.5
485.118	1484.5
485.336	1519.5
485.554	1498.5
485.772	1518.5
485.99	1520.5
486.209	1556.5
486.427	1530.5
486.645	1557.5
486.863	1560.5
487.081	1492.5
487.299	1485.5
487.517	1515.5
487.735	1462.5
487.953	1535.5
488.171	1529.5
488.389	1483.5
488.607	1501.5
488.825	1466.5
489.043	1430.5
489.261	1482.5
489.479	1530.5
489.696	1514.5
489.914	1519.5
490.132	1536.5
490.35	1521.5
490.568	1514.5
490.786	1507.5
491.003	1509.5
491.221	1539.5
491.439	1498.5
491.657	1516.5
491.874	1508.5
492.092	1512.5
492.31	1523.5
492.527	1542.5
492.745	1544.5
492.963	1550.5
493.18	1540.5
493.398	1548.5
493.615	1582.5
493.833	1538.5
494.05	1578.5
494.268	1601.5
494.485	1600.5
494.703	1640.5
494.92	1602.5
495.138	1626.5
495.355	1624.5
495.573	1620.5
495.79	1656.5
496.008	1617.5
496.225	1650.5
496.442	1676.5
496.66	1715.5
496.877	1745.5
497.094	1760.5
497.312	1781.5
497.529	1792.5
497.746	1838.5
497.963	1942.5
498.181	2022.5
498.398	2125.5
498.615	2262.5
498.832	2432.5
499.049	2605.5
499.267	2878.5
499.484	3133.5
499.701	3457.5
499.918	3872.5
500.135	4380.5
500.352	4946.5
500.569	5154.5
500.786	5068.5
501.003	4728.5
501.22	4328.5
501.437	3793.5
501.654	3403.5
501.871	3023.5
502.088	2766.5
502.305	2560.5
502.522	2414.5
502.739	2340.5
502.956	2196.5
503.172	2118.5
503.389	1994.5
503.606	1938.5
503.823	1888.5
504.04	1879.5
504.256	1930.5
504.473	1945.5
504.69	2002.5
504.907	1946.5
505.123	1801.5
505.34	1714.5
505.557	1658.5
505.773	1586.5
505.99	1534.5
506.207	1524.5
506.423	1550.5
506.64	1492.5
506.856	1508.5
507.073	1448.5
507.289	1432.5
507.506	1427.5
507.722	1401.5
507.939	1395.5
508.155	1396.5
508.372	1354.5
508.588	1350.5
508.805	1350.5
