Data from NiCl2@0.25M.TitratingCurve.Agarose3%dH2O.NegLispCup.LampEnergy10.LIBS07252019_HRD10591_18-24-12-574.txt Node
Date: Thu Jul 25 18:24:12 EDT 2019
User: cochatt
Spectrometer: HR+D1059
Trigger mode: 1
Integration Time (sec): 1.000000E-1
Scans to average: 1
Electric dark correction enabled: true
Nonlinearity correction enabled: false
Boxcar width: 0
XAxis mode: Wavelengths
Number of Pixels in Spectrum: 2048
>>>>>Begin Spectral Data<<<<<
223.165	-9.25
223.4	-9.25
223.635	-9.25
223.869	-15.25
224.104	-20.25
224.338	-8.25
224.573	-17.25
224.808	-11.25
225.042	0.75
225.277	-5.25
225.511	-4.25
225.746	-1.25
225.98	13.75
226.215	5.75
226.449	12.75
226.683	14.75
226.918	12.75
227.152	31.75
227.387	26.75
227.621	35.75
227.856	37.75
228.09	42.75
228.324	54.75
228.559	62.75
228.793	71.75
229.027	94.75
229.262	106.75
229.496	105.75
229.73	110.75
229.964	111.75
230.199	125.75
230.433	138.75
230.667	132.75
230.901	142.75
231.136	128.75
231.37	130.75
231.604	120.75
231.838	137.75
232.072	146.75
232.306	138.75
232.541	171.75
232.775	140.75
233.009	155.75
233.243	118.75
233.477	131.75
233.711	138.75
233.945	130.75
234.179	145.75
234.413	152.75
234.647	138.75
234.881	132.75
235.115	152.75
235.349	148.75
235.583	155.75
235.817	144.75
236.051	145.75
236.285	163.75
236.519	152.75
236.753	169.75
236.987	171.75
237.221	146.75
237.455	149.75
237.689	157.75
237.922	142.75
238.156	153.75
238.39	163.75
238.624	161.75
238.858	169.75
239.091	159.75
239.325	157.75
239.559	160.75
239.793	168.75
240.027	176.75
240.26	180.75
240.494	185.75
240.728	178.75
240.961	176.75
241.195	179.75
241.429	174.75
241.662	186.75
241.896	174.75
242.13	183.75
242.363	184.75
242.597	193.75
242.83	185.75
243.064	189.75
243.298	201.75
243.531	198.75
243.765	175.75
243.998	196.75
244.232	196.75
244.465	191.75
244.699	194.75
244.932	207.75
245.166	208.75
245.399	207.75
245.633	216.75
245.866	189.75
246.099	205.75
246.333	206.75
246.566	200.75
246.8	195.75
247.033	221.75
247.266	208.75
247.5	230.75
247.733	216.75
247.966	207.75
248.2	219.75
248.433	225.75
248.666	206.75
248.899	227.75
249.133	215.75
249.366	226.75
249.599	244.75
249.832	224.75
250.066	240.75
250.299	255.75
250.532	244.75
250.765	238.75
250.998	247.75
251.231	241.75
251.465	256.75
251.698	242.75
251.931	255.75
252.164	249.75
252.397	241.75
252.63	258.75
252.863	251.75
253.096	252.75
253.329	256.75
253.562	255.75
253.795	244.75
254.028	259.75
254.261	266.75
254.494	241.75
254.727	266.75
254.96	266.75
255.193	271.75
255.426	268.75
255.659	268.75
255.892	275.75
256.124	268.75
256.357	290.75
256.59	262.75
256.823	261.75
257.056	262.75
257.289	251.75
257.521	272.75
257.754	286.75
257.987	277.75
258.22	280.75
258.452	290.75
258.685	270.75
258.918	280.75
259.151	289.75
259.383	281.75
259.616	299.75
259.849	289.75
260.081	292.75
260.314	298.75
260.547	316.75
260.779	285.75
261.012	276.75
261.244	290.75
261.477	317.75
261.71	305.75
261.942	314.75
262.175	301.75
262.407	294.75
262.64	317.75
262.872	304.75
263.105	320.75
263.337	321.75
263.57	310.75
263.802	307.75
264.035	314.75
264.267	321.75
264.499	307.75
264.732	327.75
264.964	306.75
265.197	315.75
265.429	321.75
265.661	327.75
265.894	326.75
266.126	330.75
266.358	323.75
266.591	325.75
266.823	354.75
267.055	349.75
267.287	351.75
267.52	328.75
267.752	324.75
267.984	350.75
268.216	345.75
268.448	321.75
268.681	349.75
268.913	347.75
269.145	317.75
269.377	341.75
269.609	329.75
269.841	339.75
270.073	357.75
270.306	371.75
270.538	344.75
270.77	328.75
271.002	339.75
271.234	345.75
271.466	366.75
271.698	357.75
271.93	351.75
272.162	339.75
272.394	387.75
272.626	369.75
272.858	348.75
273.09	372.75
273.322	371.75
273.553	365.75
273.785	352.75
274.017	373.75
274.249	399.75
274.481	393.75
274.713	387.75
274.945	376.75
275.176	375.75
275.408	374.75
275.64	386.75
275.872	400.75
276.104	395.75
276.335	385.75
276.567	378.75
276.799	389.75
277.031	377.75
277.262	379.75
277.494	410.75
277.726	400.75
277.957	379.75
278.189	401.75
278.421	402.75
278.652	425.75
278.884	393.75
279.115	422.75
279.347	403.75
279.579	391.75
279.81	393.75
280.042	420.75
280.273	446.75
280.505	404.75
280.736	413.75
280.968	406.75
281.199	421.75
281.431	426.75
281.662	427.75
281.894	445.75
282.125	434.75
282.356	419.75
282.588	436.75
282.819	433.75
283.051	426.75
283.282	424.75
283.513	439.75
283.745	417.75
283.976	451.75
284.207	429.75
284.439	449.75
284.67	445.75
284.901	436.75
285.132	443.75
285.364	448.75
285.595	450.75
285.826	476.75
286.057	469.75
286.288	452.75
286.52	468.75
286.751	447.75
286.982	474.75
287.213	458.75
287.444	463.75
287.675	471.75
287.906	490.75
288.138	456.75
288.369	459.75
288.6	471.75
288.831	479.75
289.062	477.75
289.293	477.75
289.524	481.75
289.755	475.75
289.986	466.75
290.217	453.75
290.448	495.75
290.679	477.75
290.91	482.75
291.141	478.75
291.371	475.75
291.602	467.75
291.833	470.75
292.064	475.75
292.295	477.75
292.526	486.75
292.757	490.75
292.987	462.75
293.218	495.75
293.449	498.75
293.68	500.75
293.91	485.75
294.141	504.75
294.372	477.75
294.603	493.75
294.833	494.75
295.064	496.75
295.295	524.75
295.525	507.75
295.756	486.75
295.987	490.75
296.217	511.75
296.448	501.75
296.679	486.75
296.909	513.75
297.14	513.75
297.37	532.75
297.601	542.75
297.831	524.75
298.062	529.75
298.292	530.75
298.523	527.75
298.753	531.75
298.984	525.75
299.214	536.75
299.445	520.75
299.675	520.75
299.905	530.75
300.136	544.75
300.366	547.75
300.597	562.75
300.827	558.75
301.057	543.75
301.288	568.75
301.518	548.75
301.748	563.75
301.979	559.75
302.209	580.75
302.439	561.75
302.669	554.75
302.9	543.75
303.13	554.75
303.36	551.75
303.59	542.75
303.82	519.75
304.051	550.75
304.281	560.75
304.511	538.75
304.741	522.75
304.971	554.75
305.201	565.75
305.431	569.75
305.661	555.75
305.891	549.75
306.121	548.75
306.352	558.75
306.582	553.75
306.812	537.75
307.042	545.75
307.272	559.75
307.502	537.75
307.731	536.75
307.961	541.75
308.191	527.75
308.421	524.75
308.651	517.75
308.881	547.75
309.111	528.75
309.341	552.75
309.571	582.75
309.8	530.75
310.03	549.75
310.26	537.75
310.49	563.75
310.72	558.75
310.949	563.75
311.179	550.75
311.409	550.75
311.639	582.75
311.868	564.75
312.098	565.75
312.328	575.75
312.557	574.75
312.787	569.75
313.017	566.75
313.246	583.75
313.476	585.75
313.706	569.75
313.935	593.75
314.165	582.75
314.394	584.75
314.624	571.75
314.853	598.75
315.083	588.75
315.312	565.75
315.542	583.75
315.771	582.75
316.001	586.75
316.23	582.75
316.46	560.75
316.689	553.75
316.919	603.75
317.148	591.75
317.377	581.75
317.607	584.75
317.836	562.75
318.065	568.75
318.295	570.75
318.524	560.75
318.753	582.75
318.983	567.75
319.212	529.75
319.441	570.75
319.67	590.75
319.9	562.75
320.129	571.75
320.358	576.75
320.587	562.75
320.816	581.75
321.046	569.75
321.275	594.75
321.504	578.75
321.733	591.75
321.962	603.75
322.191	590.75
322.42	580.75
322.649	585.75
322.878	571.75
323.108	590.75
323.337	593.75
323.566	580.75
323.795	594.75
324.024	564.75
324.253	605.75
324.482	615.75
324.71	620.75
324.939	591.75
325.168	617.75
325.397	612.75
325.626	600.75
325.855	619.75
326.084	644.75
326.313	618.75
326.542	630.75
326.77	655.75
326.999	610.75
327.228	598.75
327.457	632.75
327.686	629.75
327.914	625.75
328.143	629.75
328.372	654.75
328.6	638.75
328.829	654.75
329.058	632.75
329.287	658.75
329.515	643.75
329.744	636.75
329.972	629.75
330.201	662.75
330.43	673.75
330.658	648.75
330.887	644.75
331.115	635.75
331.344	641.75
331.572	671.75
331.801	681.75
332.03	705.75
332.258	693.75
332.486	726.75
332.715	769.75
332.943	777.75
333.172	797.75
333.4	813.75
333.629	855.75
333.857	844.75
334.085	864.75
334.314	853.75
334.542	832.75
334.771	823.75
334.999	776.75
335.227	789.75
335.455	807.75
335.684	801.75
335.912	786.75
336.14	762.75
336.369	774.75
336.597	784.75
336.825	776.75
337.053	772.75
337.281	721.75
337.51	717.75
337.738	730.75
337.966	709.75
338.194	687.75
338.422	678.75
338.65	661.75
338.878	688.75
339.106	673.75
339.334	706.75
339.562	673.75
339.79	666.75
340.018	662.75
340.246	652.75
340.474	627.75
340.702	651.75
340.93	638.75
341.158	675.75
341.386	641.75
341.614	672.75
341.842	667.75
342.07	647.75
342.298	661.75
342.526	661.75
342.754	651.75
342.981	674.75
343.209	682.75
343.437	706.75
343.665	742.75
343.893	791.75
344.12	829.75
344.348	802.75
344.576	774.75
344.804	721.75
345.031	693.75
345.259	677.75
345.487	693.75
345.714	677.75
345.942	681.75
346.17	683.75
346.397	667.75
346.625	643.75
346.853	638.75
347.08	633.75
347.308	649.75
347.535	652.75
347.763	657.75
347.99	680.75
348.218	640.75
348.445	623.75
348.673	629.75
348.9	632.75
349.128	650.75
349.355	622.75
349.583	635.75
349.81	634.75
350.037	616.75
350.265	636.75
350.492	641.75
350.72	644.75
350.947	619.75
351.174	611.75
351.402	612.75
351.629	642.75
351.856	596.75
352.083	602.75
352.311	604.75
352.538	603.75
352.765	605.75
352.992	606.75
353.22	608.75
353.447	575.75
353.674	595.75
353.901	618.75
354.128	616.75
354.355	597.75
354.583	603.75
354.81	611.75
355.037	613.75
355.264	630.75
355.491	611.75
355.718	628.75
355.945	618.75
356.172	617.75
356.399	620.75
356.626	607.75
356.853	629.75
357.08	621.75
357.307	600.75
357.534	627.75
357.761	629.75
357.988	614.75
358.215	621.75
358.441	629.75
358.668	607.75
358.895	629.75
359.122	620.75
359.349	613.75
359.576	616.75
359.802	593.75
360.029	616.75
360.256	628.75
360.483	623.75
360.709	625.75
360.936	630.75
361.163	615.75
361.39	641.75
361.616	633.75
361.843	606.75
362.07	606.75
362.296	634.75
362.523	633.75
362.749	639.75
362.976	628.75
363.203	604.75
363.429	616.75
363.656	600.75
363.882	598.75
364.109	622.75
364.335	616.75
364.562	618.75
364.788	580.75
365.015	618.75
365.241	618.75
365.468	618.75
365.694	602.75
365.92	597.75
366.147	613.75
366.373	613.75
366.599	633.75
366.826	623.75
367.052	612.75
367.278	619.75
367.505	615.75
367.731	630.75
367.957	603.75
368.184	626.75
368.41	635.75
368.636	604.75
368.862	639.75
369.089	633.75
369.315	634.75
369.541	633.75
369.767	637.75
369.993	636.75
370.219	628.75
370.445	648.75
370.672	669.75
370.898	659.75
371.124	655.75
371.35	702.75
371.576	662.75
371.802	670.75
372.028	664.75
372.254	666.75
372.48	660.75
372.706	682.75
372.932	679.75
373.158	681.75
373.384	675.75
373.61	666.75
373.835	689.75
374.061	663.75
374.287	661.75
374.513	688.75
374.739	698.75
374.965	738.75
375.191	749.75
375.416	724.75
375.642	710.75
375.868	721.75
376.094	705.75
376.319	682.75
376.545	692.75
376.771	685.75
376.997	701.75
377.222	675.75
377.448	664.75
377.674	673.75
377.899	680.75
378.125	654.75
378.35	680.75
378.576	671.75
378.802	661.75
379.027	659.75
379.253	656.75
379.478	665.75
379.704	669.75
379.929	678.75
380.155	647.75
380.38	646.75
380.606	672.75
380.831	672.75
381.057	689.75
381.282	673.75
381.507	687.75
381.733	681.75
381.958	697.75
382.184	659.75
382.409	718.75
382.634	702.75
382.86	706.75
383.085	724.75
383.31	714.75
383.535	722.75
383.761	734.75
383.986	761.75
384.211	759.75
384.436	782.75
384.662	782.75
384.887	786.75
385.112	791.75
385.337	809.75
385.562	825.75
385.787	816.75
386.013	811.75
386.238	836.75
386.463	807.75
386.688	834.75
386.913	823.75
387.138	806.75
387.363	793.75
387.588	800.75
387.813	816.75
388.038	806.75
388.263	810.75
388.488	811.75
388.713	819.75
388.938	804.75
389.163	772.75
389.387	800.75
389.612	813.75
389.837	768.75
390.062	765.75
390.287	782.75
390.512	776.75
390.736	830.75
390.961	800.75
391.186	834.75
391.411	851.75
391.636	858.75
391.86	897.75
392.085	927.75
392.31	911.75
392.534	922.75
392.759	877.75
392.984	867.75
393.208	868.75
393.433	850.75
393.658	863.75
393.882	869.75
394.107	865.75
394.331	874.75
394.556	882.75
394.78	885.75
395.005	881.75
395.229	911.75
395.454	909.75
395.678	912.75
395.903	899.75
396.127	887.75
396.352	885.75
396.576	833.75
396.801	856.75
397.025	857.75
397.249	911.75
397.474	901.75
397.698	903.75
397.922	922.75
398.147	938.75
398.371	930.75
398.595	978.75
398.82	1016.75
399.044	1080.75
399.268	1204.75
399.492	1346.75
399.717	1495.75
399.941	1505.75
400.165	1367.75
400.389	1219.75
400.613	1132.75
400.837	1096.75
401.062	1060.75
401.286	1043.75
401.51	1035.75
401.734	1015.75
401.958	1025.75
402.182	1039.75
402.406	1039.75
402.63	1054.75
402.854	1069.75
403.078	1097.75
403.302	1131.75
403.526	1156.75
403.75	1171.75
403.974	1160.75
404.198	1162.75
404.422	1169.75
404.645	1201.75
404.869	1164.75
405.093	1146.75
405.317	1128.75
405.541	1111.75
405.765	1117.75
405.988	1105.75
406.212	1133.75
406.436	1088.75
406.66	1159.75
406.883	1186.75
407.107	1231.75
407.331	1268.75
407.555	1353.75
407.778	1331.75
408.002	1274.75
408.226	1285.75
408.449	1222.75
408.673	1182.75
408.896	1156.75
409.12	1167.75
409.344	1162.75
409.567	1160.75
409.791	1171.75
410.014	1143.75
410.238	1121.75
410.461	1151.75
410.685	1116.75
410.908	1085.75
411.132	1081.75
411.355	1049.75
411.578	1069.75
411.802	1024.75
412.025	1061.75
412.249	1092.75
412.472	1102.75
412.695	1054.75
412.919	1019.75
413.142	1070.75
413.365	1041.75
413.589	1049.75
413.812	1041.75
414.035	1026.75
414.258	1005.75
414.482	1009.75
414.705	1038.75
414.928	1014.75
415.151	1041.75
415.374	1014.75
415.597	1005.75
415.821	981.75
416.044	978.75
416.267	980.75
416.49	994.75
416.713	973.75
416.936	980.75
417.159	1012.75
417.382	1009.75
417.605	1017.75
417.828	977.75
418.051	1008.75
418.274	1005.75
418.497	975.75
418.72	1053.75
418.943	1054.75
419.166	1092.75
419.389	1178.75
419.611	1137.75
419.834	1093.75
420.057	1049.75
420.28	1033.75
420.503	983.75
420.726	984.75
420.948	989.75
421.171	998.75
421.394	975.75
421.617	984.75
421.839	1000.75
422.062	1031.75
422.285	967.75
422.507	990.75
422.73	1007.75
422.953	1020.75
423.175	1003.75
423.398	1075.75
423.621	1054.75
423.843	1085.75
424.066	1045.75
424.288	1039.75
424.511	1040.75
424.733	1010.75
424.956	1002.75
425.178	1022.75
425.401	1000.75
425.623	998.75
425.846	971.75
426.068	977.75
426.291	954.75
426.513	938.75
426.735	930.75
426.958	945.75
427.18	933.75
427.402	917.75
427.625	901.75
427.847	894.75
428.069	911.75
428.292	902.75
428.514	906.75
428.736	885.75
428.958	909.75
429.181	893.75
429.403	870.75
429.625	887.75
429.847	847.75
430.069	862.75
430.292	883.75
430.514	863.75
430.736	885.75
430.958	868.75
431.18	859.75
431.402	886.75
431.624	883.75
431.846	910.75
432.068	891.75
432.29	901.75
432.512	877.75
432.734	911.75
432.956	878.75
433.178	879.75
433.4	903.75
433.622	919.75
433.844	918.75
434.066	887.75
434.287	912.75
434.509	940.75
434.731	987.75
434.953	985.75
435.175	1019.75
435.397	971.75
435.618	947.75
435.84	904.75
436.062	920.75
436.284	888.75
436.505	884.75
436.727	925.75
436.949	891.75
437.17	889.75
437.392	889.75
437.614	881.75
437.835	838.75
438.057	849.75
438.278	860.75
438.5	832.75
438.721	857.75
438.943	857.75
439.165	839.75
439.386	858.75
439.608	882.75
439.829	883.75
440.05	897.75
440.272	891.75
440.493	869.75
440.715	902.75
440.936	903.75
441.158	952.75
441.379	988.75
441.6	1009.75
441.822	981.75
442.043	1017.75
442.264	987.75
442.486	967.75
442.707	978.75
442.928	1019.75
443.149	1008.75
443.371	971.75
443.592	989.75
443.813	998.75
444.034	1005.75
444.255	1026.75
444.476	1094.75
444.698	1155.75
444.919	1173.75
445.14	1258.75
445.361	1164.75
445.582	1054.75
445.803	974.75
446.024	961.75
446.245	916.75
446.466	936.75
446.687	903.75
446.908	901.75
447.129	893.75
447.35	859.75
447.571	862.75
447.792	857.75
448.013	838.75
448.234	822.75
448.455	810.75
448.675	818.75
448.896	810.75
449.117	779.75
449.338	783.75
449.559	827.75
449.779	783.75
450	793.75
450.221	798.75
450.442	806.75
450.662	792.75
450.883	833.75
451.104	843.75
451.324	829.75
451.545	813.75
451.766	823.75
451.986	800.75
452.207	829.75
452.428	813.75
452.648	797.75
452.869	815.75
453.089	810.75
453.31	801.75
453.53	793.75
453.751	786.75
453.971	801.75
454.192	779.75
454.412	748.75
454.633	767.75
454.853	771.75
455.073	780.75
455.294	777.75
455.514	766.75
455.734	778.75
455.955	762.75
456.175	751.75
456.395	794.75
456.616	744.75
456.836	761.75
457.056	736.75
457.276	746.75
457.497	785.75
457.717	769.75
457.937	773.75
458.157	760.75
458.377	779.75
458.598	790.75
458.818	861.75
459.038	843.75
459.258	874.75
459.478	895.75
459.698	921.75
459.918	932.75
460.138	991.75
460.358	1026.75
460.578	1053.75
460.798	1042.75
461.018	1077.75
461.238	1034.75
461.458	1074.75
461.678	1042.75
461.898	1063.75
462.118	1066.75
462.338	1141.75
462.558	1166.75
462.777	1216.75
462.997	1321.75
463.217	1388.75
463.437	1384.75
463.657	1329.75
463.876	1237.75
464.096	1245.75
464.316	1215.75
464.536	1231.75
464.755	1189.75
464.975	1122.75
465.195	1066.75
465.414	1027.75
465.634	979.75
465.854	950.75
466.073	910.75
466.293	906.75
466.512	882.75
466.732	842.75
466.951	866.75
467.171	870.75
467.391	870.75
467.61	864.75
467.829	868.75
468.049	857.75
468.268	830.75
468.488	825.75
468.707	831.75
468.927	802.75
469.146	823.75
469.365	828.75
469.585	850.75
469.804	861.75
470.023	858.75
470.243	877.75
470.462	887.75
470.681	862.75
470.901	854.75
471.12	883.75
471.339	863.75
471.558	856.75
471.777	843.75
471.997	822.75
472.216	833.75
472.435	813.75
472.654	804.75
472.873	803.75
473.092	787.75
473.311	787.75
473.53	826.75
473.749	813.75
473.968	809.75
474.187	823.75
474.406	796.75
474.625	794.75
474.844	789.75
475.063	830.75
475.282	804.75
475.501	815.75
475.72	829.75
475.939	801.75
476.158	801.75
476.377	853.75
476.596	844.75
476.814	859.75
477.033	827.75
477.252	855.75
477.471	908.75
477.69	887.75
477.908	937.75
478.127	950.75
478.346	958.75
478.564	1010.75
478.783	977.75
479.002	990.75
479.22	1005.75
479.439	1016.75
479.658	1019.75
479.876	1018.75
480.095	1051.75
480.313	1048.75
480.532	1074.75
480.751	1069.75
480.969	1034.75
481.188	1003.75
481.406	961.75
481.624	980.75
481.843	950.75
482.061	945.75
482.28	936.75
482.498	950.75
482.717	895.75
482.935	915.75
483.153	916.75
483.372	891.75
483.59	913.75
483.808	932.75
484.027	905.75
484.245	925.75
484.463	916.75
484.681	915.75
484.9	952.75
485.118	938.75
485.336	901.75
485.554	965.75
485.772	945.75
485.99	951.75
486.209	954.75
486.427	957.75
486.645	940.75
486.863	951.75
487.081	977.75
487.299	941.75
487.517	960.75
487.735	972.75
487.953	985.75
488.171	961.75
488.389	938.75
488.607	948.75
488.825	962.75
489.043	957.75
489.261	946.75
489.479	960.75
489.696	949.75
489.914	968.75
490.132	959.75
490.35	965.75
490.568	984.75
490.786	949.75
491.003	960.75
491.221	968.75
491.439	986.75
491.657	985.75
491.874	978.75
492.092	994.75
492.31	1007.75
492.527	1038.75
492.745	974.75
492.963	996.75
493.18	992.75
493.398	1003.75
493.615	983.75
493.833	999.75
494.05	997.75
494.268	993.75
494.485	1034.75
494.703	1042.75
494.92	1025.75
495.138	1019.75
495.355	1045.75
495.573	1044.75
495.79	1031.75
496.008	1038.75
496.225	1034.75
496.442	1062.75
496.66	1087.75
496.877	1089.75
497.094	1112.75
497.312	1137.75
497.529	1154.75
497.746	1203.75
497.963	1225.75
498.181	1275.75
498.398	1323.75
498.615	1403.75
498.832	1491.75
499.049	1610.75
499.267	1736.75
