Data from NiCl2@0.25M.TitratingCurve.Agarose3%dH2O.NegLispCup.LampEnergy10.LIBS07252019_HRD10591_18-24-10-573.txt Node
Date: Thu Jul 25 18:24:10 EDT 2019
User: cochatt
Spectrometer: HR+D1059
Trigger mode: 1
Integration Time (sec): 1.000000E-1
Scans to average: 1
Electric dark correction enabled: true
Nonlinearity correction enabled: false
Boxcar width: 0
XAxis mode: Wavelengths
Number of Pixels in Spectrum: 2048
>>>>>Begin Spectral Data<<<<<
223.165	-21.81
223.4	-21.81
223.635	-21.81
223.869	-31.81
224.104	-19.81
224.338	-22.81
224.573	-15.81
224.808	0.19
225.042	-13.81
225.277	5.19
225.511	-0.81
225.746	9.19
225.98	2.19
226.215	7.19
226.449	17.19
226.683	28.19
226.918	26.19
227.152	31.19
227.387	33.19
227.621	36.19
227.856	50.19
228.09	44.19
228.324	62.19
228.559	61.19
228.793	66.19
229.027	108.19
229.262	114.19
229.496	132.19
229.73	135.19
229.964	138.19
230.199	126.19
230.433	131.19
230.667	143.19
230.901	139.19
231.136	156.19
231.37	141.19
231.604	142.19
231.838	145.19
232.072	151.19
232.306	132.19
232.541	156.19
232.775	141.19
233.009	165.19
233.243	154.19
233.477	154.19
233.711	155.19
233.945	158.19
234.179	153.19
234.413	154.19
234.647	150.19
234.881	146.19
235.115	157.19
235.349	148.19
235.583	163.19
235.817	178.19
236.051	164.19
236.285	171.19
236.519	165.19
236.753	146.19
236.987	156.19
237.221	162.19
237.455	174.19
237.689	172.19
237.922	185.19
238.156	184.19
238.39	171.19
238.624	184.19
238.858	184.19
239.091	171.19
239.325	185.19
239.559	195.19
239.793	173.19
240.027	185.19
240.26	180.19
240.494	188.19
240.728	184.19
240.961	200.19
241.195	195.19
241.429	197.19
241.662	197.19
241.896	190.19
242.13	193.19
242.363	205.19
242.597	211.19
242.83	218.19
243.064	202.19
243.298	201.19
243.531	218.19
243.765	219.19
243.998	224.19
244.232	231.19
244.465	229.19
244.699	226.19
244.932	216.19
245.166	232.19
245.399	232.19
245.633	238.19
245.866	236.19
246.099	228.19
246.333	243.19
246.566	233.19
246.8	241.19
247.033	256.19
247.266	243.19
247.5	236.19
247.733	244.19
247.966	250.19
248.2	269.19
248.433	247.19
248.666	258.19
248.899	264.19
249.133	251.19
249.366	250.19
249.599	256.19
249.832	269.19
250.066	261.19
250.299	258.19
250.532	279.19
250.765	258.19
250.998	268.19
251.231	290.19
251.465	284.19
251.698	280.19
251.931	270.19
252.164	276.19
252.397	277.19
252.63	289.19
252.863	289.19
253.096	296.19
253.329	296.19
253.562	294.19
253.795	311.19
254.028	301.19
254.261	293.19
254.494	306.19
254.727	286.19
254.96	314.19
255.193	321.19
255.426	302.19
255.659	313.19
255.892	300.19
256.124	310.19
256.357	315.19
256.59	323.19
256.823	298.19
257.056	293.19
257.289	297.19
257.521	313.19
257.754	328.19
257.987	325.19
258.22	325.19
258.452	340.19
258.685	317.19
258.918	337.19
259.151	308.19
259.383	336.19
259.616	325.19
259.849	322.19
260.081	346.19
260.314	347.19
260.547	317.19
260.779	349.19
261.012	355.19
261.244	342.19
261.477	358.19
261.71	333.19
261.942	338.19
262.175	340.19
262.407	358.19
262.64	340.19
262.872	344.19
263.105	338.19
263.337	353.19
263.57	346.19
263.802	371.19
264.035	362.19
264.267	372.19
264.499	361.19
264.732	368.19
264.964	354.19
265.197	372.19
265.429	357.19
265.661	370.19
265.894	373.19
266.126	378.19
266.358	382.19
266.591	392.19
266.823	399.19
267.055	384.19
267.287	377.19
267.52	384.19
267.752	382.19
267.984	386.19
268.216	390.19
268.448	408.19
268.681	385.19
268.913	407.19
269.145	402.19
269.377	387.19
269.609	396.19
269.841	404.19
270.073	401.19
270.306	401.19
270.538	381.19
270.77	406.19
271.002	400.19
271.234	383.19
271.466	409.19
271.698	402.19
271.93	414.19
272.162	406.19
272.394	421.19
272.626	402.19
272.858	420.19
273.09	421.19
273.322	408.19
273.553	446.19
273.785	421.19
274.017	434.19
274.249	433.19
274.481	421.19
274.713	401.19
274.945	440.19
275.176	436.19
275.408	443.19
275.64	463.19
275.872	449.19
276.104	470.19
276.335	442.19
276.567	456.19
276.799	455.19
277.031	444.19
277.262	446.19
277.494	468.19
277.726	454.19
277.957	469.19
278.189	453.19
278.421	456.19
278.652	480.19
278.884	460.19
279.115	478.19
279.347	489.19
279.579	491.19
279.81	463.19
280.042	460.19
280.273	483.19
280.505	479.19
280.736	459.19
280.968	476.19
281.199	504.19
281.431	520.19
281.662	499.19
281.894	519.19
282.125	497.19
282.356	517.19
282.588	491.19
282.819	512.19
283.051	502.19
283.282	523.19
283.513	524.19
283.745	485.19
283.976	488.19
284.207	524.19
284.439	519.19
284.67	522.19
284.901	513.19
285.132	503.19
285.364	516.19
285.595	520.19
285.826	529.19
286.057	549.19
286.288	523.19
286.52	525.19
286.751	536.19
286.982	536.19
287.213	531.19
287.444	560.19
287.675	549.19
287.906	544.19
288.138	547.19
288.369	538.19
288.6	528.19
288.831	564.19
289.062	560.19
289.293	550.19
289.524	540.19
289.755	573.19
289.986	561.19
290.217	577.19
290.448	570.19
290.679	561.19
290.91	554.19
291.141	571.19
291.371	557.19
291.602	554.19
291.833	572.19
292.064	579.19
292.295	553.19
292.526	562.19
292.757	560.19
292.987	564.19
293.218	541.19
293.449	578.19
293.68	571.19
293.91	549.19
294.141	562.19
294.372	556.19
294.603	570.19
294.833	561.19
295.064	582.19
295.295	575.19
295.525	558.19
295.756	570.19
295.987	571.19
296.217	592.19
296.448	578.19
296.679	608.19
296.909	596.19
297.14	603.19
297.37	594.19
297.601	627.19
297.831	601.19
298.062	621.19
298.292	634.19
298.523	603.19
298.753	629.19
298.984	608.19
299.214	631.19
299.445	608.19
299.675	594.19
299.905	612.19
300.136	617.19
300.366	621.19
300.597	635.19
300.827	646.19
301.057	638.19
301.288	644.19
301.518	635.19
301.748	636.19
301.979	644.19
302.209	653.19
302.439	635.19
302.669	642.19
302.9	642.19
303.13	620.19
303.36	633.19
303.59	636.19
303.82	654.19
304.051	635.19
304.281	637.19
304.511	625.19
304.741	638.19
304.971	661.19
305.201	651.19
305.431	664.19
305.661	621.19
305.891	624.19
306.121	634.19
306.352	614.19
306.582	646.19
306.812	627.19
307.042	623.19
307.272	645.19
307.502	638.19
307.731	630.19
307.961	620.19
308.191	618.19
308.421	625.19
308.651	647.19
308.881	631.19
309.111	643.19
309.341	640.19
309.571	640.19
309.8	629.19
310.03	625.19
310.26	638.19
310.49	636.19
310.72	630.19
310.949	636.19
311.179	638.19
311.409	641.19
311.639	643.19
311.868	606.19
312.098	640.19
312.328	660.19
312.557	662.19
312.787	685.19
313.017	677.19
313.246	702.19
313.476	676.19
313.706	682.19
313.935	689.19
314.165	686.19
314.394	682.19
314.624	684.19
314.853	648.19
315.083	674.19
315.312	690.19
315.542	664.19
315.771	673.19
316.001	677.19
316.23	683.19
316.46	679.19
316.689	671.19
316.919	671.19
317.148	676.19
317.377	706.19
317.607	672.19
317.836	653.19
318.065	680.19
318.295	667.19
318.524	677.19
318.753	672.19
318.983	672.19
319.212	626.19
319.441	669.19
319.67	675.19
319.9	649.19
320.129	700.19
320.358	666.19
320.587	647.19
320.816	666.19
321.046	675.19
321.275	675.19
321.504	686.19
321.733	684.19
321.962	698.19
322.191	668.19
322.42	694.19
322.649	660.19
322.878	670.19
323.108	685.19
323.337	658.19
323.566	674.19
323.795	702.19
324.024	694.19
324.253	693.19
324.482	692.19
324.71	675.19
324.939	702.19
325.168	710.19
325.397	690.19
325.626	723.19
325.855	734.19
326.084	724.19
326.313	730.19
326.542	708.19
326.77	736.19
326.999	705.19
327.228	722.19
327.457	737.19
327.686	734.19
327.914	710.19
328.143	728.19
328.372	751.19
328.6	744.19
328.829	762.19
329.058	732.19
329.287	745.19
329.515	754.19
329.744	738.19
329.972	741.19
330.201	761.19
330.43	760.19
330.658	733.19
330.887	773.19
331.115	781.19
331.344	773.19
331.572	802.19
331.801	806.19
332.03	844.19
332.258	839.19
332.486	866.19
332.715	870.19
332.943	945.19
333.172	941.19
333.4	977.19
333.629	987.19
333.857	1012.19
334.085	993.19
334.314	990.19
334.542	962.19
334.771	943.19
334.999	944.19
335.227	933.19
335.455	948.19
335.684	937.19
335.912	898.19
336.14	896.19
336.369	897.19
336.597	916.19
336.825	872.19
337.053	896.19
337.281	855.19
337.51	866.19
337.738	863.19
337.966	846.19
338.194	824.19
338.422	824.19
338.65	845.19
338.878	827.19
339.106	794.19
339.334	812.19
339.562	797.19
339.79	797.19
340.018	748.19
340.246	756.19
340.474	778.19
340.702	795.19
340.93	806.19
341.158	814.19
341.386	776.19
341.614	775.19
341.842	777.19
342.07	749.19
342.298	742.19
342.526	755.19
342.754	784.19
342.981	785.19
343.209	804.19
343.437	822.19
343.665	871.19
343.893	930.19
344.12	968.19
344.348	930.19
344.576	880.19
344.804	852.19
345.031	816.19
345.259	778.19
345.487	798.19
345.714	777.19
345.942	750.19
346.17	764.19
346.397	774.19
346.625	756.19
346.853	733.19
347.08	754.19
347.308	761.19
347.535	769.19
347.763	742.19
347.99	758.19
348.218	749.19
348.445	775.19
348.673	748.19
348.9	715.19
349.128	762.19
349.355	743.19
349.583	722.19
349.81	723.19
350.037	715.19
350.265	712.19
350.492	730.19
350.72	757.19
350.947	709.19
351.174	727.19
351.402	736.19
351.629	726.19
351.856	710.19
352.083	721.19
352.311	712.19
352.538	705.19
352.765	739.19
352.992	690.19
353.22	700.19
353.447	688.19
353.674	690.19
353.901	683.19
354.128	716.19
354.355	689.19
354.583	708.19
354.81	731.19
355.037	712.19
355.264	725.19
355.491	696.19
355.718	725.19
355.945	754.19
356.172	733.19
356.399	733.19
356.626	723.19
356.853	702.19
357.08	717.19
357.307	722.19
357.534	729.19
357.761	713.19
357.988	722.19
358.215	702.19
358.441	705.19
358.668	718.19
358.895	726.19
359.122	706.19
359.349	724.19
359.576	701.19
359.802	699.19
360.029	739.19
360.256	718.19
360.483	730.19
360.709	713.19
360.936	701.19
361.163	728.19
361.39	713.19
361.616	723.19
361.843	714.19
362.07	721.19
362.296	729.19
362.523	719.19
362.749	714.19
362.976	744.19
363.203	705.19
363.429	694.19
363.656	704.19
363.882	730.19
364.109	706.19
364.335	710.19
364.562	725.19
364.788	707.19
365.015	725.19
365.241	705.19
365.468	700.19
365.694	711.19
365.92	730.19
366.147	701.19
366.373	733.19
366.599	708.19
366.826	703.19
367.052	730.19
367.278	722.19
367.505	739.19
367.731	741.19
367.957	708.19
368.184	709.19
368.41	713.19
368.636	735.19
368.862	745.19
369.089	728.19
369.315	760.19
369.541	723.19
369.767	757.19
369.993	758.19
370.219	740.19
370.445	766.19
370.672	758.19
370.898	773.19
371.124	782.19
371.35	788.19
371.576	791.19
371.802	768.19
372.028	773.19
372.254	772.19
372.48	804.19
372.706	826.19
372.932	809.19
373.158	790.19
373.384	790.19
373.61	794.19
373.835	778.19
374.061	762.19
374.287	802.19
374.513	794.19
374.739	821.19
374.965	843.19
375.191	889.19
375.416	865.19
375.642	824.19
375.868	816.19
376.094	810.19
376.319	819.19
376.545	794.19
376.771	803.19
376.997	793.19
377.222	808.19
377.448	822.19
377.674	783.19
377.899	781.19
378.125	801.19
378.35	778.19
378.576	767.19
378.802	772.19
379.027	771.19
379.253	785.19
379.478	768.19
379.704	758.19
379.929	784.19
380.155	763.19
380.38	793.19
380.606	797.19
380.831	773.19
381.057	787.19
381.282	777.19
381.507	782.19
381.733	798.19
381.958	771.19
382.184	806.19
382.409	809.19
382.634	823.19
382.86	812.19
383.085	825.19
383.31	831.19
383.535	855.19
383.761	849.19
383.986	911.19
384.211	896.19
384.436	916.19
384.662	935.19
384.887	937.19
385.112	915.19
385.337	952.19
385.562	952.19
385.787	936.19
386.013	973.19
386.238	934.19
386.463	958.19
386.688	953.19
386.913	921.19
387.138	934.19
387.363	961.19
387.588	911.19
387.813	921.19
388.038	948.19
388.263	939.19
388.488	923.19
388.713	930.19
388.938	931.19
389.163	926.19
389.387	942.19
389.612	930.19
389.837	899.19
390.062	893.19
390.287	908.19
390.512	933.19
390.736	947.19
390.961	935.19
391.186	984.19
391.411	989.19
391.636	1063.19
391.86	1038.19
392.085	1085.19
392.31	1076.19
392.534	1060.19
392.759	1023.19
392.984	980.19
393.208	978.19
393.433	1006.19
393.658	1025.19
393.882	983.19
394.107	995.19
394.331	998.19
394.556	1016.19
394.78	1012.19
395.005	1022.19
395.229	1024.19
395.454	1046.19
395.678	1055.19
395.903	1055.19
396.127	1052.19
396.352	1034.19
396.576	1006.19
396.801	982.19
397.025	1008.19
397.249	1052.19
397.474	1090.19
397.698	1054.19
397.922	1051.19
398.147	1058.19
398.371	1091.19
398.595	1148.19
398.82	1176.19
399.044	1228.19
399.268	1380.19
399.492	1655.19
399.717	1855.19
399.941	1825.19
400.165	1580.19
400.389	1456.19
400.613	1334.19
400.837	1279.19
401.062	1207.19
401.286	1222.19
401.51	1193.19
401.734	1176.19
401.958	1202.19
402.182	1220.19
402.406	1211.19
402.63	1248.19
402.854	1285.19
403.078	1261.19
403.302	1321.19
403.526	1364.19
403.75	1353.19
403.974	1370.19
404.198	1405.19
404.422	1431.19
404.645	1366.19
404.869	1328.19
405.093	1352.19
405.317	1319.19
405.541	1322.19
405.765	1294.19
405.988	1284.19
406.212	1346.19
406.436	1320.19
406.66	1366.19
406.883	1390.19
407.107	1439.19
407.331	1513.19
407.555	1547.19
407.778	1517.19
408.002	1489.19
408.226	1506.19
408.449	1431.19
408.673	1369.19
408.896	1373.19
409.12	1357.19
409.344	1328.19
409.567	1337.19
409.791	1362.19
410.014	1353.19
410.238	1325.19
410.461	1314.19
410.685	1322.19
410.908	1291.19
411.132	1243.19
411.355	1180.19
411.578	1220.19
411.802	1240.19
412.025	1228.19
412.249	1264.19
412.472	1241.19
412.695	1211.19
412.919	1195.19
413.142	1198.19
413.365	1192.19
413.589	1179.19
413.812	1188.19
414.035	1161.19
414.258	1178.19
414.482	1168.19
414.705	1207.19
414.928	1194.19
415.151	1210.19
415.374	1195.19
415.597	1176.19
415.821	1163.19
416.044	1164.19
416.267	1178.19
416.49	1133.19
416.713	1187.19
416.936	1174.19
417.159	1150.19
417.382	1160.19
417.605	1146.19
417.828	1162.19
418.051	1193.19
418.274	1141.19
418.497	1182.19
418.72	1245.19
418.943	1195.19
419.166	1290.19
419.389	1372.19
419.611	1338.19
419.834	1281.19
420.057	1242.19
420.28	1184.19
420.503	1172.19
420.726	1152.19
420.948	1136.19
421.171	1147.19
421.394	1150.19
421.617	1140.19
421.839	1150.19
422.062	1188.19
422.285	1153.19
422.507	1203.19
422.73	1152.19
422.953	1213.19
423.175	1204.19
423.398	1211.19
423.621	1219.19
423.843	1229.19
424.066	1248.19
424.288	1236.19
424.511	1223.19
424.733	1208.19
424.956	1228.19
425.178	1166.19
425.401	1193.19
425.623	1186.19
425.846	1176.19
426.068	1138.19
426.291	1148.19
426.513	1100.19
426.735	1110.19
426.958	1106.19
427.18	1065.19
427.402	1060.19
427.625	1058.19
427.847	1034.19
428.069	1025.19
428.292	1066.19
428.514	995.19
428.736	1035.19
428.958	1017.19
429.181	994.19
429.403	1000.19
429.625	1012.19
429.847	983.19
430.069	997.19
430.292	1032.19
430.514	994.19
430.736	998.19
430.958	1014.19
431.18	1012.19
431.402	993.19
431.624	1012.19
431.846	1061.19
432.068	1041.19
432.29	1012.19
432.512	1030.19
432.734	1032.19
432.956	1000.19
433.178	1021.19
433.4	1002.19
433.622	1028.19
433.844	1043.19
434.066	1024.19
434.287	1076.19
434.509	1099.19
434.731	1159.19
434.953	1176.19
435.175	1187.19
435.397	1140.19
435.618	1102.19
435.84	1074.19
436.062	1044.19
436.284	1037.19
436.505	1016.19
436.727	1023.19
436.949	1051.19
437.17	1048.19
437.392	1010.19
437.614	994.19
437.835	958.19
438.057	1008.19
438.278	981.19
438.5	980.19
438.721	1015.19
438.943	992.19
439.165	997.19
439.386	993.19
439.608	1012.19
439.829	1010.19
440.05	1025.19
440.272	1058.19
440.493	1030.19
440.715	1044.19
440.936	1084.19
441.158	1064.19
441.379	1093.19
441.6	1150.19
441.822	1194.19
442.043	1193.19
442.264	1154.19
442.486	1164.19
442.707	1124.19
442.928	1136.19
443.149	1148.19
443.371	1128.19
443.592	1096.19
443.813	1136.19
444.034	1164.19
444.255	1251.19
444.476	1268.19
444.698	1381.19
444.919	1380.19
445.14	1440.19
445.361	1284.19
445.582	1218.19
445.803	1165.19
446.024	1093.19
446.245	1067.19
446.466	1056.19
446.687	1038.19
446.908	1019.19
447.129	1000.19
447.35	1002.19
447.571	989.19
447.792	963.19
448.013	948.19
448.234	954.19
448.455	964.19
448.675	954.19
448.896	953.19
449.117	910.19
449.338	924.19
449.559	930.19
449.779	930.19
450	908.19
450.221	938.19
450.442	945.19
450.662	969.19
450.883	955.19
451.104	955.19
451.324	966.19
451.545	956.19
451.766	969.19
451.986	966.19
452.207	941.19
452.428	926.19
452.648	905.19
452.869	911.19
453.089	916.19
453.31	947.19
453.53	923.19
453.751	905.19
453.971	900.19
454.192	905.19
454.412	902.19
454.633	912.19
454.853	920.19
455.073	847.19
455.294	906.19
455.514	880.19
455.734	854.19
455.955	854.19
456.175	853.19
456.395	859.19
456.616	882.19
456.836	876.19
457.056	873.19
457.276	874.19
457.497	879.19
457.717	864.19
457.937	888.19
458.157	908.19
458.377	920.19
458.598	946.19
458.818	941.19
459.038	964.19
459.258	1038.19
459.478	1072.19
459.698	1052.19
459.918	1103.19
460.138	1119.19
460.358	1206.19
460.578	1204.19
460.798	1236.19
461.018	1228.19
461.238	1196.19
461.458	1221.19
461.678	1219.19
461.898	1222.19
462.118	1238.19
462.338	1312.19
462.558	1344.19
462.777	1384.19
462.997	1527.19
463.217	1672.19
463.437	1648.19
463.657	1539.19
463.876	1410.19
464.096	1450.19
464.316	1398.19
464.536	1449.19
464.755	1392.19
464.975	1334.19
465.195	1251.19
465.414	1216.19
465.634	1139.19
465.854	1038.19
466.073	1028.19
466.293	1037.19
466.512	1024.19
466.732	1012.19
466.951	998.19
467.171	1001.19
467.391	984.19
467.61	979.19
467.829	978.19
468.049	964.19
468.268	958.19
468.488	939.19
468.707	938.19
468.927	937.19
469.146	938.19
469.365	941.19
469.585	932.19
469.804	990.19
470.023	1008.19
470.243	1016.19
470.462	1000.19
470.681	1029.19
470.901	1047.19
471.12	1024.19
471.339	988.19
471.558	990.19
471.777	952.19
471.997	948.19
472.216	929.19
472.435	940.19
472.654	910.19
472.873	927.19
473.092	899.19
473.311	917.19
473.53	929.19
473.749	902.19
473.968	910.19
474.187	911.19
474.406	920.19
474.625	923.19
474.844	916.19
475.063	925.19
475.282	925.19
475.501	924.19
475.72	943.19
475.939	952.19
476.158	952.19
476.377	962.19
476.596	921.19
476.814	966.19
477.033	985.19
477.252	970.19
477.471	990.19
477.69	1068.19
477.908	1057.19
478.127	1085.19
478.346	1110.19
478.564	1131.19
478.783	1113.19
479.002	1158.19
479.22	1171.19
479.439	1148.19
479.658	1126.19
479.876	1149.19
480.095	1187.19
480.313	1185.19
480.532	1231.19
480.751	1241.19
480.969	1181.19
481.188	1139.19
481.406	1101.19
481.624	1053.19
481.843	1045.19
482.061	1081.19
482.28	1081.19
482.498	1034.19
482.717	1039.19
482.935	1028.19
483.153	1045.19
483.372	1046.19
483.59	1034.19
483.808	1081.19
484.027	1068.19
484.245	1074.19
484.463	1058.19
484.681	1076.19
484.9	1081.19
485.118	1095.19
485.336	1117.19
485.554	1095.19
485.772	1098.19
485.99	1108.19
486.209	1134.19
486.427	1118.19
486.645	1101.19
486.863	1109.19
487.081	1088.19
487.299	1104.19
487.517	1109.19
487.735	1086.19
487.953	1123.19
488.171	1085.19
488.389	1100.19
488.607	1048.19
488.825	1099.19
489.043	1080.19
489.261	1092.19
489.479	1143.19
489.696	1122.19
489.914	1078.19
490.132	1110.19
490.35	1093.19
490.568	1093.19
490.786	1107.19
491.003	1102.19
491.221	1076.19
491.439	1117.19
491.657	1130.19
491.874	1128.19
492.092	1122.19
492.31	1114.19
492.527	1150.19
492.745	1151.19
492.963	1126.19
493.18	1144.19
493.398	1136.19
493.615	1136.19
493.833	1167.19
494.05	1159.19
494.268	1164.19
494.485	1158.19
494.703	1213.19
494.92	1177.19
495.138	1170.19
495.355	1162.19
495.573	1169.19
495.79	1191.19
496.008	1186.19
496.225	1190.19
496.442	1216.19
496.66	1231.19
