Data from NiCl2@0.25M.TitratingCurve.Agarose3%dH2O.NegLispCup.LampEnergy10.LIBS07252019_HRD10591_18-26-17-573.txt Node
Date: Thu Jul 25 18:26:17 EDT 2019
User: cochatt
Spectrometer: HR+D1059
Trigger mode: 1
Integration Time (sec): 1.000000E-1
Scans to average: 1
Electric dark correction enabled: true
Nonlinearity correction enabled: false
Boxcar width: 0
XAxis mode: Wavelengths
Number of Pixels in Spectrum: 2048
>>>>>Begin Spectral Data<<<<<
223.165	-26.25
223.4	-26.25
223.635	-26.25
223.869	-16.25
224.104	-13.25
224.338	-13.25
224.573	-17.25
224.808	-15.25
225.042	-6.25
225.277	-2.25
225.511	-2.25
225.746	6.75
225.98	-2.25
226.215	20.75
226.449	27.75
226.683	25.75
226.918	10.75
227.152	22.75
227.387	32.75
227.621	39.75
227.856	39.75
228.09	50.75
228.324	44.75
228.559	55.75
228.793	62.75
229.027	120.75
229.262	110.75
229.496	126.75
229.73	107.75
229.964	114.75
230.199	130.75
230.433	138.75
230.667	140.75
230.901	146.75
231.136	127.75
231.37	124.75
231.604	145.75
231.838	149.75
232.072	138.75
232.306	149.75
232.541	153.75
232.775	137.75
233.009	163.75
233.243	148.75
233.477	149.75
233.711	148.75
233.945	162.75
234.179	154.75
234.413	149.75
234.647	161.75
234.881	150.75
235.115	155.75
235.349	166.75
235.583	157.75
235.817	161.75
236.051	176.75
236.285	158.75
236.519	153.75
236.753	162.75
236.987	159.75
237.221	183.75
237.455	187.75
237.689	163.75
237.922	187.75
238.156	165.75
238.39	176.75
238.624	175.75
238.858	168.75
239.091	162.75
239.325	195.75
239.559	190.75
239.793	191.75
240.027	185.75
240.26	192.75
240.494	177.75
240.728	187.75
240.961	200.75
241.195	197.75
241.429	186.75
241.662	195.75
241.896	206.75
242.13	193.75
242.363	183.75
242.597	196.75
242.83	209.75
243.064	199.75
243.298	219.75
243.531	222.75
243.765	215.75
243.998	218.75
244.232	220.75
244.465	215.75
244.699	226.75
244.932	223.75
245.166	221.75
245.399	217.75
245.633	241.75
245.866	218.75
246.099	222.75
246.333	243.75
246.566	245.75
246.8	227.75
247.033	237.75
247.266	249.75
247.5	242.75
247.733	241.75
247.966	259.75
248.2	243.75
248.433	253.75
248.666	249.75
248.899	245.75
249.133	260.75
249.366	264.75
249.599	283.75
249.832	261.75
250.066	256.75
250.299	246.75
250.532	281.75
250.765	253.75
250.998	271.75
251.231	276.75
251.465	286.75
251.698	294.75
251.931	286.75
252.164	280.75
252.397	282.75
252.63	291.75
252.863	297.75
253.096	278.75
253.329	298.75
253.562	289.75
253.795	260.75
254.028	303.75
254.261	317.75
254.494	282.75
254.727	288.75
254.96	288.75
255.193	323.75
255.426	317.75
255.659	308.75
255.892	316.75
256.124	317.75
256.357	304.75
256.59	305.75
256.823	320.75
257.056	321.75
257.289	325.75
257.521	318.75
257.754	330.75
257.987	331.75
258.22	330.75
258.452	331.75
258.685	307.75
258.918	326.75
259.151	337.75
259.383	327.75
259.616	344.75
259.849	329.75
260.081	342.75
260.314	344.75
260.547	332.75
260.779	342.75
261.012	352.75
261.244	327.75
261.477	332.75
261.71	343.75
261.942	345.75
262.175	340.75
262.407	360.75
262.64	340.75
262.872	365.75
263.105	363.75
263.337	354.75
263.57	346.75
263.802	373.75
264.035	383.75
264.267	365.75
264.499	352.75
264.732	381.75
264.964	370.75
265.197	377.75
265.429	375.75
265.661	377.75
265.894	390.75
266.126	383.75
266.358	364.75
266.591	380.75
266.823	420.75
267.055	395.75
267.287	372.75
267.52	373.75
267.752	411.75
267.984	371.75
268.216	409.75
268.448	401.75
268.681	414.75
268.913	404.75
269.145	396.75
269.377	395.75
269.609	408.75
269.841	406.75
270.073	402.75
270.306	420.75
270.538	431.75
270.77	415.75
271.002	405.75
271.234	431.75
271.466	413.75
271.698	418.75
271.93	417.75
272.162	423.75
272.394	436.75
272.626	422.75
272.858	414.75
273.09	436.75
273.322	437.75
273.553	413.75
273.785	429.75
274.017	447.75
274.249	446.75
274.481	437.75
274.713	451.75
274.945	446.75
275.176	462.75
275.408	452.75
275.64	446.75
275.872	437.75
276.104	427.75
276.335	444.75
276.567	448.75
276.799	473.75
277.031	470.75
277.262	460.75
277.494	438.75
277.726	457.75
277.957	457.75
278.189	466.75
278.421	483.75
278.652	479.75
278.884	496.75
279.115	471.75
279.347	482.75
279.579	472.75
279.81	458.75
280.042	463.75
280.273	479.75
280.505	490.75
280.736	487.75
280.968	506.75
281.199	501.75
281.431	506.75
281.662	502.75
281.894	493.75
282.125	497.75
282.356	524.75
282.588	496.75
282.819	519.75
283.051	517.75
283.282	523.75
283.513	526.75
283.745	547.75
283.976	515.75
284.207	515.75
284.439	525.75
284.67	521.75
284.901	537.75
285.132	530.75
285.364	518.75
285.595	522.75
285.826	518.75
286.057	535.75
286.288	528.75
286.52	517.75
286.751	532.75
286.982	562.75
287.213	543.75
287.444	542.75
287.675	541.75
287.906	563.75
288.138	564.75
288.369	549.75
288.6	551.75
288.831	545.75
289.062	569.75
289.293	570.75
289.524	537.75
289.755	561.75
289.986	555.75
290.217	561.75
290.448	582.75
290.679	566.75
290.91	571.75
291.141	580.75
291.371	552.75
291.602	579.75
291.833	576.75
292.064	557.75
292.295	541.75
292.526	579.75
292.757	595.75
292.987	570.75
293.218	571.75
293.449	573.75
293.68	570.75
293.91	583.75
294.141	563.75
294.372	560.75
294.603	577.75
294.833	585.75
295.064	553.75
295.295	583.75
295.525	565.75
295.756	593.75
295.987	591.75
296.217	605.75
296.448	575.75
296.679	613.75
296.909	576.75
297.14	619.75
297.37	582.75
297.601	612.75
297.831	598.75
298.062	622.75
298.292	632.75
298.523	637.75
298.753	634.75
298.984	611.75
299.214	624.75
299.445	598.75
299.675	622.75
299.905	635.75
300.136	623.75
300.366	616.75
300.597	635.75
300.827	641.75
301.057	633.75
301.288	651.75
301.518	668.75
301.748	655.75
301.979	655.75
302.209	657.75
302.439	664.75
302.669	660.75
302.9	637.75
303.13	652.75
303.36	632.75
303.59	649.75
303.82	638.75
304.051	652.75
304.281	663.75
304.511	638.75
304.741	634.75
304.971	630.75
305.201	685.75
305.431	626.75
305.661	649.75
305.891	643.75
306.121	614.75
306.352	647.75
306.582	596.75
306.812	637.75
307.042	641.75
307.272	634.75
307.502	614.75
307.731	615.75
307.961	642.75
308.191	651.75
308.421	622.75
308.651	626.75
308.881	647.75
309.111	616.75
309.341	657.75
309.571	647.75
309.8	630.75
310.03	635.75
310.26	635.75
310.49	642.75
310.72	645.75
310.949	631.75
311.179	641.75
311.409	637.75
311.639	653.75
311.868	659.75
312.098	680.75
312.328	665.75
312.557	670.75
312.787	665.75
313.017	667.75
313.246	670.75
313.476	670.75
313.706	665.75
313.935	677.75
314.165	659.75
314.394	673.75
314.624	678.75
314.853	689.75
315.083	665.75
315.312	680.75
315.542	666.75
315.771	698.75
316.001	699.75
316.23	635.75
316.46	672.75
316.689	679.75
316.919	652.75
317.148	679.75
317.377	671.75
317.607	674.75
317.836	677.75
318.065	666.75
318.295	664.75
318.524	677.75
318.753	639.75
318.983	647.75
319.212	688.75
319.441	665.75
319.67	678.75
319.9	668.75
320.129	666.75
320.358	684.75
320.587	699.75
320.816	641.75
321.046	657.75
321.275	671.75
321.504	686.75
321.733	677.75
321.962	661.75
322.191	688.75
322.42	683.75
322.649	676.75
322.878	673.75
323.108	668.75
323.337	660.75
323.566	672.75
323.795	677.75
324.024	691.75
324.253	693.75
324.482	682.75
324.71	673.75
324.939	680.75
325.168	703.75
325.397	695.75
325.626	706.75
325.855	725.75
326.084	749.75
326.313	717.75
326.542	708.75
326.77	734.75
326.999	737.75
327.228	724.75
327.457	724.75
327.686	716.75
327.914	726.75
328.143	731.75
328.372	732.75
328.6	722.75
328.829	730.75
329.058	720.75
329.287	712.75
329.515	744.75
329.744	724.75
329.972	747.75
330.201	751.75
330.43	741.75
330.658	753.75
330.887	725.75
331.115	757.75
331.344	754.75
331.572	773.75
331.801	784.75
332.03	811.75
332.258	809.75
332.486	838.75
332.715	842.75
332.943	859.75
333.172	921.75
333.4	937.75
333.629	978.75
333.857	962.75
334.085	985.75
334.314	968.75
334.542	927.75
334.771	966.75
334.999	968.75
335.227	947.75
335.455	944.75
335.684	921.75
335.912	929.75
336.14	891.75
336.369	898.75
336.597	904.75
336.825	886.75
337.053	884.75
337.281	873.75
337.51	850.75
337.738	849.75
337.966	831.75
338.194	834.75
338.422	796.75
338.65	803.75
338.878	792.75
339.106	802.75
339.334	809.75
339.562	800.75
339.79	766.75
340.018	778.75
340.246	766.75
340.474	767.75
340.702	755.75
340.93	750.75
341.158	784.75
341.386	774.75
341.614	765.75
341.842	793.75
342.07	754.75
342.298	736.75
342.526	749.75
342.754	763.75
342.981	756.75
343.209	775.75
343.437	822.75
343.665	855.75
343.893	879.75
344.12	921.75
344.348	898.75
344.576	865.75
344.804	830.75
345.031	801.75
345.259	782.75
345.487	785.75
345.714	789.75
345.942	751.75
346.17	765.75
346.397	749.75
346.625	773.75
346.853	722.75
347.08	739.75
347.308	734.75
347.535	758.75
347.763	748.75
347.99	741.75
348.218	780.75
348.445	744.75
348.673	740.75
348.9	716.75
349.128	736.75
349.355	715.75
349.583	744.75
349.81	737.75
350.037	688.75
350.265	703.75
350.492	694.75
350.72	701.75
350.947	704.75
351.174	715.75
351.402	719.75
351.629	715.75
351.856	708.75
352.083	704.75
352.311	690.75
352.538	712.75
352.765	713.75
352.992	693.75
353.22	692.75
353.447	719.75
353.674	689.75
353.901	699.75
354.128	705.75
354.355	689.75
354.583	709.75
354.81	702.75
355.037	709.75
355.264	713.75
355.491	703.75
355.718	712.75
355.945	714.75
356.172	704.75
356.399	709.75
356.626	719.75
356.853	709.75
357.08	716.75
357.307	705.75
357.534	705.75
357.761	721.75
357.988	710.75
358.215	722.75
358.441	699.75
358.668	703.75
358.895	703.75
359.122	693.75
359.349	720.75
359.576	703.75
359.802	730.75
360.029	715.75
360.256	720.75
360.483	715.75
360.709	714.75
360.936	721.75
361.163	699.75
361.39	707.75
361.616	721.75
361.843	717.75
362.07	712.75
362.296	741.75
362.523	718.75
362.749	727.75
362.976	714.75
363.203	725.75
363.429	719.75
363.656	707.75
363.882	706.75
364.109	709.75
364.335	718.75
364.562	712.75
364.788	698.75
365.015	726.75
365.241	719.75
365.468	702.75
365.694	694.75
365.92	715.75
366.147	701.75
366.373	708.75
366.599	742.75
366.826	715.75
367.052	698.75
367.278	726.75
367.505	726.75
367.731	728.75
367.957	687.75
368.184	736.75
368.41	721.75
368.636	723.75
368.862	715.75
369.089	760.75
369.315	741.75
369.541	739.75
369.767	730.75
369.993	752.75
370.219	754.75
370.445	733.75
370.672	763.75
370.898	746.75
371.124	734.75
371.35	794.75
371.576	770.75
371.802	800.75
372.028	769.75
372.254	771.75
372.48	765.75
372.706	788.75
372.932	799.75
373.158	813.75
373.384	785.75
373.61	780.75
373.835	780.75
374.061	795.75
374.287	797.75
374.513	795.75
374.739	815.75
374.965	824.75
375.191	854.75
375.416	839.75
375.642	839.75
375.868	832.75
376.094	825.75
376.319	810.75
376.545	784.75
376.771	801.75
376.997	784.75
377.222	762.75
377.448	793.75
377.674	779.75
377.899	773.75
378.125	786.75
378.35	736.75
378.576	757.75
378.802	757.75
379.027	778.75
379.253	735.75
379.478	739.75
379.704	756.75
379.929	753.75
380.155	763.75
380.38	734.75
380.606	773.75
380.831	774.75
381.057	784.75
381.282	767.75
381.507	767.75
381.733	769.75
381.958	793.75
382.184	794.75
382.409	795.75
382.634	797.75
382.86	804.75
383.085	797.75
383.31	838.75
383.535	841.75
383.761	838.75
383.986	852.75
384.211	872.75
384.436	914.75
384.662	882.75
384.887	885.75
385.112	911.75
385.337	941.75
385.562	943.75
385.787	946.75
386.013	959.75
386.238	933.75
386.463	945.75
386.688	947.75
386.913	950.75
387.138	935.75
387.363	934.75
387.588	904.75
387.813	933.75
388.038	933.75
388.263	914.75
388.488	944.75
388.713	915.75
388.938	897.75
389.163	920.75
389.387	914.75
389.612	932.75
389.837	931.75
390.062	919.75
390.287	919.75
390.512	916.75
390.736	930.75
390.961	949.75
391.186	961.75
391.411	1011.75
391.636	1009.75
391.86	1058.75
392.085	1054.75
392.31	1069.75
392.534	1057.75
392.759	1015.75
392.984	1024.75
393.208	971.75
393.433	1010.75
393.658	997.75
393.882	1018.75
394.107	992.75
394.331	1009.75
394.556	996.75
394.78	1029.75
395.005	995.75
395.229	1003.75
395.454	1014.75
395.678	1041.75
395.903	1058.75
396.127	1057.75
396.352	1039.75
396.576	1023.75
396.801	1008.75
397.025	1025.75
397.249	1052.75
397.474	1067.75
397.698	1052.75
397.922	1070.75
398.147	1088.75
398.371	1073.75
398.595	1126.75
398.82	1181.75
399.044	1252.75
399.268	1368.75
399.492	1540.75
399.717	1673.75
399.941	1709.75
400.165	1621.75
400.389	1448.75
400.613	1347.75
400.837	1257.75
401.062	1238.75
401.286	1223.75
401.51	1202.75
401.734	1184.75
401.958	1183.75
402.182	1212.75
402.406	1228.75
402.63	1222.75
402.854	1265.75
403.078	1266.75
403.302	1297.75
403.526	1289.75
403.75	1332.75
403.974	1349.75
404.198	1342.75
404.422	1326.75
404.645	1335.75
404.869	1326.75
405.093	1354.75
405.317	1303.75
405.541	1297.75
405.765	1306.75
405.988	1292.75
406.212	1310.75
406.436	1323.75
406.66	1345.75
406.883	1389.75
407.107	1398.75
407.331	1461.75
407.555	1524.75
407.778	1521.75
408.002	1546.75
408.226	1493.75
408.449	1429.75
408.673	1391.75
408.896	1343.75
409.12	1357.75
409.344	1350.75
409.567	1330.75
409.791	1365.75
410.014	1357.75
410.238	1331.75
410.461	1331.75
410.685	1315.75
410.908	1258.75
411.132	1265.75
411.355	1227.75
411.578	1246.75
411.802	1235.75
412.025	1200.75
412.249	1240.75
412.472	1277.75
412.695	1209.75
412.919	1172.75
413.142	1188.75
413.365	1215.75
413.589	1191.75
413.812	1163.75
414.035	1146.75
414.258	1202.75
414.482	1201.75
414.705	1226.75
414.928	1207.75
415.151	1207.75
415.374	1202.75
415.597	1187.75
415.821	1143.75
416.044	1145.75
416.267	1147.75
416.49	1159.75
416.713	1135.75
416.936	1152.75
417.159	1120.75
417.382	1158.75
417.605	1126.75
417.828	1149.75
418.051	1167.75
418.274	1145.75
418.497	1127.75
418.72	1203.75
418.943	1198.75
419.166	1303.75
419.389	1381.75
419.611	1362.75
419.834	1265.75
420.057	1247.75
420.28	1210.75
420.503	1166.75
420.726	1165.75
420.948	1146.75
421.171	1169.75
421.394	1153.75
421.617	1157.75
421.839	1144.75
422.062	1169.75
422.285	1167.75
422.507	1171.75
422.73	1210.75
422.953	1206.75
423.175	1152.75
423.398	1205.75
423.621	1191.75
423.843	1206.75
424.066	1200.75
424.288	1188.75
424.511	1219.75
424.733	1175.75
424.956	1196.75
425.178	1166.75
425.401	1190.75
425.623	1161.75
425.846	1171.75
426.068	1143.75
426.291	1114.75
426.513	1091.75
426.735	1112.75
426.958	1093.75
427.18	1085.75
427.402	1066.75
427.625	1074.75
427.847	1066.75
428.069	1082.75
428.292	1065.75
428.514	1016.75
428.736	1044.75
428.958	1042.75
429.181	1003.75
429.403	998.75
429.625	1033.75
429.847	981.75
430.069	1039.75
430.292	991.75
430.514	987.75
430.736	999.75
430.958	1057.75
431.18	1033.75
431.402	1034.75
431.624	1031.75
431.846	1038.75
432.068	1071.75
432.29	1075.75
432.512	1040.75
432.734	1036.75
432.956	1050.75
433.178	1050.75
433.4	1059.75
433.622	1040.75
433.844	1074.75
434.066	1066.75
434.287	1085.75
434.509	1083.75
434.731	1118.75
434.953	1168.75
435.175	1151.75
435.397	1146.75
435.618	1112.75
435.84	1081.75
436.062	1035.75
436.284	1012.75
436.505	1054.75
436.727	1053.75
436.949	1066.75
437.17	1040.75
437.392	1042.75
437.614	1017.75
437.835	995.75
438.057	1016.75
438.278	979.75
438.5	981.75
438.721	1004.75
438.943	1007.75
439.165	996.75
439.386	1011.75
439.608	993.75
439.829	998.75
440.05	1033.75
440.272	1057.75
440.493	1020.75
440.715	1045.75
440.936	1095.75
441.158	1073.75
441.379	1138.75
441.6	1181.75
441.822	1141.75
442.043	1173.75
442.264	1162.75
442.486	1095.75
442.707	1143.75
442.928	1129.75
443.149	1138.75
443.371	1147.75
443.592	1130.75
443.813	1169.75
444.034	1145.75
444.255	1250.75
444.476	1265.75
444.698	1330.75
444.919	1363.75
445.14	1431.75
445.361	1301.75
445.582	1223.75
445.803	1173.75
446.024	1116.75
446.245	1093.75
446.466	1072.75
446.687	1047.75
446.908	1027.75
447.129	1014.75
447.35	1030.75
447.571	1011.75
447.792	981.75
448.013	973.75
448.234	975.75
448.455	947.75
448.675	970.75
448.896	953.75
449.117	928.75
449.338	939.75
449.559	922.75
449.779	919.75
450	910.75
450.221	925.75
450.442	933.75
450.662	950.75
450.883	971.75
451.104	967.75
451.324	990.75
451.545	954.75
451.766	977.75
451.986	945.75
452.207	915.75
452.428	970.75
452.648	945.75
452.869	939.75
453.089	921.75
453.31	946.75
453.53	900.75
453.751	942.75
453.971	912.75
454.192	907.75
454.412	923.75
454.633	923.75
454.853	886.75
455.073	880.75
455.294	889.75
455.514	883.75
455.734	872.75
455.955	890.75
456.175	897.75
456.395	897.75
456.616	902.75
456.836	895.75
457.056	903.75
457.276	889.75
457.497	897.75
457.717	893.75
457.937	922.75
458.157	911.75
458.377	914.75
458.598	951.75
458.818	971.75
459.038	992.75
459.258	1016.75
459.478	1075.75
459.698	1094.75
459.918	1102.75
460.138	1129.75
460.358	1144.75
460.578	1179.75
460.798	1201.75
461.018	1233.75
461.238	1218.75
461.458	1221.75
461.678	1205.75
461.898	1269.75
462.118	1251.75
462.338	1331.75
462.558	1326.75
462.777	1387.75
462.997	1521.75
463.217	1575.75
463.437	1628.75
463.657	1497.75
463.876	1475.75
464.096	1474.75
464.316	1437.75
464.536	1453.75
464.755	1410.75
464.975	1347.75
465.195	1275.75
465.414	1194.75
465.634	1143.75
465.854	1089.75
466.073	1085.75
466.293	1078.75
466.512	1055.75
466.732	1023.75
466.951	1030.75
467.171	992.75
467.391	995.75
467.61	994.75
467.829	1019.75
468.049	986.75
468.268	969.75
468.488	946.75
468.707	950.75
468.927	985.75
469.146	943.75
469.365	978.75
469.585	984.75
469.804	1001.75
470.023	1025.75
470.243	1018.75
470.462	1023.75
470.681	1008.75
470.901	1070.75
471.12	1016.75
471.339	1024.75
471.558	1014.75
471.777	979.75
471.997	963.75
472.216	1001.75
472.435	972.75
472.654	929.75
472.873	944.75
473.092	925.75
473.311	949.75
473.53	952.75
473.749	928.75
473.968	934.75
474.187	923.75
474.406	935.75
474.625	920.75
474.844	943.75
475.063	928.75
475.282	970.75
475.501	966.75
475.72	948.75
475.939	975.75
476.158	964.75
476.377	996.75
476.596	950.75
476.814	989.75
477.033	1021.75
477.252	1019.75
477.471	1049.75
477.69	1062.75
477.908	1059.75
478.127	1107.75
478.346	1121.75
478.564	1138.75
478.783	1151.75
479.002	1175.75
479.22	1201.75
479.439	1180.75
479.658	1165.75
479.876	1179.75
480.095	1192.75
480.313	1198.75
480.532	1274.75
480.751	1249.75
480.969	1227.75
481.188	1182.75
481.406	1161.75
481.624	1126.75
481.843	1088.75
482.061	1096.75
482.28	1089.75
482.498	1056.75
482.717	1084.75
482.935	1104.75
483.153	1095.75
483.372	1071.75
483.59	1087.75
483.808	1081.75
484.027	1078.75
484.245	1120.75
484.463	1094.75
484.681	1116.75
484.9	1089.75
485.118	1113.75
485.336	1125.75
485.554	1141.75
485.772	1133.75
485.99	1142.75
486.209	1138.75
486.427	1158.75
486.645	1147.75
486.863	1170.75
487.081	1134.75
487.299	1142.75
487.517	1145.75
487.735	1106.75
487.953	1142.75
488.171	1144.75
488.389	1133.75
488.607	1125.75
488.825	1094.75
489.043	1119.75
489.261	1111.75
489.479	1133.75
489.696	1115.75
489.914	1118.75
490.132	1119.75
490.35	1124.75
490.568	1155.75
490.786	1119.75
491.003	1157.75
491.221	1153.75
491.439	1159.75
491.657	1146.75
491.874	1171.75
492.092	1178.75
492.31	1174.75
492.527	1161.75
492.745	1147.75
492.963	1179.75
493.18	1193.75
493.398	1200.75
493.615	1199.75
493.833	1168.75
494.05	1209.75
494.268	1200.75
494.485	1203.75
494.703	1220.75
494.92	1223.75
495.138	1200.75
495.355	1203.75
495.573	1202.75
495.79	1227.75
496.008	1250.75
496.225	1242.75
496.442	1285.75
