Data from NiCl2@0.0625M.TitratingCurve.Agarose3%dH2O.NegLispCup.LampEnergy10.LIBS07252019_HRD10591_18-33-13-576.txt Node
Date: Thu Jul 25 18:33:13 EDT 2019
User: cochatt
Spectrometer: HR+D1059
Trigger mode: 1
Integration Time (sec): 1.000000E-1
Scans to average: 1
Electric dark correction enabled: true
Nonlinearity correction enabled: false
Boxcar width: 0
XAxis mode: Wavelengths
Number of Pixels in Spectrum: 2048
>>>>>Begin Spectral Data<<<<<
223.165	-9.12
223.4	-9.12
223.635	-9.12
223.869	-12.12
224.104	-25.12
224.338	-7.12
224.573	-28.12
224.808	-16.12
225.042	-13.12
225.277	-0.12
225.511	6.88
225.746	11.88
225.98	8.88
226.215	11.88
226.449	20.88
226.683	8.88
226.918	19.88
227.152	21.88
227.387	50.88
227.621	39.88
227.856	40.88
228.09	54.88
228.324	48.88
228.559	67.88
228.793	70.88
229.027	144.88
229.262	172.88
229.496	167.88
229.73	163.88
229.964	182.88
230.199	196.88
230.433	166.88
230.667	196.88
230.901	194.88
231.136	186.88
231.37	206.88
231.604	195.88
231.838	218.88
232.072	233.88
232.306	226.88
232.541	220.88
232.775	209.88
233.009	217.88
233.243	217.88
233.477	220.88
233.711	209.88
233.945	210.88
234.179	218.88
234.413	229.88
234.647	216.88
234.881	234.88
235.115	233.88
235.349	220.88
235.583	238.88
235.817	231.88
236.051	224.88
236.285	239.88
236.519	252.88
236.753	247.88
236.987	239.88
237.221	229.88
237.455	254.88
237.689	260.88
237.922	268.88
238.156	261.88
238.39	272.88
238.624	276.88
238.858	272.88
239.091	262.88
239.325	281.88
239.559	286.88
239.793	286.88
240.027	300.88
240.26	292.88
240.494	270.88
240.728	295.88
240.961	282.88
241.195	298.88
241.429	312.88
241.662	306.88
241.896	292.88
242.13	345.88
242.363	335.88
242.597	330.88
242.83	326.88
243.064	330.88
243.298	340.88
243.531	342.88
243.765	339.88
243.998	347.88
244.232	336.88
244.465	363.88
244.699	342.88
244.932	366.88
245.166	349.88
245.399	364.88
245.633	357.88
245.866	367.88
246.099	371.88
246.333	364.88
246.566	373.88
246.8	362.88
247.033	359.88
247.266	390.88
247.5	354.88
247.733	380.88
247.966	382.88
248.2	409.88
248.433	421.88
248.666	407.88
248.899	400.88
249.133	412.88
249.366	411.88
249.599	408.88
249.832	401.88
250.066	449.88
250.299	423.88
250.532	431.88
250.765	435.88
250.998	442.88
251.231	462.88
251.465	470.88
251.698	460.88
251.931	455.88
252.164	460.88
252.397	471.88
252.63	458.88
252.863	471.88
253.096	474.88
253.329	466.88
253.562	487.88
253.795	468.88
254.028	471.88
254.261	484.88
254.494	486.88
254.727	499.88
254.96	474.88
255.193	487.88
255.426	470.88
255.659	485.88
255.892	490.88
256.124	490.88
256.357	497.88
256.59	509.88
256.823	518.88
257.056	517.88
257.289	497.88
257.521	519.88
257.754	529.88
257.987	529.88
258.22	523.88
258.452	527.88
258.685	532.88
258.918	537.88
259.151	519.88
259.383	560.88
259.616	514.88
259.849	528.88
260.081	561.88
260.314	541.88
260.547	594.88
260.779	556.88
261.012	555.88
261.244	585.88
261.477	597.88
261.71	583.88
261.942	576.88
262.175	581.88
262.407	600.88
262.64	605.88
262.872	585.88
263.105	611.88
263.337	607.88
263.57	592.88
263.802	595.88
264.035	612.88
264.267	631.88
264.499	618.88
264.732	605.88
264.964	599.88
265.197	627.88
265.429	609.88
265.661	622.88
265.894	617.88
266.126	629.88
266.358	611.88
266.591	638.88
266.823	642.88
267.055	660.88
267.287	663.88
267.52	647.88
267.752	648.88
267.984	639.88
268.216	674.88
268.448	678.88
268.681	655.88
268.913	650.88
269.145	649.88
269.377	673.88
269.609	667.88
269.841	677.88
270.073	663.88
270.306	647.88
270.538	676.88
270.77	671.88
271.002	696.88
271.234	661.88
271.466	697.88
271.698	700.88
271.93	671.88
272.162	697.88
272.394	719.88
272.626	736.88
272.858	723.88
273.09	704.88
273.322	736.88
273.553	714.88
273.785	729.88
274.017	770.88
274.249	751.88
274.481	732.88
274.713	752.88
274.945	731.88
275.176	775.88
275.408	748.88
275.64	768.88
275.872	742.88
276.104	748.88
276.335	758.88
276.567	743.88
276.799	747.88
277.031	783.88
277.262	738.88
277.494	745.88
277.726	795.88
277.957	778.88
278.189	783.88
278.421	790.88
278.652	811.88
278.884	807.88
279.115	799.88
279.347	808.88
279.579	818.88
279.81	809.88
280.042	831.88
280.273	824.88
280.505	840.88
280.736	829.88
280.968	841.88
281.199	816.88
281.431	836.88
281.662	835.88
281.894	844.88
282.125	850.88
282.356	870.88
282.588	853.88
282.819	862.88
283.051	895.88
283.282	860.88
283.513	870.88
283.745	897.88
283.976	898.88
284.207	891.88
284.439	890.88
284.67	869.88
284.901	854.88
285.132	892.88
285.364	870.88
285.595	900.88
285.826	882.88
286.057	923.88
286.288	903.88
286.52	922.88
286.751	896.88
286.982	942.88
287.213	899.88
287.444	924.88
287.675	932.88
287.906	923.88
288.138	927.88
288.369	946.88
288.6	947.88
288.831	932.88
289.062	902.88
289.293	950.88
289.524	940.88
289.755	957.88
289.986	945.88
290.217	949.88
290.448	936.88
290.679	944.88
290.91	960.88
291.141	944.88
291.371	975.88
291.602	975.88
291.833	946.88
292.064	958.88
292.295	934.88
292.526	965.88
292.757	972.88
292.987	987.88
293.218	960.88
293.449	980.88
293.68	950.88
293.91	967.88
294.141	961.88
294.372	940.88
294.603	954.88
294.833	973.88
295.064	971.88
295.295	963.88
295.525	965.88
295.756	1000.88
295.987	985.88
296.217	981.88
296.448	994.88
296.679	984.88
296.909	980.88
297.14	1034.88
297.37	1002.88
297.601	1024.88
297.831	1022.88
298.062	1029.88
298.292	1017.88
298.523	1068.88
298.753	1059.88
298.984	1043.88
299.214	1026.88
299.445	1034.88
299.675	1056.88
299.905	1026.88
300.136	1036.88
300.366	1049.88
300.597	1057.88
300.827	1081.88
301.057	1110.88
301.288	1078.88
301.518	1083.88
301.748	1104.88
301.979	1106.88
302.209	1109.88
302.439	1120.88
302.669	1100.88
302.9	1104.88
303.13	1089.88
303.36	1113.88
303.59	1082.88
303.82	1086.88
304.051	1111.88
304.281	1124.88
304.511	1096.88
304.741	1104.88
304.971	1095.88
305.201	1103.88
305.431	1129.88
305.661	1099.88
305.891	1060.88
306.121	1078.88
306.352	1064.88
306.582	1097.88
306.812	1051.88
307.042	1060.88
307.272	1092.88
307.502	1053.88
307.731	1082.88
307.961	1084.88
308.191	1089.88
308.421	1088.88
308.651	1107.88
308.881	1062.88
309.111	1106.88
309.341	1085.88
309.571	1078.88
309.8	1093.88
310.03	1085.88
310.26	1080.88
310.49	1056.88
310.72	1108.88
310.949	1066.88
311.179	1138.88
311.409	1116.88
311.639	1120.88
311.868	1135.88
312.098	1132.88
312.328	1126.88
312.557	1152.88
312.787	1136.88
313.017	1167.88
313.246	1176.88
313.476	1155.88
313.706	1160.88
313.935	1190.88
314.165	1172.88
314.394	1196.88
314.624	1199.88
314.853	1166.88
315.083	1168.88
315.312	1164.88
315.542	1163.88
315.771	1157.88
316.001	1178.88
316.23	1168.88
316.46	1153.88
316.689	1188.88
316.919	1170.88
317.148	1136.88
317.377	1154.88
317.607	1160.88
317.836	1173.88
318.065	1156.88
318.295	1146.88
318.524	1135.88
318.753	1160.88
318.983	1151.88
319.212	1139.88
319.441	1178.88
319.67	1162.88
319.9	1166.88
320.129	1132.88
320.358	1152.88
320.587	1177.88
320.816	1160.88
321.046	1147.88
321.275	1138.88
321.504	1166.88
321.733	1178.88
321.962	1150.88
322.191	1186.88
322.42	1154.88
322.649	1183.88
322.878	1172.88
323.108	1182.88
323.337	1200.88
323.566	1232.88
323.795	1211.88
324.024	1189.88
324.253	1190.88
324.482	1206.88
324.71	1177.88
324.939	1252.88
325.168	1229.88
325.397	1225.88
325.626	1225.88
325.855	1252.88
326.084	1266.88
326.313	1237.88
326.542	1246.88
326.77	1264.88
326.999	1242.88
327.228	1246.88
327.457	1262.88
327.686	1250.88
327.914	1259.88
328.143	1261.88
328.372	1304.88
328.6	1284.88
328.829	1251.88
329.058	1254.88
329.287	1254.88
329.515	1258.88
329.744	1296.88
329.972	1322.88
330.201	1314.88
330.43	1305.88
330.658	1300.88
330.887	1332.88
331.115	1260.88
331.344	1341.88
331.572	1353.88
331.801	1358.88
332.03	1368.88
332.258	1362.88
332.486	1409.88
332.715	1420.88
332.943	1518.88
333.172	1518.88
333.4	1570.88
333.629	1631.88
333.857	1638.88
334.085	1585.88
334.314	1647.88
334.542	1596.88
334.771	1605.88
334.999	1589.88
335.227	1567.88
335.455	1547.88
335.684	1558.88
335.912	1548.88
336.14	1551.88
336.369	1529.88
336.597	1529.88
336.825	1472.88
337.053	1499.88
337.281	1478.88
337.51	1478.88
337.738	1499.88
337.966	1460.88
338.194	1403.88
338.422	1385.88
338.65	1422.88
338.878	1428.88
339.106	1402.88
339.334	1396.88
339.562	1392.88
339.79	1385.88
340.018	1343.88
340.246	1334.88
340.474	1330.88
340.702	1326.88
340.93	1339.88
341.158	1330.88
341.386	1363.88
341.614	1304.88
341.842	1368.88
342.07	1302.88
342.298	1338.88
342.526	1327.88
342.754	1326.88
342.981	1313.88
343.209	1330.88
343.437	1385.88
343.665	1526.88
343.893	1507.88
344.12	1572.88
344.348	1522.88
344.576	1468.88
344.804	1446.88
345.031	1390.88
345.259	1374.88
345.487	1376.88
345.714	1330.88
345.942	1313.88
346.17	1302.88
346.397	1348.88
346.625	1305.88
346.853	1288.88
347.08	1288.88
347.308	1255.88
347.535	1266.88
347.763	1247.88
347.99	1238.88
348.218	1254.88
348.445	1271.88
348.673	1308.88
348.9	1282.88
349.128	1270.88
349.355	1280.88
349.583	1306.88
349.81	1240.88
350.037	1241.88
350.265	1263.88
350.492	1272.88
350.72	1266.88
350.947	1223.88
351.174	1242.88
351.402	1240.88
351.629	1238.88
351.856	1268.88
352.083	1244.88
352.311	1230.88
352.538	1234.88
352.765	1222.88
352.992	1200.88
353.22	1229.88
353.447	1247.88
353.674	1205.88
353.901	1238.88
354.128	1231.88
354.355	1212.88
354.583	1212.88
354.81	1225.88
355.037	1248.88
355.264	1242.88
355.491	1243.88
355.718	1230.88
355.945	1222.88
356.172	1246.88
356.399	1261.88
356.626	1245.88
356.853	1230.88
357.08	1246.88
357.307	1246.88
357.534	1246.88
357.761	1262.88
357.988	1243.88
358.215	1243.88
358.441	1232.88
358.668	1250.88
358.895	1225.88
359.122	1241.88
359.349	1242.88
359.576	1245.88
359.802	1231.88
360.029	1247.88
360.256	1261.88
360.483	1256.88
360.709	1243.88
360.936	1242.88
361.163	1253.88
361.39	1256.88
361.616	1238.88
361.843	1242.88
362.07	1254.88
362.296	1236.88
362.523	1213.88
362.749	1232.88
362.976	1240.88
363.203	1230.88
363.429	1217.88
363.656	1233.88
363.882	1242.88
364.109	1230.88
364.335	1231.88
364.562	1225.88
364.788	1226.88
365.015	1240.88
365.241	1247.88
365.468	1237.88
365.694	1225.88
365.92	1225.88
366.147	1235.88
366.373	1258.88
366.599	1243.88
366.826	1216.88
367.052	1229.88
367.278	1226.88
367.505	1259.88
367.731	1268.88
367.957	1258.88
368.184	1273.88
368.41	1237.88
368.636	1288.88
368.862	1282.88
369.089	1279.88
369.315	1280.88
369.541	1275.88
369.767	1292.88
369.993	1286.88
370.219	1273.88
370.445	1274.88
370.672	1309.88
370.898	1329.88
371.124	1307.88
371.35	1359.88
371.576	1305.88
371.802	1335.88
372.028	1339.88
372.254	1343.88
372.48	1370.88
372.706	1354.88
372.932	1383.88
373.158	1388.88
373.384	1378.88
373.61	1341.88
373.835	1379.88
374.061	1375.88
374.287	1386.88
374.513	1374.88
374.739	1474.88
374.965	1493.88
375.191	1485.88
375.416	1454.88
375.642	1396.88
375.868	1441.88
376.094	1400.88
376.319	1354.88
376.545	1378.88
376.771	1362.88
376.997	1368.88
377.222	1335.88
377.448	1330.88
377.674	1347.88
377.899	1356.88
378.125	1340.88
378.35	1303.88
378.576	1312.88
378.802	1310.88
379.027	1341.88
379.253	1351.88
379.478	1343.88
379.704	1315.88
379.929	1320.88
380.155	1334.88
380.38	1328.88
380.606	1353.88
380.831	1303.88
381.057	1338.88
381.282	1335.88
381.507	1356.88
381.733	1359.88
381.958	1354.88
382.184	1384.88
382.409	1382.88
382.634	1409.88
382.86	1400.88
383.085	1402.88
383.31	1427.88
383.535	1422.88
383.761	1464.88
383.986	1467.88
384.211	1454.88
384.436	1506.88
384.662	1512.88
384.887	1586.88
385.112	1559.88
385.337	1549.88
385.562	1550.88
385.787	1624.88
386.013	1599.88
386.238	1595.88
386.463	1614.88
386.688	1655.88
386.913	1597.88
387.138	1579.88
387.363	1572.88
387.588	1599.88
387.813	1603.88
388.038	1608.88
388.263	1602.88
388.488	1569.88
388.713	1614.88
388.938	1635.88
389.163	1567.88
389.387	1587.88
389.612	1573.88
389.837	1563.88
390.062	1569.88
390.287	1605.88
390.512	1586.88
390.736	1595.88
390.961	1613.88
391.186	1619.88
391.411	1684.88
391.636	1705.88
391.86	1750.88
392.085	1770.88
392.31	1769.88
392.534	1731.88
392.759	1753.88
392.984	1723.88
393.208	1700.88
393.433	1711.88
393.658	1750.88
393.882	1676.88
394.107	1704.88
394.331	1724.88
394.556	1697.88
394.78	1718.88
395.005	1710.88
395.229	1710.88
395.454	1773.88
395.678	1775.88
395.903	1764.88
396.127	1751.88
396.352	1736.88
396.576	1693.88
396.801	1718.88
397.025	1735.88
397.249	1754.88
397.474	1778.88
397.698	1788.88
397.922	1812.88
398.147	1823.88
398.371	1883.88
398.595	1896.88
398.82	1946.88
399.044	2082.88
399.268	2236.88
399.492	2410.88
399.717	2648.88
399.941	2744.88
400.165	2549.88
400.389	2339.88
400.613	2197.88
400.837	2108.88
401.062	2070.88
401.286	1963.88
401.51	1987.88
401.734	1972.88
401.958	2009.88
402.182	2016.88
402.406	1986.88
402.63	2037.88
402.854	2027.88
403.078	2076.88
403.302	2081.88
403.526	2053.88
403.75	2171.88
403.974	2134.88
404.198	2146.88
404.422	2135.88
404.645	2137.88
404.869	2114.88
405.093	2157.88
405.317	2090.88
405.541	2136.88
405.765	2116.88
405.988	2103.88
406.212	2134.88
406.436	2135.88
406.66	2181.88
406.883	2230.88
407.107	2294.88
407.331	2401.88
407.555	2468.88
407.778	2500.88
408.002	2402.88
408.226	2420.88
408.449	2367.88
408.673	2236.88
408.896	2248.88
409.12	2175.88
409.344	2173.88
409.567	2209.88
409.791	2182.88
410.014	2196.88
410.238	2142.88
410.461	2168.88
410.685	2186.88
410.908	2163.88
411.132	2076.88
411.355	2061.88
411.578	2038.88
411.802	2043.88
412.025	2024.88
412.249	2073.88
412.472	2082.88
412.695	2062.88
412.919	2037.88
413.142	1971.88
413.365	1962.88
413.589	2023.88
413.812	1951.88
414.035	1935.88
414.258	1982.88
414.482	1966.88
414.705	1972.88
414.928	1982.88
415.151	1973.88
415.374	2009.88
415.597	1922.88
415.821	1887.88
416.044	1920.88
416.267	1933.88
416.49	1893.88
416.713	1880.88
416.936	1901.88
417.159	1894.88
417.382	1891.88
417.605	1870.88
417.828	1906.88
418.051	1877.88
418.274	1895.88
418.497	1896.88
418.72	1922.88
418.943	1921.88
419.166	2041.88
419.389	2141.88
419.611	2135.88
419.834	2049.88
420.057	2014.88
420.28	1922.88
420.503	1901.88
420.726	1880.88
420.948	1869.88
421.171	1895.88
421.394	1865.88
421.617	1872.88
421.839	1923.88
422.062	1961.88
422.285	1860.88
422.507	1928.88
422.73	1942.88
422.953	1928.88
423.175	1944.88
423.398	1911.88
423.621	1930.88
423.843	1922.88
424.066	1926.88
424.288	1918.88
424.511	1915.88
424.733	1931.88
424.956	1908.88
425.178	1898.88
425.401	1918.88
425.623	1882.88
425.846	1829.88
426.068	1893.88
426.291	1856.88
426.513	1823.88
426.735	1774.88
426.958	1798.88
427.18	1746.88
427.402	1800.88
427.625	1768.88
427.847	1713.88
428.069	1726.88
428.292	1753.88
428.514	1727.88
428.736	1737.88
428.958	1754.88
429.181	1737.88
429.403	1769.88
429.625	1710.88
429.847	1708.88
430.069	1692.88
430.292	1676.88
430.514	1710.88
430.736	1684.88
430.958	1733.88
431.18	1691.88
431.402	1740.88
431.624	1694.88
431.846	1734.88
432.068	1760.88
432.29	1745.88
432.512	1752.88
432.734	1733.88
432.956	1749.88
433.178	1746.88
433.4	1781.88
433.622	1782.88
433.844	1809.88
434.066	1796.88
434.287	1800.88
434.509	1838.88
434.731	1911.88
434.953	1932.88
435.175	1871.88
435.397	1908.88
435.618	1836.88
435.84	1834.88
436.062	1788.88
436.284	1750.88
436.505	1751.88
436.727	1738.88
436.949	1766.88
437.17	1752.88
437.392	1666.88
437.614	1691.88
437.835	1624.88
438.057	1685.88
438.278	1654.88
438.5	1627.88
438.721	1672.88
438.943	1643.88
439.165	1656.88
439.386	1666.88
439.608	1681.88
439.829	1701.88
440.05	1680.88
440.272	1700.88
440.493	1670.88
440.715	1754.88
440.936	1756.88
441.158	1753.88
441.379	1826.88
441.6	1864.88
441.822	1840.88
442.043	1875.88
442.264	1856.88
442.486	1818.88
442.707	1828.88
442.928	1795.88
443.149	1842.88
443.371	1806.88
443.592	1861.88
443.813	1870.88
444.034	1844.88
444.255	1924.88
444.476	1999.88
444.698	2058.88
444.919	2125.88
445.14	2184.88
445.361	2039.88
445.582	1964.88
445.803	1808.88
446.024	1815.88
446.245	1775.88
446.466	1766.88
446.687	1705.88
446.908	1730.88
447.129	1662.88
447.35	1648.88
447.571	1670.88
447.792	1623.88
448.013	1625.88
448.234	1578.88
448.455	1587.88
448.675	1560.88
448.896	1556.88
449.117	1518.88
449.338	1545.88
449.559	1552.88
449.779	1501.88
450	1522.88
450.221	1515.88
450.442	1548.88
450.662	1526.88
450.883	1518.88
451.104	1562.88
451.324	1554.88
451.545	1560.88
451.766	1539.88
451.986	1525.88
452.207	1511.88
452.428	1548.88
452.648	1510.88
452.869	1457.88
453.089	1472.88
453.31	1466.88
453.53	1472.88
453.751	1485.88
453.971	1498.88
454.192	1468.88
454.412	1452.88
454.633	1418.88
454.853	1453.88
455.073	1445.88
455.294	1453.88
455.514	1441.88
455.734	1429.88
455.955	1391.88
456.175	1430.88
456.395	1410.88
456.616	1436.88
456.836	1456.88
457.056	1461.88
457.276	1429.88
457.497	1510.88
457.717	1447.88
457.937	1480.88
458.157	1500.88
458.377	1501.88
458.598	1522.88
458.818	1570.88
459.038	1596.88
459.258	1636.88
459.478	1723.88
459.698	1758.88
459.918	1813.88
460.138	1833.88
460.358	1915.88
460.578	1912.88
460.798	1950.88
461.018	1945.88
461.238	1915.88
461.458	1936.88
461.678	1919.88
461.898	1944.88
462.118	1965.88
462.338	2029.88
462.558	2103.88
462.777	2167.88
462.997	2333.88
463.217	2415.88
463.437	2452.88
463.657	2312.88
463.876	2219.88
464.096	2208.88
464.316	2210.88
464.536	2193.88
464.755	2135.88
464.975	2070.88
465.195	1964.88
465.414	1926.88
465.634	1811.88
465.854	1793.88
466.073	1726.88
466.293	1690.88
466.512	1678.88
466.732	1634.88
466.951	1660.88
467.171	1614.88
467.391	1674.88
467.61	1606.88
467.829	1592.88
468.049	1594.88
468.268	1592.88
468.488	1546.88
468.707	1528.88
468.927	1570.88
469.146	1595.88
469.365	1571.88
469.585	1579.88
469.804	1617.88
470.023	1653.88
470.243	1630.88
470.462	1646.88
470.681	1665.88
470.901	1669.88
471.12	1629.88
471.339	1622.88
471.558	1599.88
471.777	1635.88
471.997	1577.88
472.216	1581.88
472.435	1576.88
472.654	1527.88
472.873	1578.88
473.092	1591.88
473.311	1554.88
473.53	1558.88
473.749	1578.88
473.968	1563.88
474.187	1554.88
474.406	1536.88
474.625	1552.88
474.844	1539.88
475.063	1559.88
475.282	1526.88
475.501	1579.88
475.72	1608.88
475.939	1586.88
476.158	1631.88
476.377	1630.88
476.596	1643.88
476.814	1634.88
477.033	1654.88
477.252	1717.88
477.471	1734.88
477.69	1748.88
477.908	1814.88
478.127	1839.88
478.346	1830.88
478.564	1877.88
478.783	1932.88
479.002	1940.88
479.22	1935.88
479.439	1910.88
479.658	1949.88
479.876	1975.88
480.095	1983.88
480.313	2011.88
480.532	2079.88
480.751	2099.88
480.969	2027.88
481.188	1976.88
481.406	1974.88
481.624	1918.88
481.843	1967.88
482.061	1909.88
482.28	1908.88
482.498	1933.88
482.717	1901.88
482.935	1895.88
483.153	1908.88
483.372	1953.88
483.59	1934.88
483.808	1936.88
484.027	1951.88
484.245	1967.88
484.463	1990.88
484.681	2044.88
484.9	2013.88
485.118	2084.88
485.336	2060.88
485.554	2100.88
485.772	2080.88
485.99	2081.88
486.209	2099.88
486.427	2057.88
486.645	2086.88
486.863	2099.88
487.081	2051.88
487.299	2044.88
487.517	2065.88
487.735	2076.88
487.953	2035.88
488.171	2086.88
488.389	2012.88
488.607	1999.88
488.825	1983.88
489.043	1960.88
489.261	1960.88
489.479	1936.88
489.696	2010.88
489.914	1985.88
