Data from NiCl2@0.0625M.TitratingCurve.Agarose3%dH2O.NegLispCup.LampEnergy10.LIBS07252019_HRD10591_18-34-47-576.txt Node
Date: Thu Jul 25 18:34:47 EDT 2019
User: cochatt
Spectrometer: HR+D1059
Trigger mode: 1
Integration Time (sec): 1.000000E-1
Scans to average: 1
Electric dark correction enabled: true
Nonlinearity correction enabled: false
Boxcar width: 0
XAxis mode: Wavelengths
Number of Pixels in Spectrum: 2048
>>>>>Begin Spectral Data<<<<<
223.165	-12.06
223.4	-12.06
223.635	-12.06
223.869	-20.06
224.104	-37.06
224.338	-21.06
224.573	-16.06
224.808	-6.06
225.042	2.94
225.277	8.94
225.511	-1.06
225.746	-6.06
225.98	4.94
226.215	-9.06
226.449	24.94
226.683	20.94
226.918	30.94
227.152	34.94
227.387	20.94
227.621	45.94
227.856	43.94
228.09	47.94
228.324	52.94
228.559	71.94
228.793	69.94
229.027	130.94
229.262	146.94
229.496	139.94
229.73	154.94
229.964	168.94
230.199	159.94
230.433	156.94
230.667	164.94
230.901	171.94
231.136	171.94
231.37	184.94
231.604	191.94
231.838	186.94
232.072	179.94
232.306	182.94
232.541	212.94
232.775	178.94
233.009	201.94
233.243	198.94
233.477	183.94
233.711	196.94
233.945	202.94
234.179	197.94
234.413	214.94
234.647	188.94
234.881	202.94
235.115	200.94
235.349	208.94
235.583	206.94
235.817	209.94
236.051	204.94
236.285	206.94
236.519	214.94
236.753	202.94
236.987	196.94
237.221	204.94
237.455	221.94
237.689	218.94
237.922	225.94
238.156	226.94
238.39	224.94
238.624	224.94
238.858	221.94
239.091	239.94
239.325	234.94
239.559	246.94
239.793	251.94
240.027	246.94
240.26	263.94
240.494	257.94
240.728	245.94
240.961	232.94
241.195	254.94
241.429	252.94
241.662	267.94
241.896	271.94
242.13	275.94
242.363	271.94
242.597	282.94
242.83	292.94
243.064	278.94
243.298	297.94
243.531	273.94
243.765	274.94
243.998	286.94
244.232	295.94
244.465	312.94
244.699	306.94
244.932	320.94
245.166	302.94
245.399	326.94
245.633	324.94
245.866	319.94
246.099	295.94
246.333	315.94
246.566	310.94
246.8	312.94
247.033	332.94
247.266	327.94
247.5	328.94
247.733	329.94
247.966	332.94
248.2	361.94
248.433	347.94
248.666	351.94
248.899	319.94
249.133	346.94
249.366	361.94
249.599	349.94
249.832	377.94
250.066	359.94
250.299	351.94
250.532	378.94
250.765	375.94
250.998	394.94
251.231	389.94
251.465	388.94
251.698	390.94
251.931	385.94
252.164	386.94
252.397	410.94
252.63	416.94
252.863	400.94
253.096	380.94
253.329	388.94
253.562	406.94
253.795	416.94
254.028	396.94
254.261	426.94
254.494	408.94
254.727	408.94
254.96	413.94
255.193	406.94
255.426	416.94
255.659	406.94
255.892	450.94
256.124	426.94
256.357	434.94
256.59	427.94
256.823	452.94
257.056	448.94
257.289	454.94
257.521	461.94
257.754	466.94
257.987	451.94
258.22	470.94
258.452	457.94
258.685	447.94
258.918	458.94
259.151	459.94
259.383	476.94
259.616	460.94
259.849	464.94
260.081	490.94
260.314	489.94
260.547	475.94
260.779	478.94
261.012	520.94
261.244	490.94
261.477	489.94
261.71	499.94
261.942	494.94
262.175	507.94
262.407	503.94
262.64	511.94
262.872	494.94
263.105	511.94
263.337	515.94
263.57	522.94
263.802	529.94
264.035	507.94
264.267	532.94
264.499	528.94
264.732	539.94
264.964	552.94
265.197	537.94
265.429	524.94
265.661	537.94
265.894	540.94
266.126	544.94
266.358	558.94
266.591	535.94
266.823	556.94
267.055	560.94
267.287	528.94
267.52	568.94
267.752	542.94
267.984	554.94
268.216	560.94
268.448	558.94
268.681	571.94
268.913	569.94
269.145	561.94
269.377	586.94
269.609	582.94
269.841	591.94
270.073	571.94
270.306	588.94
270.538	602.94
270.77	576.94
271.002	580.94
271.234	569.94
271.466	605.94
271.698	570.94
271.93	575.94
272.162	589.94
272.394	610.94
272.626	609.94
272.858	610.94
273.09	618.94
273.322	647.94
273.553	634.94
273.785	633.94
274.017	619.94
274.249	624.94
274.481	640.94
274.713	635.94
274.945	650.94
275.176	649.94
275.408	659.94
275.64	665.94
275.872	650.94
276.104	630.94
276.335	636.94
276.567	682.94
276.799	623.94
277.031	671.94
277.262	664.94
277.494	691.94
277.726	674.94
277.957	674.94
278.189	677.94
278.421	670.94
278.652	686.94
278.884	694.94
279.115	694.94
279.347	703.94
279.579	738.94
279.81	695.94
280.042	690.94
280.273	686.94
280.505	719.94
280.736	716.94
280.968	721.94
281.199	722.94
281.431	732.94
281.662	724.94
281.894	744.94
282.125	732.94
282.356	755.94
282.588	734.94
282.819	724.94
283.051	741.94
283.282	734.94
283.513	746.94
283.745	736.94
283.976	772.94
284.207	757.94
284.439	753.94
284.67	776.94
284.901	766.94
285.132	778.94
285.364	792.94
285.595	777.94
285.826	752.94
286.057	773.94
286.288	776.94
286.52	788.94
286.751	780.94
286.982	790.94
287.213	789.94
287.444	778.94
287.675	769.94
287.906	790.94
288.138	797.94
288.369	798.94
288.6	820.94
288.831	807.94
289.062	806.94
289.293	797.94
289.524	820.94
289.755	809.94
289.986	786.94
290.217	811.94
290.448	803.94
290.679	832.94
290.91	813.94
291.141	810.94
291.371	811.94
291.602	819.94
291.833	821.94
292.064	839.94
292.295	825.94
292.526	820.94
292.757	827.94
292.987	798.94
293.218	836.94
293.449	827.94
293.68	822.94
293.91	807.94
294.141	792.94
294.372	823.94
294.603	847.94
294.833	838.94
295.064	842.94
295.295	843.94
295.525	829.94
295.756	837.94
295.987	825.94
296.217	843.94
296.448	860.94
296.679	840.94
296.909	850.94
297.14	850.94
297.37	874.94
297.601	871.94
297.831	872.94
298.062	888.94
298.292	874.94
298.523	878.94
298.753	868.94
298.984	880.94
299.214	880.94
299.445	866.94
299.675	887.94
299.905	914.94
300.136	899.94
300.366	907.94
300.597	891.94
300.827	921.94
301.057	931.94
301.288	928.94
301.518	923.94
301.748	934.94
301.979	945.94
302.209	940.94
302.439	921.94
302.669	933.94
302.9	927.94
303.13	933.94
303.36	922.94
303.59	937.94
303.82	944.94
304.051	954.94
304.281	939.94
304.511	927.94
304.741	918.94
304.971	931.94
305.201	904.94
305.431	942.94
305.661	929.94
305.891	914.94
306.121	914.94
306.352	922.94
306.582	922.94
306.812	913.94
307.042	906.94
307.272	935.94
307.502	915.94
307.731	960.94
307.961	899.94
308.191	908.94
308.421	900.94
308.651	899.94
308.881	910.94
309.111	915.94
309.341	926.94
309.571	923.94
309.8	944.94
310.03	949.94
310.26	908.94
310.49	925.94
310.72	956.94
310.949	944.94
311.179	945.94
311.409	966.94
311.639	964.94
311.868	957.94
312.098	928.94
312.328	969.94
312.557	964.94
312.787	966.94
313.017	965.94
313.246	958.94
313.476	992.94
313.706	990.94
313.935	1019.94
314.165	1010.94
314.394	1012.94
314.624	1003.94
314.853	990.94
315.083	1014.94
315.312	988.94
315.542	970.94
315.771	987.94
316.001	1005.94
316.23	982.94
316.46	985.94
316.689	987.94
316.919	1019.94
317.148	1003.94
317.377	1002.94
317.607	972.94
317.836	985.94
318.065	992.94
318.295	984.94
318.524	985.94
318.753	988.94
318.983	1009.94
319.212	988.94
319.441	999.94
319.67	985.94
319.9	987.94
320.129	1010.94
320.358	978.94
320.587	981.94
320.816	984.94
321.046	1007.94
321.275	1018.94
321.504	998.94
321.733	978.94
321.962	986.94
322.191	992.94
322.42	1010.94
322.649	972.94
322.878	984.94
323.108	983.94
323.337	1017.94
323.566	1013.94
323.795	1042.94
324.024	1034.94
324.253	1040.94
324.482	1046.94
324.71	1044.94
324.939	1033.94
325.168	1058.94
325.397	1056.94
325.626	1047.94
325.855	1051.94
326.084	1075.94
326.313	1057.94
326.542	1086.94
326.77	1099.94
326.999	1064.94
327.228	1068.94
327.457	1070.94
327.686	1068.94
327.914	1134.94
328.143	1078.94
328.372	1093.94
328.6	1088.94
328.829	1076.94
329.058	1101.94
329.287	1066.94
329.515	1119.94
329.744	1081.94
329.972	1103.94
330.201	1099.94
330.43	1095.94
330.658	1103.94
330.887	1104.94
331.115	1104.94
331.344	1127.94
331.572	1142.94
331.801	1166.94
332.03	1169.94
332.258	1176.94
332.486	1224.94
332.715	1222.94
332.943	1230.94
333.172	1273.94
333.4	1323.94
333.629	1342.94
333.857	1398.94
334.085	1377.94
334.314	1393.94
334.542	1334.94
334.771	1351.94
334.999	1339.94
335.227	1335.94
335.455	1359.94
335.684	1336.94
335.912	1346.94
336.14	1294.94
336.369	1288.94
336.597	1292.94
336.825	1294.94
337.053	1280.94
337.281	1275.94
337.51	1241.94
337.738	1249.94
337.966	1206.94
338.194	1203.94
338.422	1211.94
338.65	1136.94
338.878	1178.94
339.106	1190.94
339.334	1171.94
339.562	1156.94
339.79	1144.94
340.018	1142.94
340.246	1130.94
340.474	1104.94
340.702	1126.94
340.93	1146.94
341.158	1135.94
341.386	1152.94
341.614	1117.94
341.842	1156.94
342.07	1121.94
342.298	1122.94
342.526	1111.94
342.754	1131.94
342.981	1102.94
343.209	1152.94
343.437	1160.94
343.665	1239.94
343.893	1286.94
344.12	1304.94
344.348	1300.94
344.576	1244.94
344.804	1227.94
345.031	1208.94
345.259	1152.94
345.487	1177.94
345.714	1130.94
345.942	1138.94
346.17	1129.94
346.397	1101.94
346.625	1104.94
346.853	1070.94
347.08	1098.94
347.308	1088.94
347.535	1095.94
347.763	1090.94
347.99	1070.94
348.218	1095.94
348.445	1087.94
348.673	1087.94
348.9	1104.94
349.128	1104.94
349.355	1072.94
349.583	1082.94
349.81	1067.94
350.037	1102.94
350.265	1064.94
350.492	1061.94
350.72	1047.94
350.947	1036.94
351.174	1093.94
351.402	1015.94
351.629	1036.94
351.856	1074.94
352.083	1063.94
352.311	1051.94
352.538	1030.94
352.765	1066.94
352.992	1033.94
353.22	1035.94
353.447	1041.94
353.674	1035.94
353.901	1041.94
354.128	1038.94
354.355	1041.94
354.583	1051.94
354.81	1054.94
355.037	1054.94
355.264	1057.94
355.491	1030.94
355.718	1028.94
355.945	1046.94
356.172	1078.94
356.399	1057.94
356.626	1075.94
356.853	1071.94
357.08	1049.94
357.307	1072.94
357.534	1088.94
357.761	1017.94
357.988	1048.94
358.215	1035.94
358.441	1038.94
358.668	1022.94
358.895	1045.94
359.122	1047.94
359.349	1049.94
359.576	1049.94
359.802	1063.94
360.029	1052.94
360.256	1050.94
360.483	1048.94
360.709	1064.94
360.936	1060.94
361.163	1070.94
361.39	1060.94
361.616	1041.94
361.843	1058.94
362.07	1069.94
362.296	1062.94
362.523	1037.94
362.749	1032.94
362.976	1060.94
363.203	1028.94
363.429	1003.94
363.656	1022.94
363.882	1048.94
364.109	1044.94
364.335	1047.94
364.562	1035.94
364.788	1044.94
365.015	1052.94
365.241	1016.94
365.468	1062.94
365.694	1071.94
365.92	1042.94
366.147	1056.94
366.373	1039.94
366.599	1066.94
366.826	1053.94
367.052	1048.94
367.278	1038.94
367.505	1019.94
367.731	1070.94
367.957	1046.94
368.184	1070.94
368.41	1076.94
368.636	1074.94
368.862	1084.94
369.089	1079.94
369.315	1106.94
369.541	1105.94
369.767	1103.94
369.993	1095.94
370.219	1100.94
370.445	1113.94
370.672	1131.94
370.898	1125.94
371.124	1123.94
371.35	1116.94
371.576	1128.94
371.802	1138.94
372.028	1138.94
372.254	1158.94
372.48	1156.94
372.706	1204.94
372.932	1170.94
373.158	1182.94
373.384	1183.94
373.61	1160.94
373.835	1159.94
374.061	1160.94
374.287	1148.94
374.513	1182.94
374.739	1201.94
374.965	1208.94
375.191	1222.94
375.416	1232.94
375.642	1208.94
375.868	1170.94
376.094	1172.94
376.319	1168.94
376.545	1151.94
376.771	1145.94
376.997	1139.94
377.222	1119.94
377.448	1119.94
377.674	1136.94
377.899	1114.94
378.125	1114.94
378.35	1129.94
378.576	1100.94
378.802	1106.94
379.027	1123.94
379.253	1139.94
379.478	1114.94
379.704	1142.94
379.929	1109.94
380.155	1140.94
380.38	1126.94
380.606	1131.94
380.831	1128.94
381.057	1122.94
381.282	1096.94
381.507	1125.94
381.733	1129.94
381.958	1154.94
382.184	1145.94
382.409	1180.94
382.634	1149.94
382.86	1186.94
383.085	1182.94
383.31	1218.94
383.535	1220.94
383.761	1223.94
383.986	1216.94
384.211	1253.94
384.436	1286.94
384.662	1286.94
384.887	1308.94
385.112	1338.94
385.337	1352.94
385.562	1323.94
385.787	1297.94
386.013	1337.94
386.238	1352.94
386.463	1359.94
386.688	1377.94
386.913	1348.94
387.138	1364.94
387.363	1349.94
387.588	1342.94
387.813	1368.94
388.038	1332.94
388.263	1324.94
388.488	1347.94
388.713	1364.94
388.938	1304.94
389.163	1315.94
389.387	1329.94
389.612	1315.94
389.837	1349.94
390.062	1337.94
390.287	1329.94
390.512	1332.94
390.736	1368.94
390.961	1394.94
391.186	1392.94
391.411	1431.94
391.636	1445.94
391.86	1489.94
392.085	1451.94
392.31	1473.94
392.534	1480.94
392.759	1436.94
392.984	1409.94
393.208	1432.94
393.433	1407.94
393.658	1432.94
393.882	1444.94
394.107	1424.94
394.331	1401.94
394.556	1431.94
394.78	1448.94
395.005	1443.94
395.229	1433.94
395.454	1489.94
395.678	1492.94
395.903	1507.94
396.127	1502.94
396.352	1472.94
396.576	1417.94
396.801	1457.94
397.025	1471.94
397.249	1504.94
397.474	1505.94
397.698	1522.94
397.922	1564.94
398.147	1539.94
398.371	1546.94
398.595	1605.94
398.82	1667.94
399.044	1737.94
399.268	1847.94
399.492	2071.94
399.717	2246.94
399.941	2313.94
400.165	2189.94
400.389	1970.94
400.613	1865.94
400.837	1796.94
401.062	1734.94
401.286	1676.94
401.51	1693.94
401.734	1684.94
401.958	1691.94
402.182	1708.94
402.406	1702.94
402.63	1716.94
402.854	1734.94
403.078	1761.94
403.302	1778.94
403.526	1784.94
403.75	1785.94
403.974	1806.94
404.198	1793.94
404.422	1841.94
404.645	1797.94
404.869	1776.94
405.093	1795.94
405.317	1794.94
405.541	1832.94
405.765	1814.94
405.988	1788.94
406.212	1829.94
406.436	1816.94
406.66	1839.94
406.883	1899.94
407.107	1994.94
407.331	2027.94
407.555	2124.94
407.778	2106.94
408.002	2086.94
408.226	2068.94
408.449	2012.94
408.673	1928.94
408.896	1898.94
409.12	1844.94
409.344	1900.94
409.567	1824.94
409.791	1838.94
410.014	1831.94
410.238	1812.94
410.461	1839.94
410.685	1795.94
410.908	1774.94
411.132	1784.94
411.355	1688.94
411.578	1763.94
411.802	1720.94
412.025	1736.94
412.249	1768.94
412.472	1761.94
412.695	1707.94
412.919	1710.94
413.142	1716.94
413.365	1672.94
413.589	1686.94
413.812	1667.94
414.035	1639.94
414.258	1685.94
414.482	1699.94
414.705	1665.94
414.928	1710.94
415.151	1681.94
415.374	1653.94
415.597	1640.94
415.821	1611.94
416.044	1613.94
416.267	1592.94
416.49	1599.94
416.713	1592.94
416.936	1583.94
417.159	1612.94
417.382	1590.94
417.605	1588.94
417.828	1624.94
418.051	1616.94
418.274	1585.94
418.497	1605.94
418.72	1653.94
418.943	1630.94
419.166	1746.94
419.389	1858.94
419.611	1808.94
419.834	1754.94
420.057	1672.94
420.28	1658.94
420.503	1567.94
420.726	1582.94
420.948	1558.94
421.171	1578.94
421.394	1593.94
421.617	1595.94
421.839	1607.94
422.062	1587.94
422.285	1616.94
422.507	1604.94
422.73	1639.94
422.953	1586.94
423.175	1635.94
423.398	1617.94
423.621	1625.94
423.843	1655.94
424.066	1641.94
424.288	1646.94
424.511	1617.94
424.733	1632.94
424.956	1645.94
425.178	1632.94
425.401	1634.94
425.623	1613.94
425.846	1579.94
426.068	1550.94
426.291	1544.94
426.513	1543.94
426.735	1558.94
426.958	1527.94
427.18	1526.94
427.402	1494.94
427.625	1507.94
427.847	1448.94
428.069	1455.94
428.292	1494.94
428.514	1466.94
428.736	1459.94
428.958	1499.94
429.181	1435.94
429.403	1433.94
429.625	1441.94
429.847	1438.94
430.069	1454.94
430.292	1436.94
430.514	1446.94
430.736	1424.94
430.958	1489.94
431.18	1440.94
431.402	1470.94
431.624	1457.94
431.846	1454.94
432.068	1507.94
432.29	1510.94
432.512	1441.94
432.734	1494.94
432.956	1499.94
433.178	1495.94
433.4	1513.94
433.622	1505.94
433.844	1511.94
434.066	1503.94
434.287	1503.94
434.509	1551.94
434.731	1631.94
434.953	1639.94
435.175	1589.94
435.397	1631.94
435.618	1551.94
435.84	1545.94
436.062	1496.94
436.284	1483.94
436.505	1472.94
436.727	1480.94
436.949	1474.94
437.17	1458.94
437.392	1465.94
437.614	1454.94
437.835	1390.94
438.057	1393.94
438.278	1390.94
438.5	1405.94
438.721	1415.94
438.943	1431.94
439.165	1373.94
439.386	1412.94
439.608	1426.94
439.829	1412.94
440.05	1434.94
440.272	1438.94
440.493	1436.94
440.715	1493.94
440.936	1484.94
441.158	1501.94
441.379	1507.94
441.6	1591.94
441.822	1610.94
442.043	1626.94
442.264	1583.94
442.486	1552.94
442.707	1572.94
442.928	1528.94
443.149	1550.94
443.371	1528.94
443.592	1604.94
443.813	1587.94
444.034	1589.94
444.255	1618.94
444.476	1672.94
444.698	1734.94
444.919	1796.94
445.14	1900.94
445.361	1703.94
445.582	1635.94
445.803	1584.94
446.024	1525.94
446.245	1522.94
446.466	1479.94
446.687	1451.94
446.908	1458.94
447.129	1373.94
447.35	1383.94
447.571	1393.94
447.792	1362.94
448.013	1347.94
448.234	1311.94
448.455	1344.94
448.675	1327.94
448.896	1323.94
449.117	1317.94
449.338	1319.94
449.559	1317.94
449.779	1319.94
450	1291.94
450.221	1291.94
450.442	1322.94
450.662	1314.94
450.883	1297.94
451.104	1338.94
451.324	1314.94
451.545	1330.94
451.766	1312.94
451.986	1287.94
452.207	1276.94
452.428	1265.94
452.648	1276.94
452.869	1264.94
453.089	1229.94
453.31	1262.94
453.53	1273.94
453.751	1234.94
453.971	1244.94
454.192	1257.94
454.412	1216.94
454.633	1267.94
454.853	1240.94
455.073	1209.94
455.294	1208.94
455.514	1233.94
455.734	1220.94
455.955	1216.94
456.175	1240.94
456.395	1231.94
456.616	1209.94
456.836	1208.94
457.056	1218.94
457.276	1212.94
457.497	1265.94
457.717	1246.94
457.937	1242.94
458.157	1267.94
458.377	1283.94
458.598	1316.94
458.818	1318.94
459.038	1352.94
459.258	1398.94
459.478	1411.94
459.698	1470.94
459.918	1512.94
460.138	1562.94
460.358	1608.94
460.578	1578.94
460.798	1654.94
461.018	1609.94
461.238	1607.94
461.458	1645.94
461.678	1629.94
461.898	1674.94
462.118	1637.94
462.338	1760.94
462.558	1767.94
462.777	1818.94
462.997	1936.94
463.217	2023.94
463.437	2072.94
463.657	1957.94
463.876	1905.94
464.096	1900.94
464.316	1902.94
464.536	1858.94
464.755	1830.94
464.975	1751.94
465.195	1710.94
465.414	1658.94
465.634	1527.94
465.854	1471.94
466.073	1478.94
466.293	1433.94
466.512	1411.94
466.732	1376.94
466.951	1411.94
467.171	1356.94
467.391	1376.94
467.61	1338.94
467.829	1356.94
468.049	1330.94
468.268	1307.94
468.488	1324.94
468.707	1299.94
468.927	1326.94
469.146	1339.94
469.365	1367.94
469.585	1336.94
469.804	1415.94
470.023	1388.94
470.243	1421.94
470.462	1426.94
470.681	1433.94
470.901	1442.94
471.12	1408.94
471.339	1358.94
471.558	1378.94
471.777	1344.94
471.997	1333.94
472.216	1359.94
472.435	1330.94
472.654	1299.94
472.873	1292.94
473.092	1306.94
473.311	1312.94
473.53	1308.94
473.749	1293.94
473.968	1329.94
474.187	1290.94
474.406	1291.94
474.625	1310.94
474.844	1334.94
475.063	1312.94
475.282	1338.94
475.501	1306.94
475.72	1361.94
475.939	1365.94
476.158	1377.94
476.377	1355.94
476.596	1366.94
476.814	1428.94
477.033	1403.94
477.252	1424.94
477.471	1470.94
477.69	1487.94
477.908	1521.94
478.127	1547.94
478.346	1545.94
478.564	1601.94
478.783	1584.94
479.002	1648.94
479.22	1672.94
479.439	1679.94
479.658	1671.94
479.876	1650.94
480.095	1708.94
480.313	1721.94
480.532	1776.94
480.751	1733.94
480.969	1710.94
481.188	1662.94
481.406	1655.94
481.624	1648.94
481.843	1584.94
482.061	1610.94
482.28	1584.94
482.498	1623.94
482.717	1583.94
482.935	1611.94
483.153	1624.94
483.372	1656.94
483.59	1654.94
483.808	1665.94
484.027	1692.94
484.245	1656.94
484.463	1668.94
484.681	1699.94
484.9	1728.94
485.118	1728.94
485.336	1739.94
485.554	1775.94
485.772	1734.94
485.99	1704.94
486.209	1772.94
486.427	1766.94
486.645	1760.94
486.863	1737.94
487.081	1743.94
487.299	1748.94
487.517	1702.94
487.735	1704.94
487.953	1746.94
488.171	1727.94
488.389	1688.94
488.607	1682.94
488.825	1642.94
489.043	1651.94
489.261	1669.94
489.479	1620.94
489.696	1673.94
489.914	1659.94
490.132	1698.94
490.35	1668.94
490.568	1687.94
490.786	1656.94
491.003	1670.94
