Data from NiCl2@0.25M.TitratingCurve.Agarose3%dH2O.NegLispCup.LampEnergy10.LIBS07252019_HRD10591_18-25-33-576.txt Node
Date: Thu Jul 25 18:25:33 EDT 2019
User: cochatt
Spectrometer: HR+D1059
Trigger mode: 1
Integration Time (sec): 1.000000E-1
Scans to average: 1
Electric dark correction enabled: true
Nonlinearity correction enabled: false
Boxcar width: 0
XAxis mode: Wavelengths
Number of Pixels in Spectrum: 2048
>>>>>Begin Spectral Data<<<<<
223.165	-16.94
223.4	-16.94
223.635	-16.94
223.869	-15.94
224.104	-10.94
224.338	-1.94
224.573	-24.94
224.808	-6.94
225.042	-1.94
225.277	2.06
225.511	4.06
225.746	-10.94
225.98	0.06
226.215	2.06
226.449	9.06
226.683	16.06
226.918	19.06
227.152	38.06
227.387	36.06
227.621	42.06
227.856	32.06
228.09	36.06
228.324	51.06
228.559	51.06
228.793	78.06
229.027	100.06
229.262	124.06
229.496	122.06
229.73	146.06
229.964	134.06
230.199	136.06
230.433	148.06
230.667	151.06
230.901	146.06
231.136	155.06
231.37	147.06
231.604	177.06
231.838	170.06
232.072	163.06
232.306	183.06
232.541	167.06
232.775	163.06
233.009	172.06
233.243	183.06
233.477	164.06
233.711	164.06
233.945	180.06
234.179	180.06
234.413	179.06
234.647	169.06
234.881	166.06
235.115	172.06
235.349	169.06
235.583	176.06
235.817	188.06
236.051	179.06
236.285	176.06
236.519	200.06
236.753	188.06
236.987	198.06
237.221	193.06
237.455	179.06
237.689	187.06
237.922	184.06
238.156	198.06
238.39	193.06
238.624	201.06
238.858	204.06
239.091	203.06
239.325	219.06
239.559	206.06
239.793	205.06
240.027	217.06
240.26	201.06
240.494	201.06
240.728	222.06
240.961	201.06
241.195	224.06
241.429	235.06
241.662	212.06
241.896	239.06
242.13	218.06
242.363	215.06
242.597	243.06
242.83	255.06
243.064	219.06
243.298	253.06
243.531	238.06
243.765	269.06
243.998	242.06
244.232	236.06
244.465	250.06
244.699	258.06
244.932	260.06
245.166	265.06
245.399	263.06
245.633	266.06
245.866	266.06
246.099	275.06
246.333	253.06
246.566	289.06
246.8	271.06
247.033	270.06
247.266	278.06
247.5	275.06
247.733	282.06
247.966	278.06
248.2	291.06
248.433	297.06
248.666	293.06
248.899	280.06
249.133	296.06
249.366	307.06
249.599	307.06
249.832	310.06
250.066	304.06
250.299	307.06
250.532	307.06
250.765	299.06
250.998	273.06
251.231	308.06
251.465	312.06
251.698	323.06
251.931	316.06
252.164	313.06
252.397	332.06
252.63	321.06
252.863	334.06
253.096	336.06
253.329	328.06
253.562	326.06
253.795	352.06
254.028	351.06
254.261	352.06
254.494	344.06
254.727	349.06
254.96	355.06
255.193	351.06
255.426	350.06
255.659	343.06
255.892	348.06
256.124	348.06
256.357	352.06
256.59	366.06
256.823	372.06
257.056	370.06
257.289	373.06
257.521	363.06
257.754	358.06
257.987	374.06
258.22	378.06
258.452	381.06
258.685	391.06
258.918	364.06
259.151	359.06
259.383	397.06
259.616	399.06
259.849	388.06
260.081	396.06
260.314	407.06
260.547	388.06
260.779	402.06
261.012	380.06
261.244	400.06
261.477	383.06
261.71	388.06
261.942	399.06
262.175	400.06
262.407	389.06
262.64	415.06
262.872	416.06
263.105	427.06
263.337	412.06
263.57	407.06
263.802	427.06
264.035	416.06
264.267	425.06
264.499	417.06
264.732	412.06
264.964	430.06
265.197	440.06
265.429	427.06
265.661	426.06
265.894	441.06
266.126	440.06
266.358	454.06
266.591	459.06
266.823	457.06
267.055	434.06
267.287	448.06
267.52	448.06
267.752	475.06
267.984	455.06
268.216	464.06
268.448	438.06
268.681	466.06
268.913	474.06
269.145	452.06
269.377	471.06
269.609	474.06
269.841	466.06
270.073	474.06
270.306	473.06
270.538	479.06
270.77	485.06
271.002	470.06
271.234	474.06
271.466	472.06
271.698	483.06
271.93	489.06
272.162	485.06
272.394	475.06
272.626	469.06
272.858	516.06
273.09	510.06
273.322	494.06
273.553	475.06
273.785	491.06
274.017	515.06
274.249	519.06
274.481	511.06
274.713	479.06
274.945	526.06
275.176	528.06
275.408	533.06
275.64	520.06
275.872	514.06
276.104	522.06
276.335	515.06
276.567	530.06
276.799	514.06
277.031	543.06
277.262	529.06
277.494	535.06
277.726	532.06
277.957	564.06
278.189	536.06
278.421	550.06
278.652	542.06
278.884	572.06
279.115	565.06
279.347	569.06
279.579	569.06
279.81	559.06
280.042	524.06
280.273	562.06
280.505	577.06
280.736	553.06
280.968	555.06
281.199	578.06
281.431	572.06
281.662	578.06
281.894	561.06
282.125	612.06
282.356	603.06
282.588	592.06
282.819	589.06
283.051	603.06
283.282	594.06
283.513	575.06
283.745	597.06
283.976	623.06
284.207	614.06
284.439	626.06
284.67	603.06
284.901	595.06
285.132	612.06
285.364	621.06
285.595	611.06
285.826	600.06
286.057	598.06
286.288	601.06
286.52	639.06
286.751	635.06
286.982	639.06
287.213	636.06
287.444	651.06
287.675	644.06
287.906	627.06
288.138	634.06
288.369	645.06
288.6	632.06
288.831	658.06
289.062	663.06
289.293	650.06
289.524	656.06
289.755	669.06
289.986	645.06
290.217	638.06
290.448	682.06
290.679	646.06
290.91	682.06
291.141	648.06
291.371	646.06
291.602	662.06
291.833	662.06
292.064	683.06
292.295	642.06
292.526	690.06
292.757	670.06
292.987	651.06
293.218	665.06
293.449	674.06
293.68	666.06
293.91	670.06
294.141	658.06
294.372	664.06
294.603	670.06
294.833	673.06
295.064	676.06
295.295	679.06
295.525	681.06
295.756	695.06
295.987	657.06
296.217	715.06
296.448	708.06
296.679	687.06
296.909	691.06
297.14	715.06
297.37	715.06
297.601	710.06
297.831	706.06
298.062	720.06
298.292	742.06
298.523	721.06
298.753	728.06
298.984	722.06
299.214	738.06
299.445	724.06
299.675	719.06
299.905	713.06
300.136	751.06
300.366	739.06
300.597	762.06
300.827	773.06
301.057	792.06
301.288	772.06
301.518	761.06
301.748	748.06
301.979	777.06
302.209	750.06
302.439	758.06
302.669	771.06
302.9	768.06
303.13	748.06
303.36	784.06
303.59	738.06
303.82	759.06
304.051	787.06
304.281	769.06
304.511	751.06
304.741	753.06
304.971	779.06
305.201	771.06
305.431	755.06
305.661	760.06
305.891	753.06
306.121	743.06
306.352	743.06
306.582	735.06
306.812	735.06
307.042	760.06
307.272	742.06
307.502	739.06
307.731	753.06
307.961	718.06
308.191	723.06
308.421	722.06
308.651	739.06
308.881	716.06
309.111	715.06
309.341	722.06
309.571	715.06
309.8	751.06
310.03	732.06
310.26	746.06
310.49	750.06
310.72	722.06
310.949	735.06
311.179	746.06
311.409	754.06
311.639	754.06
311.868	784.06
312.098	752.06
312.328	779.06
312.557	775.06
312.787	780.06
313.017	791.06
313.246	820.06
313.476	778.06
313.706	794.06
313.935	784.06
314.165	811.06
314.394	811.06
314.624	801.06
314.853	791.06
315.083	777.06
315.312	783.06
315.542	777.06
315.771	807.06
316.001	770.06
316.23	774.06
316.46	788.06
316.689	780.06
316.919	787.06
317.148	792.06
317.377	792.06
317.607	786.06
317.836	776.06
318.065	760.06
318.295	777.06
318.524	795.06
318.753	790.06
318.983	783.06
319.212	784.06
319.441	803.06
319.67	780.06
319.9	808.06
320.129	784.06
320.358	779.06
320.587	798.06
320.816	788.06
321.046	814.06
321.275	800.06
321.504	799.06
321.733	796.06
321.962	806.06
322.191	784.06
322.42	805.06
322.649	781.06
322.878	785.06
323.108	802.06
323.337	803.06
323.566	781.06
323.795	818.06
324.024	822.06
324.253	810.06
324.482	816.06
324.71	820.06
324.939	840.06
325.168	841.06
325.397	834.06
325.626	838.06
325.855	852.06
326.084	876.06
326.313	878.06
326.542	866.06
326.77	869.06
326.999	862.06
327.228	858.06
327.457	858.06
327.686	851.06
327.914	863.06
328.143	887.06
328.372	833.06
328.6	861.06
328.829	858.06
329.058	857.06
329.287	873.06
329.515	876.06
329.744	849.06
329.972	868.06
330.201	882.06
330.43	858.06
330.658	871.06
330.887	887.06
331.115	884.06
331.344	908.06
331.572	896.06
331.801	936.06
332.03	972.06
332.258	951.06
332.486	981.06
332.715	1023.06
332.943	1077.06
333.172	1110.06
333.4	1170.06
333.629	1160.06
333.857	1166.06
334.085	1182.06
334.314	1156.06
334.542	1142.06
334.771	1135.06
334.999	1091.06
335.227	1080.06
335.455	1090.06
335.684	1071.06
335.912	1067.06
336.14	1067.06
336.369	1029.06
336.597	1037.06
336.825	1043.06
337.053	1020.06
337.281	1012.06
337.51	1011.06
337.738	976.06
337.966	980.06
338.194	935.06
338.422	958.06
338.65	958.06
338.878	947.06
339.106	953.06
339.334	946.06
339.562	938.06
339.79	908.06
340.018	923.06
340.246	919.06
340.474	892.06
340.702	881.06
340.93	908.06
341.158	917.06
341.386	892.06
341.614	893.06
341.842	894.06
342.07	892.06
342.298	914.06
342.526	860.06
342.754	908.06
342.981	896.06
343.209	905.06
343.437	964.06
343.665	1014.06
343.893	1111.06
344.12	1124.06
344.348	1076.06
344.576	1029.06
344.804	990.06
345.031	961.06
345.259	941.06
345.487	916.06
345.714	912.06
345.942	871.06
346.17	884.06
346.397	873.06
346.625	872.06
346.853	848.06
347.08	865.06
347.308	863.06
347.535	864.06
347.763	895.06
347.99	855.06
348.218	872.06
348.445	848.06
348.673	861.06
348.9	881.06
349.128	873.06
349.355	846.06
349.583	864.06
349.81	850.06
350.037	843.06
350.265	835.06
350.492	824.06
350.72	844.06
350.947	863.06
351.174	843.06
351.402	852.06
351.629	822.06
351.856	816.06
352.083	823.06
352.311	832.06
352.538	843.06
352.765	838.06
352.992	826.06
353.22	800.06
353.447	830.06
353.674	812.06
353.901	830.06
354.128	854.06
354.355	808.06
354.583	803.06
354.81	838.06
355.037	840.06
355.264	831.06
355.491	836.06
355.718	843.06
355.945	823.06
356.172	848.06
356.399	848.06
356.626	835.06
356.853	838.06
357.08	841.06
357.307	849.06
357.534	842.06
357.761	851.06
357.988	838.06
358.215	820.06
358.441	830.06
358.668	818.06
358.895	818.06
359.122	834.06
359.349	821.06
359.576	856.06
359.802	842.06
360.029	827.06
360.256	844.06
360.483	844.06
360.709	825.06
360.936	838.06
361.163	843.06
361.39	868.06
361.616	840.06
361.843	848.06
362.07	857.06
362.296	829.06
362.523	818.06
362.749	852.06
362.976	817.06
363.203	844.06
363.429	809.06
363.656	858.06
363.882	827.06
364.109	822.06
364.335	822.06
364.562	820.06
364.788	819.06
365.015	833.06
365.241	822.06
365.468	825.06
365.694	836.06
365.92	833.06
366.147	828.06
366.373	838.06
366.599	834.06
366.826	830.06
367.052	822.06
367.278	828.06
367.505	846.06
367.731	827.06
367.957	818.06
368.184	841.06
368.41	847.06
368.636	864.06
368.862	859.06
369.089	849.06
369.315	827.06
369.541	864.06
369.767	857.06
369.993	862.06
370.219	868.06
370.445	869.06
370.672	864.06
370.898	874.06
371.124	900.06
371.35	882.06
371.576	927.06
371.802	925.06
372.028	898.06
372.254	884.06
372.48	914.06
372.706	938.06
372.932	972.06
373.158	964.06
373.384	951.06
373.61	888.06
373.835	934.06
374.061	919.06
374.287	922.06
374.513	922.06
374.739	972.06
374.965	999.06
375.191	1013.06
375.416	1011.06
375.642	976.06
375.868	962.06
376.094	962.06
376.319	937.06
376.545	929.06
376.771	899.06
376.997	898.06
377.222	934.06
377.448	922.06
377.674	918.06
377.899	904.06
378.125	896.06
378.35	904.06
378.576	919.06
378.802	905.06
379.027	905.06
379.253	921.06
379.478	865.06
379.704	877.06
379.929	892.06
380.155	901.06
380.38	890.06
380.606	899.06
380.831	896.06
381.057	924.06
381.282	893.06
381.507	910.06
381.733	918.06
381.958	928.06
382.184	929.06
382.409	950.06
382.634	938.06
382.86	933.06
383.085	936.06
383.31	964.06
383.535	992.06
383.761	982.06
383.986	1031.06
384.211	1046.06
384.436	1068.06
384.662	1055.06
384.887	1095.06
385.112	1077.06
385.337	1120.06
385.562	1074.06
385.787	1081.06
386.013	1102.06
386.238	1095.06
386.463	1111.06
386.688	1111.06
386.913	1106.06
387.138	1092.06
387.363	1108.06
387.588	1058.06
387.813	1058.06
388.038	1106.06
388.263	1094.06
388.488	1097.06
388.713	1105.06
388.938	1079.06
389.163	1070.06
389.387	1080.06
389.612	1059.06
389.837	1065.06
390.062	1057.06
390.287	1055.06
390.512	1087.06
390.736	1106.06
390.961	1082.06
391.186	1126.06
391.411	1173.06
391.636	1235.06
391.86	1243.06
392.085	1274.06
392.31	1243.06
392.534	1192.06
392.759	1194.06
392.984	1164.06
393.208	1158.06
393.433	1186.06
393.658	1180.06
393.882	1174.06
394.107	1155.06
394.331	1182.06
394.556	1170.06
394.78	1172.06
395.005	1203.06
395.229	1186.06
395.454	1221.06
395.678	1260.06
395.903	1250.06
396.127	1240.06
396.352	1211.06
396.576	1142.06
396.801	1160.06
397.025	1177.06
397.249	1206.06
397.474	1232.06
397.698	1219.06
397.922	1258.06
398.147	1223.06
398.371	1298.06
398.595	1294.06
398.82	1374.06
399.044	1458.06
399.268	1641.06
399.492	1896.06
399.717	2108.06
399.941	2166.06
400.165	1886.06
400.389	1739.06
400.613	1574.06
400.837	1498.06
401.062	1472.06
401.286	1393.06
401.51	1368.06
401.734	1376.06
401.958	1411.06
402.182	1407.06
402.406	1438.06
402.63	1472.06
402.854	1468.06
403.078	1484.06
403.302	1518.06
403.526	1570.06
403.75	1598.06
403.974	1620.06
404.198	1600.06
404.422	1618.06
404.645	1623.06
404.869	1628.06
405.093	1602.06
405.317	1564.06
405.541	1547.06
405.765	1534.06
405.988	1540.06
406.212	1556.06
406.436	1506.06
406.66	1552.06
406.883	1605.06
407.107	1712.06
407.331	1756.06
407.555	1835.06
407.778	1816.06
408.002	1761.06
408.226	1707.06
408.449	1670.06
408.673	1618.06
408.896	1592.06
409.12	1579.06
409.344	1569.06
409.567	1576.06
409.791	1557.06
410.014	1540.06
410.238	1572.06
410.461	1510.06
410.685	1544.06
410.908	1494.06
411.132	1491.06
411.355	1465.06
411.578	1416.06
411.802	1412.06
412.025	1469.06
412.249	1497.06
412.472	1493.06
412.695	1435.06
412.919	1404.06
413.142	1394.06
413.365	1359.06
413.589	1385.06
413.812	1379.06
414.035	1402.06
414.258	1395.06
414.482	1379.06
414.705	1408.06
414.928	1430.06
415.151	1446.06
415.374	1360.06
415.597	1365.06
415.821	1363.06
416.044	1339.06
416.267	1327.06
416.49	1332.06
416.713	1344.06
416.936	1336.06
417.159	1329.06
417.382	1339.06
417.605	1328.06
417.828	1365.06
418.051	1372.06
418.274	1393.06
418.497	1400.06
418.72	1420.06
418.943	1411.06
419.166	1510.06
419.389	1607.06
419.611	1570.06
419.834	1482.06
420.057	1412.06
420.28	1416.06
420.503	1362.06
420.726	1374.06
420.948	1332.06
421.171	1364.06
421.394	1395.06
421.617	1335.06
421.839	1350.06
422.062	1378.06
422.285	1328.06
422.507	1406.06
422.73	1387.06
422.953	1408.06
423.175	1400.06
423.398	1430.06
423.621	1450.06
423.843	1448.06
424.066	1484.06
424.288	1438.06
424.511	1433.06
424.733	1427.06
424.956	1396.06
425.178	1383.06
425.401	1381.06
425.623	1418.06
425.846	1347.06
426.068	1328.06
426.291	1306.06
426.513	1282.06
426.735	1258.06
426.958	1285.06
427.18	1257.06
427.402	1234.06
427.625	1252.06
427.847	1217.06
428.069	1248.06
428.292	1211.06
428.514	1205.06
428.736	1205.06
428.958	1215.06
429.181	1183.06
429.403	1168.06
429.625	1186.06
429.847	1164.06
430.069	1158.06
430.292	1182.06
430.514	1179.06
430.736	1182.06
430.958	1172.06
431.18	1171.06
431.402	1186.06
431.624	1147.06
431.846	1210.06
432.068	1239.06
432.29	1238.06
432.512	1187.06
432.734	1218.06
432.956	1214.06
433.178	1206.06
433.4	1218.06
433.622	1196.06
433.844	1243.06
434.066	1228.06
434.287	1222.06
434.509	1252.06
434.731	1330.06
434.953	1319.06
435.175	1370.06
435.397	1373.06
435.618	1271.06
435.84	1218.06
436.062	1235.06
436.284	1191.06
436.505	1170.06
436.727	1204.06
436.949	1196.06
437.17	1188.06
437.392	1181.06
437.614	1159.06
437.835	1112.06
438.057	1152.06
438.278	1119.06
438.5	1119.06
438.721	1159.06
438.943	1152.06
439.165	1165.06
439.386	1165.06
439.608	1185.06
439.829	1187.06
440.05	1205.06
440.272	1204.06
440.493	1179.06
440.715	1231.06
440.936	1261.06
441.158	1260.06
441.379	1306.06
441.6	1319.06
441.822	1344.06
442.043	1372.06
442.264	1321.06
442.486	1314.06
442.707	1299.06
442.928	1296.06
443.149	1335.06
443.371	1321.06
443.592	1353.06
443.813	1346.06
444.034	1351.06
444.255	1378.06
444.476	1451.06
444.698	1576.06
444.919	1593.06
445.14	1666.06
445.361	1491.06
445.582	1424.06
445.803	1306.06
446.024	1290.06
446.245	1270.06
446.466	1252.06
446.687	1198.06
446.908	1210.06
447.129	1139.06
447.35	1144.06
447.571	1150.06
447.792	1130.06
448.013	1124.06
448.234	1090.06
448.455	1088.06
448.675	1081.06
448.896	1099.06
449.117	1090.06
449.338	1079.06
449.559	1054.06
449.779	1074.06
450	1037.06
450.221	1079.06
450.442	1087.06
450.662	1108.06
450.883	1125.06
451.104	1117.06
451.324	1115.06
451.545	1106.06
451.766	1128.06
451.986	1090.06
452.207	1088.06
452.428	1099.06
452.648	1122.06
452.869	1089.06
453.089	1074.06
453.31	1088.06
453.53	1056.06
453.751	1050.06
453.971	1082.06
454.192	1076.06
454.412	1016.06
454.633	1039.06
454.853	1024.06
455.073	1039.06
455.294	1022.06
455.514	1028.06
455.734	995.06
455.955	995.06
456.175	1022.06
456.395	990.06
456.616	994.06
456.836	1027.06
457.056	1022.06
457.276	1008.06
457.497	1018.06
457.717	1030.06
457.937	1010.06
458.157	1033.06
458.377	1072.06
458.598	1083.06
458.818	1123.06
459.038	1126.06
459.258	1174.06
459.478	1245.06
459.698	1241.06
459.918	1301.06
460.138	1316.06
460.358	1425.06
460.578	1418.06
460.798	1412.06
461.018	1462.06
461.238	1401.06
461.458	1394.06
461.678	1423.06
461.898	1424.06
462.118	1430.06
462.338	1538.06
462.558	1580.06
462.777	1631.06
462.997	1771.06
463.217	1921.06
463.437	1918.06
463.657	1766.06
463.876	1750.06
464.096	1697.06
464.316	1684.06
464.536	1682.06
464.755	1627.06
464.975	1537.06
465.195	1471.06
465.414	1404.06
465.634	1323.06
465.854	1291.06
466.073	1242.06
466.293	1226.06
466.512	1171.06
466.732	1168.06
466.951	1144.06
467.171	1144.06
467.391	1160.06
467.61	1108.06
467.829	1144.06
468.049	1114.06
468.268	1130.06
468.488	1110.06
468.707	1099.06
468.927	1096.06
469.146	1099.06
469.365	1118.06
469.585	1102.06
469.804	1181.06
470.023	1143.06
470.243	1166.06
470.462	1174.06
470.681	1190.06
470.901	1179.06
471.12	1159.06
471.339	1152.06
471.558	1125.06
471.777	1135.06
471.997	1117.06
472.216	1106.06
472.435	1076.06
472.654	1057.06
472.873	1050.06
473.092	1049.06
473.311	1090.06
473.53	1083.06
473.749	1083.06
473.968	1046.06
474.187	1046.06
474.406	1069.06
474.625	1079.06
474.844	1057.06
475.063	1046.06
475.282	1105.06
475.501	1080.06
475.72	1116.06
475.939	1075.06
476.158	1110.06
476.377	1115.06
476.596	1125.06
476.814	1128.06
477.033	1123.06
477.252	1148.06
477.471	1156.06
477.69	1207.06
477.908	1227.06
478.127	1280.06
478.346	1305.06
478.564	1290.06
478.783	1348.06
479.002	1338.06
479.22	1369.06
479.439	1360.06
479.658	1348.06
479.876	1359.06
480.095	1364.06
480.313	1415.06
480.532	1447.06
480.751	1447.06
480.969	1429.06
481.188	1374.06
481.406	1313.06
481.624	1282.06
481.843	1251.06
482.061	1238.06
482.28	1200.06
482.498	1205.06
482.717	1238.06
482.935	1257.06
483.153	1251.06
483.372	1192.06
483.59	1230.06
483.808	1238.06
484.027	1212.06
484.245	1264.06
484.463	1264.06
484.681	1248.06
484.9	1268.06
485.118	1277.06
485.336	1254.06
485.554	1271.06
485.772	1268.06
485.99	1310.06
486.209	1304.06
486.427	1318.06
486.645	1300.06
486.863	1304.06
487.081	1283.06
487.299	1296.06
487.517	1296.06
487.735	1295.06
487.953	1288.06
488.171	1299.06
488.389	1315.06
488.607	1262.06
488.825	1286.06
489.043	1262.06
489.261	1264.06
489.479	1257.06
489.696	1285.06
489.914	1278.06
490.132	1263.06
490.35	1297.06
490.568	1296.06
490.786	1284.06
491.003	1332.06
491.221	1282.06
491.439	1314.06
491.657	1276.06
491.874	1348.06
492.092	1318.06
492.31	1313.06
492.527	1322.06
492.745	1305.06
492.963	1338.06
493.18	1331.06
493.398	1327.06
493.615	1363.06
493.833	1346.06
494.05	1356.06
494.268	1360.06
494.485	1354.06
