Data from NiCl2@0.0625M.TitratingCurve.Agarose3%dH2O.NegLispCup.LampEnergy10.LIBS07252019_HRD10591_18-33-06-576.txt Node
Date: Thu Jul 25 18:33:06 EDT 2019
User: cochatt
Spectrometer: HR+D1059
Trigger mode: 1
Integration Time (sec): 1.000000E-1
Scans to average: 1
Electric dark correction enabled: true
Nonlinearity correction enabled: false
Boxcar width: 0
XAxis mode: Wavelengths
Number of Pixels in Spectrum: 2048
>>>>>Begin Spectral Data<<<<<
223.165	-18.5
223.4	-18.5
223.635	-18.5
223.869	-10.5
224.104	-21.5
224.338	-10.5
224.573	-20.5
224.808	-6.5
225.042	-17.5
225.277	-1.5
225.511	-2.5
225.746	2.5
225.98	2.5
226.215	5.5
226.449	9.5
226.683	28.5
226.918	30.5
227.152	30.5
227.387	42.5
227.621	41.5
227.856	40.5
228.09	51.5
228.324	45.5
228.559	53.5
228.793	78.5
229.027	147.5
229.262	154.5
229.496	161.5
229.73	162.5
229.964	181.5
230.199	193.5
230.433	184.5
230.667	187.5
230.901	200.5
231.136	173.5
231.37	207.5
231.604	193.5
231.838	211.5
232.072	196.5
232.306	195.5
232.541	206.5
232.775	210.5
233.009	224.5
233.243	197.5
233.477	215.5
233.711	213.5
233.945	210.5
234.179	230.5
234.413	228.5
234.647	220.5
234.881	234.5
235.115	223.5
235.349	222.5
235.583	223.5
235.817	254.5
236.051	226.5
236.285	217.5
236.519	243.5
236.753	232.5
236.987	236.5
237.221	237.5
237.455	242.5
237.689	236.5
237.922	245.5
238.156	243.5
238.39	261.5
238.624	240.5
238.858	271.5
239.091	259.5
239.325	286.5
239.559	254.5
239.793	266.5
240.027	263.5
240.26	286.5
240.494	274.5
240.728	287.5
240.961	281.5
241.195	297.5
241.429	292.5
241.662	295.5
241.896	314.5
242.13	305.5
242.363	298.5
242.597	327.5
242.83	328.5
243.064	319.5
243.298	323.5
243.531	321.5
243.765	318.5
243.998	334.5
244.232	328.5
244.465	328.5
244.699	335.5
244.932	342.5
245.166	374.5
245.399	351.5
245.633	349.5
245.866	358.5
246.099	361.5
246.333	362.5
246.566	362.5
246.8	356.5
247.033	353.5
247.266	369.5
247.5	369.5
247.733	364.5
247.966	389.5
248.2	409.5
248.433	409.5
248.666	388.5
248.899	365.5
249.133	389.5
249.366	383.5
249.599	406.5
249.832	404.5
250.066	412.5
250.299	424.5
250.532	411.5
250.765	427.5
250.998	430.5
251.231	428.5
251.465	425.5
251.698	426.5
251.931	434.5
252.164	445.5
252.397	443.5
252.63	457.5
252.863	462.5
253.096	459.5
253.329	460.5
253.562	447.5
253.795	479.5
254.028	477.5
254.261	461.5
254.494	449.5
254.727	491.5
254.96	487.5
255.193	481.5
255.426	457.5
255.659	483.5
255.892	486.5
256.124	490.5
256.357	491.5
256.59	498.5
256.823	483.5
257.056	485.5
257.289	488.5
257.521	497.5
257.754	505.5
257.987	519.5
258.22	522.5
258.452	523.5
258.685	518.5
258.918	519.5
259.151	519.5
259.383	524.5
259.616	527.5
259.849	545.5
260.081	543.5
260.314	546.5
260.547	540.5
260.779	533.5
261.012	550.5
261.244	549.5
261.477	557.5
261.71	539.5
261.942	554.5
262.175	555.5
262.407	564.5
262.64	570.5
262.872	579.5
263.105	589.5
263.337	558.5
263.57	571.5
263.802	588.5
264.035	585.5
264.267	578.5
264.499	596.5
264.732	586.5
264.964	593.5
265.197	604.5
265.429	599.5
265.661	606.5
265.894	607.5
266.126	613.5
266.358	621.5
266.591	631.5
266.823	637.5
267.055	629.5
267.287	622.5
267.52	626.5
267.752	626.5
267.984	659.5
268.216	623.5
268.448	630.5
268.681	635.5
268.913	655.5
269.145	645.5
269.377	651.5
269.609	636.5
269.841	662.5
270.073	650.5
270.306	659.5
270.538	650.5
270.77	663.5
271.002	661.5
271.234	664.5
271.466	651.5
271.698	650.5
271.93	675.5
272.162	684.5
272.394	689.5
272.626	681.5
272.858	688.5
273.09	707.5
273.322	710.5
273.553	698.5
273.785	668.5
274.017	733.5
274.249	720.5
274.481	742.5
274.713	706.5
274.945	708.5
275.176	740.5
275.408	714.5
275.64	740.5
275.872	709.5
276.104	751.5
276.335	754.5
276.567	746.5
276.799	748.5
277.031	773.5
277.262	739.5
277.494	755.5
277.726	759.5
277.957	740.5
278.189	763.5
278.421	777.5
278.652	797.5
278.884	783.5
279.115	764.5
279.347	782.5
279.579	776.5
279.81	809.5
280.042	791.5
280.273	809.5
280.505	819.5
280.736	803.5
280.968	808.5
281.199	825.5
281.431	805.5
281.662	821.5
281.894	810.5
282.125	825.5
282.356	850.5
282.588	829.5
282.819	815.5
283.051	843.5
283.282	847.5
283.513	857.5
283.745	863.5
283.976	853.5
284.207	873.5
284.439	853.5
284.67	856.5
284.901	858.5
285.132	872.5
285.364	862.5
285.595	850.5
285.826	876.5
286.057	881.5
286.288	855.5
286.52	900.5
286.751	878.5
286.982	887.5
287.213	883.5
287.444	897.5
287.675	888.5
287.906	892.5
288.138	881.5
288.369	904.5
288.6	908.5
288.831	874.5
289.062	891.5
289.293	926.5
289.524	913.5
289.755	904.5
289.986	917.5
290.217	893.5
290.448	906.5
290.679	925.5
290.91	909.5
291.141	911.5
291.371	912.5
291.602	915.5
291.833	935.5
292.064	919.5
292.295	939.5
292.526	937.5
292.757	902.5
292.987	923.5
293.218	908.5
293.449	953.5
293.68	944.5
293.91	935.5
294.141	910.5
294.372	946.5
294.603	928.5
294.833	950.5
295.064	936.5
295.295	925.5
295.525	933.5
295.756	934.5
295.987	934.5
296.217	957.5
296.448	935.5
296.679	961.5
296.909	935.5
297.14	958.5
297.37	987.5
297.601	981.5
297.831	982.5
298.062	964.5
298.292	1009.5
298.523	1013.5
298.753	1009.5
298.984	991.5
299.214	1001.5
299.445	983.5
299.675	1015.5
299.905	993.5
300.136	995.5
300.366	997.5
300.597	1018.5
300.827	1049.5
301.057	1018.5
301.288	1075.5
301.518	1063.5
301.748	1050.5
301.979	1090.5
302.209	1051.5
302.439	1081.5
302.669	1085.5
302.9	1045.5
303.13	1053.5
303.36	1035.5
303.59	1044.5
303.82	1051.5
304.051	1073.5
304.281	1085.5
304.511	1067.5
304.741	1074.5
304.971	1094.5
305.201	1058.5
305.431	1081.5
305.661	1065.5
305.891	1096.5
306.121	1080.5
306.352	1058.5
306.582	1041.5
306.812	1054.5
307.042	1027.5
307.272	1033.5
307.502	1057.5
307.731	1046.5
307.961	1037.5
308.191	1092.5
308.421	1132.5
308.651	1092.5
308.881	1057.5
309.111	1085.5
309.341	1077.5
309.571	1125.5
309.8	1117.5
310.03	1074.5
310.26	1059.5
310.49	1089.5
310.72	1053.5
310.949	1040.5
311.179	1069.5
311.409	1075.5
311.639	1091.5
311.868	1086.5
312.098	1086.5
312.328	1095.5
312.557	1098.5
312.787	1103.5
313.017	1094.5
313.246	1130.5
313.476	1113.5
313.706	1125.5
313.935	1108.5
314.165	1151.5
314.394	1121.5
314.624	1145.5
314.853	1136.5
315.083	1121.5
315.312	1143.5
315.542	1143.5
315.771	1118.5
316.001	1125.5
316.23	1143.5
316.46	1095.5
316.689	1122.5
316.919	1111.5
317.148	1107.5
317.377	1132.5
317.607	1129.5
317.836	1112.5
318.065	1129.5
318.295	1105.5
318.524	1127.5
318.753	1098.5
318.983	1122.5
319.212	1103.5
319.441	1090.5
319.67	1130.5
319.9	1118.5
320.129	1125.5
320.358	1137.5
320.587	1122.5
320.816	1129.5
321.046	1133.5
321.275	1121.5
321.504	1141.5
321.733	1130.5
321.962	1141.5
322.191	1141.5
322.42	1148.5
322.649	1145.5
322.878	1109.5
323.108	1149.5
323.337	1179.5
323.566	1182.5
323.795	1163.5
324.024	1177.5
324.253	1159.5
324.482	1151.5
324.71	1158.5
324.939	1203.5
325.168	1208.5
325.397	1162.5
325.626	1193.5
325.855	1174.5
326.084	1203.5
326.313	1202.5
326.542	1242.5
326.77	1263.5
326.999	1253.5
327.228	1186.5
327.457	1199.5
327.686	1210.5
327.914	1233.5
328.143	1227.5
328.372	1237.5
328.6	1219.5
328.829	1206.5
329.058	1237.5
329.287	1253.5
329.515	1232.5
329.744	1222.5
329.972	1254.5
330.201	1292.5
330.43	1258.5
330.658	1234.5
330.887	1287.5
331.115	1273.5
331.344	1289.5
331.572	1292.5
331.801	1325.5
332.03	1337.5
332.258	1329.5
332.486	1393.5
332.715	1406.5
332.943	1452.5
333.172	1469.5
333.4	1511.5
333.629	1568.5
333.857	1577.5
334.085	1581.5
334.314	1566.5
334.542	1590.5
334.771	1585.5
334.999	1543.5
335.227	1525.5
335.455	1512.5
335.684	1541.5
335.912	1514.5
336.14	1481.5
336.369	1502.5
336.597	1478.5
336.825	1458.5
337.053	1479.5
337.281	1413.5
337.51	1405.5
337.738	1401.5
337.966	1386.5
338.194	1406.5
338.422	1383.5
338.65	1353.5
338.878	1349.5
339.106	1350.5
339.334	1333.5
339.562	1307.5
339.79	1325.5
340.018	1329.5
340.246	1291.5
340.474	1303.5
340.702	1266.5
340.93	1269.5
341.158	1318.5
341.386	1324.5
341.614	1319.5
341.842	1306.5
342.07	1295.5
342.298	1271.5
342.526	1307.5
342.754	1295.5
342.981	1294.5
343.209	1329.5
343.437	1380.5
343.665	1389.5
343.893	1475.5
344.12	1499.5
344.348	1452.5
344.576	1418.5
344.804	1420.5
345.031	1363.5
345.259	1361.5
345.487	1325.5
345.714	1256.5
345.942	1279.5
346.17	1280.5
346.397	1237.5
346.625	1245.5
346.853	1237.5
347.08	1224.5
347.308	1237.5
347.535	1250.5
347.763	1250.5
347.99	1228.5
348.218	1220.5
348.445	1231.5
348.673	1217.5
348.9	1246.5
349.128	1223.5
349.355	1179.5
349.583	1235.5
349.81	1196.5
350.037	1191.5
350.265	1179.5
350.492	1224.5
350.72	1153.5
350.947	1219.5
351.174	1212.5
351.402	1230.5
351.629	1197.5
351.856	1208.5
352.083	1196.5
352.311	1159.5
352.538	1187.5
352.765	1239.5
352.992	1193.5
353.22	1174.5
353.447	1190.5
353.674	1149.5
353.901	1185.5
354.128	1188.5
354.355	1169.5
354.583	1176.5
354.81	1155.5
355.037	1207.5
355.264	1197.5
355.491	1202.5
355.718	1237.5
355.945	1205.5
356.172	1194.5
356.399	1173.5
356.626	1179.5
356.853	1213.5
357.08	1198.5
357.307	1210.5
357.534	1192.5
357.761	1226.5
357.988	1209.5
358.215	1190.5
358.441	1177.5
358.668	1148.5
358.895	1190.5
359.122	1212.5
359.349	1221.5
359.576	1212.5
359.802	1191.5
360.029	1208.5
360.256	1173.5
360.483	1207.5
360.709	1209.5
360.936	1181.5
361.163	1201.5
361.39	1174.5
361.616	1176.5
361.843	1192.5
362.07	1209.5
362.296	1183.5
362.523	1217.5
362.749	1197.5
362.976	1185.5
363.203	1201.5
363.429	1174.5
363.656	1206.5
363.882	1178.5
364.109	1185.5
364.335	1162.5
364.562	1185.5
364.788	1188.5
365.015	1206.5
365.241	1167.5
365.468	1201.5
365.694	1206.5
365.92	1211.5
366.147	1204.5
366.373	1189.5
366.599	1203.5
366.826	1217.5
367.052	1171.5
367.278	1193.5
367.505	1182.5
367.731	1194.5
367.957	1206.5
368.184	1244.5
368.41	1240.5
368.636	1244.5
368.862	1226.5
369.089	1209.5
369.315	1242.5
369.541	1246.5
369.767	1251.5
369.993	1258.5
370.219	1240.5
370.445	1267.5
370.672	1272.5
370.898	1262.5
371.124	1272.5
371.35	1307.5
371.576	1307.5
371.802	1286.5
372.028	1297.5
372.254	1290.5
372.48	1309.5
372.706	1302.5
372.932	1339.5
373.158	1319.5
373.384	1302.5
373.61	1282.5
373.835	1346.5
374.061	1279.5
374.287	1334.5
374.513	1327.5
374.739	1368.5
374.965	1363.5
375.191	1418.5
375.416	1424.5
375.642	1372.5
375.868	1390.5
376.094	1342.5
376.319	1352.5
376.545	1335.5
376.771	1336.5
376.997	1303.5
377.222	1295.5
377.448	1316.5
377.674	1266.5
377.899	1302.5
378.125	1274.5
378.35	1287.5
378.576	1299.5
378.802	1308.5
379.027	1261.5
379.253	1289.5
379.478	1292.5
379.704	1305.5
379.929	1281.5
380.155	1293.5
380.38	1267.5
380.606	1309.5
380.831	1281.5
381.057	1287.5
381.282	1317.5
381.507	1293.5
381.733	1320.5
381.958	1301.5
382.184	1303.5
382.409	1329.5
382.634	1344.5
382.86	1357.5
383.085	1367.5
383.31	1415.5
383.535	1397.5
383.761	1453.5
383.986	1443.5
384.211	1461.5
384.436	1499.5
384.662	1471.5
384.887	1480.5
385.112	1490.5
385.337	1560.5
385.562	1539.5
385.787	1534.5
386.013	1571.5
386.238	1582.5
386.463	1530.5
386.688	1591.5
386.913	1531.5
387.138	1547.5
387.363	1547.5
387.588	1506.5
387.813	1525.5
388.038	1521.5
388.263	1561.5
388.488	1556.5
388.713	1553.5
388.938	1541.5
389.163	1506.5
389.387	1522.5
389.612	1501.5
389.837	1561.5
390.062	1536.5
390.287	1515.5
390.512	1517.5
390.736	1544.5
390.961	1586.5
391.186	1567.5
391.411	1620.5
391.636	1663.5
391.86	1676.5
392.085	1735.5
392.31	1716.5
392.534	1692.5
392.759	1653.5
392.984	1642.5
393.208	1657.5
393.433	1675.5
393.658	1697.5
393.882	1633.5
394.107	1618.5
394.331	1699.5
394.556	1772.5
394.78	1782.5
395.005	1678.5
395.229	1669.5
395.454	1682.5
395.678	1724.5
395.903	1735.5
396.127	1789.5
396.352	1891.5
396.576	1779.5
396.801	1706.5
397.025	1715.5
397.249	1750.5
397.474	1712.5
397.698	1717.5
397.922	1772.5
398.147	1745.5
398.371	1775.5
398.595	1835.5
398.82	1905.5
399.044	1987.5
399.268	2202.5
399.492	2391.5
399.717	2596.5
399.941	2649.5
400.165	2439.5
400.389	2287.5
400.613	2127.5
400.837	2037.5
401.062	1978.5
401.286	1921.5
401.51	1923.5
401.734	1907.5
401.958	1943.5
402.182	1918.5
402.406	1949.5
402.63	1948.5
402.854	2006.5
403.078	1941.5
403.302	2023.5
403.526	2054.5
403.75	2097.5
403.974	2077.5
404.198	2078.5
404.422	2076.5
404.645	2097.5
404.869	2073.5
405.093	2100.5
405.317	2020.5
405.541	2062.5
405.765	1995.5
405.988	2052.5
406.212	2053.5
406.436	2078.5
406.66	2122.5
406.883	2121.5
407.107	2235.5
407.331	2353.5
407.555	2389.5
407.778	2369.5
408.002	2339.5
408.226	2324.5
408.449	2286.5
408.673	2197.5
408.896	2144.5
409.12	2127.5
409.344	2136.5
409.567	2117.5
409.791	2107.5
410.014	2127.5
410.238	2095.5
410.461	2091.5
410.685	2072.5
410.908	2055.5
411.132	2026.5
411.355	2003.5
411.578	2005.5
411.802	2004.5
412.025	1978.5
412.249	2003.5
412.472	2008.5
412.695	1925.5
412.919	1915.5
413.142	1929.5
413.365	1947.5
413.589	1916.5
413.812	1855.5
414.035	1879.5
414.258	1908.5
414.482	1902.5
414.705	1887.5
414.928	1925.5
415.151	1901.5
415.374	1880.5
415.597	1915.5
415.821	1885.5
416.044	1815.5
416.267	1831.5
416.49	1826.5
416.713	1849.5
416.936	1843.5
417.159	1798.5
417.382	1845.5
417.605	1803.5
417.828	1835.5
418.051	1870.5
418.274	1837.5
418.497	1797.5
418.72	1888.5
418.943	1859.5
419.166	2001.5
419.389	2103.5
419.611	2067.5
419.834	1979.5
420.057	1948.5
420.28	1879.5
420.503	1821.5
420.726	1825.5
420.948	1831.5
421.171	1835.5
421.394	1834.5
421.617	1811.5
421.839	1847.5
422.062	1847.5
422.285	1809.5
422.507	1862.5
422.73	1870.5
422.953	1902.5
423.175	1917.5
423.398	1881.5
423.621	1852.5
423.843	1906.5
424.066	1888.5
424.288	1859.5
424.511	1901.5
424.733	1864.5
424.956	1882.5
425.178	1897.5
425.401	1811.5
425.623	1893.5
425.846	1805.5
426.068	1779.5
426.291	1776.5
426.513	1761.5
426.735	1738.5
426.958	1772.5
427.18	1710.5
427.402	1734.5
427.625	1713.5
427.847	1698.5
428.069	1709.5
428.292	1699.5
428.514	1643.5
428.736	1671.5
428.958	1717.5
429.181	1640.5
429.403	1633.5
429.625	1627.5
429.847	1616.5
430.069	1631.5
430.292	1615.5
430.514	1610.5
430.736	1609.5
430.958	1658.5
431.18	1660.5
431.402	1660.5
431.624	1657.5
431.846	1699.5
432.068	1664.5
432.29	1709.5
432.512	1685.5
432.734	1699.5
432.956	1645.5
433.178	1707.5
433.4	1718.5
433.622	1713.5
433.844	1717.5
434.066	1744.5
434.287	1747.5
434.509	1780.5
434.731	1851.5
434.953	1910.5
435.175	1841.5
435.397	1872.5
435.618	1789.5
435.84	1767.5
436.062	1711.5
436.284	1672.5
436.505	1644.5
436.727	1719.5
436.949	1679.5
437.17	1686.5
437.392	1663.5
437.614	1668.5
437.835	1615.5
438.057	1589.5
438.278	1592.5
438.5	1578.5
438.721	1578.5
438.943	1597.5
439.165	1596.5
439.386	1604.5
439.608	1673.5
439.829	1661.5
440.05	1626.5
440.272	1651.5
440.493	1665.5
440.715	1685.5
440.936	1693.5
441.158	1696.5
441.379	1763.5
441.6	1776.5
441.822	1813.5
442.043	1800.5
442.264	1757.5
442.486	1747.5
442.707	1764.5
442.928	1757.5
443.149	1789.5
443.371	1806.5
443.592	1823.5
443.813	1826.5
444.034	1867.5
444.255	1861.5
444.476	1916.5
444.698	2000.5
444.919	2062.5
445.14	2149.5
445.361	2004.5
445.582	1886.5
445.803	1772.5
446.024	1778.5
446.245	1758.5
446.466	1689.5
446.687	1626.5
446.908	1651.5
447.129	1604.5
447.35	1615.5
447.571	1598.5
447.792	1552.5
448.013	1540.5
448.234	1497.5
448.455	1523.5
448.675	1552.5
448.896	1565.5
449.117	1466.5
449.338	1533.5
449.559	1514.5
449.779	1459.5
450	1487.5
450.221	1508.5
450.442	1488.5
450.662	1497.5
450.883	1488.5
451.104	1533.5
451.324	1518.5
451.545	1493.5
451.766	1513.5
451.986	1481.5
452.207	1477.5
452.428	1483.5
452.648	1484.5
452.869	1454.5
453.089	1428.5
453.31	1481.5
453.53	1422.5
453.751	1443.5
453.971	1431.5
454.192	1450.5
454.412	1412.5
454.633	1443.5
454.853	1417.5
455.073	1387.5
455.294	1425.5
455.514	1423.5
455.734	1427.5
455.955	1380.5
456.175	1408.5
456.395	1393.5
456.616	1363.5
456.836	1403.5
457.056	1421.5
457.276	1394.5
457.497	1463.5
457.717	1405.5
457.937	1436.5
458.157	1457.5
458.377	1473.5
458.598	1505.5
458.818	1510.5
459.038	1554.5
459.258	1570.5
459.478	1640.5
459.698	1686.5
459.918	1717.5
460.138	1759.5
460.358	1824.5
460.578	1838.5
460.798	1854.5
461.018	1866.5
461.238	1894.5
461.458	1830.5
461.678	1861.5
461.898	1876.5
462.118	1934.5
462.338	2020.5
462.558	2069.5
462.777	2085.5
462.997	2248.5
463.217	2408.5
463.437	2397.5
463.657	2259.5
463.876	2171.5
464.096	2159.5
464.316	2144.5
464.536	2169.5
464.755	2083.5
464.975	2033.5
465.195	1898.5
465.414	1855.5
465.634	1781.5
465.854	1736.5
466.073	1717.5
466.293	1618.5
466.512	1574.5
466.732	1566.5
466.951	1619.5
467.171	1587.5
467.391	1582.5
467.61	1563.5
467.829	1551.5
468.049	1518.5
468.268	1529.5
468.488	1459.5
468.707	1512.5
468.927	1544.5
469.146	1525.5
469.365	1552.5
469.585	1559.5
469.804	1580.5
470.023	1565.5
470.243	1613.5
470.462	1624.5
470.681	1590.5
470.901	1601.5
471.12	1631.5
471.339	1614.5
471.558	1547.5
471.777	1563.5
471.997	1538.5
472.216	1514.5
472.435	1512.5
472.654	1492.5
472.873	1506.5
473.092	1538.5
473.311	1508.5
473.53	1515.5
473.749	1513.5
473.968	1497.5
474.187	1488.5
474.406	1474.5
474.625	1554.5
474.844	1532.5
475.063	1497.5
475.282	1527.5
475.501	1538.5
475.72	1575.5
475.939	1558.5
476.158	1553.5
476.377	1612.5
476.596	1583.5
476.814	1609.5
477.033	1603.5
477.252	1646.5
477.471	1668.5
477.69	1706.5
477.908	1744.5
478.127	1763.5
478.346	1786.5
478.564	1798.5
478.783	1870.5
479.002	1882.5
479.22	1869.5
479.439	1870.5
479.658	1871.5
479.876	1923.5
480.095	1916.5
480.313	1931.5
480.532	2003.5
480.751	1981.5
480.969	1958.5
481.188	1898.5
481.406	1889.5
481.624	1843.5
481.843	1823.5
482.061	1818.5
482.28	1817.5
482.498	1809.5
482.717	1807.5
482.935	1844.5
483.153	1834.5
483.372	1889.5
483.59	1876.5
483.808	1838.5
484.027	1832.5
484.245	1888.5
484.463	1901.5
484.681	1974.5
484.9	1923.5
485.118	1940.5
485.336	1929.5
485.554	2011.5
485.772	1966.5
485.99	2003.5
486.209	2009.5
486.427	1966.5
486.645	1964.5
486.863	1964.5
487.081	1940.5
487.299	1932.5
487.517	1966.5
487.735	1957.5
487.953	1941.5
488.171	1945.5
488.389	1907.5
488.607	1945.5
488.825	1892.5
489.043	1905.5
489.261	1855.5
489.479	1910.5
489.696	1909.5
489.914	1902.5
490.132	1931.5
490.35	1892.5
490.568	1897.5
490.786	1891.5
491.003	1910.5
491.221	1937.5
491.439	1872.5
491.657	1898.5
491.874	1910.5
492.092	1924.5
492.31	1899.5
492.527	1881.5
492.745	1869.5
492.963	1899.5
493.18	1909.5
493.398	1920.5
493.615	1910.5
493.833	1924.5
494.05	1914.5
494.268	1936.5
494.485	1918.5
494.703	1931.5
494.92	1945.5
495.138	1956.5
495.355	1937.5
495.573	1921.5
495.79	1976.5
496.008	1990.5
496.225	1977.5
496.442	1991.5
496.66	2035.5
496.877	1995.5
497.094	2074.5
497.312	2063.5
497.529	2114.5
497.746	2202.5
497.963	2218.5
498.181	2319.5
498.398	2404.5
498.615	2542.5
498.832	2666.5
499.049	2846.5
499.267	3060.5
499.484	3279.5
499.701	3528.5
499.918	3794.5
500.135	4258.5
500.352	4571.5
500.569	4802.5
500.786	4781.5
501.003	4515.5
501.22	4204.5
501.437	3807.5
501.654	3454.5
501.871	3239.5
502.088	2979.5
502.305	2853.5
502.522	2674.5
502.739	2581.5
502.956	2449.5
503.172	2402.5
503.389	2268.5
503.606	2229.5
503.823	2218.5
504.04	2132.5
504.256	2172.5
504.473	2171.5
504.69	2187.5
504.907	2139.5
505.123	2054.5
505.34	1929.5
505.557	1884.5
505.773	1827.5
505.99	1862.5
506.207	1757.5
