Data from NiCl2@0.25M.TitratingCurve.Agarose3%dH2O.NegLispCup.LampEnergy10.LIBS07252019_HRD10591_18-23-17-572.txt Node
Date: Thu Jul 25 18:23:17 EDT 2019
User: cochatt
Spectrometer: HR+D1059
Trigger mode: 1
Integration Time (sec): 1.000000E-1
Scans to average: 1
Electric dark correction enabled: true
Nonlinearity correction enabled: false
Boxcar width: 0
XAxis mode: Wavelengths
Number of Pixels in Spectrum: 2048
>>>>>Begin Spectral Data<<<<<
223.165	-16.88
223.4	-16.88
223.635	-16.88
223.869	-15.88
224.104	-15.88
224.338	-7.88
224.573	-18.88
224.808	-2.88
225.042	-22.88
225.277	-11.88
225.511	-5.88
225.746	13.12
225.98	7.12
226.215	9.12
226.449	25.12
226.683	14.12
226.918	18.12
227.152	32.12
227.387	29.12
227.621	36.12
227.856	48.12
228.09	62.12
228.324	52.12
228.559	64.12
228.793	78.12
229.027	111.12
229.262	116.12
229.496	128.12
229.73	117.12
229.964	137.12
230.199	148.12
230.433	134.12
230.667	147.12
230.901	146.12
231.136	137.12
231.37	153.12
231.604	146.12
231.838	159.12
232.072	170.12
232.306	158.12
232.541	156.12
232.775	164.12
233.009	175.12
233.243	157.12
233.477	137.12
233.711	160.12
233.945	148.12
234.179	160.12
234.413	168.12
234.647	185.12
234.881	163.12
235.115	158.12
235.349	165.12
235.583	172.12
235.817	164.12
236.051	143.12
236.285	162.12
236.519	171.12
236.753	163.12
236.987	167.12
237.221	164.12
237.455	194.12
237.689	190.12
237.922	184.12
238.156	180.12
238.39	175.12
238.624	186.12
238.858	172.12
239.091	194.12
239.325	191.12
239.559	180.12
239.793	197.12
240.027	196.12
240.26	199.12
240.494	196.12
240.728	204.12
240.961	197.12
241.195	214.12
241.429	199.12
241.662	212.12
241.896	200.12
242.13	220.12
242.363	212.12
242.597	231.12
242.83	208.12
243.064	201.12
243.298	210.12
243.531	220.12
243.765	236.12
243.998	232.12
244.232	208.12
244.465	217.12
244.699	215.12
244.932	227.12
245.166	231.12
245.399	214.12
245.633	246.12
245.866	231.12
246.099	230.12
246.333	222.12
246.566	253.12
246.8	246.12
247.033	229.12
247.266	258.12
247.5	237.12
247.733	257.12
247.966	260.12
248.2	270.12
248.433	266.12
248.666	255.12
248.899	263.12
249.133	263.12
249.366	265.12
249.599	256.12
249.832	261.12
250.066	267.12
250.299	276.12
250.532	282.12
250.765	279.12
250.998	287.12
251.231	287.12
251.465	294.12
251.698	296.12
251.931	290.12
252.164	280.12
252.397	288.12
252.63	291.12
252.863	296.12
253.096	292.12
253.329	303.12
253.562	302.12
253.795	287.12
254.028	301.12
254.261	310.12
254.494	301.12
254.727	306.12
254.96	304.12
255.193	300.12
255.426	320.12
255.659	316.12
255.892	310.12
256.124	303.12
256.357	317.12
256.59	314.12
256.823	312.12
257.056	333.12
257.289	327.12
257.521	323.12
257.754	322.12
257.987	318.12
258.22	335.12
258.452	333.12
258.685	339.12
258.918	341.12
259.151	325.12
259.383	331.12
259.616	330.12
259.849	357.12
260.081	340.12
260.314	356.12
260.547	330.12
260.779	342.12
261.012	352.12
261.244	355.12
261.477	348.12
261.71	358.12
261.942	335.12
262.175	343.12
262.407	340.12
262.64	359.12
262.872	343.12
263.105	371.12
263.337	374.12
263.57	377.12
263.802	364.12
264.035	392.12
264.267	390.12
264.499	376.12
264.732	382.12
264.964	378.12
265.197	387.12
265.429	403.12
265.661	386.12
265.894	372.12
266.126	399.12
266.358	380.12
266.591	365.12
266.823	409.12
267.055	380.12
267.287	394.12
267.52	404.12
267.752	386.12
267.984	401.12
268.216	397.12
268.448	405.12
268.681	407.12
268.913	412.12
269.145	419.12
269.377	419.12
269.609	395.12
269.841	424.12
270.073	403.12
270.306	412.12
270.538	421.12
270.77	413.12
271.002	427.12
271.234	428.12
271.466	416.12
271.698	422.12
271.93	413.12
272.162	422.12
272.394	456.12
272.626	444.12
272.858	419.12
273.09	435.12
273.322	460.12
273.553	446.12
273.785	442.12
274.017	437.12
274.249	434.12
274.481	451.12
274.713	421.12
274.945	461.12
275.176	453.12
275.408	462.12
275.64	451.12
275.872	458.12
276.104	450.12
276.335	449.12
276.567	448.12
276.799	470.12
277.031	440.12
277.262	455.12
277.494	474.12
277.726	484.12
277.957	470.12
278.189	475.12
278.421	465.12
278.652	483.12
278.884	477.12
279.115	496.12
279.347	485.12
279.579	489.12
279.81	482.12
280.042	480.12
280.273	495.12
280.505	504.12
280.736	502.12
280.968	487.12
281.199	502.12
281.431	528.12
281.662	529.12
281.894	495.12
282.125	509.12
282.356	517.12
282.588	511.12
282.819	517.12
283.051	543.12
283.282	523.12
283.513	532.12
283.745	541.12
283.976	518.12
284.207	538.12
284.439	511.12
284.67	524.12
284.901	528.12
285.132	542.12
285.364	538.12
285.595	558.12
285.826	555.12
286.057	564.12
286.288	557.12
286.52	552.12
286.751	554.12
286.982	542.12
287.213	523.12
287.444	547.12
287.675	543.12
287.906	550.12
288.138	576.12
288.369	576.12
288.6	579.12
288.831	566.12
289.062	583.12
289.293	569.12
289.524	553.12
289.755	556.12
289.986	567.12
290.217	565.12
290.448	565.12
290.679	584.12
290.91	560.12
291.141	565.12
291.371	574.12
291.602	580.12
291.833	582.12
292.064	569.12
292.295	580.12
292.526	572.12
292.757	579.12
292.987	580.12
293.218	580.12
293.449	592.12
293.68	591.12
293.91	586.12
294.141	590.12
294.372	592.12
294.603	590.12
294.833	592.12
295.064	585.12
295.295	592.12
295.525	600.12
295.756	598.12
295.987	592.12
296.217	638.12
296.448	627.12
296.679	622.12
296.909	593.12
297.14	616.12
297.37	627.12
297.601	636.12
297.831	611.12
298.062	601.12
298.292	634.12
298.523	636.12
298.753	644.12
298.984	622.12
299.214	619.12
299.445	631.12
299.675	624.12
299.905	665.12
300.136	637.12
300.366	642.12
300.597	664.12
300.827	645.12
301.057	664.12
301.288	661.12
301.518	653.12
301.748	666.12
301.979	695.12
302.209	638.12
302.439	672.12
302.669	679.12
302.9	652.12
303.13	638.12
303.36	672.12
303.59	664.12
303.82	655.12
304.051	655.12
304.281	673.12
304.511	657.12
304.741	651.12
304.971	677.12
305.201	674.12
305.431	640.12
305.661	681.12
305.891	676.12
306.121	631.12
306.352	664.12
306.582	638.12
306.812	675.12
307.042	663.12
307.272	656.12
307.502	652.12
307.731	673.12
307.961	638.12
308.191	668.12
308.421	634.12
308.651	649.12
308.881	640.12
309.111	662.12
309.341	671.12
309.571	660.12
309.8	655.12
310.03	672.12
310.26	662.12
310.49	651.12
310.72	659.12
310.949	681.12
311.179	653.12
311.409	678.12
311.639	674.12
311.868	665.12
312.098	667.12
312.328	679.12
312.557	688.12
312.787	686.12
313.017	668.12
313.246	702.12
313.476	715.12
313.706	708.12
313.935	720.12
314.165	713.12
314.394	709.12
314.624	698.12
314.853	699.12
315.083	697.12
315.312	702.12
315.542	685.12
315.771	685.12
316.001	712.12
316.23	690.12
316.46	679.12
316.689	680.12
316.919	707.12
317.148	692.12
317.377	680.12
317.607	696.12
317.836	689.12
318.065	711.12
318.295	683.12
318.524	704.12
318.753	670.12
318.983	677.12
319.212	662.12
319.441	677.12
319.67	691.12
319.9	697.12
320.129	687.12
320.358	683.12
320.587	703.12
320.816	676.12
321.046	713.12
321.275	688.12
321.504	697.12
321.733	666.12
321.962	712.12
322.191	707.12
322.42	696.12
322.649	700.12
322.878	713.12
323.108	700.12
323.337	742.12
323.566	704.12
323.795	726.12
324.024	720.12
324.253	727.12
324.482	714.12
324.71	702.12
324.939	734.12
325.168	712.12
325.397	696.12
325.626	724.12
325.855	733.12
326.084	773.12
326.313	765.12
326.542	727.12
326.77	773.12
326.999	735.12
327.228	755.12
327.457	762.12
327.686	741.12
327.914	763.12
328.143	754.12
328.372	772.12
328.6	772.12
328.829	733.12
329.058	748.12
329.287	780.12
329.515	763.12
329.744	762.12
329.972	773.12
330.201	729.12
330.43	754.12
330.658	774.12
330.887	772.12
331.115	802.12
331.344	790.12
331.572	802.12
331.801	829.12
332.03	836.12
332.258	844.12
332.486	871.12
332.715	884.12
332.943	929.12
333.172	958.12
333.4	1002.12
333.629	1017.12
333.857	999.12
334.085	1006.12
334.314	991.12
334.542	974.12
334.771	971.12
334.999	941.12
335.227	951.12
335.455	936.12
335.684	943.12
335.912	898.12
336.14	920.12
336.369	920.12
336.597	929.12
336.825	901.12
337.053	901.12
337.281	921.12
337.51	904.12
337.738	868.12
337.966	867.12
338.194	848.12
338.422	840.12
338.65	838.12
338.878	826.12
339.106	833.12
339.334	829.12
339.562	845.12
339.79	810.12
340.018	811.12
340.246	792.12
340.474	791.12
340.702	796.12
340.93	803.12
341.158	806.12
341.386	808.12
341.614	832.12
341.842	812.12
342.07	804.12
342.298	778.12
342.526	784.12
342.754	787.12
342.981	779.12
343.209	816.12
343.437	864.12
343.665	890.12
343.893	954.12
344.12	987.12
344.348	927.12
344.576	903.12
344.804	873.12
345.031	852.12
345.259	806.12
345.487	811.12
345.714	802.12
345.942	827.12
346.17	818.12
346.397	802.12
346.625	769.12
346.853	759.12
347.08	760.12
347.308	762.12
347.535	772.12
347.763	764.12
347.99	782.12
348.218	775.12
348.445	756.12
348.673	743.12
348.9	764.12
349.128	781.12
349.355	777.12
349.583	773.12
349.81	780.12
350.037	741.12
350.265	740.12
350.492	741.12
350.72	756.12
350.947	731.12
351.174	780.12
351.402	763.12
351.629	771.12
351.856	751.12
352.083	733.12
352.311	787.12
352.538	754.12
352.765	773.12
352.992	726.12
353.22	716.12
353.447	734.12
353.674	725.12
353.901	735.12
354.128	750.12
354.355	731.12
354.583	758.12
354.81	715.12
355.037	736.12
355.264	726.12
355.491	725.12
355.718	746.12
355.945	755.12
356.172	757.12
356.399	730.12
356.626	756.12
356.853	762.12
357.08	719.12
357.307	749.12
357.534	730.12
357.761	710.12
357.988	752.12
358.215	743.12
358.441	741.12
358.668	719.12
358.895	756.12
359.122	717.12
359.349	754.12
359.576	725.12
359.802	739.12
360.029	727.12
360.256	759.12
360.483	741.12
360.709	749.12
360.936	751.12
361.163	777.12
361.39	733.12
361.616	734.12
361.843	735.12
362.07	766.12
362.296	750.12
362.523	725.12
362.749	757.12
362.976	739.12
363.203	729.12
363.429	741.12
363.656	745.12
363.882	740.12
364.109	732.12
364.335	722.12
364.562	758.12
364.788	772.12
365.015	744.12
365.241	751.12
365.468	741.12
365.694	750.12
365.92	758.12
366.147	745.12
366.373	756.12
366.599	746.12
366.826	726.12
367.052	734.12
367.278	718.12
367.505	728.12
367.731	747.12
367.957	732.12
368.184	739.12
368.41	764.12
368.636	742.12
368.862	758.12
369.089	774.12
369.315	747.12
369.541	770.12
369.767	770.12
369.993	760.12
370.219	751.12
370.445	794.12
370.672	794.12
370.898	768.12
371.124	810.12
371.35	787.12
371.576	834.12
371.802	791.12
372.028	809.12
372.254	804.12
372.48	792.12
372.706	802.12
372.932	848.12
373.158	842.12
373.384	825.12
373.61	825.12
373.835	792.12
374.061	820.12
374.287	816.12
374.513	800.12
374.739	847.12
374.965	840.12
375.191	907.12
375.416	844.12
375.642	836.12
375.868	847.12
376.094	849.12
376.319	808.12
376.545	804.12
376.771	821.12
376.997	819.12
377.222	811.12
377.448	791.12
377.674	794.12
377.899	801.12
378.125	788.12
378.35	774.12
378.576	816.12
378.802	783.12
379.027	744.12
379.253	765.12
379.478	789.12
379.704	787.12
379.929	776.12
380.155	797.12
380.38	800.12
380.606	810.12
380.831	794.12
381.057	800.12
381.282	799.12
381.507	782.12
381.733	790.12
381.958	804.12
382.184	808.12
382.409	799.12
382.634	842.12
382.86	833.12
383.085	843.12
383.31	857.12
383.535	875.12
383.761	864.12
383.986	904.12
384.211	886.12
384.436	922.12
384.662	913.12
384.887	959.12
385.112	918.12
385.337	950.12
385.562	975.12
385.787	942.12
386.013	979.12
386.238	965.12
386.463	947.12
386.688	958.12
386.913	920.12
387.138	947.12
387.363	958.12
387.588	917.12
387.813	935.12
388.038	931.12
388.263	919.12
388.488	939.12
388.713	944.12
388.938	913.12
389.163	895.12
389.387	925.12
389.612	906.12
389.837	932.12
390.062	925.12
390.287	953.12
390.512	905.12
390.736	943.12
390.961	948.12
391.186	984.12
391.411	985.12
391.636	1016.12
391.86	1060.12
392.085	1094.12
392.31	1047.12
392.534	1048.12
392.759	1027.12
392.984	1004.12
393.208	1007.12
393.433	1028.12
393.658	1010.12
393.882	992.12
394.107	1005.12
394.331	1000.12
394.556	1007.12
394.78	1000.12
395.005	1028.12
395.229	1007.12
395.454	1056.12
395.678	1062.12
395.903	1051.12
396.127	1055.12
396.352	1027.12
396.576	1002.12
396.801	994.12
397.025	1002.12
397.249	1034.12
397.474	1081.12
397.698	1065.12
397.922	1046.12
398.147	1044.12
398.371	1094.12
398.595	1123.12
398.82	1192.12
399.044	1270.12
399.268	1376.12
399.492	1590.12
399.717	1738.12
399.941	1750.12
400.165	1594.12
400.389	1427.12
400.613	1322.12
400.837	1248.12
401.062	1217.12
401.286	1210.12
401.51	1208.12
401.734	1198.12
401.958	1234.12
402.182	1206.12
402.406	1244.12
402.63	1247.12
402.854	1268.12
403.078	1247.12
403.302	1311.12
403.526	1315.12
403.75	1310.12
403.974	1354.12
404.198	1328.12
404.422	1348.12
404.645	1354.12
404.869	1315.12
405.093	1320.12
405.317	1320.12
405.541	1308.12
405.765	1258.12
405.988	1259.12
406.212	1300.12
406.436	1306.12
406.66	1317.12
406.883	1336.12
407.107	1423.12
407.331	1432.12
407.555	1507.12
407.778	1501.12
408.002	1434.12
408.226	1450.12
408.449	1391.12
408.673	1342.12
408.896	1335.12
409.12	1336.12
409.344	1337.12
409.567	1285.12
409.791	1324.12
410.014	1325.12
410.238	1298.12
410.461	1287.12
410.685	1297.12
410.908	1272.12
411.132	1290.12
411.355	1203.12
411.578	1206.12
411.802	1200.12
412.025	1229.12
412.249	1256.12
412.472	1230.12
412.695	1210.12
412.919	1158.12
413.142	1214.12
413.365	1179.12
413.589	1188.12
413.812	1163.12
414.035	1168.12
414.258	1167.12
414.482	1188.12
414.705	1216.12
414.928	1178.12
415.151	1220.12
415.374	1187.12
415.597	1158.12
415.821	1176.12
416.044	1136.12
416.267	1143.12
416.49	1168.12
416.713	1185.12
416.936	1189.12
417.159	1144.12
417.382	1155.12
417.605	1147.12
417.828	1158.12
418.051	1178.12
418.274	1150.12
418.497	1146.12
418.72	1188.12
418.943	1193.12
419.166	1256.12
419.389	1307.12
419.611	1295.12
419.834	1249.12
420.057	1243.12
420.28	1160.12
420.503	1151.12
420.726	1145.12
420.948	1131.12
421.171	1164.12
421.394	1151.12
421.617	1142.12
421.839	1165.12
422.062	1173.12
422.285	1162.12
422.507	1147.12
422.73	1177.12
422.953	1181.12
423.175	1206.12
423.398	1192.12
423.621	1204.12
423.843	1229.12
424.066	1264.12
424.288	1220.12
424.511	1222.12
424.733	1171.12
424.956	1182.12
425.178	1180.12
425.401	1159.12
425.623	1171.12
425.846	1121.12
426.068	1113.12
426.291	1132.12
426.513	1109.12
426.735	1096.12
426.958	1103.12
427.18	1081.12
427.402	1092.12
427.625	1059.12
427.847	1060.12
428.069	1060.12
428.292	1022.12
428.514	1033.12
428.736	1058.12
428.958	1007.12
429.181	986.12
429.403	1020.12
429.625	1033.12
429.847	984.12
430.069	989.12
430.292	995.12
430.514	997.12
430.736	1017.12
430.958	1024.12
431.18	995.12
431.402	1012.12
431.624	1023.12
431.846	1029.12
432.068	1053.12
432.29	1064.12
432.512	1024.12
432.734	1031.12
432.956	1033.12
433.178	1014.12
433.4	1037.12
433.622	1068.12
433.844	1081.12
434.066	1062.12
434.287	1065.12
434.509	1099.12
434.731	1117.12
434.953	1151.12
435.175	1161.12
435.397	1174.12
435.618	1078.12
435.84	1076.12
436.062	1045.12
436.284	1043.12
436.505	1071.12
436.727	1025.12
436.949	1034.12
437.17	1066.12
437.392	1022.12
437.614	1022.12
437.835	989.12
438.057	989.12
438.278	967.12
438.5	1001.12
438.721	989.12
438.943	1004.12
439.165	1010.12
439.386	1010.12
439.608	1045.12
439.829	1055.12
440.05	1037.12
440.272	1047.12
440.493	1015.12
440.715	1049.12
440.936	1050.12
441.158	1076.12
441.379	1108.12
441.6	1179.12
441.822	1172.12
442.043	1166.12
442.264	1154.12
442.486	1114.12
442.707	1140.12
442.928	1131.12
443.149	1111.12
443.371	1148.12
443.592	1159.12
443.813	1164.12
444.034	1156.12
444.255	1208.12
444.476	1253.12
444.698	1327.12
444.919	1338.12
445.14	1463.12
445.361	1337.12
445.582	1188.12
445.803	1105.12
446.024	1076.12
446.245	1065.12
446.466	1074.12
446.687	1022.12
446.908	1011.12
447.129	1005.12
447.35	992.12
447.571	996.12
447.792	965.12
448.013	984.12
448.234	963.12
448.455	950.12
448.675	957.12
448.896	942.12
449.117	957.12
449.338	936.12
449.559	939.12
449.779	915.12
450	907.12
450.221	927.12
450.442	947.12
450.662	967.12
450.883	952.12
451.104	975.12
451.324	968.12
451.545	949.12
451.766	945.12
451.986	916.12
452.207	932.12
452.428	925.12
452.648	934.12
452.869	928.12
453.089	909.12
453.31	933.12
453.53	924.12
453.751	894.12
453.971	898.12
454.192	925.12
454.412	912.12
454.633	901.12
454.853	908.12
455.073	891.12
455.294	880.12
455.514	889.12
455.734	900.12
455.955	884.12
456.175	897.12
456.395	870.12
456.616	882.12
456.836	863.12
457.056	893.12
457.276	896.12
457.497	906.12
457.717	900.12
457.937	906.12
458.157	932.12
458.377	882.12
458.598	922.12
458.818	953.12
459.038	953.12
459.258	1018.12
459.478	1051.12
459.698	1081.12
459.918	1136.12
460.138	1192.12
460.358	1183.12
460.578	1213.12
460.798	1232.12
461.018	1246.12
461.238	1212.12
461.458	1209.12
461.678	1251.12
461.898	1259.12
462.118	1233.12
462.338	1332.12
462.558	1318.12
462.777	1394.12
462.997	1480.12
463.217	1571.12
463.437	1599.12
463.657	1487.12
463.876	1454.12
464.096	1418.12
464.316	1387.12
464.536	1422.12
464.755	1367.12
464.975	1296.12
465.195	1240.12
465.414	1182.12
465.634	1143.12
465.854	1075.12
466.073	1078.12
466.293	1035.12
466.512	1024.12
466.732	1038.12
466.951	1004.12
467.171	997.12
467.391	984.12
467.61	971.12
467.829	1011.12
468.049	975.12
468.268	979.12
468.488	960.12
468.707	971.12
468.927	974.12
469.146	960.12
469.365	994.12
469.585	954.12
469.804	996.12
470.023	1012.12
470.243	978.12
470.462	992.12
470.681	1044.12
470.901	1034.12
471.12	1006.12
471.339	974.12
471.558	1010.12
471.777	1005.12
471.997	968.12
472.216	984.12
472.435	955.12
472.654	997.12
472.873	971.12
473.092	971.12
473.311	948.12
473.53	952.12
473.749	921.12
473.968	941.12
474.187	922.12
474.406	953.12
474.625	939.12
474.844	927.12
475.063	957.12
475.282	965.12
475.501	968.12
475.72	990.12
475.939	973.12
476.158	985.12
476.377	982.12
476.596	1011.12
476.814	999.12
477.033	1018.12
477.252	991.12
477.471	1047.12
477.69	1052.12
477.908	1083.12
478.127	1104.12
478.346	1127.12
478.564	1150.12
478.783	1138.12
479.002	1180.12
479.22	1193.12
479.439	1212.12
479.658	1206.12
479.876	1192.12
480.095	1185.12
480.313	1247.12
480.532	1278.12
480.751	1252.12
480.969	1228.12
481.188	1166.12
481.406	1126.12
481.624	1131.12
481.843	1076.12
482.061	1092.12
482.28	1124.12
482.498	1100.12
482.717	1112.12
482.935	1090.12
483.153	1070.12
483.372	1101.12
483.59	1108.12
483.808	1100.12
484.027	1098.12
484.245	1084.12
484.463	1100.12
484.681	1116.12
484.9	1127.12
485.118	1136.12
485.336	1100.12
485.554	1117.12
485.772	1133.12
485.99	1156.12
486.209	1128.12
486.427	1146.12
486.645	1160.12
486.863	1156.12
487.081	1130.12
487.299	1098.12
487.517	1091.12
487.735	1150.12
487.953	1135.12
488.171	1146.12
488.389	1127.12
488.607	1130.12
488.825	1107.12
489.043	1097.12
489.261	1099.12
489.479	1113.12
489.696	1140.12
489.914	1140.12
490.132	1175.12
490.35	1135.12
490.568	1133.12
490.786	1125.12
491.003	1168.12
491.221	1148.12
491.439	1156.12
491.657	1119.12
491.874	1131.12
492.092	1173.12
492.31	1166.12
492.527	1173.12
492.745	1159.12
492.963	1172.12
493.18	1194.12
493.398	1185.12
493.615	1176.12
493.833	1182.12
494.05	1214.12
494.268	1198.12
494.485	1214.12
494.703	1221.12
494.92	1180.12
495.138	1174.12
495.355	1190.12
495.573	1214.12
495.79	1267.12
496.008	1224.12
496.225	1211.12
496.442	1238.12
