Data from NiCl2@0.5M.TitratingCurve.Agarose3%dH2O.NegLispCup.LampEnergy10.LIBS07252019_HRD10591_18-21-27-571.txt Node
Date: Thu Jul 25 18:21:27 EDT 2019
User: cochatt
Spectrometer: HR+D1059
Trigger mode: 1
Integration Time (sec): 1.000000E-1
Scans to average: 1
Electric dark correction enabled: true
Nonlinearity correction enabled: false
Boxcar width: 0
XAxis mode: Wavelengths
Number of Pixels in Spectrum: 2048
>>>>>Begin Spectral Data<<<<<
223.165	-24.81
223.4	-24.81
223.635	-24.81
223.869	-12.81
224.104	-15.81
224.338	-12.81
224.573	-12.81
224.808	-9.81
225.042	-6.81
225.277	-3.81
225.511	-1.81
225.746	2.19
225.98	12.19
226.215	7.19
226.449	16.19
226.683	24.19
226.918	22.19
227.152	17.19
227.387	39.19
227.621	35.19
227.856	26.19
228.09	48.19
228.324	55.19
228.559	78.19
228.793	71.19
229.027	80.19
229.262	98.19
229.496	83.19
229.73	80.19
229.964	103.19
230.199	130.19
230.433	106.19
230.667	119.19
230.901	122.19
231.136	126.19
231.37	103.19
231.604	131.19
231.838	107.19
232.072	114.19
232.306	122.19
232.541	120.19
232.775	120.19
233.009	144.19
233.243	121.19
233.477	126.19
233.711	129.19
233.945	111.19
234.179	119.19
234.413	126.19
234.647	137.19
234.881	132.19
235.115	118.19
235.349	125.19
235.583	134.19
235.817	132.19
236.051	129.19
236.285	130.19
236.519	155.19
236.753	128.19
236.987	128.19
237.221	137.19
237.455	142.19
237.689	122.19
237.922	131.19
238.156	134.19
238.39	135.19
238.624	146.19
238.858	126.19
239.091	136.19
239.325	132.19
239.559	144.19
239.793	135.19
240.027	152.19
240.26	126.19
240.494	153.19
240.728	151.19
240.961	154.19
241.195	154.19
241.429	154.19
241.662	158.19
241.896	155.19
242.13	168.19
242.363	161.19
242.597	164.19
242.83	160.19
243.064	158.19
243.298	155.19
243.531	169.19
243.765	174.19
243.998	155.19
244.232	167.19
244.465	165.19
244.699	174.19
244.932	177.19
245.166	179.19
245.399	182.19
245.633	175.19
245.866	182.19
246.099	156.19
246.333	171.19
246.566	177.19
246.8	177.19
247.033	192.19
247.266	189.19
247.5	179.19
247.733	175.19
247.966	186.19
248.2	184.19
248.433	201.19
248.666	190.19
248.899	190.19
249.133	199.19
249.366	212.19
249.599	193.19
249.832	191.19
250.066	215.19
250.299	189.19
250.532	195.19
250.765	212.19
250.998	199.19
251.231	223.19
251.465	201.19
251.698	202.19
251.931	197.19
252.164	219.19
252.397	199.19
252.63	204.19
252.863	202.19
253.096	218.19
253.329	215.19
253.562	206.19
253.795	208.19
254.028	217.19
254.261	229.19
254.494	212.19
254.727	218.19
254.96	226.19
255.193	218.19
255.426	229.19
255.659	217.19
255.892	233.19
256.124	249.19
256.357	224.19
256.59	222.19
256.823	218.19
257.056	219.19
257.289	219.19
257.521	234.19
257.754	226.19
257.987	250.19
258.22	251.19
258.452	239.19
258.685	247.19
258.918	244.19
259.151	254.19
259.383	227.19
259.616	237.19
259.849	238.19
260.081	244.19
260.314	244.19
260.547	250.19
260.779	235.19
261.012	249.19
261.244	235.19
261.477	266.19
261.71	259.19
261.942	267.19
262.175	257.19
262.407	241.19
262.64	254.19
262.872	271.19
263.105	253.19
263.337	263.19
263.57	272.19
263.802	263.19
264.035	275.19
264.267	266.19
264.499	285.19
264.732	274.19
264.964	266.19
265.197	272.19
265.429	277.19
265.661	263.19
265.894	282.19
266.126	276.19
266.358	290.19
266.591	286.19
266.823	276.19
267.055	281.19
267.287	268.19
267.52	270.19
267.752	283.19
267.984	302.19
268.216	298.19
268.448	282.19
268.681	274.19
268.913	284.19
269.145	293.19
269.377	284.19
269.609	288.19
269.841	299.19
270.073	294.19
270.306	302.19
270.538	289.19
270.77	306.19
271.002	311.19
271.234	286.19
271.466	314.19
271.698	295.19
271.93	308.19
272.162	315.19
272.394	306.19
272.626	320.19
272.858	306.19
273.09	322.19
273.322	313.19
273.553	308.19
273.785	319.19
274.017	300.19
274.249	332.19
274.481	327.19
274.713	311.19
274.945	327.19
275.176	311.19
275.408	326.19
275.64	328.19
275.872	341.19
276.104	307.19
276.335	318.19
276.567	334.19
276.799	337.19
277.031	326.19
277.262	322.19
277.494	327.19
277.726	328.19
277.957	330.19
278.189	324.19
278.421	322.19
278.652	361.19
278.884	345.19
279.115	330.19
279.347	331.19
279.579	340.19
279.81	361.19
280.042	338.19
280.273	354.19
280.505	357.19
280.736	345.19
280.968	344.19
281.199	372.19
281.431	357.19
281.662	373.19
281.894	353.19
282.125	359.19
282.356	359.19
282.588	372.19
282.819	363.19
283.051	375.19
283.282	340.19
283.513	377.19
283.745	374.19
283.976	358.19
284.207	375.19
284.439	374.19
284.67	388.19
284.901	371.19
285.132	382.19
285.364	396.19
285.595	374.19
285.826	374.19
286.057	391.19
286.288	386.19
286.52	397.19
286.751	381.19
286.982	387.19
287.213	376.19
287.444	386.19
287.675	410.19
287.906	383.19
288.138	393.19
288.369	408.19
288.6	395.19
288.831	387.19
289.062	409.19
289.293	395.19
289.524	372.19
289.755	397.19
289.986	395.19
290.217	395.19
290.448	409.19
290.679	399.19
290.91	401.19
291.141	394.19
291.371	394.19
291.602	393.19
291.833	390.19
292.064	408.19
292.295	414.19
292.526	424.19
292.757	406.19
292.987	412.19
293.218	402.19
293.449	394.19
293.68	431.19
293.91	411.19
294.141	408.19
294.372	408.19
294.603	430.19
294.833	422.19
295.064	401.19
295.295	411.19
295.525	407.19
295.756	415.19
295.987	430.19
296.217	436.19
296.448	460.19
296.679	436.19
296.909	425.19
297.14	421.19
297.37	428.19
297.601	436.19
297.831	428.19
298.062	453.19
298.292	464.19
298.523	451.19
298.753	457.19
298.984	456.19
299.214	443.19
299.445	455.19
299.675	448.19
299.905	478.19
300.136	453.19
300.366	449.19
300.597	488.19
300.827	466.19
301.057	465.19
301.288	471.19
301.518	488.19
301.748	491.19
301.979	466.19
302.209	474.19
302.439	463.19
302.669	451.19
302.9	467.19
303.13	458.19
303.36	461.19
303.59	463.19
303.82	474.19
304.051	463.19
304.281	482.19
304.511	471.19
304.741	475.19
304.971	459.19
305.201	473.19
305.431	481.19
305.661	472.19
305.891	467.19
306.121	457.19
306.352	466.19
306.582	480.19
306.812	470.19
307.042	456.19
307.272	454.19
307.502	451.19
307.731	473.19
307.961	465.19
308.191	454.19
308.421	454.19
308.651	466.19
308.881	447.19
309.111	466.19
309.341	438.19
309.571	454.19
309.8	473.19
310.03	485.19
310.26	467.19
310.49	482.19
310.72	466.19
310.949	486.19
311.179	463.19
311.409	473.19
311.639	471.19
311.868	476.19
312.098	460.19
312.328	463.19
312.557	487.19
312.787	491.19
313.017	508.19
313.246	498.19
313.476	485.19
313.706	526.19
313.935	496.19
314.165	529.19
314.394	513.19
314.624	507.19
314.853	489.19
315.083	510.19
315.312	490.19
315.542	508.19
315.771	523.19
316.001	477.19
316.23	497.19
316.46	488.19
316.689	504.19
316.919	490.19
317.148	500.19
317.377	500.19
317.607	489.19
317.836	478.19
318.065	482.19
318.295	476.19
318.524	483.19
318.753	478.19
318.983	470.19
319.212	502.19
319.441	500.19
319.67	502.19
319.9	495.19
320.129	496.19
320.358	500.19
320.587	484.19
320.816	504.19
321.046	498.19
321.275	508.19
321.504	500.19
321.733	482.19
321.962	486.19
322.191	503.19
322.42	517.19
322.649	511.19
322.878	494.19
323.108	514.19
323.337	508.19
323.566	500.19
323.795	521.19
324.024	520.19
324.253	517.19
324.482	528.19
324.71	533.19
324.939	524.19
325.168	533.19
325.397	528.19
325.626	545.19
325.855	527.19
326.084	540.19
326.313	552.19
326.542	542.19
326.77	566.19
326.999	544.19
327.228	526.19
327.457	539.19
327.686	532.19
327.914	549.19
328.143	531.19
328.372	551.19
328.6	523.19
328.829	555.19
329.058	533.19
329.287	538.19
329.515	552.19
329.744	533.19
329.972	547.19
330.201	546.19
330.43	534.19
330.658	550.19
330.887	560.19
331.115	551.19
331.344	587.19
331.572	563.19
331.801	592.19
332.03	607.19
332.258	612.19
332.486	630.19
332.715	635.19
332.943	646.19
333.172	686.19
333.4	687.19
333.629	714.19
333.857	708.19
334.085	708.19
334.314	698.19
334.542	687.19
334.771	656.19
334.999	678.19
335.227	666.19
335.455	684.19
335.684	662.19
335.912	645.19
336.14	653.19
336.369	680.19
336.597	666.19
336.825	660.19
337.053	661.19
337.281	640.19
337.51	634.19
337.738	624.19
337.966	624.19
338.194	596.19
338.422	607.19
338.65	603.19
338.878	600.19
339.106	591.19
339.334	598.19
339.562	599.19
339.79	571.19
340.018	585.19
340.246	583.19
340.474	578.19
340.702	568.19
340.93	565.19
341.158	571.19
341.386	584.19
341.614	581.19
341.842	578.19
342.07	574.19
342.298	546.19
342.526	586.19
342.754	550.19
342.981	577.19
343.209	592.19
343.437	614.19
343.665	659.19
343.893	682.19
344.12	668.19
344.348	666.19
344.576	651.19
344.804	635.19
345.031	598.19
345.259	579.19
345.487	577.19
345.714	580.19
345.942	587.19
346.17	600.19
346.397	576.19
346.625	560.19
346.853	540.19
347.08	555.19
347.308	553.19
347.535	559.19
347.763	554.19
347.99	553.19
348.218	552.19
348.445	545.19
348.673	550.19
348.9	576.19
349.128	560.19
349.355	539.19
349.583	547.19
349.81	525.19
350.037	537.19
350.265	523.19
350.492	524.19
350.72	519.19
350.947	512.19
351.174	552.19
351.402	531.19
351.629	528.19
351.856	547.19
352.083	553.19
352.311	551.19
352.538	560.19
352.765	554.19
352.992	547.19
353.22	529.19
353.447	503.19
353.674	517.19
353.901	507.19
354.128	521.19
354.355	514.19
354.583	518.19
354.81	537.19
355.037	532.19
355.264	524.19
355.491	531.19
355.718	554.19
355.945	538.19
356.172	528.19
356.399	529.19
356.626	540.19
356.853	562.19
357.08	534.19
357.307	516.19
357.534	534.19
357.761	541.19
357.988	529.19
358.215	532.19
358.441	503.19
358.668	515.19
358.895	532.19
359.122	517.19
359.349	528.19
359.576	544.19
359.802	531.19
360.029	522.19
360.256	543.19
360.483	518.19
360.709	525.19
360.936	530.19
361.163	532.19
361.39	536.19
361.616	537.19
361.843	556.19
362.07	578.19
362.296	560.19
362.523	511.19
362.749	535.19
362.976	502.19
363.203	529.19
363.429	514.19
363.656	522.19
363.882	538.19
364.109	504.19
364.335	500.19
364.562	521.19
364.788	518.19
365.015	539.19
365.241	524.19
365.468	509.19
365.694	520.19
365.92	518.19
366.147	502.19
366.373	521.19
366.599	508.19
366.826	498.19
367.052	527.19
367.278	500.19
367.505	514.19
367.731	538.19
367.957	532.19
368.184	518.19
368.41	536.19
368.636	535.19
368.862	534.19
369.089	529.19
369.315	532.19
369.541	539.19
369.767	545.19
369.993	551.19
370.219	530.19
370.445	543.19
370.672	550.19
370.898	549.19
371.124	553.19
371.35	563.19
371.576	546.19
371.802	574.19
372.028	563.19
372.254	551.19
372.48	577.19
372.706	585.19
372.932	596.19
373.158	594.19
373.384	585.19
373.61	562.19
373.835	560.19
374.061	551.19
374.287	571.19
374.513	594.19
374.739	596.19
374.965	603.19
375.191	621.19
375.416	613.19
375.642	592.19
375.868	600.19
376.094	598.19
376.319	570.19
376.545	579.19
376.771	558.19
376.997	558.19
377.222	558.19
377.448	592.19
377.674	572.19
377.899	585.19
378.125	570.19
378.35	580.19
378.576	565.19
378.802	547.19
379.027	552.19
379.253	558.19
379.478	568.19
379.704	565.19
379.929	544.19
380.155	563.19
380.38	532.19
380.606	551.19
380.831	550.19
381.057	552.19
381.282	562.19
381.507	548.19
381.733	567.19
381.958	552.19
382.184	579.19
382.409	572.19
382.634	580.19
382.86	587.19
383.085	609.19
383.31	598.19
383.535	599.19
383.761	632.19
383.986	619.19
384.211	634.19
384.436	639.19
384.662	650.19
384.887	649.19
385.112	644.19
385.337	667.19
385.562	656.19
385.787	670.19
386.013	655.19
386.238	680.19
386.463	660.19
386.688	642.19
386.913	663.19
387.138	662.19
387.363	667.19
387.588	645.19
387.813	667.19
388.038	660.19
388.263	676.19
388.488	666.19
388.713	665.19
388.938	649.19
389.163	635.19
389.387	660.19
389.612	654.19
389.837	658.19
390.062	646.19
390.287	652.19
390.512	642.19
390.736	666.19
390.961	658.19
391.186	688.19
391.411	711.19
391.636	716.19
391.86	740.19
392.085	737.19
392.31	737.19
392.534	724.19
392.759	701.19
392.984	700.19
393.208	722.19
393.433	713.19
393.658	728.19
393.882	693.19
394.107	707.19
394.331	717.19
394.556	715.19
394.78	750.19
395.005	715.19
395.229	707.19
395.454	755.19
395.678	756.19
395.903	732.19
396.127	740.19
396.352	726.19
396.576	713.19
396.801	735.19
397.025	705.19
397.249	720.19
397.474	752.19
397.698	761.19
397.922	755.19
398.147	754.19
398.371	766.19
398.595	796.19
398.82	847.19
399.044	875.19
399.268	951.19
399.492	1100.19
399.717	1193.19
399.941	1148.19
400.165	1077.19
400.389	996.19
400.613	932.19
400.837	879.19
401.062	862.19
401.286	819.19
401.51	836.19
401.734	848.19
401.958	854.19
402.182	835.19
402.406	821.19
402.63	869.19
402.854	876.19
403.078	856.19
403.302	898.19
403.526	922.19
403.75	917.19
403.974	912.19
404.198	931.19
404.422	944.19
404.645	909.19
404.869	928.19
405.093	912.19
405.317	914.19
405.541	894.19
405.765	922.19
405.988	896.19
406.212	900.19
406.436	911.19
406.66	933.19
406.883	911.19
407.107	1000.19
407.331	1018.19
407.555	1036.19
407.778	1078.19
408.002	1061.19
408.226	987.19
408.449	987.19
408.673	961.19
408.896	932.19
409.12	963.19
409.344	937.19
409.567	946.19
409.791	951.19
410.014	928.19
410.238	924.19
410.461	926.19
410.685	917.19
410.908	904.19
411.132	899.19
411.355	871.19
411.578	836.19
411.802	881.19
412.025	876.19
412.249	859.19
412.472	878.19
412.695	866.19
412.919	858.19
413.142	850.19
413.365	846.19
413.589	840.19
413.812	847.19
414.035	824.19
414.258	828.19
414.482	857.19
414.705	822.19
414.928	852.19
415.151	837.19
415.374	840.19
415.597	871.19
415.821	816.19
416.044	808.19
416.267	816.19
416.49	816.19
416.713	807.19
416.936	846.19
417.159	812.19
417.382	823.19
417.605	825.19
417.828	837.19
418.051	842.19
418.274	825.19
418.497	827.19
418.72	838.19
418.943	848.19
419.166	900.19
419.389	935.19
419.611	916.19
419.834	898.19
420.057	861.19
420.28	856.19
420.503	853.19
420.726	822.19
420.948	815.19
421.171	825.19
421.394	807.19
421.617	794.19
421.839	831.19
422.062	857.19
422.285	837.19
422.507	858.19
422.73	827.19
422.953	832.19
423.175	846.19
423.398	878.19
423.621	863.19
423.843	848.19
424.066	866.19
424.288	856.19
424.511	860.19
424.733	859.19
424.956	826.19
425.178	851.19
425.401	834.19
425.623	820.19
425.846	790.19
426.068	795.19
426.291	809.19
426.513	808.19
426.735	809.19
426.958	803.19
427.18	758.19
427.402	785.19
427.625	774.19
427.847	752.19
428.069	759.19
428.292	746.19
428.514	735.19
428.736	771.19
428.958	757.19
429.181	740.19
429.403	736.19
429.625	727.19
429.847	724.19
430.069	727.19
430.292	728.19
430.514	725.19
430.736	752.19
430.958	750.19
431.18	729.19
431.402	743.19
431.624	737.19
431.846	755.19
432.068	766.19
432.29	747.19
432.512	746.19
432.734	747.19
432.956	743.19
433.178	771.19
433.4	767.19
433.622	765.19
433.844	787.19
434.066	775.19
434.287	785.19
434.509	801.19
434.731	831.19
434.953	837.19
435.175	852.19
435.397	839.19
435.618	786.19
435.84	816.19
436.062	775.19
436.284	760.19
436.505	762.19
436.727	774.19
436.949	794.19
437.17	768.19
437.392	746.19
437.614	750.19
437.835	718.19
438.057	746.19
438.278	743.19
438.5	728.19
438.721	735.19
438.943	750.19
439.165	740.19
439.386	746.19
439.608	751.19
439.829	797.19
440.05	755.19
440.272	788.19
440.493	782.19
440.715	785.19
440.936	806.19
441.158	790.19
441.379	811.19
441.6	881.19
441.822	862.19
442.043	847.19
442.264	834.19
442.486	838.19
442.707	827.19
442.928	846.19
443.149	806.19
443.371	854.19
443.592	864.19
443.813	856.19
444.034	858.19
444.255	884.19
444.476	890.19
444.698	923.19
444.919	999.19
445.14	1025.19
445.361	938.19
445.582	868.19
445.803	838.19
446.024	838.19
446.245	806.19
446.466	810.19
446.687	771.19
446.908	782.19
447.129	748.19
447.35	768.19
447.571	736.19
447.792	717.19
448.013	722.19
448.234	732.19
448.455	712.19
448.675	706.19
448.896	723.19
449.117	697.19
449.338	688.19
449.559	686.19
449.779	697.19
450	700.19
450.221	683.19
450.442	727.19
450.662	734.19
450.883	702.19
451.104	745.19
451.324	735.19
451.545	706.19
451.766	712.19
451.986	724.19
452.207	712.19
452.428	721.19
452.648	715.19
452.869	673.19
453.089	670.19
453.31	681.19
453.53	702.19
453.751	704.19
453.971	697.19
454.192	691.19
454.412	665.19
454.633	676.19
454.853	664.19
455.073	668.19
455.294	670.19
455.514	681.19
455.734	662.19
455.955	671.19
456.175	666.19
456.395	659.19
456.616	636.19
456.836	683.19
457.056	689.19
457.276	654.19
457.497	678.19
457.717	683.19
457.937	680.19
458.157	677.19
458.377	706.19
458.598	719.19
458.818	718.19
459.038	718.19
459.258	752.19
459.478	782.19
459.698	793.19
459.918	811.19
460.138	849.19
460.358	857.19
460.578	881.19
460.798	902.19
461.018	919.19
461.238	907.19
461.458	856.19
461.678	898.19
461.898	914.19
462.118	886.19
462.338	958.19
462.558	952.19
462.777	1009.19
462.997	1084.19
463.217	1145.19
463.437	1150.19
463.657	1111.19
463.876	1052.19
464.096	1022.19
464.316	1063.19
464.536	1040.19
464.755	1014.19
464.975	988.19
465.195	934.19
465.414	851.19
465.634	845.19
465.854	820.19
466.073	771.19
466.293	778.19
466.512	759.19
466.732	760.19
466.951	745.19
467.171	735.19
467.391	728.19
467.61	717.19
467.829	736.19
468.049	751.19
468.268	714.19
468.488	718.19
468.707	735.19
468.927	723.19
469.146	705.19
469.365	719.19
469.585	731.19
469.804	713.19
470.023	739.19
470.243	768.19
470.462	771.19
470.681	760.19
470.901	787.19
471.12	747.19
471.339	731.19
471.558	704.19
471.777	734.19
471.997	724.19
472.216	714.19
472.435	710.19
472.654	701.19
472.873	681.19
473.092	696.19
473.311	674.19
473.53	713.19
473.749	721.19
473.968	702.19
474.187	692.19
474.406	704.19
474.625	706.19
474.844	700.19
475.063	724.19
475.282	706.19
475.501	719.19
475.72	716.19
475.939	713.19
476.158	724.19
476.377	748.19
476.596	720.19
476.814	710.19
477.033	726.19
477.252	741.19
477.471	787.19
477.69	810.19
477.908	802.19
478.127	822.19
478.346	831.19
478.564	828.19
478.783	854.19
479.002	881.19
479.22	874.19
479.439	851.19
479.658	824.19
479.876	849.19
480.095	889.19
480.313	915.19
480.532	912.19
480.751	914.19
480.969	868.19
481.188	850.19
481.406	848.19
481.624	843.19
481.843	806.19
482.061	808.19
482.28	819.19
482.498	798.19
482.717	804.19
482.935	819.19
483.153	790.19
483.372	809.19
483.59	833.19
483.808	819.19
484.027	802.19
484.245	802.19
484.463	804.19
484.681	854.19
484.9	854.19
485.118	814.19
485.336	843.19
485.554	857.19
485.772	872.19
485.99	857.19
486.209	828.19
486.427	837.19
486.645	830.19
486.863	864.19
487.081	855.19
487.299	826.19
487.517	828.19
487.735	855.19
487.953	859.19
488.171	866.19
488.389	817.19
488.607	840.19
488.825	828.19
489.043	805.19
489.261	844.19
489.479	835.19
489.696	827.19
489.914	841.19
490.132	832.19
490.35	853.19
490.568	836.19
490.786	852.19
491.003	869.19
491.221	869.19
491.439	856.19
491.657	859.19
491.874	858.19
492.092	888.19
492.31	890.19
492.527	863.19
492.745	902.19
492.963	874.19
493.18	869.19
493.398	885.19
493.615	887.19
493.833	905.19
494.05	893.19
494.268	887.19
494.485	899.19
494.703	886.19
494.92	904.19
495.138	901.19
495.355	884.19
495.573	919.19
495.79	938.19
496.008	937.19
496.225	928.19
496.442	899.19
496.66	944.19
496.877	935.19
497.094	974.19
497.312	983.19
497.529	987.19
497.746	1032.19
497.963	1063.19
498.181	1087.19
498.398	1117.19
498.615	1157.19
498.832	1265.19
499.049	1337.19
499.267	1456.19
499.484	1577.19
499.701	1708.19
499.918	1908.19
500.135	2087.19
500.352	2289.19
500.569	2430.19
500.786	2379.19
501.003	2269.19
501.22	2055.19
