Data from NiCl2@0.25M.TitratingCurve.Agarose3%dH2O.NegLispCup.LampEnergy10.LIBS07252019_HRD10591_18-24-18-574.txt Node
Date: Thu Jul 25 18:24:18 EDT 2019
User: cochatt
Spectrometer: HR+D1059
Trigger mode: 1
Integration Time (sec): 1.000000E-1
Scans to average: 1
Electric dark correction enabled: true
Nonlinearity correction enabled: false
Boxcar width: 0
XAxis mode: Wavelengths
Number of Pixels in Spectrum: 2048
>>>>>Begin Spectral Data<<<<<
223.165	-20
223.4	-20
223.635	-20
223.869	-13
224.104	-23
224.338	-11
224.573	-10
224.808	1
225.042	-12
225.277	-1
225.511	-10
225.746	-4
225.98	14
226.215	8
226.449	4
226.683	24
226.918	26
227.152	27
227.387	33
227.621	43
227.856	46
228.09	46
228.324	52
228.559	59
228.793	71
229.027	117
229.262	118
229.496	100
229.73	137
229.964	140
230.199	137
230.433	158
230.667	146
230.901	154
231.136	163
231.37	140
231.604	146
231.838	162
232.072	165
232.306	154
232.541	166
232.775	164
233.009	174
233.243	159
233.477	165
233.711	146
233.945	174
234.179	159
234.413	167
234.647	173
234.881	182
235.115	182
235.349	176
235.583	167
235.817	188
236.051	170
236.285	168
236.519	171
236.753	181
236.987	185
237.221	185
237.455	187
237.689	189
237.922	184
238.156	186
238.39	195
238.624	194
238.858	188
239.091	196
239.325	196
239.559	187
239.793	187
240.027	208
240.26	203
240.494	198
240.728	203
240.961	214
241.195	215
241.429	209
241.662	238
241.896	219
242.13	235
242.363	237
242.597	224
242.83	224
243.064	241
243.298	259
243.531	258
243.765	233
243.998	234
244.232	228
244.465	230
244.699	252
244.932	256
245.166	273
245.399	280
245.633	250
245.866	251
246.099	241
246.333	231
246.566	265
246.8	263
247.033	272
247.266	267
247.5	263
247.733	264
247.966	255
248.2	276
248.433	262
248.666	263
248.899	280
249.133	280
249.366	302
249.599	288
249.832	288
250.066	295
250.299	294
250.532	303
250.765	315
250.998	299
251.231	320
251.465	317
251.698	313
251.931	330
252.164	314
252.397	318
252.63	321
252.863	324
253.096	315
253.329	315
253.562	305
253.795	329
254.028	324
254.261	328
254.494	323
254.727	320
254.96	316
255.193	327
255.426	331
255.659	326
255.892	324
256.124	347
256.357	336
256.59	360
256.823	349
257.056	347
257.289	336
257.521	347
257.754	346
257.987	349
258.22	366
258.452	374
258.685	346
258.918	376
259.151	370
259.383	395
259.616	376
259.849	360
260.081	371
260.314	373
260.547	366
260.779	354
261.012	386
261.244	405
261.477	376
261.71	374
261.942	397
262.175	395
262.407	397
262.64	386
262.872	391
263.105	410
263.337	390
263.57	407
263.802	402
264.035	389
264.267	412
264.499	405
264.732	406
264.964	397
265.197	426
265.429	406
265.661	413
265.894	421
266.126	443
266.358	431
266.591	434
266.823	427
267.055	434
267.287	451
267.52	436
267.752	433
267.984	427
268.216	445
268.448	431
268.681	457
268.913	460
269.145	432
269.377	437
269.609	446
269.841	455
270.073	455
270.306	467
270.538	454
270.77	444
271.002	456
271.234	470
271.466	445
271.698	471
271.93	481
272.162	467
272.394	471
272.626	454
272.858	474
273.09	460
273.322	490
273.553	507
273.785	499
274.017	483
274.249	490
274.481	496
274.713	502
274.945	501
275.176	507
275.408	477
275.64	496
275.872	514
276.104	504
276.335	500
276.567	510
276.799	498
277.031	495
277.262	519
277.494	516
277.726	509
277.957	528
278.189	516
278.421	537
278.652	532
278.884	516
279.115	535
279.347	533
279.579	545
279.81	539
280.042	537
280.273	542
280.505	529
280.736	559
280.968	540
281.199	552
281.431	567
281.662	576
281.894	558
282.125	562
282.356	574
282.588	584
282.819	587
283.051	589
283.282	600
283.513	595
283.745	587
283.976	582
284.207	590
284.439	577
284.67	570
284.901	582
285.132	597
285.364	566
285.595	601
285.826	580
286.057	619
286.288	592
286.52	591
286.751	592
286.982	605
287.213	615
287.444	631
287.675	626
287.906	620
288.138	626
288.369	643
288.6	633
288.831	634
289.062	619
289.293	626
289.524	662
289.755	628
289.986	635
290.217	616
290.448	646
290.679	638
290.91	646
291.141	659
291.371	638
291.602	667
291.833	625
292.064	635
292.295	640
292.526	658
292.757	655
292.987	660
293.218	662
293.449	636
293.68	667
293.91	658
294.141	643
294.372	634
294.603	630
294.833	657
295.064	656
295.295	656
295.525	652
295.756	664
295.987	652
296.217	663
296.448	678
296.679	676
296.909	657
297.14	662
297.37	681
297.601	694
297.831	690
298.062	674
298.292	679
298.523	690
298.753	710
298.984	694
299.214	689
299.445	701
299.675	698
299.905	684
300.136	714
300.366	706
300.597	702
300.827	743
301.057	748
301.288	754
301.518	745
301.748	754
301.979	729
302.209	762
302.439	758
302.669	702
302.9	724
303.13	706
303.36	755
303.59	742
303.82	725
304.051	733
304.281	721
304.511	731
304.741	755
304.971	747
305.201	709
305.431	706
305.661	735
305.891	721
306.121	723
306.352	723
306.582	722
306.812	713
307.042	732
307.272	726
307.502	721
307.731	691
307.961	707
308.191	707
308.421	707
308.651	719
308.881	694
309.111	698
309.341	690
309.571	693
309.8	716
310.03	720
310.26	708
310.49	698
310.72	714
310.949	730
311.179	703
311.409	743
311.639	746
311.868	741
312.098	736
312.328	738
312.557	740
312.787	742
313.017	771
313.246	776
313.476	768
313.706	780
313.935	772
314.165	789
314.394	772
314.624	776
314.853	783
315.083	759
315.312	772
315.542	741
315.771	778
316.001	758
316.23	762
316.46	760
316.689	777
316.919	734
317.148	732
317.377	746
317.607	745
317.836	772
318.065	751
318.295	750
318.524	760
318.753	755
318.983	770
319.212	755
319.441	766
319.67	756
319.9	742
320.129	756
320.358	764
320.587	767
320.816	758
321.046	755
321.275	761
321.504	776
321.733	765
321.962	745
322.191	765
322.42	744
322.649	781
322.878	789
323.108	774
323.337	757
323.566	805
323.795	779
324.024	771
324.253	803
324.482	801
324.71	790
324.939	784
325.168	800
325.397	792
325.626	799
325.855	834
326.084	820
326.313	831
326.542	850
326.77	822
326.999	802
327.228	809
327.457	835
327.686	795
327.914	830
328.143	820
328.372	856
328.6	826
328.829	848
329.058	836
329.287	830
329.515	850
329.744	843
329.972	849
330.201	850
330.43	835
330.658	834
330.887	855
331.115	858
331.344	867
331.572	872
331.801	906
332.03	914
332.258	918
332.486	931
332.715	1019
332.943	1033
333.172	1087
333.4	1132
333.629	1123
333.857	1172
334.085	1146
334.314	1148
334.542	1112
334.771	1104
334.999	1068
335.227	1074
335.455	1052
335.684	1049
335.912	1023
336.14	1016
336.369	1020
336.597	1051
336.825	1027
337.053	1009
337.281	989
337.51	972
337.738	945
337.966	917
338.194	947
338.422	938
338.65	905
338.878	901
339.106	916
339.334	918
339.562	913
339.79	881
340.018	885
340.246	857
340.474	850
340.702	870
340.93	896
341.158	888
341.386	882
341.614	893
341.842	876
342.07	834
342.298	867
342.526	853
342.754	888
342.981	875
343.209	875
343.437	923
343.665	994
343.893	1049
344.12	1115
344.348	1066
344.576	994
344.804	964
345.031	908
345.259	906
345.487	880
345.714	886
345.942	882
346.17	855
346.397	859
346.625	824
346.853	843
347.08	843
347.308	840
347.535	833
347.763	856
347.99	856
348.218	849
348.445	842
348.673	807
348.9	820
349.128	834
349.355	839
349.583	859
349.81	855
350.037	783
350.265	815
350.492	809
350.72	789
350.947	804
351.174	794
351.402	802
351.629	794
351.856	818
352.083	823
352.311	807
352.538	794
352.765	800
352.992	791
353.22	787
353.447	786
353.674	782
353.901	809
354.128	784
354.355	798
354.583	807
354.81	810
355.037	803
355.264	784
355.491	799
355.718	799
355.945	829
356.172	811
356.399	797
356.626	819
356.853	846
357.08	814
357.307	847
357.534	822
357.761	827
357.988	807
358.215	826
358.441	786
358.668	796
358.895	793
359.122	806
359.349	807
359.576	817
359.802	808
360.029	806
360.256	820
360.483	826
360.709	817
360.936	830
361.163	810
361.39	830
361.616	830
361.843	824
362.07	830
362.296	794
362.523	819
362.749	800
362.976	811
363.203	822
363.429	775
363.656	790
363.882	800
364.109	808
364.335	796
364.562	801
364.788	788
365.015	810
365.241	803
365.468	803
365.694	800
365.92	811
366.147	807
366.373	810
366.599	797
366.826	833
367.052	795
367.278	792
367.505	812
367.731	820
367.957	818
368.184	818
368.41	836
368.636	824
368.862	818
369.089	838
369.315	839
369.541	818
369.767	858
369.993	822
370.219	822
370.445	841
370.672	834
370.898	871
371.124	848
371.35	896
371.576	857
371.802	883
372.028	875
372.254	894
372.48	871
372.706	902
372.932	910
373.158	883
373.384	897
373.61	885
373.835	893
374.061	896
374.287	875
374.513	920
374.739	928
374.965	977
375.191	995
375.416	979
375.642	953
375.868	950
376.094	922
376.319	879
376.545	882
376.771	919
376.997	894
377.222	890
377.448	865
377.674	880
377.899	850
378.125	867
378.35	833
378.576	876
378.802	855
379.027	859
379.253	884
379.478	876
379.704	883
379.929	884
380.155	888
380.38	847
380.606	867
380.831	857
381.057	864
381.282	878
381.507	890
381.733	875
381.958	897
382.184	908
382.409	923
382.634	917
382.86	932
383.085	930
383.31	966
383.535	968
383.761	964
383.986	976
384.211	1006
384.436	1024
384.662	1041
384.887	1043
385.112	1094
385.337	1092
385.562	1086
385.787	1089
386.013	1093
386.238	1057
386.463	1111
386.688	1090
386.913	1088
387.138	1041
387.363	1040
387.588	1068
387.813	1056
388.038	1072
388.263	1055
388.488	1075
388.713	1043
388.938	1051
389.163	1043
389.387	1033
389.612	1012
389.837	1014
390.062	1035
390.287	1037
390.512	1032
390.736	1051
390.961	1114
391.186	1091
391.411	1140
391.636	1158
391.86	1207
392.085	1227
392.31	1222
392.534	1196
392.759	1168
392.984	1137
393.208	1144
393.433	1158
393.658	1160
393.882	1148
394.107	1156
394.331	1150
394.556	1151
394.78	1177
395.005	1154
395.229	1146
395.454	1205
395.678	1214
395.903	1217
396.127	1201
396.352	1198
396.576	1129
396.801	1144
397.025	1166
397.249	1158
397.474	1231
397.698	1202
397.922	1248
398.147	1217
398.371	1259
398.595	1272
398.82	1339
399.044	1458
399.268	1635
399.492	1868
399.717	2099
399.941	2108
400.165	1920
400.389	1717
400.613	1576
400.837	1462
401.062	1431
401.286	1410
401.51	1388
401.734	1380
401.958	1397
402.182	1406
402.406	1399
402.63	1426
402.854	1506
403.078	1513
403.302	1522
403.526	1530
403.75	1564
403.974	1628
404.198	1607
404.422	1594
404.645	1588
404.869	1574
405.093	1600
405.317	1528
405.541	1535
405.765	1522
405.988	1492
406.212	1540
406.436	1510
406.66	1557
406.883	1578
407.107	1666
407.331	1782
407.555	1801
407.778	1766
408.002	1783
408.226	1714
408.449	1658
408.673	1595
408.896	1568
409.12	1531
409.344	1541
409.567	1544
409.791	1551
410.014	1570
410.238	1499
410.461	1497
410.685	1462
410.908	1444
411.132	1424
411.355	1368
411.578	1406
411.802	1420
412.025	1415
412.249	1473
412.472	1458
412.695	1381
412.919	1385
413.142	1367
413.365	1351
413.589	1372
413.812	1340
414.035	1339
414.258	1331
414.482	1375
414.705	1392
414.928	1390
415.151	1400
415.374	1371
415.597	1338
415.821	1321
416.044	1316
416.267	1335
416.49	1318
416.713	1339
416.936	1340
417.159	1321
417.382	1312
417.605	1337
417.828	1349
418.051	1369
418.274	1353
418.497	1324
418.72	1372
418.943	1391
419.166	1483
419.389	1580
419.611	1535
419.834	1481
420.057	1426
420.28	1392
420.503	1371
420.726	1350
420.948	1359
421.171	1348
421.394	1313
421.617	1306
421.839	1348
422.062	1353
422.285	1333
422.507	1393
422.73	1356
422.953	1347
423.175	1392
423.398	1381
423.621	1433
423.843	1427
424.066	1418
424.288	1426
424.511	1409
424.733	1377
424.956	1360
425.178	1366
425.401	1350
425.623	1348
425.846	1296
426.068	1308
426.291	1322
426.513	1271
426.735	1289
426.958	1280
427.18	1255
427.402	1244
427.625	1235
427.847	1223
428.069	1186
428.292	1198
428.514	1190
428.736	1195
428.958	1207
429.181	1150
429.403	1118
429.625	1180
429.847	1107
430.069	1118
430.292	1164
430.514	1160
430.736	1179
430.958	1171
431.18	1161
431.402	1175
431.624	1151
431.846	1142
432.068	1187
432.29	1224
432.512	1157
432.734	1212
432.956	1180
433.178	1204
433.4	1166
433.622	1187
433.844	1217
434.066	1197
434.287	1206
434.509	1255
434.731	1301
434.953	1314
435.175	1328
435.397	1336
435.618	1259
435.84	1230
436.062	1234
436.284	1190
436.505	1156
436.727	1198
436.949	1216
437.17	1147
437.392	1184
437.614	1149
437.835	1115
438.057	1120
438.278	1087
438.5	1127
438.721	1130
438.943	1159
439.165	1129
439.386	1104
439.608	1172
439.829	1150
440.05	1174
440.272	1165
440.493	1187
440.715	1189
440.936	1210
441.158	1205
441.379	1274
441.6	1289
441.822	1340
442.043	1346
442.264	1328
442.486	1327
442.707	1290
442.928	1297
443.149	1307
443.371	1293
443.592	1278
443.813	1328
444.034	1337
444.255	1390
444.476	1450
444.698	1554
444.919	1613
445.14	1678
445.361	1511
445.582	1406
445.803	1312
446.024	1268
446.245	1237
446.466	1220
446.687	1156
446.908	1194
447.129	1148
447.35	1144
447.571	1165
447.792	1130
448.013	1116
448.234	1090
448.455	1073
448.675	1075
448.896	1073
449.117	1070
449.338	1064
449.559	1073
449.779	1062
450	1052
450.221	1066
450.442	1066
450.662	1067
450.883	1079
451.104	1118
451.324	1094
451.545	1084
451.766	1091
451.986	1074
452.207	1073
452.428	1061
452.648	1064
452.869	1037
453.089	1041
453.31	1056
453.53	1024
453.751	1030
453.971	1038
454.192	1049
454.412	998
454.633	1037
454.853	991
455.073	978
455.294	982
455.514	987
455.734	1024
455.955	968
456.175	987
456.395	970
456.616	970
456.836	1013
457.056	978
457.276	991
457.497	1006
457.717	986
457.937	1036
458.157	1028
458.377	1020
458.598	1067
458.818	1095
459.038	1095
459.258	1119
459.478	1190
459.698	1207
459.918	1292
460.138	1323
460.358	1396
460.578	1406
460.798	1446
461.018	1461
461.238	1398
461.458	1401
461.678	1401
461.898	1417
462.118	1447
462.338	1483
462.558	1563
462.777	1589
462.997	1763
463.217	1914
463.437	1951
463.657	1767
463.876	1714
464.096	1720
464.316	1649
464.536	1643
464.755	1626
464.975	1561
465.195	1470
465.414	1396
465.634	1269
465.854	1258
466.073	1216
466.293	1178
466.512	1189
466.732	1158
466.951	1137
467.171	1129
467.391	1137
467.61	1122
467.829	1114
468.049	1104
468.268	1090
468.488	1073
468.707	1062
468.927	1078
469.146	1088
469.365	1111
469.585	1129
469.804	1142
470.023	1127
470.243	1148
470.462	1142
470.681	1187
470.901	1176
471.12	1142
471.339	1157
471.558	1127
471.777	1124
471.997	1108
472.216	1081
472.435	1076
472.654	1064
472.873	1040
473.092	1042
473.311	1042
473.53	1053
473.749	1052
473.968	1064
474.187	1016
474.406	1052
474.625	1078
474.844	1049
475.063	1040
475.282	1027
475.501	1062
475.72	1080
475.939	1073
476.158	1091
476.377	1125
476.596	1117
476.814	1108
477.033	1112
477.252	1138
477.471	1161
477.69	1170
477.908	1214
478.127	1233
478.346	1264
478.564	1256
478.783	1298
479.002	1339
479.22	1324
479.439	1330
479.658	1351
479.876	1333
480.095	1312
480.313	1415
480.532	1432
480.751	1451
480.969	1388
481.188	1360
481.406	1277
481.624	1230
481.843	1192
482.061	1222
482.28	1147
482.498	1193
482.717	1206
482.935	1184
483.153	1174
483.372	1198
483.59	1189
483.808	1215
484.027	1199
484.245	1236
484.463	1219
484.681	1246
484.9	1214
485.118	1240
485.336	1220
485.554	1241
485.772	1249
485.99	1259
486.209	1260
486.427	1273
486.645	1249
486.863	1251
487.081	1264
487.299	1274
487.517	1262
487.735	1217
487.953	1271
488.171	1254
488.389	1238
488.607	1233
488.825	1241
489.043	1254
489.261	1271
489.479	1218
489.696	1286
489.914	1216
490.132	1275
490.35	1270
490.568	1221
490.786	1274
491.003	1267
491.221	1270
491.439	1248
491.657	1277
491.874	1286
492.092	1284
492.31	1248
492.527	1300
492.745	1317
492.963	1307
493.18	1286
493.398	1340
493.615	1333
493.833	1288
494.05	1336
494.268	1328
494.485	1366
494.703	1378
494.92	1358
495.138	1366
495.355	1404
495.573	1372
495.79	1353
496.008	1375
496.225	1393
496.442	1377
496.66	1390
496.877	1438
497.094	1449
497.312	1495
497.529	1523
497.746	1585
497.963	1609
498.181	1676
498.398	1767
498.615	1847
498.832	2018
499.049	2165
499.267	2339
499.484	2622
499.701	2904
499.918	3253
500.135	3710
500.352	4158
500.569	4305
500.786	4328
501.003	4008
501.22	3606
501.437	3236
501.654	2789
501.871	2545
502.088	2307
502.305	2201
502.522	2047
502.739	1939
502.956	1869
503.172	1784
503.389	1675
503.606	1639
503.823	1603
504.04	1611
504.256	1643
504.473	1663
504.69	1688
504.907	1611
505.123	1543
505.34	1421
505.557	1354
505.773	1338
505.99	1324
506.207	1256
506.423	1236
506.64	1259
506.856	1229
507.073	1226
507.289	1211
507.506	1206
507.722	1192
507.939	1191
508.155	1152
508.372	1142
508.588	1118
508.805	1113
509.021	1109
509.238	1147
509.454	1154
509.67	1111
509.887	1120
510.103	1087
510.319	1078
510.536	1088
510.752	1094
510.968	1080
511.184	1130
511.401	1106
511.617	1090
511.833	1060
512.049	1063
512.265	1079
512.481	1080
512.698	1073
512.914	1081
513.13	1072
513.346	1080
513.562	1083
513.778	1076
513.994	1077
514.21	1097
514.426	1082
514.642	1103
514.858	1100
515.074	1100
515.29	1139
515.506	1149
515.721	1178
515.937	1159
516.153	1178
516.369	1195
516.585	1270
516.801	1305
517.016	1374
517.232	1442
517.448	1495
517.664	1577
517.879	1606
518.095	1590
518.311	1551
518.527	1485
518.742	1435
518.958	1366
519.173	1292
519.389	1297
519.605	1217
519.82	1199
520.036	1158
520.251	1144
520.467	1108
520.682	1096
520.898	1084
521.113	1079
521.329	1081
521.544	1075
521.76	1059
521.975	1017
522.19	1042
522.406	1033
522.621	1012
522.836	1041
523.052	1051
523.267	1019
523.482	1022
523.698	1003
523.913	997
524.128	1007
524.343	1000
524.559	1001
524.774	1025
524.989	980
525.204	999
525.419	994
525.634	992
525.849	1003
526.064	975
526.28	962
526.495	963
526.71	994
526.925	958
527.14	984
527.355	987
527.57	935
527.785	955
527.999	951
528.214	978
528.429	965
528.644	993
528.859	961
529.074	974
529.289	984
529.503	997
529.718	952
529.933	966
530.148	932
530.363	960
530.577	966
530.792	950
531.007	932
531.221	934
531.436	947
531.651	950
531.865	967
532.08	975
532.295	998
532.509	976
532.724	960
532.938	975
533.153	953
533.367	935
533.582	944
533.796	940
534.011	976
534.225	942
534.44	951
534.654	973
534.868	949
535.083	955
535.297	914
535.511	962
535.726	924
535.94	965
536.154	900
536.369	877
536.583	896
536.797	892
537.011	872
537.225	902
537.44	901
537.654	920
537.868	879
538.082	875
538.296	872
538.51	879
538.724	871
538.938	888
539.153	863
539.367	908
539.581	890
539.795	881
540.009	837
540.222	872
540.436	886
540.65	855
540.864	862
541.078	872
541.292	867
541.506	856
541.72	863
541.934	861
542.147	866
542.361	873
542.575	838
542.789	858
543.002	866
543.216	841
543.43	839
543.644	824
543.857	846
544.071	860
544.285	874
544.498	854
544.712	858
544.925	872
545.139	896
545.352	894
545.566	869
545.779	894
545.993	902
546.206	894
546.42	895
546.633	929
546.847	873
547.06	891
547.274	887
547.487	892
547.7	894
547.914	908
548.127	923
548.34	882
548.554	892
548.767	873
548.98	914
549.193	904
549.407	909
549.62	907
549.833	951
550.046	888
550.259	906
550.473	880
550.686	894
550.899	901
551.112	883
551.325	871
551.538	878
551.751	866
551.964	886
552.177	894
552.39	901
552.603	907
