Data from NiCl2@0.125M.TitratingCurve.Agarose3%dH2O.NegLispCup.LampEnergy10.LIBS07252019_HRD10591_18-28-00-576.txt Node
Date: Thu Jul 25 18:28:00 EDT 2019
User: cochatt
Spectrometer: HR+D1059
Trigger mode: 1
Integration Time (sec): 1.000000E-1
Scans to average: 1
Electric dark correction enabled: true
Nonlinearity correction enabled: false
Boxcar width: 0
XAxis mode: Wavelengths
Number of Pixels in Spectrum: 2048
>>>>>Begin Spectral Data<<<<<
223.165	-13.69
223.4	-13.69
223.635	-13.69
223.869	-16.69
224.104	-12.69
224.338	-15.69
224.573	-18.69
224.808	4.31
225.042	-8.69
225.277	-18.69
225.511	-8.69
225.746	5.31
225.98	1.31
226.215	14.31
226.449	24.31
226.683	15.31
226.918	25.31
227.152	23.31
227.387	37.31
227.621	23.31
227.856	34.31
228.09	57.31
228.324	45.31
228.559	59.31
228.793	84.31
229.027	116.31
229.262	119.31
229.496	143.31
229.73	147.31
229.964	150.31
230.199	153.31
230.433	158.31
230.667	147.31
230.901	155.31
231.136	151.31
231.37	171.31
231.604	171.31
231.838	175.31
232.072	163.31
232.306	163.31
232.541	173.31
232.775	181.31
233.009	187.31
233.243	183.31
233.477	164.31
233.711	174.31
233.945	175.31
234.179	184.31
234.413	183.31
234.647	187.31
234.881	183.31
235.115	184.31
235.349	197.31
235.583	186.31
235.817	191.31
236.051	187.31
236.285	183.31
236.519	192.31
236.753	191.31
236.987	210.31
237.221	214.31
237.455	205.31
237.689	210.31
237.922	207.31
238.156	216.31
238.39	211.31
238.624	216.31
238.858	222.31
239.091	226.31
239.325	213.31
239.559	208.31
239.793	216.31
240.027	220.31
240.26	249.31
240.494	226.31
240.728	212.31
240.961	253.31
241.195	240.31
241.429	232.31
241.662	253.31
241.896	239.31
242.13	264.31
242.363	254.31
242.597	258.31
242.83	261.31
243.064	246.31
243.298	267.31
243.531	293.31
243.765	271.31
243.998	295.31
244.232	274.31
244.465	281.31
244.699	282.31
244.932	287.31
245.166	282.31
245.399	297.31
245.633	314.31
245.866	300.31
246.099	290.31
246.333	295.31
246.566	294.31
246.8	283.31
247.033	297.31
247.266	301.31
247.5	294.31
247.733	307.31
247.966	303.31
248.2	318.31
248.433	330.31
248.666	328.31
248.899	315.31
249.133	311.31
249.366	307.31
249.599	324.31
249.832	345.31
250.066	342.31
250.299	337.31
250.532	332.31
250.765	359.31
250.998	342.31
251.231	346.31
251.465	362.31
251.698	334.31
251.931	349.31
252.164	360.31
252.397	363.31
252.63	370.31
252.863	392.31
253.096	369.31
253.329	377.31
253.562	351.31
253.795	375.31
254.028	373.31
254.261	377.31
254.494	376.31
254.727	373.31
254.96	386.31
255.193	387.31
255.426	394.31
255.659	378.31
255.892	387.31
256.124	390.31
256.357	386.31
256.59	392.31
256.823	384.31
257.056	406.31
257.289	397.31
257.521	398.31
257.754	387.31
257.987	397.31
258.22	426.31
258.452	399.31
258.685	409.31
258.918	422.31
259.151	441.31
259.383	414.31
259.616	423.31
259.849	432.31
260.081	428.31
260.314	434.31
260.547	421.31
260.779	416.31
261.012	452.31
261.244	462.31
261.477	459.31
261.71	462.31
261.942	459.31
262.175	444.31
262.407	452.31
262.64	452.31
262.872	461.31
263.105	460.31
263.337	455.31
263.57	479.31
263.802	480.31
264.035	465.31
264.267	463.31
264.499	473.31
264.732	476.31
264.964	501.31
265.197	487.31
265.429	488.31
265.661	496.31
265.894	494.31
266.126	509.31
266.358	505.31
266.591	493.31
266.823	505.31
267.055	502.31
267.287	505.31
267.52	513.31
267.752	519.31
267.984	517.31
268.216	501.31
268.448	495.31
268.681	512.31
268.913	517.31
269.145	518.31
269.377	509.31
269.609	520.31
269.841	521.31
270.073	532.31
270.306	505.31
270.538	512.31
270.77	522.31
271.002	539.31
271.234	532.31
271.466	538.31
271.698	545.31
271.93	532.31
272.162	551.31
272.394	584.31
272.626	531.31
272.858	543.31
273.09	559.31
273.322	561.31
273.553	557.31
273.785	569.31
274.017	548.31
274.249	570.31
274.481	554.31
274.713	554.31
274.945	542.31
275.176	589.31
275.408	588.31
275.64	576.31
275.872	579.31
276.104	543.31
276.335	589.31
276.567	609.31
276.799	593.31
277.031	601.31
277.262	573.31
277.494	592.31
277.726	611.31
277.957	588.31
278.189	607.31
278.421	609.31
278.652	614.31
278.884	601.31
279.115	598.31
279.347	605.31
279.579	628.31
279.81	625.31
280.042	635.31
280.273	614.31
280.505	633.31
280.736	646.31
280.968	653.31
281.199	686.31
281.431	638.31
281.662	643.31
281.894	674.31
282.125	673.31
282.356	663.31
282.588	652.31
282.819	658.31
283.051	672.31
283.282	655.31
283.513	674.31
283.745	707.31
283.976	674.31
284.207	661.31
284.439	658.31
284.67	680.31
284.901	679.31
285.132	713.31
285.364	723.31
285.595	678.31
285.826	685.31
286.057	700.31
286.288	698.31
286.52	688.31
286.751	696.31
286.982	708.31
287.213	699.31
287.444	701.31
287.675	701.31
287.906	708.31
288.138	734.31
288.369	718.31
288.6	752.31
288.831	767.31
289.062	716.31
289.293	732.31
289.524	757.31
289.755	711.31
289.986	737.31
290.217	742.31
290.448	749.31
290.679	754.31
290.91	738.31
291.141	730.31
291.371	736.31
291.602	724.31
291.833	723.31
292.064	746.31
292.295	734.31
292.526	730.31
292.757	753.31
292.987	737.31
293.218	736.31
293.449	735.31
293.68	735.31
293.91	733.31
294.141	768.31
294.372	752.31
294.603	760.31
294.833	725.31
295.064	773.31
295.295	749.31
295.525	750.31
295.756	738.31
295.987	755.31
296.217	773.31
296.448	778.31
296.679	795.31
296.909	790.31
297.14	760.31
297.37	792.31
297.601	771.31
297.831	773.31
298.062	765.31
298.292	834.31
298.523	847.31
298.753	831.31
298.984	797.31
299.214	827.31
299.445	790.31
299.675	792.31
299.905	810.31
300.136	801.31
300.366	822.31
300.597	840.31
300.827	851.31
301.057	849.31
301.288	854.31
301.518	858.31
301.748	858.31
301.979	872.31
302.209	878.31
302.439	859.31
302.669	848.31
302.9	825.31
303.13	841.31
303.36	854.31
303.59	850.31
303.82	836.31
304.051	870.31
304.281	864.31
304.511	843.31
304.741	835.31
304.971	847.31
305.201	833.31
305.431	848.31
305.661	822.31
305.891	837.31
306.121	853.31
306.352	845.31
306.582	809.31
306.812	810.31
307.042	835.31
307.272	827.31
307.502	842.31
307.731	821.31
307.961	823.31
308.191	821.31
308.421	828.31
308.651	824.31
308.881	817.31
309.111	795.31
309.341	818.31
309.571	848.31
309.8	830.31
310.03	850.31
310.26	840.31
310.49	793.31
310.72	855.31
310.949	834.31
311.179	834.31
311.409	833.31
311.639	839.31
311.868	856.31
312.098	845.31
312.328	843.31
312.557	867.31
312.787	870.31
313.017	869.31
313.246	886.31
313.476	897.31
313.706	905.31
313.935	898.31
314.165	897.31
314.394	876.31
314.624	940.31
314.853	906.31
315.083	898.31
315.312	849.31
315.542	884.31
315.771	899.31
316.001	895.31
316.23	848.31
316.46	880.31
316.689	866.31
316.919	847.31
317.148	871.31
317.377	887.31
317.607	866.31
317.836	853.31
318.065	860.31
318.295	862.31
318.524	896.31
318.753	888.31
318.983	851.31
319.212	853.31
319.441	858.31
319.67	870.31
319.9	899.31
320.129	866.31
320.358	856.31
320.587	836.31
320.816	850.31
321.046	877.31
321.275	879.31
321.504	868.31
321.733	895.31
321.962	880.31
322.191	864.31
322.42	854.31
322.649	901.31
322.878	865.31
323.108	877.31
323.337	861.31
323.566	877.31
323.795	903.31
324.024	888.31
324.253	908.31
324.482	891.31
324.71	890.31
324.939	898.31
325.168	896.31
325.397	924.31
325.626	907.31
325.855	941.31
326.084	953.31
326.313	980.31
326.542	993.31
326.77	965.31
326.999	959.31
327.228	952.31
327.457	941.31
327.686	948.31
327.914	964.31
328.143	939.31
328.372	961.31
328.6	983.31
328.829	951.31
329.058	938.31
329.287	937.31
329.515	960.31
329.744	966.31
329.972	965.31
330.201	958.31
330.43	981.31
330.658	998.31
330.887	968.31
331.115	1000.31
331.344	1015.31
331.572	1013.31
331.801	1031.31
332.03	1059.31
332.258	1095.31
332.486	1107.31
332.715	1172.31
332.943	1193.31
333.172	1245.31
333.4	1302.31
333.629	1320.31
333.857	1355.31
334.085	1337.31
334.314	1283.31
334.542	1282.31
334.771	1253.31
334.999	1236.31
335.227	1231.31
335.455	1203.31
335.684	1178.31
335.912	1181.31
336.14	1175.31
336.369	1145.31
336.597	1166.31
336.825	1161.31
337.053	1177.31
337.281	1145.31
337.51	1124.31
337.738	1071.31
337.966	1070.31
338.194	1065.31
338.422	1045.31
338.65	1032.31
338.878	1050.31
339.106	1073.31
339.334	1057.31
339.562	1009.31
339.79	1011.31
340.018	984.31
340.246	978.31
340.474	977.31
340.702	988.31
340.93	997.31
341.158	989.31
341.386	992.31
341.614	990.31
341.842	965.31
342.07	932.31
342.298	981.31
342.526	993.31
342.754	964.31
342.981	1026.31
343.209	1019.31
343.437	1069.31
343.665	1138.31
343.893	1223.31
344.12	1272.31
344.348	1195.31
344.576	1149.31
344.804	1111.31
345.031	1044.31
345.259	1026.31
345.487	991.31
345.714	970.31
345.942	973.31
346.17	980.31
346.397	982.31
346.625	968.31
346.853	948.31
347.08	965.31
347.308	981.31
347.535	992.31
347.763	1016.31
347.99	990.31
348.218	1012.31
348.445	957.31
348.673	950.31
348.9	962.31
349.128	944.31
349.355	963.31
349.583	927.31
349.81	961.31
350.037	939.31
350.265	938.31
350.492	923.31
350.72	896.31
350.947	939.31
351.174	912.31
351.402	921.31
351.629	918.31
351.856	903.31
352.083	919.31
352.311	920.31
352.538	929.31
352.765	934.31
352.992	926.31
353.22	890.31
353.447	912.31
353.674	929.31
353.901	897.31
354.128	929.31
354.355	915.31
354.583	895.31
354.81	915.31
355.037	923.31
355.264	912.31
355.491	901.31
355.718	947.31
355.945	935.31
356.172	936.31
356.399	937.31
356.626	930.31
356.853	933.31
357.08	911.31
357.307	898.31
357.534	947.31
357.761	921.31
357.988	928.31
358.215	917.31
358.441	924.31
358.668	922.31
358.895	937.31
359.122	923.31
359.349	934.31
359.576	939.31
359.802	941.31
360.029	905.31
360.256	915.31
360.483	918.31
360.709	902.31
360.936	909.31
361.163	926.31
361.39	905.31
361.616	927.31
361.843	908.31
362.07	914.31
362.296	930.31
362.523	891.31
362.749	939.31
362.976	934.31
363.203	890.31
363.429	898.31
363.656	920.31
363.882	928.31
364.109	929.31
364.335	886.31
364.562	897.31
364.788	921.31
365.015	923.31
365.241	914.31
365.468	905.31
365.694	891.31
365.92	923.31
366.147	911.31
366.373	929.31
366.599	927.31
366.826	899.31
367.052	903.31
367.278	906.31
367.505	918.31
367.731	902.31
367.957	905.31
368.184	942.31
368.41	927.31
368.636	919.31
368.862	939.31
369.089	921.31
369.315	949.31
369.541	952.31
369.767	966.31
369.993	950.31
370.219	935.31
370.445	965.31
370.672	994.31
370.898	971.31
371.124	994.31
371.35	1017.31
371.576	1003.31
371.802	1009.31
372.028	1006.31
372.254	1003.31
372.48	1008.31
372.706	1037.31
372.932	1054.31
373.158	1051.31
373.384	1019.31
373.61	990.31
373.835	1021.31
374.061	984.31
374.287	1033.31
374.513	1055.31
374.739	1077.31
374.965	1130.31
375.191	1146.31
375.416	1122.31
375.642	1095.31
375.868	1086.31
376.094	1055.31
376.319	1026.31
376.545	1049.31
376.771	1007.31
376.997	1028.31
377.222	1001.31
377.448	1005.31
377.674	992.31
377.899	969.31
378.125	995.31
378.35	969.31
378.576	966.31
378.802	953.31
379.027	1013.31
379.253	1002.31
379.478	971.31
379.704	972.31
379.929	998.31
380.155	961.31
380.38	1019.31
380.606	998.31
380.831	995.31
381.057	1006.31
381.282	975.31
381.507	1001.31
381.733	1012.31
381.958	1024.31
382.184	1031.31
382.409	991.31
382.634	1067.31
382.86	1074.31
383.085	1073.31
383.31	1057.31
383.535	1115.31
383.761	1112.31
383.986	1122.31
384.211	1181.31
384.436	1195.31
384.662	1198.31
384.887	1226.31
385.112	1214.31
385.337	1239.31
385.562	1222.31
385.787	1224.31
386.013	1263.31
386.238	1252.31
386.463	1232.31
386.688	1253.31
386.913	1195.31
387.138	1169.31
387.363	1234.31
387.588	1192.31
387.813	1203.31
388.038	1182.31
388.263	1189.31
388.488	1213.31
388.713	1235.31
388.938	1199.31
389.163	1210.31
389.387	1206.31
389.612	1179.31
389.837	1158.31
390.062	1167.31
390.287	1217.31
390.512	1217.31
390.736	1201.31
390.961	1217.31
391.186	1248.31
391.411	1310.31
391.636	1289.31
391.86	1365.31
392.085	1397.31
392.31	1355.31
392.534	1343.31
392.759	1340.31
392.984	1295.31
393.208	1291.31
393.433	1291.31
393.658	1314.31
393.882	1296.31
394.107	1328.31
394.331	1305.31
394.556	1306.31
394.78	1334.31
395.005	1332.31
395.229	1302.31
395.454	1354.31
395.678	1382.31
395.903	1413.31
396.127	1356.31
396.352	1335.31
396.576	1313.31
396.801	1276.31
397.025	1299.31
397.249	1315.31
397.474	1356.31
397.698	1376.31
397.922	1366.31
398.147	1335.31
398.371	1368.31
398.595	1437.31
398.82	1479.31
399.044	1610.31
399.268	1819.31
399.492	2110.31
399.717	2469.31
399.941	2397.31
400.165	2126.31
400.389	1876.31
400.613	1711.31
400.837	1635.31
401.062	1546.31
401.286	1553.31
401.51	1544.31
401.734	1540.31
401.958	1562.31
402.182	1562.31
402.406	1567.31
402.63	1620.31
402.854	1619.31
403.078	1678.31
403.302	1745.31
403.526	1785.31
403.75	1779.31
403.974	1843.31
404.198	1828.31
404.422	1847.31
404.645	1806.31
404.869	1803.31
405.093	1774.31
405.317	1710.31
405.541	1675.31
405.765	1707.31
405.988	1683.31
406.212	1670.31
406.436	1692.31
406.66	1738.31
406.883	1753.31
407.107	1842.31
407.331	1969.31
407.555	2020.31
407.778	2036.31
408.002	2007.31
408.226	1918.31
408.449	1861.31
408.673	1789.31
408.896	1782.31
409.12	1685.31
409.344	1760.31
409.567	1729.31
409.791	1744.31
410.014	1780.31
410.238	1729.31
410.461	1730.31
410.685	1698.31
410.908	1663.31
411.132	1638.31
411.355	1583.31
411.578	1590.31
411.802	1567.31
412.025	1625.31
412.249	1647.31
412.472	1612.31
412.695	1565.31
412.919	1547.31
413.142	1509.31
413.365	1525.31
413.589	1585.31
413.812	1525.31
414.035	1552.31
414.258	1510.31
414.482	1532.31
414.705	1568.31
414.928	1579.31
415.151	1547.31
415.374	1530.31
415.597	1506.31
415.821	1521.31
416.044	1475.31
416.267	1506.31
416.49	1490.31
416.713	1472.31
416.936	1483.31
417.159	1481.31
417.382	1514.31
417.605	1504.31
417.828	1472.31
418.051	1548.31
418.274	1522.31
418.497	1547.31
418.72	1586.31
418.943	1551.31
419.166	1661.31
419.389	1784.31
419.611	1757.31
419.834	1629.31
420.057	1626.31
420.28	1528.31
420.503	1521.31
420.726	1508.31
420.948	1497.31
421.171	1498.31
421.394	1499.31
421.617	1486.31
421.839	1501.31
422.062	1529.31
422.285	1503.31
422.507	1587.31
422.73	1583.31
422.953	1583.31
423.175	1595.31
423.398	1617.31
423.621	1645.31
423.843	1638.31
424.066	1636.31
424.288	1633.31
424.511	1629.31
424.733	1558.31
424.956	1587.31
425.178	1564.31
425.401	1541.31
425.623	1522.31
425.846	1474.31
426.068	1483.31
426.291	1459.31
426.513	1436.31
426.735	1435.31
426.958	1411.31
427.18	1376.31
427.402	1389.31
427.625	1376.31
427.847	1359.31
428.069	1357.31
428.292	1384.31
428.514	1325.31
428.736	1356.31
428.958	1373.31
429.181	1334.31
429.403	1336.31
429.625	1355.31
429.847	1288.31
430.069	1331.31
430.292	1305.31
430.514	1298.31
430.736	1366.31
430.958	1292.31
431.18	1289.31
431.402	1283.31
431.624	1317.31
431.846	1347.31
432.068	1323.31
432.29	1376.31
432.512	1305.31
432.734	1377.31
432.956	1317.31
433.178	1318.31
433.4	1334.31
433.622	1362.31
433.844	1395.31
434.066	1368.31
434.287	1391.31
434.509	1422.31
434.731	1513.31
434.953	1519.31
435.175	1551.31
435.397	1568.31
435.618	1425.31
435.84	1381.31
436.062	1382.31
436.284	1350.31
436.505	1314.31
436.727	1380.31
436.949	1377.31
437.17	1353.31
437.392	1311.31
437.614	1322.31
437.835	1310.31
438.057	1274.31
438.278	1285.31
438.5	1278.31
438.721	1305.31
438.943	1308.31
439.165	1294.31
439.386	1315.31
439.608	1319.31
439.829	1327.31
440.05	1354.31
440.272	1358.31
440.493	1365.31
440.715	1368.31
440.936	1365.31
441.158	1429.31
441.379	1471.31
441.6	1524.31
441.822	1555.31
442.043	1567.31
442.264	1495.31
442.486	1453.31
442.707	1491.31
442.928	1483.31
443.149	1502.31
443.371	1491.31
443.592	1510.31
443.813	1580.31
444.034	1543.31
444.255	1599.31
444.476	1727.31
444.698	1763.31
444.919	1926.31
445.14	1940.31
445.361	1713.31
445.582	1617.31
445.803	1491.31
446.024	1426.31
446.245	1403.31
446.466	1371.31
446.687	1375.31
446.908	1366.31
447.129	1328.31
447.35	1303.31
447.571	1310.31
447.792	1258.31
448.013	1288.31
448.234	1206.31
448.455	1244.31
448.675	1246.31
448.896	1250.31
449.117	1232.31
449.338	1251.31
449.559	1211.31
449.779	1215.31
450	1189.31
450.221	1231.31
450.442	1239.31
450.662	1216.31
450.883	1245.31
451.104	1246.31
451.324	1290.31
451.545	1238.31
451.766	1249.31
451.986	1257.31
452.207	1233.31
452.428	1239.31
452.648	1205.31
452.869	1207.31
453.089	1220.31
453.31	1213.31
453.53	1202.31
453.751	1203.31
453.971	1150.31
454.192	1181.31
454.412	1163.31
454.633	1169.31
454.853	1190.31
455.073	1184.31
455.294	1153.31
455.514	1126.31
455.734	1141.31
455.955	1149.31
456.175	1153.31
456.395	1142.31
456.616	1125.31
456.836	1147.31
457.056	1134.31
457.276	1144.31
457.497	1160.31
457.717	1151.31
457.937	1112.31
458.157	1162.31
458.377	1210.31
458.598	1192.31
458.818	1209.31
459.038	1239.31
459.258	1332.31
459.478	1347.31
459.698	1365.31
459.918	1422.31
460.138	1497.31
460.358	1599.31
460.578	1621.31
460.798	1625.31
461.018	1614.31
461.238	1611.31
461.458	1609.31
461.678	1583.31
461.898	1641.31
462.118	1594.31
462.338	1729.31
462.558	1748.31
462.777	1837.31
462.997	2000.31
463.217	2233.31
463.437	2216.31
463.657	2029.31
463.876	1914.31
464.096	1872.31
464.316	1861.31
464.536	1888.31
464.755	1853.31
464.975	1731.31
465.195	1687.31
465.414	1589.31
465.634	1487.31
465.854	1402.31
466.073	1370.31
466.293	1366.31
466.512	1310.31
466.732	1295.31
466.951	1299.31
467.171	1312.31
467.391	1301.31
467.61	1234.31
467.829	1269.31
468.049	1242.31
468.268	1226.31
468.488	1200.31
468.707	1210.31
468.927	1213.31
469.146	1238.31
469.365	1231.31
469.585	1282.31
469.804	1285.31
470.023	1298.31
470.243	1321.31
470.462	1323.31
470.681	1346.31
470.901	1321.31
471.12	1308.31
471.339	1301.31
471.558	1269.31
471.777	1241.31
471.997	1270.31
472.216	1227.31
472.435	1203.31
472.654	1206.31
472.873	1176.31
473.092	1193.31
473.311	1206.31
473.53	1194.31
473.749	1197.31
473.968	1185.31
474.187	1174.31
474.406	1177.31
474.625	1199.31
474.844	1177.31
475.063	1173.31
475.282	1190.31
475.501	1192.31
475.72	1212.31
475.939	1214.31
476.158	1213.31
476.377	1237.31
476.596	1224.31
476.814	1285.31
477.033	1241.31
477.252	1286.31
477.471	1322.31
477.69	1375.31
477.908	1366.31
478.127	1436.31
478.346	1409.31
478.564	1467.31
478.783	1490.31
479.002	1547.31
479.22	1507.31
479.439	1488.31
479.658	1475.31
479.876	1479.31
480.095	1535.31
480.313	1597.31
480.532	1621.31
480.751	1620.31
480.969	1557.31
481.188	1464.31
481.406	1446.31
481.624	1396.31
481.843	1389.31
482.061	1398.31
482.28	1360.31
482.498	1353.31
482.717	1376.31
482.935	1361.31
483.153	1378.31
483.372	1344.31
483.59	1397.31
483.808	1374.31
484.027	1373.31
484.245	1365.31
484.463	1394.31
484.681	1443.31
484.9	1417.31
485.118	1409.31
485.336	1405.31
485.554	1449.31
485.772	1442.31
485.99	1467.31
486.209	1482.31
486.427	1455.31
486.645	1476.31
486.863	1446.31
487.081	1443.31
487.299	1453.31
487.517	1453.31
487.735	1411.31
487.953	1445.31
488.171	1424.31
488.389	1458.31
488.607	1401.31
488.825	1444.31
489.043	1405.31
489.261	1408.31
489.479	1429.31
489.696	1387.31
489.914	1387.31
490.132	1459.31
490.35	1432.31
490.568	1428.31
490.786	1431.31
491.003	1433.31
491.221	1438.31
491.439	1410.31
491.657	1439.31
491.874	1443.31
492.092	1431.31
492.31	1441.31
492.527	1441.31
492.745	1473.31
492.963	1488.31
493.18	1474.31
493.398	1464.31
493.615	1441.31
