Data from NiCl2@0.125M.TitratingCurve.Agarose3%dH2O.NegLispCup.LampEnergy10.LIBS07252019_HRD10591_18-27-57-578.txt Node
Date: Thu Jul 25 18:27:57 EDT 2019
User: cochatt
Spectrometer: HR+D1059
Trigger mode: 1
Integration Time (sec): 1.000000E-1
Scans to average: 1
Electric dark correction enabled: true
Nonlinearity correction enabled: false
Boxcar width: 0
XAxis mode: Wavelengths
Number of Pixels in Spectrum: 2048
>>>>>Begin Spectral Data<<<<<
223.165	-6.5
223.4	-6.5
223.635	-6.5
223.869	-17.5
224.104	-8.5
224.338	-24.5
224.573	-26.5
224.808	-9.5
225.042	-12.5
225.277	-2.5
225.511	3.5
225.746	-1.5
225.98	-0.5
226.215	18.5
226.449	15.5
226.683	25.5
226.918	23.5
227.152	23.5
227.387	38.5
227.621	51.5
227.856	41.5
228.09	43.5
228.324	49.5
228.559	54.5
228.793	72.5
229.027	105.5
229.262	115.5
229.496	127.5
229.73	126.5
229.964	132.5
230.199	130.5
230.433	135.5
230.667	123.5
230.901	137.5
231.136	138.5
231.37	142.5
231.604	149.5
231.838	157.5
232.072	144.5
232.306	141.5
232.541	153.5
232.775	159.5
233.009	149.5
233.243	161.5
233.477	153.5
233.711	170.5
233.945	150.5
234.179	172.5
234.413	148.5
234.647	170.5
234.881	169.5
235.115	153.5
235.349	168.5
235.583	171.5
235.817	148.5
236.051	169.5
236.285	166.5
236.519	167.5
236.753	186.5
236.987	174.5
237.221	177.5
237.455	185.5
237.689	175.5
237.922	172.5
238.156	183.5
238.39	169.5
238.624	172.5
238.858	186.5
239.091	185.5
239.325	179.5
239.559	187.5
239.793	179.5
240.027	186.5
240.26	194.5
240.494	195.5
240.728	174.5
240.961	196.5
241.195	202.5
241.429	185.5
241.662	190.5
241.896	223.5
242.13	201.5
242.363	209.5
242.597	206.5
242.83	223.5
243.064	211.5
243.298	217.5
243.531	202.5
243.765	215.5
243.998	217.5
244.232	233.5
244.465	221.5
244.699	212.5
244.932	240.5
245.166	243.5
245.399	226.5
245.633	246.5
245.866	241.5
246.099	250.5
246.333	258.5
246.566	242.5
246.8	234.5
247.033	244.5
247.266	245.5
247.5	245.5
247.733	248.5
247.966	260.5
248.2	247.5
248.433	271.5
248.666	264.5
248.899	268.5
249.133	251.5
249.366	283.5
249.599	268.5
249.832	277.5
250.066	270.5
250.299	264.5
250.532	291.5
250.765	280.5
250.998	276.5
251.231	284.5
251.465	280.5
251.698	286.5
251.931	309.5
252.164	300.5
252.397	285.5
252.63	278.5
252.863	286.5
253.096	302.5
253.329	295.5
253.562	310.5
253.795	289.5
254.028	312.5
254.261	291.5
254.494	312.5
254.727	307.5
254.96	300.5
255.193	320.5
255.426	301.5
255.659	331.5
255.892	314.5
256.124	325.5
256.357	314.5
256.59	322.5
256.823	321.5
257.056	316.5
257.289	321.5
257.521	336.5
257.754	314.5
257.987	318.5
258.22	345.5
258.452	325.5
258.685	360.5
258.918	334.5
259.151	331.5
259.383	354.5
259.616	341.5
259.849	342.5
260.081	350.5
260.314	342.5
260.547	341.5
260.779	328.5
261.012	372.5
261.244	335.5
261.477	361.5
261.71	351.5
261.942	362.5
262.175	344.5
262.407	368.5
262.64	355.5
262.872	374.5
263.105	373.5
263.337	354.5
263.57	365.5
263.802	360.5
264.035	375.5
264.267	377.5
264.499	375.5
264.732	368.5
264.964	370.5
265.197	372.5
265.429	374.5
265.661	395.5
265.894	398.5
266.126	396.5
266.358	400.5
266.591	384.5
266.823	408.5
267.055	393.5
267.287	407.5
267.52	405.5
267.752	394.5
267.984	407.5
268.216	401.5
268.448	389.5
268.681	419.5
268.913	417.5
269.145	423.5
269.377	409.5
269.609	407.5
269.841	406.5
270.073	412.5
270.306	391.5
270.538	405.5
270.77	415.5
271.002	417.5
271.234	413.5
271.466	437.5
271.698	420.5
271.93	425.5
272.162	450.5
272.394	428.5
272.626	416.5
272.858	436.5
273.09	441.5
273.322	449.5
273.553	462.5
273.785	441.5
274.017	460.5
274.249	446.5
274.481	450.5
274.713	462.5
274.945	454.5
275.176	452.5
275.408	444.5
275.64	474.5
275.872	459.5
276.104	446.5
276.335	462.5
276.567	468.5
276.799	457.5
277.031	481.5
277.262	460.5
277.494	465.5
277.726	499.5
277.957	494.5
278.189	484.5
278.421	470.5
278.652	494.5
278.884	487.5
279.115	486.5
279.347	494.5
279.579	472.5
279.81	517.5
280.042	485.5
280.273	499.5
280.505	505.5
280.736	493.5
280.968	493.5
281.199	502.5
281.431	508.5
281.662	515.5
281.894	497.5
282.125	514.5
282.356	523.5
282.588	534.5
282.819	512.5
283.051	523.5
283.282	532.5
283.513	543.5
283.745	505.5
283.976	547.5
284.207	539.5
284.439	515.5
284.67	535.5
284.901	547.5
285.132	546.5
285.364	535.5
285.595	550.5
285.826	540.5
286.057	577.5
286.288	556.5
286.52	557.5
286.751	559.5
286.982	547.5
287.213	562.5
287.444	552.5
287.675	570.5
287.906	570.5
288.138	576.5
288.369	577.5
288.6	556.5
288.831	570.5
289.062	567.5
289.293	582.5
289.524	566.5
289.755	552.5
289.986	583.5
290.217	588.5
290.448	592.5
290.679	575.5
290.91	575.5
291.141	570.5
291.371	600.5
291.602	602.5
291.833	582.5
292.064	578.5
292.295	575.5
292.526	577.5
292.757	582.5
292.987	580.5
293.218	579.5
293.449	583.5
293.68	565.5
293.91	580.5
294.141	573.5
294.372	578.5
294.603	602.5
294.833	603.5
295.064	593.5
295.295	588.5
295.525	603.5
295.756	609.5
295.987	582.5
296.217	592.5
296.448	615.5
296.679	599.5
296.909	599.5
297.14	604.5
297.37	645.5
297.601	606.5
297.831	619.5
298.062	602.5
298.292	639.5
298.523	655.5
298.753	657.5
298.984	623.5
299.214	652.5
299.445	653.5
299.675	649.5
299.905	654.5
300.136	638.5
300.366	646.5
300.597	623.5
300.827	659.5
301.057	681.5
301.288	662.5
301.518	659.5
301.748	655.5
301.979	677.5
302.209	693.5
302.439	665.5
302.669	670.5
302.9	648.5
303.13	659.5
303.36	649.5
303.59	649.5
303.82	655.5
304.051	636.5
304.281	672.5
304.511	654.5
304.741	647.5
304.971	652.5
305.201	652.5
305.431	657.5
305.661	668.5
305.891	633.5
306.121	647.5
306.352	659.5
306.582	633.5
306.812	634.5
307.042	658.5
307.272	646.5
307.502	641.5
307.731	649.5
307.961	637.5
308.191	621.5
308.421	634.5
308.651	646.5
308.881	610.5
309.111	653.5
309.341	653.5
309.571	639.5
309.8	667.5
310.03	636.5
310.26	634.5
310.49	639.5
310.72	620.5
310.949	653.5
311.179	657.5
311.409	665.5
311.639	647.5
311.868	644.5
312.098	649.5
312.328	671.5
312.557	681.5
312.787	675.5
313.017	650.5
313.246	676.5
313.476	662.5
313.706	680.5
313.935	715.5
314.165	688.5
314.394	701.5
314.624	679.5
314.853	680.5
315.083	694.5
315.312	679.5
315.542	684.5
315.771	677.5
316.001	684.5
316.23	670.5
316.46	669.5
316.689	660.5
316.919	672.5
317.148	666.5
317.377	665.5
317.607	685.5
317.836	666.5
318.065	663.5
318.295	665.5
318.524	637.5
318.753	667.5
318.983	668.5
319.212	647.5
319.441	675.5
319.67	685.5
319.9	686.5
320.129	668.5
320.358	662.5
320.587	658.5
320.816	699.5
321.046	693.5
321.275	663.5
321.504	701.5
321.733	672.5
321.962	689.5
322.191	709.5
322.42	684.5
322.649	677.5
322.878	683.5
323.108	687.5
323.337	727.5
323.566	710.5
323.795	716.5
324.024	689.5
324.253	697.5
324.482	702.5
324.71	697.5
324.939	694.5
325.168	701.5
325.397	685.5
325.626	736.5
325.855	725.5
326.084	724.5
326.313	758.5
326.542	744.5
326.77	773.5
326.999	749.5
327.228	702.5
327.457	734.5
327.686	737.5
327.914	757.5
328.143	742.5
328.372	741.5
328.6	739.5
328.829	733.5
329.058	750.5
329.287	748.5
329.515	756.5
329.744	754.5
329.972	754.5
330.201	770.5
330.43	743.5
330.658	766.5
330.887	759.5
331.115	767.5
331.344	784.5
331.572	787.5
331.801	795.5
332.03	818.5
332.258	825.5
332.486	847.5
332.715	859.5
332.943	901.5
333.172	953.5
333.4	976.5
333.629	1019.5
333.857	1012.5
334.085	998.5
334.314	979.5
334.542	916.5
334.771	970.5
334.999	922.5
335.227	940.5
335.455	926.5
335.684	923.5
335.912	904.5
336.14	897.5
336.369	876.5
336.597	869.5
336.825	877.5
337.053	910.5
337.281	870.5
337.51	881.5
337.738	837.5
337.966	858.5
338.194	813.5
338.422	815.5
338.65	797.5
338.878	817.5
339.106	787.5
339.334	774.5
339.562	787.5
339.79	797.5
340.018	748.5
340.246	782.5
340.474	789.5
340.702	775.5
340.93	787.5
341.158	794.5
341.386	817.5
341.614	774.5
341.842	765.5
342.07	757.5
342.298	763.5
342.526	767.5
342.754	738.5
342.981	779.5
343.209	770.5
343.437	823.5
343.665	877.5
343.893	954.5
344.12	973.5
344.348	915.5
344.576	874.5
344.804	823.5
345.031	807.5
345.259	821.5
345.487	796.5
345.714	783.5
345.942	759.5
346.17	783.5
346.397	758.5
346.625	744.5
346.853	718.5
347.08	752.5
347.308	753.5
347.535	769.5
347.763	762.5
347.99	755.5
348.218	779.5
348.445	769.5
348.673	746.5
348.9	715.5
349.128	739.5
349.355	738.5
349.583	761.5
349.81	716.5
350.037	749.5
350.265	718.5
350.492	723.5
350.72	712.5
350.947	723.5
351.174	727.5
351.402	739.5
351.629	722.5
351.856	701.5
352.083	718.5
352.311	700.5
352.538	712.5
352.765	758.5
352.992	717.5
353.22	712.5
353.447	708.5
353.674	703.5
353.901	698.5
354.128	696.5
354.355	717.5
354.583	708.5
354.81	740.5
355.037	720.5
355.264	728.5
355.491	714.5
355.718	711.5
355.945	737.5
356.172	719.5
356.399	723.5
356.626	714.5
356.853	707.5
357.08	706.5
357.307	741.5
357.534	732.5
357.761	725.5
357.988	719.5
358.215	722.5
358.441	725.5
358.668	711.5
358.895	726.5
359.122	739.5
359.349	707.5
359.576	725.5
359.802	725.5
360.029	715.5
360.256	731.5
360.483	732.5
360.709	719.5
360.936	706.5
361.163	717.5
361.39	713.5
361.616	731.5
361.843	736.5
362.07	734.5
362.296	703.5
362.523	705.5
362.749	714.5
362.976	710.5
363.203	712.5
363.429	702.5
363.656	725.5
363.882	718.5
364.109	729.5
364.335	732.5
364.562	686.5
364.788	697.5
365.015	701.5
365.241	715.5
365.468	714.5
365.694	724.5
365.92	723.5
366.147	710.5
366.373	716.5
366.599	701.5
366.826	738.5
367.052	710.5
367.278	727.5
367.505	698.5
367.731	719.5
367.957	725.5
368.184	713.5
368.41	721.5
368.636	724.5
368.862	715.5
369.089	736.5
369.315	737.5
369.541	732.5
369.767	747.5
369.993	740.5
370.219	757.5
370.445	750.5
370.672	767.5
370.898	762.5
371.124	759.5
371.35	773.5
371.576	799.5
371.802	788.5
372.028	740.5
372.254	811.5
372.48	782.5
372.706	806.5
372.932	830.5
373.158	810.5
373.384	825.5
373.61	755.5
373.835	769.5
374.061	791.5
374.287	803.5
374.513	805.5
374.739	840.5
374.965	868.5
375.191	838.5
375.416	875.5
375.642	849.5
375.868	830.5
376.094	835.5
376.319	797.5
376.545	811.5
376.771	809.5
376.997	777.5
377.222	789.5
377.448	777.5
377.674	795.5
377.899	772.5
378.125	794.5
378.35	774.5
378.576	783.5
378.802	766.5
379.027	778.5
379.253	803.5
379.478	789.5
379.704	765.5
379.929	758.5
380.155	767.5
380.38	796.5
380.606	759.5
380.831	773.5
381.057	796.5
381.282	762.5
381.507	787.5
381.733	801.5
381.958	793.5
382.184	775.5
382.409	823.5
382.634	808.5
382.86	837.5
383.085	814.5
383.31	843.5
383.535	863.5
383.761	863.5
383.986	885.5
384.211	882.5
384.436	895.5
384.662	933.5
384.887	932.5
385.112	929.5
385.337	947.5
385.562	950.5
385.787	937.5
386.013	959.5
386.238	931.5
386.463	939.5
386.688	953.5
386.913	928.5
387.138	917.5
387.363	929.5
387.588	922.5
387.813	919.5
388.038	915.5
388.263	916.5
388.488	939.5
388.713	941.5
388.938	919.5
389.163	922.5
389.387	918.5
389.612	929.5
389.837	929.5
390.062	905.5
390.287	906.5
390.512	915.5
390.736	911.5
390.961	940.5
391.186	962.5
391.411	961.5
391.636	1030.5
391.86	1038.5
392.085	1017.5
392.31	1061.5
392.534	1022.5
392.759	1040.5
392.984	993.5
393.208	971.5
393.433	989.5
393.658	1020.5
393.882	989.5
394.107	979.5
394.331	980.5
394.556	1004.5
394.78	1007.5
395.005	1028.5
395.229	1019.5
395.454	1018.5
395.678	1070.5
395.903	1043.5
396.127	1051.5
396.352	1005.5
396.576	1003.5
396.801	983.5
397.025	1033.5
397.249	1029.5
397.474	1042.5
397.698	1070.5
397.922	1062.5
398.147	1062.5
398.371	1077.5
398.595	1125.5
398.82	1155.5
399.044	1261.5
399.268	1354.5
399.492	1559.5
399.717	1766.5
399.941	1807.5
400.165	1606.5
400.389	1450.5
400.613	1320.5
400.837	1256.5
401.062	1240.5
401.286	1191.5
401.51	1205.5
401.734	1177.5
401.958	1164.5
402.182	1217.5
402.406	1228.5
402.63	1230.5
402.854	1253.5
403.078	1289.5
403.302	1347.5
403.526	1311.5
403.75	1374.5
403.974	1371.5
404.198	1370.5
404.422	1362.5
404.645	1403.5
404.869	1363.5
405.093	1363.5
405.317	1326.5
405.541	1324.5
405.765	1286.5
405.988	1317.5
406.212	1319.5
406.436	1295.5
406.66	1326.5
406.883	1370.5
407.107	1407.5
407.331	1481.5
407.555	1557.5
407.778	1521.5
408.002	1512.5
408.226	1456.5
408.449	1422.5
408.673	1386.5
408.896	1348.5
409.12	1294.5
409.344	1355.5
409.567	1316.5
409.791	1380.5
410.014	1344.5
410.238	1310.5
410.461	1294.5
410.685	1321.5
410.908	1269.5
411.132	1266.5
411.355	1213.5
411.578	1224.5
411.802	1224.5
412.025	1229.5
412.249	1284.5
412.472	1274.5
412.695	1206.5
412.919	1203.5
413.142	1160.5
413.365	1182.5
413.589	1205.5
413.812	1195.5
414.035	1161.5
414.258	1158.5
414.482	1173.5
414.705	1217.5
414.928	1218.5
415.151	1172.5
415.374	1192.5
415.597	1189.5
415.821	1178.5
416.044	1155.5
416.267	1159.5
416.49	1124.5
416.713	1148.5
416.936	1168.5
417.159	1162.5
417.382	1181.5
417.605	1149.5
417.828	1172.5
418.051	1186.5
418.274	1179.5
418.497	1142.5
418.72	1229.5
418.943	1224.5
419.166	1317.5
419.389	1375.5
419.611	1343.5
419.834	1291.5
420.057	1252.5
420.28	1206.5
420.503	1204.5
420.726	1141.5
420.948	1149.5
421.171	1155.5
421.394	1145.5
421.617	1148.5
421.839	1164.5
422.062	1208.5
422.285	1155.5
422.507	1186.5
422.73	1184.5
422.953	1189.5
423.175	1201.5
423.398	1244.5
423.621	1218.5
423.843	1221.5
424.066	1245.5
424.288	1219.5
424.511	1244.5
424.733	1200.5
424.956	1212.5
425.178	1209.5
425.401	1183.5
425.623	1161.5
425.846	1143.5
426.068	1162.5
426.291	1147.5
426.513	1091.5
426.735	1118.5
426.958	1138.5
427.18	1110.5
427.402	1077.5
427.625	1074.5
427.847	1063.5
428.069	1031.5
428.292	1077.5
428.514	1036.5
428.736	1055.5
428.958	1035.5
429.181	1025.5
429.403	1025.5
429.625	1015.5
429.847	995.5
430.069	998.5
430.292	1045.5
430.514	1055.5
430.736	1053.5
430.958	1010.5
431.18	1017.5
431.402	1032.5
431.624	1026.5
431.846	1058.5
432.068	1038.5
432.29	1080.5
432.512	1054.5
432.734	1047.5
432.956	1034.5
433.178	1075.5
433.4	1036.5
433.622	1074.5
433.844	1068.5
434.066	1059.5
434.287	1083.5
434.509	1071.5
434.731	1148.5
434.953	1192.5
435.175	1178.5
435.397	1162.5
435.618	1099.5
435.84	1087.5
436.062	1059.5
436.284	1061.5
436.505	1041.5
436.727	1060.5
436.949	1086.5
437.17	1037.5
437.392	1034.5
437.614	1035.5
437.835	985.5
438.057	1027.5
438.278	989.5
438.5	987.5
438.721	1026.5
438.943	1049.5
439.165	1039.5
439.386	1033.5
439.608	1009.5
439.829	1039.5
440.05	1036.5
440.272	1079.5
440.493	1045.5
440.715	1060.5
440.936	1098.5
441.158	1113.5
441.379	1139.5
441.6	1173.5
441.822	1192.5
442.043	1236.5
442.264	1179.5
442.486	1165.5
442.707	1153.5
442.928	1176.5
443.149	1182.5
443.371	1160.5
443.592	1158.5
443.813	1185.5
444.034	1230.5
444.255	1221.5
444.476	1299.5
444.698	1403.5
444.919	1414.5
445.14	1518.5
445.361	1368.5
445.582	1254.5
445.803	1187.5
446.024	1130.5
446.245	1092.5
446.466	1094.5
446.687	1050.5
446.908	1086.5
447.129	1049.5
447.35	1067.5
447.571	1006.5
447.792	994.5
448.013	1013.5
448.234	966.5
448.455	1004.5
448.675	979.5
448.896	976.5
449.117	954.5
449.338	975.5
449.559	955.5
449.779	968.5
450	945.5
450.221	964.5
450.442	958.5
450.662	972.5
450.883	988.5
451.104	1036.5
451.324	988.5
451.545	988.5
451.766	1002.5
451.986	986.5
452.207	979.5
452.428	965.5
452.648	982.5
452.869	939.5
453.089	931.5
453.31	963.5
453.53	917.5
453.751	933.5
453.971	952.5
454.192	943.5
454.412	902.5
454.633	914.5
454.853	913.5
455.073	934.5
455.294	920.5
455.514	917.5
455.734	938.5
455.955	894.5
456.175	895.5
456.395	906.5
456.616	897.5
456.836	906.5
457.056	866.5
457.276	893.5
457.497	921.5
457.717	889.5
457.937	901.5
458.157	918.5
458.377	914.5
458.598	954.5
458.818	965.5
459.038	977.5
459.258	1032.5
459.478	1069.5
459.698	1097.5
459.918	1140.5
460.138	1173.5
460.358	1223.5
460.578	1237.5
460.798	1290.5
461.018	1286.5
461.238	1263.5
461.458	1247.5
461.678	1256.5
461.898	1242.5
462.118	1254.5
462.338	1337.5
462.558	1347.5
462.777	1403.5
462.997	1516.5
463.217	1713.5
463.437	1725.5
463.657	1567.5
463.876	1463.5
464.096	1480.5
464.316	1471.5
464.536	1478.5
464.755	1429.5
464.975	1318.5
465.195	1313.5
465.414	1206.5
465.634	1140.5
465.854	1105.5
466.073	1088.5
466.293	1054.5
466.512	1025.5
466.732	1002.5
466.951	985.5
467.171	1029.5
467.391	998.5
467.61	1004.5
467.829	1016.5
468.049	980.5
468.268	975.5
468.488	985.5
468.707	970.5
468.927	998.5
469.146	989.5
469.365	985.5
469.585	975.5
469.804	1020.5
470.023	1027.5
470.243	1023.5
470.462	1052.5
470.681	1060.5
470.901	1028.5
471.12	1027.5
471.339	1055.5
471.558	1003.5
471.777	1028.5
471.997	985.5
472.216	965.5
472.435	964.5
472.654	951.5
472.873	950.5
473.092	929.5
473.311	951.5
473.53	959.5
473.749	939.5
473.968	939.5
474.187	932.5
474.406	946.5
474.625	934.5
474.844	939.5
475.063	938.5
475.282	966.5
475.501	981.5
475.72	958.5
475.939	952.5
476.158	952.5
476.377	990.5
476.596	1000.5
476.814	997.5
477.033	998.5
477.252	1027.5
477.471	1037.5
477.69	1062.5
477.908	1103.5
478.127	1118.5
478.346	1143.5
478.564	1150.5
478.783	1123.5
479.002	1177.5
479.22	1180.5
479.439	1197.5
479.658	1168.5
479.876	1159.5
480.095	1205.5
480.313	1230.5
480.532	1285.5
480.751	1265.5
480.969	1201.5
481.188	1164.5
481.406	1150.5
481.624	1089.5
481.843	1091.5
482.061	1098.5
482.28	1083.5
482.498	1087.5
482.717	1064.5
482.935	1057.5
483.153	1084.5
483.372	1061.5
483.59	1099.5
483.808	1067.5
484.027	1087.5
484.245	1091.5
484.463	1109.5
484.681	1108.5
484.9	1107.5
485.118	1123.5
485.336	1108.5
485.554	1153.5
485.772	1137.5
485.99	1145.5
486.209	1157.5
486.427	1153.5
486.645	1128.5
486.863	1149.5
487.081	1145.5
487.299	1151.5
487.517	1141.5
487.735	1127.5
487.953	1140.5
488.171	1122.5
488.389	1123.5
488.607	1095.5
488.825	1107.5
489.043	1099.5
489.261	1137.5
489.479	1101.5
489.696	1128.5
489.914	1128.5
490.132	1156.5
490.35	1153.5
490.568	1129.5
490.786	1135.5
491.003	1168.5
491.221	1149.5
491.439	1163.5
491.657	1150.5
491.874	1168.5
492.092	1149.5
492.31	1182.5
492.527	1151.5
492.745	1182.5
492.963	1202.5
493.18	1178.5
493.398	1158.5
493.615	1165.5
493.833	1193.5
494.05	1174.5
494.268	1202.5
494.485	1181.5
494.703	1192.5
494.92	1196.5
495.138	1219.5
495.355	1156.5
495.573	1185.5
495.79	1215.5
496.008	1205.5
496.225	1214.5
496.442	1233.5
496.66	1252.5
496.877	1261.5
497.094	1254.5
497.312	1308.5
497.529	1325.5
497.746	1364.5
497.963	1381.5
498.181	1459.5
498.398	1509.5
498.615	1608.5
498.832	1716.5
499.049	1842.5
499.267	2040.5
499.484	2171.5
499.701	2444.5
499.918	2689.5
500.135	3030.5
500.352	3475.5
500.569	3628.5
500.786	3609.5
501.003	3386.5
501.22	3047.5
501.437	2669.5
501.654	2391.5
501.871	2124.5
502.088	2005.5
502.305	1831.5
502.522	1720.5
502.739	1666.5
502.956	1577.5
503.172	1517.5
503.389	1424.5
503.606	1421.5
503.823	1364.5
504.04	1367.5
504.256	1387.5
504.473	1410.5
504.69	1471.5
504.907	1429.5
505.123	1339.5
505.34	1270.5
505.557	1218.5
505.773	1155.5
505.99	1153.5
506.207	1101.5
506.423	1111.5
506.64	1101.5
506.856	1059.5
507.073	1087.5
507.289	1060.5
507.506	1065.5
507.722	1059.5
507.939	1044.5
508.155	999.5
508.372	1027.5
508.588	1025.5
508.805	1040.5
509.021	999.5
509.238	1029.5
509.454	995.5
509.67	982.5
509.887	1012.5
510.103	1010.5
510.319	997.5
510.536	970.5
510.752	939.5
510.968	961.5
511.184	938.5
511.401	950.5
511.617	953.5
511.833	951.5
512.049	971.5
512.265	963.5
512.481	969.5
512.698	970.5
512.914	958.5
513.13	927.5
