Data from NiCl2@0.0625M.TitratingCurve.Agarose3%dH2O.NegLispCup.LampEnergy10.LIBS07252019_HRD10591_18-33-55-577.txt Node
Date: Thu Jul 25 18:33:55 EDT 2019
User: cochatt
Spectrometer: HR+D1059
Trigger mode: 1
Integration Time (sec): 1.000000E-1
Scans to average: 1
Electric dark correction enabled: true
Nonlinearity correction enabled: false
Boxcar width: 0
XAxis mode: Wavelengths
Number of Pixels in Spectrum: 2048
>>>>>Begin Spectral Data<<<<<
223.165	-8.88
223.4	-8.88
223.635	-8.88
223.869	-21.88
224.104	-27.88
224.338	-26.88
224.573	4.12
224.808	-15.88
225.042	-8.88
225.277	-15.88
225.511	-2.88
225.746	2.12
225.98	9.12
226.215	6.12
226.449	16.12
226.683	32.12
226.918	31.12
227.152	28.12
227.387	22.12
227.621	37.12
227.856	30.12
228.09	45.12
228.324	43.12
228.559	45.12
228.793	70.12
229.027	139.12
229.262	149.12
229.496	169.12
229.73	168.12
229.964	166.12
230.199	156.12
230.433	185.12
230.667	173.12
230.901	188.12
231.136	180.12
231.37	177.12
231.604	183.12
231.838	204.12
232.072	193.12
232.306	196.12
232.541	187.12
232.775	189.12
233.009	196.12
233.243	198.12
233.477	213.12
233.711	196.12
233.945	195.12
234.179	190.12
234.413	203.12
234.647	211.12
234.881	216.12
235.115	214.12
235.349	197.12
235.583	210.12
235.817	203.12
236.051	202.12
236.285	220.12
236.519	224.12
236.753	225.12
236.987	221.12
237.221	236.12
237.455	232.12
237.689	223.12
237.922	222.12
238.156	225.12
238.39	231.12
238.624	246.12
238.858	252.12
239.091	236.12
239.325	264.12
239.559	254.12
239.793	244.12
240.027	248.12
240.26	241.12
240.494	270.12
240.728	262.12
240.961	268.12
241.195	247.12
241.429	265.12
241.662	292.12
241.896	286.12
242.13	310.12
242.363	296.12
242.597	293.12
242.83	293.12
243.064	295.12
243.298	310.12
243.531	296.12
243.765	298.12
243.998	312.12
244.232	310.12
244.465	308.12
244.699	315.12
244.932	329.12
245.166	320.12
245.399	330.12
245.633	337.12
245.866	316.12
246.099	329.12
246.333	346.12
246.566	345.12
246.8	339.12
247.033	343.12
247.266	321.12
247.5	328.12
247.733	333.12
247.966	346.12
248.2	346.12
248.433	394.12
248.666	351.12
248.899	362.12
249.133	360.12
249.366	356.12
249.599	363.12
249.832	369.12
250.066	388.12
250.299	383.12
250.532	379.12
250.765	402.12
250.998	386.12
251.231	394.12
251.465	410.12
251.698	409.12
251.931	414.12
252.164	407.12
252.397	400.12
252.63	422.12
252.863	425.12
253.096	436.12
253.329	408.12
253.562	420.12
253.795	426.12
254.028	417.12
254.261	422.12
254.494	435.12
254.727	420.12
254.96	436.12
255.193	443.12
255.426	437.12
255.659	449.12
255.892	453.12
256.124	436.12
256.357	464.12
256.59	458.12
256.823	452.12
257.056	459.12
257.289	451.12
257.521	457.12
257.754	463.12
257.987	466.12
258.22	485.12
258.452	479.12
258.685	481.12
258.918	489.12
259.151	476.12
259.383	497.12
259.616	484.12
259.849	498.12
260.081	509.12
260.314	514.12
260.547	472.12
260.779	493.12
261.012	488.12
261.244	493.12
261.477	489.12
261.71	519.12
261.942	497.12
262.175	482.12
262.407	529.12
262.64	522.12
262.872	529.12
263.105	517.12
263.337	519.12
263.57	521.12
263.802	552.12
264.035	545.12
264.267	545.12
264.499	563.12
264.732	546.12
264.964	549.12
265.197	567.12
265.429	562.12
265.661	573.12
265.894	542.12
266.126	573.12
266.358	544.12
266.591	544.12
266.823	581.12
267.055	565.12
267.287	565.12
267.52	573.12
267.752	578.12
267.984	585.12
268.216	594.12
268.448	605.12
268.681	595.12
268.913	600.12
269.145	584.12
269.377	598.12
269.609	595.12
269.841	613.12
270.073	578.12
270.306	589.12
270.538	602.12
270.77	627.12
271.002	624.12
271.234	632.12
271.466	613.12
271.698	627.12
271.93	620.12
272.162	634.12
272.394	632.12
272.626	630.12
272.858	641.12
273.09	641.12
273.322	626.12
273.553	628.12
273.785	650.12
274.017	644.12
274.249	656.12
274.481	681.12
274.713	657.12
274.945	693.12
275.176	677.12
275.408	685.12
275.64	685.12
275.872	679.12
276.104	702.12
276.335	692.12
276.567	674.12
276.799	698.12
277.031	684.12
277.262	688.12
277.494	692.12
277.726	682.12
277.957	711.12
278.189	714.12
278.421	714.12
278.652	698.12
278.884	710.12
279.115	704.12
279.347	712.12
279.579	736.12
279.81	712.12
280.042	736.12
280.273	739.12
280.505	725.12
280.736	742.12
280.968	747.12
281.199	746.12
281.431	756.12
281.662	762.12
281.894	757.12
282.125	738.12
282.356	750.12
282.588	775.12
282.819	765.12
283.051	780.12
283.282	749.12
283.513	760.12
283.745	757.12
283.976	758.12
284.207	808.12
284.439	794.12
284.67	789.12
284.901	790.12
285.132	802.12
285.364	805.12
285.595	797.12
285.826	802.12
286.057	823.12
286.288	785.12
286.52	813.12
286.751	808.12
286.982	834.12
287.213	809.12
287.444	804.12
287.675	802.12
287.906	820.12
288.138	829.12
288.369	838.12
288.6	829.12
288.831	856.12
289.062	832.12
289.293	828.12
289.524	823.12
289.755	832.12
289.986	851.12
290.217	826.12
290.448	861.12
290.679	854.12
290.91	868.12
291.141	854.12
291.371	854.12
291.602	866.12
291.833	876.12
292.064	849.12
292.295	842.12
292.526	868.12
292.757	830.12
292.987	871.12
293.218	871.12
293.449	874.12
293.68	876.12
293.91	842.12
294.141	836.12
294.372	861.12
294.603	861.12
294.833	869.12
295.064	888.12
295.295	896.12
295.525	870.12
295.756	854.12
295.987	862.12
296.217	860.12
296.448	889.12
296.679	869.12
296.909	921.12
297.14	914.12
297.37	898.12
297.601	925.12
297.831	912.12
298.062	898.12
298.292	925.12
298.523	948.12
298.753	944.12
298.984	914.12
299.214	922.12
299.445	934.12
299.675	909.12
299.905	929.12
300.136	937.12
300.366	926.12
300.597	953.12
300.827	969.12
301.057	974.12
301.288	977.12
301.518	994.12
301.748	961.12
301.979	977.12
302.209	999.12
302.439	987.12
302.669	980.12
302.9	945.12
303.13	984.12
303.36	971.12
303.59	979.12
303.82	1007.12
304.051	996.12
304.281	963.12
304.511	963.12
304.741	989.12
304.971	980.12
305.201	994.12
305.431	991.12
305.661	964.12
305.891	947.12
306.121	940.12
306.352	971.12
306.582	968.12
306.812	969.12
307.042	984.12
307.272	978.12
307.502	944.12
307.731	938.12
307.961	968.12
308.191	946.12
308.421	963.12
308.651	976.12
308.881	928.12
309.111	985.12
309.341	953.12
309.571	970.12
309.8	974.12
310.03	978.12
310.26	974.12
310.49	996.12
310.72	979.12
310.949	997.12
311.179	982.12
311.409	1002.12
311.639	1000.12
311.868	1000.12
312.098	999.12
312.328	980.12
312.557	1030.12
312.787	1032.12
313.017	1010.12
313.246	1053.12
313.476	1010.12
313.706	1028.12
313.935	1050.12
314.165	1063.12
314.394	1044.12
314.624	1024.12
314.853	1018.12
315.083	1053.12
315.312	1068.12
315.542	1038.12
315.771	1017.12
316.001	1044.12
316.23	1046.12
316.46	1042.12
316.689	1061.12
316.919	1020.12
317.148	1058.12
317.377	1035.12
317.607	1049.12
317.836	1014.12
318.065	1004.12
318.295	1023.12
318.524	1057.12
318.753	1014.12
318.983	1048.12
319.212	1030.12
319.441	1048.12
319.67	1043.12
319.9	1048.12
320.129	1016.12
320.358	1016.12
320.587	1046.12
320.816	1056.12
321.046	1032.12
321.275	1030.12
321.504	1062.12
321.733	1038.12
321.962	1068.12
322.191	1042.12
322.42	1062.12
322.649	1043.12
322.878	1050.12
323.108	1044.12
323.337	1069.12
323.566	1039.12
323.795	1044.12
324.024	1072.12
324.253	1062.12
324.482	1083.12
324.71	1107.12
324.939	1075.12
325.168	1065.12
325.397	1084.12
325.626	1100.12
325.855	1112.12
326.084	1119.12
326.313	1141.12
326.542	1127.12
326.77	1104.12
326.999	1120.12
327.228	1097.12
327.457	1104.12
327.686	1066.12
327.914	1107.12
328.143	1120.12
328.372	1160.12
328.6	1139.12
328.829	1094.12
329.058	1137.12
329.287	1136.12
329.515	1164.12
329.744	1146.12
329.972	1137.12
330.201	1161.12
330.43	1178.12
330.658	1154.12
330.887	1164.12
331.115	1184.12
331.344	1202.12
331.572	1174.12
331.801	1225.12
332.03	1248.12
332.258	1253.12
332.486	1260.12
332.715	1291.12
332.943	1336.12
333.172	1368.12
333.4	1395.12
333.629	1440.12
333.857	1455.12
334.085	1450.12
334.314	1464.12
334.542	1410.12
334.771	1425.12
334.999	1410.12
335.227	1434.12
335.455	1458.12
335.684	1377.12
335.912	1395.12
336.14	1364.12
336.369	1396.12
336.597	1324.12
336.825	1340.12
337.053	1345.12
337.281	1355.12
337.51	1322.12
337.738	1308.12
337.966	1276.12
338.194	1245.12
338.422	1260.12
338.65	1226.12
338.878	1226.12
339.106	1218.12
339.334	1249.12
339.562	1235.12
339.79	1223.12
340.018	1221.12
340.246	1185.12
340.474	1194.12
340.702	1195.12
340.93	1216.12
341.158	1194.12
341.386	1206.12
341.614	1184.12
341.842	1195.12
342.07	1150.12
342.298	1197.12
342.526	1132.12
342.754	1155.12
342.981	1144.12
343.209	1180.12
343.437	1214.12
343.665	1313.12
343.893	1370.12
344.12	1395.12
344.348	1362.12
344.576	1302.12
344.804	1281.12
345.031	1235.12
345.259	1227.12
345.487	1192.12
345.714	1184.12
345.942	1175.12
346.17	1159.12
346.397	1134.12
346.625	1157.12
346.853	1121.12
347.08	1158.12
347.308	1143.12
347.535	1128.12
347.763	1136.12
347.99	1140.12
348.218	1173.12
348.445	1136.12
348.673	1131.12
348.9	1123.12
349.128	1130.12
349.355	1128.12
349.583	1118.12
349.81	1106.12
350.037	1106.12
350.265	1109.12
350.492	1116.12
350.72	1112.12
350.947	1118.12
351.174	1115.12
351.402	1110.12
351.629	1094.12
351.856	1093.12
352.083	1074.12
352.311	1088.12
352.538	1078.12
352.765	1088.12
352.992	1109.12
353.22	1096.12
353.447	1107.12
353.674	1087.12
353.901	1136.12
354.128	1086.12
354.355	1092.12
354.583	1075.12
354.81	1103.12
355.037	1100.12
355.264	1105.12
355.491	1072.12
355.718	1112.12
355.945	1081.12
356.172	1088.12
356.399	1108.12
356.626	1121.12
356.853	1090.12
357.08	1074.12
357.307	1115.12
357.534	1116.12
357.761	1097.12
357.988	1102.12
358.215	1089.12
358.441	1075.12
358.668	1068.12
358.895	1107.12
359.122	1126.12
359.349	1090.12
359.576	1108.12
359.802	1136.12
360.029	1090.12
360.256	1077.12
360.483	1125.12
360.709	1101.12
360.936	1113.12
361.163	1070.12
361.39	1130.12
361.616	1132.12
361.843	1074.12
362.07	1125.12
362.296	1106.12
362.523	1080.12
362.749	1140.12
362.976	1089.12
363.203	1106.12
363.429	1088.12
363.656	1120.12
363.882	1120.12
364.109	1084.12
364.335	1090.12
364.562	1122.12
364.788	1091.12
365.015	1115.12
365.241	1099.12
365.468	1100.12
365.694	1105.12
365.92	1124.12
366.147	1092.12
366.373	1078.12
366.599	1113.12
366.826	1102.12
367.052	1113.12
367.278	1118.12
367.505	1108.12
367.731	1129.12
367.957	1099.12
368.184	1125.12
368.41	1138.12
368.636	1136.12
368.862	1122.12
369.089	1117.12
369.315	1118.12
369.541	1147.12
369.767	1146.12
369.993	1150.12
370.219	1129.12
370.445	1178.12
370.672	1152.12
370.898	1188.12
371.124	1178.12
371.35	1188.12
371.576	1207.12
371.802	1214.12
372.028	1186.12
372.254	1215.12
372.48	1224.12
372.706	1229.12
372.932	1206.12
373.158	1235.12
373.384	1185.12
373.61	1202.12
373.835	1208.12
374.061	1173.12
374.287	1202.12
374.513	1194.12
374.739	1250.12
374.965	1289.12
375.191	1312.12
375.416	1311.12
375.642	1250.12
375.868	1261.12
376.094	1241.12
376.319	1218.12
376.545	1234.12
376.771	1231.12
376.997	1182.12
377.222	1220.12
377.448	1202.12
377.674	1181.12
377.899	1171.12
378.125	1185.12
378.35	1151.12
378.576	1168.12
378.802	1195.12
379.027	1176.12
379.253	1206.12
379.478	1197.12
379.704	1184.12
379.929	1166.12
380.155	1179.12
380.38	1166.12
380.606	1177.12
380.831	1158.12
381.057	1204.12
381.282	1133.12
381.507	1210.12
381.733	1200.12
381.958	1205.12
382.184	1225.12
382.409	1243.12
382.634	1239.12
382.86	1251.12
383.085	1256.12
383.31	1263.12
383.535	1316.12
383.761	1303.12
383.986	1289.12
384.211	1368.12
384.436	1346.12
384.662	1382.12
384.887	1366.12
385.112	1366.12
385.337	1404.12
385.562	1396.12
385.787	1385.12
386.013	1435.12
386.238	1414.12
386.463	1413.12
386.688	1400.12
386.913	1388.12
387.138	1416.12
387.363	1396.12
387.588	1390.12
387.813	1371.12
388.038	1390.12
388.263	1422.12
388.488	1408.12
388.713	1416.12
388.938	1452.12
389.163	1383.12
389.387	1403.12
389.612	1394.12
389.837	1413.12
390.062	1393.12
390.287	1413.12
390.512	1388.12
390.736	1414.12
390.961	1442.12
391.186	1474.12
391.411	1468.12
391.636	1524.12
391.86	1547.12
392.085	1575.12
392.31	1517.12
392.534	1524.12
392.759	1515.12
392.984	1506.12
393.208	1497.12
393.433	1504.12
393.658	1484.12
393.882	1505.12
394.107	1461.12
394.331	1523.12
394.556	1503.12
394.78	1506.12
395.005	1515.12
395.229	1528.12
395.454	1546.12
395.678	1570.12
395.903	1590.12
396.127	1562.12
396.352	1535.12
396.576	1522.12
396.801	1493.12
397.025	1529.12
397.249	1572.12
397.474	1596.12
397.698	1608.12
397.922	1629.12
398.147	1601.12
398.371	1659.12
398.595	1704.12
398.82	1736.12
399.044	1869.12
399.268	1985.12
399.492	2224.12
399.717	2413.12
399.941	2388.12
400.165	2234.12
400.389	2093.12
400.613	1952.12
400.837	1868.12
401.062	1839.12
401.286	1792.12
401.51	1763.12
401.734	1746.12
401.958	1796.12
402.182	1780.12
402.406	1776.12
402.63	1797.12
402.854	1822.12
403.078	1796.12
403.302	1842.12
403.526	1880.12
403.75	1883.12
403.974	1934.12
404.198	1918.12
404.422	1876.12
404.645	1896.12
404.869	1904.12
405.093	1931.12
405.317	1883.12
405.541	1890.12
405.765	1948.12
405.988	1915.12
406.212	1894.12
406.436	1904.12
406.66	1961.12
406.883	1980.12
407.107	2093.12
407.331	2144.12
407.555	2195.12
407.778	2168.12
408.002	2186.12
408.226	2137.12
408.449	2112.12
408.673	2029.12
408.896	1965.12
409.12	1965.12
409.344	1995.12
409.567	1962.12
409.791	1966.12
410.014	1947.12
410.238	1952.12
410.461	1926.12
410.685	1908.12
410.908	1835.12
411.132	1876.12
411.355	1810.12
411.578	1833.12
411.802	1827.12
412.025	1841.12
412.249	1906.12
412.472	1849.12
412.695	1796.12
412.919	1761.12
413.142	1753.12
413.365	1735.12
413.589	1762.12
413.812	1772.12
414.035	1745.12
414.258	1724.12
414.482	1782.12
414.705	1784.12
414.928	1760.12
415.151	1742.12
415.374	1758.12
415.597	1776.12
415.821	1726.12
416.044	1677.12
416.267	1692.12
416.49	1718.12
416.713	1693.12
416.936	1720.12
417.159	1694.12
417.382	1658.12
417.605	1669.12
417.828	1701.12
418.051	1711.12
418.274	1717.12
418.497	1696.12
418.72	1706.12
418.943	1740.12
419.166	1848.12
419.389	1952.12
419.611	1882.12
419.834	1900.12
420.057	1772.12
420.28	1693.12
420.503	1674.12
420.726	1673.12
420.948	1645.12
421.171	1656.12
421.394	1699.12
421.617	1670.12
421.839	1698.12
422.062	1720.12
422.285	1688.12
422.507	1716.12
422.73	1724.12
422.953	1721.12
423.175	1714.12
423.398	1757.12
423.621	1736.12
423.843	1772.12
424.066	1718.12
424.288	1761.12
424.511	1773.12
424.733	1677.12
424.956	1707.12
425.178	1681.12
425.401	1661.12
425.623	1716.12
425.846	1672.12
426.068	1652.12
426.291	1633.12
426.513	1586.12
426.735	1607.12
426.958	1611.12
427.18	1607.12
427.402	1607.12
427.625	1591.12
427.847	1543.12
428.069	1570.12
428.292	1608.12
428.514	1537.12
428.736	1525.12
428.958	1532.12
429.181	1523.12
429.403	1490.12
429.625	1506.12
429.847	1485.12
430.069	1472.12
430.292	1517.12
430.514	1515.12
430.736	1571.12
430.958	1571.12
431.18	1519.12
431.402	1547.12
431.624	1548.12
431.846	1562.12
432.068	1552.12
432.29	1589.12
432.512	1536.12
432.734	1547.12
432.956	1535.12
433.178	1590.12
433.4	1546.12
433.622	1573.12
433.844	1592.12
434.066	1622.12
434.287	1633.12
434.509	1660.12
434.731	1676.12
434.953	1727.12
435.175	1720.12
435.397	1684.12
435.618	1625.12
435.84	1617.12
436.062	1585.12
436.284	1556.12
436.505	1566.12
436.727	1560.12
436.949	1539.12
437.17	1540.12
437.392	1513.12
437.614	1532.12
437.835	1459.12
438.057	1452.12
438.278	1457.12
438.5	1462.12
438.721	1483.12
438.943	1508.12
439.165	1503.12
439.386	1521.12
439.608	1516.12
439.829	1524.12
440.05	1523.12
440.272	1529.12
440.493	1528.12
440.715	1547.12
440.936	1580.12
441.158	1601.12
441.379	1609.12
441.6	1670.12
441.822	1712.12
442.043	1654.12
442.264	1664.12
442.486	1637.12
442.707	1634.12
442.928	1645.12
443.149	1636.12
443.371	1597.12
443.592	1668.12
443.813	1677.12
444.034	1694.12
444.255	1720.12
444.476	1796.12
444.698	1871.12
444.919	1904.12
445.14	1963.12
445.361	1822.12
445.582	1698.12
445.803	1642.12
446.024	1630.12
446.245	1569.12
446.466	1584.12
446.687	1509.12
446.908	1548.12
447.129	1494.12
447.35	1445.12
447.571	1448.12
447.792	1412.12
448.013	1452.12
448.234	1386.12
448.455	1412.12
448.675	1408.12
448.896	1402.12
449.117	1373.12
449.338	1369.12
449.559	1369.12
449.779	1365.12
450	1339.12
450.221	1353.12
450.442	1396.12
450.662	1373.12
450.883	1375.12
451.104	1399.12
451.324	1372.12
451.545	1362.12
451.766	1386.12
451.986	1362.12
452.207	1351.12
452.428	1356.12
452.648	1322.12
452.869	1310.12
453.089	1328.12
453.31	1340.12
453.53	1320.12
453.751	1318.12
453.971	1308.12
454.192	1321.12
454.412	1286.12
454.633	1313.12
454.853	1300.12
455.073	1314.12
455.294	1295.12
455.514	1286.12
455.734	1266.12
455.955	1265.12
456.175	1301.12
456.395	1290.12
456.616	1257.12
456.836	1309.12
457.056	1308.12
457.276	1268.12
457.497	1286.12
457.717	1322.12
457.937	1346.12
458.157	1338.12
458.377	1354.12
458.598	1396.12
458.818	1402.12
459.038	1430.12
459.258	1467.12
459.478	1477.12
459.698	1512.12
459.918	1581.12
460.138	1603.12
460.358	1689.12
460.578	1672.12
460.798	1691.12
461.018	1738.12
461.238	1707.12
461.458	1736.12
461.678	1692.12
461.898	1745.12
462.118	1804.12
462.338	1859.12
462.558	1914.12
462.777	1938.12
462.997	2050.12
463.217	2181.12
463.437	2250.12
463.657	2036.12
463.876	2002.12
464.096	2014.12
464.316	1994.12
464.536	1980.12
464.755	1924.12
464.975	1874.12
465.195	1824.12
465.414	1729.12
465.634	1614.12
465.854	1564.12
466.073	1498.12
466.293	1516.12
466.512	1494.12
466.732	1481.12
466.951	1469.12
467.171	1459.12
467.391	1456.12
467.61	1444.12
467.829	1438.12
468.049	1395.12
468.268	1422.12
468.488	1392.12
468.707	1406.12
468.927	1412.12
469.146	1420.12
469.365	1422.12
469.585	1421.12
469.804	1430.12
470.023	1464.12
470.243	1468.12
470.462	1491.12
470.681	1504.12
470.901	1499.12
471.12	1496.12
471.339	1462.12
471.558	1441.12
471.777	1414.12
471.997	1415.12
472.216	1433.12
472.435	1413.12
472.654	1406.12
472.873	1360.12
473.092	1376.12
473.311	1370.12
473.53	1381.12
473.749	1376.12
473.968	1435.12
474.187	1355.12
474.406	1398.12
474.625	1396.12
474.844	1367.12
475.063	1402.12
475.282	1427.12
475.501	1438.12
475.72	1416.12
475.939	1424.12
476.158	1472.12
476.377	1460.12
476.596	1463.12
476.814	1468.12
477.033	1470.12
477.252	1512.12
477.471	1517.12
477.69	1521.12
477.908	1598.12
478.127	1619.12
478.346	1656.12
478.564	1688.12
478.783	1672.12
479.002	1715.12
479.22	1702.12
479.439	1691.12
479.658	1746.12
479.876	1744.12
480.095	1769.12
480.313	1840.12
480.532	1837.12
480.751	1853.12
480.969	1827.12
481.188	1770.12
481.406	1745.12
481.624	1721.12
481.843	1706.12
482.061	1719.12
482.28	1661.12
482.498	1704.12
482.717	1696.12
482.935	1697.12
483.153	1676.12
483.372	1691.12
483.59	1728.12
483.808	1740.12
484.027	1734.12
484.245	1757.12
484.463	1781.12
484.681	1820.12
484.9	1799.12
485.118	1820.12
485.336	1833.12
485.554	1816.12
485.772	1881.12
485.99	1868.12
486.209	1874.12
486.427	1863.12
486.645	1832.12
486.863	1834.12
487.081	1837.12
487.299	1833.12
487.517	1811.12
487.735	1855.12
487.953	1819.12
488.171	1838.12
488.389	1813.12
488.607	1812.12
488.825	1746.12
489.043	1749.12
489.261	1760.12
489.479	1741.12
489.696	1748.12
489.914	1723.12
490.132	1768.12
490.35	1745.12
490.568	1730.12
