Data from NiCl2@0.125M.TitratingCurve.Agarose3%dH2O.NegLispCup.LampEnergy10.LIBS07252019_HRD10591_18-27-48-574.txt Node
Date: Thu Jul 25 18:27:48 EDT 2019
User: cochatt
Spectrometer: HR+D1059
Trigger mode: 1
Integration Time (sec): 1.000000E-1
Scans to average: 1
Electric dark correction enabled: true
Nonlinearity correction enabled: false
Boxcar width: 0
XAxis mode: Wavelengths
Number of Pixels in Spectrum: 2048
>>>>>Begin Spectral Data<<<<<
223.165	-14.75
223.4	-14.75
223.635	-14.75
223.869	-20.75
224.104	-23.75
224.338	-17.75
224.573	-4.75
224.808	-13.75
225.042	-15.75
225.277	-8.75
225.511	1.25
225.746	2.25
225.98	11.25
226.215	6.25
226.449	22.25
226.683	21.25
226.918	30.25
227.152	25.25
227.387	34.25
227.621	40.25
227.856	54.25
228.09	60.25
228.324	46.25
228.559	67.25
228.793	60.25
229.027	113.25
229.262	112.25
229.496	102.25
229.73	114.25
229.964	124.25
230.199	121.25
230.433	126.25
230.667	143.25
230.901	146.25
231.136	139.25
231.37	140.25
231.604	134.25
231.838	153.25
232.072	150.25
232.306	136.25
232.541	151.25
232.775	158.25
233.009	146.25
233.243	149.25
233.477	169.25
233.711	152.25
233.945	165.25
234.179	156.25
234.413	143.25
234.647	146.25
234.881	157.25
235.115	146.25
235.349	157.25
235.583	156.25
235.817	158.25
236.051	172.25
236.285	158.25
236.519	149.25
236.753	150.25
236.987	161.25
237.221	170.25
237.455	170.25
237.689	168.25
237.922	183.25
238.156	153.25
238.39	163.25
238.624	168.25
238.858	165.25
239.091	170.25
239.325	178.25
239.559	188.25
239.793	173.25
240.027	181.25
240.26	189.25
240.494	181.25
240.728	184.25
240.961	195.25
241.195	194.25
241.429	194.25
241.662	197.25
241.896	193.25
242.13	206.25
242.363	216.25
242.597	203.25
242.83	201.25
243.064	199.25
243.298	203.25
243.531	185.25
243.765	205.25
243.998	207.25
244.232	215.25
244.465	213.25
244.699	230.25
244.932	214.25
245.166	231.25
245.399	222.25
245.633	218.25
245.866	244.25
246.099	242.25
246.333	218.25
246.566	233.25
246.8	240.25
247.033	240.25
247.266	231.25
247.5	241.25
247.733	256.25
247.966	234.25
248.2	248.25
248.433	251.25
248.666	249.25
248.899	252.25
249.133	269.25
249.366	257.25
249.599	246.25
249.832	259.25
250.066	280.25
250.299	255.25
250.532	247.25
250.765	264.25
250.998	248.25
251.231	274.25
251.465	248.25
251.698	276.25
251.931	275.25
252.164	291.25
252.397	300.25
252.63	306.25
252.863	281.25
253.096	274.25
253.329	279.25
253.562	285.25
253.795	289.25
254.028	288.25
254.261	274.25
254.494	293.25
254.727	300.25
254.96	298.25
255.193	291.25
255.426	289.25
255.659	299.25
255.892	330.25
256.124	304.25
256.357	316.25
256.59	310.25
256.823	313.25
257.056	317.25
257.289	296.25
257.521	307.25
257.754	322.25
257.987	323.25
258.22	320.25
258.452	314.25
258.685	329.25
258.918	340.25
259.151	336.25
259.383	331.25
259.616	327.25
259.849	336.25
260.081	324.25
260.314	334.25
260.547	314.25
260.779	335.25
261.012	353.25
261.244	346.25
261.477	341.25
261.71	350.25
261.942	345.25
262.175	370.25
262.407	334.25
262.64	333.25
262.872	336.25
263.105	348.25
263.337	357.25
263.57	350.25
263.802	361.25
264.035	349.25
264.267	358.25
264.499	350.25
264.732	369.25
264.964	378.25
265.197	376.25
265.429	362.25
265.661	368.25
265.894	361.25
266.126	360.25
266.358	378.25
266.591	382.25
266.823	388.25
267.055	373.25
267.287	378.25
267.52	385.25
267.752	380.25
267.984	383.25
268.216	386.25
268.448	408.25
268.681	384.25
268.913	393.25
269.145	394.25
269.377	369.25
269.609	393.25
269.841	389.25
270.073	382.25
270.306	389.25
270.538	394.25
270.77	402.25
271.002	397.25
271.234	399.25
271.466	414.25
271.698	406.25
271.93	405.25
272.162	411.25
272.394	408.25
272.626	425.25
272.858	421.25
273.09	398.25
273.322	418.25
273.553	419.25
273.785	412.25
274.017	434.25
274.249	419.25
274.481	441.25
274.713	419.25
274.945	430.25
275.176	434.25
275.408	430.25
275.64	444.25
275.872	414.25
276.104	441.25
276.335	436.25
276.567	459.25
276.799	445.25
277.031	450.25
277.262	437.25
277.494	444.25
277.726	449.25
277.957	448.25
278.189	480.25
278.421	461.25
278.652	447.25
278.884	466.25
279.115	459.25
279.347	473.25
279.579	464.25
279.81	483.25
280.042	478.25
280.273	450.25
280.505	484.25
280.736	469.25
280.968	490.25
281.199	483.25
281.431	495.25
281.662	506.25
281.894	482.25
282.125	492.25
282.356	496.25
282.588	500.25
282.819	520.25
283.051	503.25
283.282	508.25
283.513	504.25
283.745	491.25
283.976	482.25
284.207	518.25
284.439	535.25
284.67	507.25
284.901	511.25
285.132	491.25
285.364	520.25
285.595	536.25
285.826	525.25
286.057	526.25
286.288	501.25
286.52	523.25
286.751	537.25
286.982	532.25
287.213	527.25
287.444	523.25
287.675	530.25
287.906	533.25
288.138	544.25
288.369	529.25
288.6	535.25
288.831	516.25
289.062	560.25
289.293	552.25
289.524	530.25
289.755	567.25
289.986	532.25
290.217	553.25
290.448	560.25
290.679	545.25
290.91	563.25
291.141	576.25
291.371	564.25
291.602	554.25
291.833	550.25
292.064	550.25
292.295	522.25
292.526	536.25
292.757	549.25
292.987	564.25
293.218	545.25
293.449	564.25
293.68	546.25
293.91	569.25
294.141	547.25
294.372	567.25
294.603	567.25
294.833	554.25
295.064	560.25
295.295	576.25
295.525	578.25
295.756	599.25
295.987	560.25
296.217	573.25
296.448	581.25
296.679	585.25
296.909	582.25
297.14	602.25
297.37	591.25
297.601	601.25
297.831	595.25
298.062	601.25
298.292	618.25
298.523	624.25
298.753	620.25
298.984	608.25
299.214	613.25
299.445	576.25
299.675	583.25
299.905	594.25
300.136	607.25
300.366	574.25
300.597	610.25
300.827	619.25
301.057	634.25
301.288	616.25
301.518	626.25
301.748	617.25
301.979	637.25
302.209	653.25
302.439	633.25
302.669	652.25
302.9	631.25
303.13	619.25
303.36	604.25
303.59	609.25
303.82	633.25
304.051	635.25
304.281	641.25
304.511	605.25
304.741	620.25
304.971	638.25
305.201	627.25
305.431	630.25
305.661	620.25
305.891	618.25
306.121	609.25
306.352	620.25
306.582	604.25
306.812	614.25
307.042	621.25
307.272	630.25
307.502	631.25
307.731	612.25
307.961	611.25
308.191	619.25
308.421	616.25
308.651	608.25
308.881	605.25
309.111	606.25
309.341	595.25
309.571	596.25
309.8	616.25
310.03	631.25
310.26	589.25
310.49	597.25
310.72	607.25
310.949	617.25
311.179	618.25
311.409	616.25
311.639	626.25
311.868	628.25
312.098	632.25
312.328	641.25
312.557	642.25
312.787	634.25
313.017	661.25
313.246	672.25
313.476	644.25
313.706	657.25
313.935	665.25
314.165	670.25
314.394	655.25
314.624	674.25
314.853	663.25
315.083	642.25
315.312	670.25
315.542	644.25
315.771	644.25
316.001	677.25
316.23	634.25
316.46	648.25
316.689	657.25
316.919	624.25
317.148	635.25
317.377	628.25
317.607	631.25
317.836	650.25
318.065	640.25
318.295	617.25
318.524	640.25
318.753	632.25
318.983	648.25
319.212	640.25
319.441	632.25
319.67	636.25
319.9	642.25
320.129	640.25
320.358	636.25
320.587	651.25
320.816	640.25
321.046	644.25
321.275	641.25
321.504	655.25
321.733	647.25
321.962	642.25
322.191	653.25
322.42	618.25
322.649	648.25
322.878	668.25
323.108	651.25
323.337	650.25
323.566	651.25
323.795	661.25
324.024	669.25
324.253	684.25
324.482	658.25
324.71	692.25
324.939	668.25
325.168	670.25
325.397	650.25
325.626	695.25
325.855	701.25
326.084	712.25
326.313	741.25
326.542	706.25
326.77	733.25
326.999	705.25
327.228	698.25
327.457	717.25
327.686	709.25
327.914	713.25
328.143	708.25
328.372	706.25
328.6	733.25
328.829	718.25
329.058	697.25
329.287	710.25
329.515	731.25
329.744	724.25
329.972	702.25
330.201	714.25
330.43	721.25
330.658	706.25
330.887	706.25
331.115	738.25
331.344	742.25
331.572	745.25
331.801	770.25
332.03	779.25
332.258	797.25
332.486	820.25
332.715	833.25
332.943	908.25
333.172	913.25
333.4	968.25
333.629	981.25
333.857	980.25
334.085	962.25
334.314	945.25
334.542	932.25
334.771	933.25
334.999	882.25
335.227	885.25
335.455	908.25
335.684	878.25
335.912	889.25
336.14	873.25
336.369	825.25
336.597	834.25
336.825	853.25
337.053	838.25
337.281	837.25
337.51	853.25
337.738	787.25
337.966	802.25
338.194	759.25
338.422	757.25
338.65	743.25
338.878	774.25
339.106	759.25
339.334	805.25
339.562	766.25
339.79	754.25
340.018	738.25
340.246	741.25
340.474	747.25
340.702	719.25
340.93	752.25
341.158	733.25
341.386	722.25
341.614	750.25
341.842	739.25
342.07	717.25
342.298	724.25
342.526	740.25
342.754	715.25
342.981	741.25
343.209	737.25
343.437	794.25
343.665	846.25
343.893	934.25
344.12	932.25
344.348	859.25
344.576	830.25
344.804	833.25
345.031	777.25
345.259	759.25
345.487	743.25
345.714	740.25
345.942	709.25
346.17	737.25
346.397	707.25
346.625	717.25
346.853	703.25
347.08	737.25
347.308	700.25
347.535	713.25
347.763	733.25
347.99	705.25
348.218	748.25
348.445	718.25
348.673	698.25
348.9	726.25
349.128	693.25
349.355	712.25
349.583	662.25
349.81	707.25
350.037	696.25
350.265	694.25
350.492	694.25
350.72	696.25
350.947	694.25
351.174	666.25
351.402	689.25
351.629	672.25
351.856	704.25
352.083	679.25
352.311	689.25
352.538	688.25
352.765	700.25
352.992	697.25
353.22	678.25
353.447	679.25
353.674	676.25
353.901	668.25
354.128	684.25
354.355	664.25
354.583	693.25
354.81	713.25
355.037	696.25
355.264	686.25
355.491	702.25
355.718	679.25
355.945	666.25
356.172	696.25
356.399	691.25
356.626	690.25
356.853	715.25
357.08	683.25
357.307	700.25
357.534	698.25
357.761	663.25
357.988	685.25
358.215	670.25
358.441	664.25
358.668	700.25
358.895	673.25
359.122	713.25
359.349	690.25
359.576	670.25
359.802	690.25
360.029	678.25
360.256	708.25
360.483	668.25
360.709	690.25
360.936	694.25
361.163	707.25
361.39	695.25
361.616	680.25
361.843	702.25
362.07	683.25
362.296	709.25
362.523	685.25
362.749	656.25
362.976	702.25
363.203	691.25
363.429	668.25
363.656	719.25
363.882	704.25
364.109	647.25
364.335	678.25
364.562	654.25
364.788	668.25
365.015	702.25
365.241	673.25
365.468	678.25
365.694	681.25
365.92	691.25
366.147	683.25
366.373	695.25
366.599	669.25
366.826	702.25
367.052	678.25
367.278	678.25
367.505	683.25
367.731	671.25
367.957	702.25
368.184	704.25
368.41	690.25
368.636	707.25
368.862	723.25
369.089	692.25
369.315	694.25
369.541	697.25
369.767	730.25
369.993	712.25
370.219	715.25
370.445	738.25
370.672	717.25
370.898	715.25
371.124	765.25
371.35	756.25
371.576	745.25
371.802	770.25
372.028	755.25
372.254	730.25
372.48	757.25
372.706	770.25
372.932	796.25
373.158	770.25
373.384	757.25
373.61	761.25
373.835	748.25
374.061	762.25
374.287	776.25
374.513	780.25
374.739	797.25
374.965	816.25
375.191	841.25
375.416	858.25
375.642	808.25
375.868	808.25
376.094	774.25
376.319	774.25
376.545	742.25
376.771	772.25
376.997	774.25
377.222	774.25
377.448	752.25
377.674	754.25
377.899	752.25
378.125	728.25
378.35	713.25
378.576	726.25
378.802	738.25
379.027	727.25
379.253	762.25
379.478	744.25
379.704	747.25
379.929	747.25
380.155	722.25
380.38	729.25
380.606	748.25
380.831	724.25
381.057	735.25
381.282	755.25
381.507	750.25
381.733	753.25
381.958	759.25
382.184	769.25
382.409	797.25
382.634	800.25
382.86	768.25
383.085	804.25
383.31	820.25
383.535	856.25
383.761	844.25
383.986	859.25
384.211	872.25
384.436	877.25
384.662	898.25
384.887	902.25
385.112	906.25
385.337	908.25
385.562	916.25
385.787	881.25
386.013	914.25
386.238	904.25
386.463	915.25
386.688	923.25
386.913	893.25
387.138	906.25
387.363	892.25
387.588	871.25
387.813	881.25
388.038	884.25
388.263	882.25
388.488	916.25
388.713	918.25
388.938	905.25
389.163	869.25
389.387	895.25
389.612	901.25
389.837	877.25
390.062	875.25
390.287	888.25
390.512	912.25
390.736	877.25
390.961	908.25
391.186	912.25
391.411	953.25
391.636	945.25
391.86	1008.25
392.085	1036.25
392.31	1011.25
392.534	965.25
392.759	964.25
392.984	954.25
393.208	947.25
393.433	947.25
393.658	971.25
393.882	978.25
394.107	961.25
394.331	940.25
394.556	967.25
394.78	976.25
395.005	974.25
395.229	991.25
395.454	995.25
395.678	1043.25
395.903	1003.25
396.127	1012.25
396.352	968.25
396.576	940.25
396.801	950.25
397.025	960.25
397.249	984.25
397.474	1014.25
397.698	1003.25
397.922	1012.25
398.147	992.25
398.371	1050.25
398.595	1084.25
398.82	1102.25
399.044	1204.25
399.268	1289.25
399.492	1546.25
399.717	1821.25
399.941	1759.25
400.165	1552.25
400.389	1383.25
400.613	1251.25
400.837	1187.25
401.062	1148.25
401.286	1128.25
401.51	1145.25
401.734	1110.25
401.958	1171.25
402.182	1186.25
402.406	1200.25
402.63	1192.25
402.854	1238.25
403.078	1264.25
403.302	1286.25
403.526	1309.25
403.75	1332.25
403.974	1348.25
404.198	1366.25
404.422	1358.25
404.645	1360.25
404.869	1304.25
405.093	1290.25
405.317	1289.25
405.541	1264.25
405.765	1240.25
405.988	1219.25
406.212	1228.25
406.436	1242.25
406.66	1284.25
406.883	1301.25
407.107	1414.25
407.331	1432.25
407.555	1517.25
407.778	1491.25
408.002	1436.25
408.226	1376.25
408.449	1339.25
408.673	1335.25
408.896	1303.25
409.12	1302.25
409.344	1289.25
409.567	1286.25
409.791	1320.25
410.014	1324.25
410.238	1284.25
410.461	1274.25
410.685	1255.25
410.908	1187.25
411.132	1253.25
411.355	1168.25
411.578	1177.25
411.802	1174.25
412.025	1168.25
412.249	1205.25
412.472	1220.25
412.695	1138.25
412.919	1152.25
413.142	1116.25
413.365	1122.25
413.589	1161.25
413.812	1108.25
414.035	1128.25
414.258	1167.25
414.482	1144.25
414.705	1166.25
414.928	1173.25
415.151	1149.25
415.374	1160.25
415.597	1164.25
415.821	1101.25
416.044	1104.25
416.267	1118.25
416.49	1126.25
416.713	1109.25
416.936	1149.25
417.159	1179.25
417.382	1146.25
417.605	1120.25
417.828	1116.25
418.051	1155.25
418.274	1152.25
418.497	1160.25
418.72	1166.25
418.943	1174.25
419.166	1236.25
419.389	1345.25
419.611	1298.25
419.834	1218.25
420.057	1188.25
420.28	1146.25
420.503	1127.25
420.726	1131.25
420.948	1107.25
421.171	1123.25
421.394	1131.25
421.617	1103.25
421.839	1106.25
422.062	1136.25
422.285	1108.25
422.507	1148.25
422.73	1131.25
422.953	1180.25
423.175	1180.25
423.398	1191.25
423.621	1182.25
423.843	1237.25
424.066	1231.25
424.288	1241.25
424.511	1236.25
424.733	1200.25
424.956	1163.25
425.178	1148.25
425.401	1116.25
425.623	1120.25
425.846	1090.25
426.068	1119.25
426.291	1058.25
426.513	1074.25
426.735	1072.25
426.958	1043.25
427.18	1037.25
427.402	1037.25
427.625	1014.25
427.847	1013.25
428.069	995.25
428.292	997.25
428.514	1012.25
428.736	978.25
428.958	1011.25
429.181	973.25
429.403	944.25
429.625	996.25
429.847	987.25
430.069	986.25
430.292	968.25
430.514	958.25
430.736	995.25
430.958	961.25
431.18	991.25
431.402	1005.25
431.624	994.25
431.846	1009.25
432.068	1029.25
432.29	994.25
432.512	971.25
432.734	998.25
432.956	1012.25
433.178	998.25
433.4	1025.25
433.622	1026.25
433.844	1026.25
434.066	1019.25
434.287	1029.25
434.509	1038.25
434.731	1081.25
434.953	1128.25
435.175	1163.25
435.397	1133.25
435.618	1046.25
435.84	1028.25
436.062	1033.25
436.284	989.25
436.505	988.25
436.727	1016.25
436.949	1008.25
437.17	1009.25
437.392	988.25
437.614	969.25
437.835	954.25
438.057	966.25
438.278	953.25
438.5	951.25
438.721	985.25
438.943	980.25
439.165	975.25
439.386	1000.25
439.608	993.25
439.829	1013.25
440.05	1012.25
440.272	1013.25
440.493	1001.25
440.715	1014.25
440.936	1042.25
441.158	1062.25
441.379	1101.25
441.6	1140.25
441.822	1164.25
442.043	1189.25
442.264	1153.25
442.486	1125.25
442.707	1123.25
442.928	1097.25
443.149	1126.25
443.371	1103.25
443.592	1128.25
443.813	1140.25
444.034	1156.25
444.255	1182.25
444.476	1235.25
444.698	1337.25
444.919	1404.25
445.14	1424.25
445.361	1308.25
445.582	1176.25
445.803	1108.25
446.024	1045.25
446.245	1087.25
446.466	1056.25
446.687	1021.25
446.908	1056.25
447.129	977.25
447.35	977.25
447.571	945.25
447.792	941.25
448.013	983.25
448.234	916.25
448.455	925.25
448.675	917.25
448.896	930.25
449.117	913.25
449.338	922.25
449.559	923.25
449.779	920.25
450	906.25
450.221	948.25
450.442	918.25
450.662	935.25
450.883	966.25
451.104	954.25
451.324	967.25
451.545	928.25
451.766	926.25
451.986	949.25
452.207	933.25
452.428	928.25
452.648	910.25
452.869	914.25
453.089	911.25
453.31	901.25
453.53	908.25
453.751	887.25
453.971	891.25
454.192	894.25
454.412	886.25
454.633	885.25
454.853	887.25
455.073	868.25
455.294	866.25
455.514	861.25
455.734	857.25
455.955	859.25
456.175	845.25
456.395	850.25
456.616	831.25
456.836	848.25
457.056	844.25
457.276	833.25
457.497	854.25
457.717	860.25
457.937	865.25
458.157	865.25
458.377	870.25
458.598	909.25
458.818	924.25
459.038	944.25
459.258	975.25
459.478	968.25
459.698	998.25
459.918	1081.25
460.138	1120.25
460.358	1197.25
460.578	1203.25
460.798	1186.25
461.018	1197.25
461.238	1167.25
461.458	1172.25
461.678	1187.25
461.898	1165.25
462.118	1202.25
462.338	1278.25
462.558	1294.25
462.777	1371.25
462.997	1467.25
463.217	1626.25
463.437	1639.25
463.657	1495.25
463.876	1415.25
464.096	1401.25
464.316	1377.25
464.536	1402.25
464.755	1357.25
464.975	1290.25
465.195	1245.25
465.414	1164.25
465.634	1096.25
465.854	1038.25
466.073	1047.25
466.293	1031.25
466.512	982.25
466.732	954.25
466.951	956.25
467.171	968.25
467.391	963.25
467.61	964.25
467.829	982.25
468.049	965.25
468.268	914.25
468.488	908.25
468.707	942.25
468.927	946.25
469.146	928.25
469.365	913.25
469.585	933.25
469.804	950.25
470.023	995.25
470.243	1004.25
470.462	1009.25
470.681	1005.25
470.901	1003.25
471.12	989.25
471.339	968.25
471.558	954.25
471.777	944.25
471.997	906.25
472.216	888.25
472.435	904.25
472.654	887.25
472.873	889.25
473.092	896.25
473.311	886.25
473.53	893.25
473.749	905.25
473.968	866.25
474.187	894.25
474.406	881.25
474.625	889.25
474.844	911.25
475.063	892.25
475.282	899.25
475.501	884.25
475.72	884.25
475.939	915.25
476.158	901.25
476.377	925.25
476.596	911.25
476.814	929.25
477.033	944.25
477.252	939.25
477.471	980.25
477.69	984.25
477.908	1041.25
478.127	1084.25
478.346	1084.25
478.564	1074.25
478.783	1092.25
479.002	1147.25
479.22	1094.25
479.439	1138.25
479.658	1115.25
479.876	1076.25
480.095	1099.25
480.313	1197.25
480.532	1207.25
480.751	1222.25
480.969	1170.25
481.188	1094.25
481.406	1076.25
481.624	1062.25
481.843	1050.25
482.061	1012.25
482.28	1011.25
482.498	1008.25
482.717	991.25
482.935	997.25
483.153	1036.25
483.372	996.25
483.59	992.25
483.808	1036.25
484.027	1030.25
484.245	1013.25
484.463	1048.25
484.681	1056.25
484.9	1052.25
485.118	1069.25
485.336	1060.25
485.554	1084.25
485.772	1121.25
485.99	1067.25
486.209	1091.25
486.427	1098.25
486.645	1094.25
486.863	1092.25
487.081	1079.25
487.299	1092.25
487.517	1059.25
487.735	1068.25
487.953	1058.25
488.171	1060.25
488.389	1050.25
488.607	1044.25
488.825	1017.25
489.043	1052.25
489.261	1042.25
489.479	1053.25
489.696	1028.25
489.914	1047.25
490.132	1036.25
490.35	1073.25
490.568	1055.25
490.786	1050.25
491.003	1054.25
491.221	1087.25
491.439	1058.25
491.657	1085.25
491.874	1090.25
492.092	1094.25
492.31	1109.25
492.527	1078.25
492.745	1085.25
492.963	1126.25
493.18	1121.25
493.398	1123.25
493.615	1094.25
493.833	1102.25
494.05	1097.25
494.268	1118.25
494.485	1143.25
494.703	1132.25
494.92	1136.25
495.138	1138.25
495.355	1130.25
495.573	1139.25
495.79	1123.25
496.008	1148.25
496.225	1124.25
496.442	1143.25
496.66	1186.25
496.877	1173.25
497.094	1219.25
497.312	1216.25
