Data from NiCl2@0.5M.TitratingCurve.Agarose3%dH2O.NegLispCup.LampEnergy10.LIBS07252019_HRD10591_18-19-15-571.txt Node
Date: Thu Jul 25 18:19:15 EDT 2019
User: cochatt
Spectrometer: HR+D1059
Trigger mode: 1
Integration Time (sec): 1.000000E-1
Scans to average: 1
Electric dark correction enabled: true
Nonlinearity correction enabled: false
Boxcar width: 0
XAxis mode: Wavelengths
Number of Pixels in Spectrum: 2048
>>>>>Begin Spectral Data<<<<<
223.165	-13.19
223.4	-13.19
223.635	-13.19
223.869	-16.19
224.104	-24.19
224.338	-9.19
224.573	-11.19
224.808	-20.19
225.042	4.81
225.277	-4.19
225.511	-2.19
225.746	7.81
225.98	-0.19
226.215	11.81
226.449	19.81
226.683	23.81
226.918	19.81
227.152	12.81
227.387	23.81
227.621	34.81
227.856	42.81
228.09	47.81
228.324	42.81
228.559	46.81
228.793	80.81
229.027	148.81
229.262	150.81
229.496	156.81
229.73	162.81
229.964	184.81
230.199	203.81
230.433	209.81
230.667	218.81
230.901	192.81
231.136	188.81
231.37	202.81
231.604	191.81
231.838	213.81
232.072	210.81
232.306	220.81
232.541	214.81
232.775	196.81
233.009	186.81
233.243	191.81
233.477	196.81
233.711	189.81
233.945	214.81
234.179	208.81
234.413	194.81
234.647	208.81
234.881	201.81
235.115	212.81
235.349	212.81
235.583	211.81
235.817	197.81
236.051	221.81
236.285	205.81
236.519	223.81
236.753	211.81
236.987	226.81
237.221	210.81
237.455	212.81
237.689	230.81
237.922	222.81
238.156	211.81
238.39	231.81
238.624	211.81
238.858	223.81
239.091	230.81
239.325	233.81
239.559	267.81
239.793	267.81
240.027	265.81
240.26	242.81
240.494	243.81
240.728	246.81
240.961	247.81
241.195	271.81
241.429	259.81
241.662	267.81
241.896	291.81
242.13	306.81
242.363	288.81
242.597	282.81
242.83	272.81
243.064	259.81
243.298	272.81
243.531	277.81
243.765	288.81
243.998	286.81
244.232	314.81
244.465	287.81
244.699	315.81
244.932	293.81
245.166	320.81
245.399	294.81
245.633	320.81
245.866	338.81
246.099	328.81
246.333	318.81
246.566	323.81
246.8	327.81
247.033	322.81
247.266	323.81
247.5	316.81
247.733	332.81
247.966	324.81
248.2	320.81
248.433	338.81
248.666	345.81
248.899	340.81
249.133	347.81
249.366	351.81
249.599	345.81
249.832	351.81
250.066	341.81
250.299	342.81
250.532	375.81
250.765	364.81
250.998	396.81
251.231	384.81
251.465	389.81
251.698	386.81
251.931	380.81
252.164	370.81
252.397	379.81
252.63	374.81
252.863	386.81
253.096	387.81
253.329	411.81
253.562	418.81
253.795	402.81
254.028	391.81
254.261	392.81
254.494	410.81
254.727	408.81
254.96	404.81
255.193	418.81
255.426	429.81
255.659	409.81
255.892	419.81
256.124	445.81
256.357	435.81
256.59	427.81
256.823	424.81
257.056	428.81
257.289	444.81
257.521	442.81
257.754	434.81
257.987	440.81
258.22	434.81
258.452	448.81
258.685	459.81
258.918	464.81
259.151	470.81
259.383	473.81
259.616	457.81
259.849	447.81
260.081	473.81
260.314	444.81
260.547	482.81
260.779	470.81
261.012	507.81
261.244	500.81
261.477	493.81
261.71	502.81
261.942	505.81
262.175	518.81
262.407	512.81
262.64	488.81
262.872	489.81
263.105	498.81
263.337	528.81
263.57	505.81
263.802	522.81
264.035	505.81
264.267	522.81
264.499	513.81
264.732	522.81
264.964	525.81
265.197	504.81
265.429	553.81
265.661	549.81
265.894	546.81
266.126	538.81
266.358	542.81
266.591	535.81
266.823	533.81
267.055	528.81
267.287	549.81
267.52	562.81
267.752	555.81
267.984	554.81
268.216	581.81
268.448	568.81
268.681	587.81
268.913	570.81
269.145	585.81
269.377	607.81
269.609	570.81
269.841	599.81
270.073	590.81
270.306	572.81
270.538	585.81
270.77	576.81
271.002	598.81
271.234	616.81
271.466	596.81
271.698	608.81
271.93	601.81
272.162	604.81
272.394	594.81
272.626	609.81
272.858	609.81
273.09	627.81
273.322	608.81
273.553	623.81
273.785	632.81
274.017	628.81
274.249	627.81
274.481	613.81
274.713	638.81
274.945	638.81
275.176	648.81
275.408	665.81
275.64	632.81
275.872	642.81
276.104	642.81
276.335	636.81
276.567	660.81
276.799	643.81
277.031	666.81
277.262	655.81
277.494	684.81
277.726	678.81
277.957	692.81
278.189	675.81
278.421	683.81
278.652	677.81
278.884	679.81
279.115	697.81
279.347	710.81
279.579	676.81
279.81	704.81
280.042	711.81
280.273	720.81
280.505	726.81
280.736	680.81
280.968	707.81
281.199	709.81
281.431	727.81
281.662	732.81
281.894	728.81
282.125	716.81
282.356	752.81
282.588	737.81
282.819	741.81
283.051	752.81
283.282	754.81
283.513	726.81
283.745	725.81
283.976	774.81
284.207	742.81
284.439	740.81
284.67	752.81
284.901	762.81
285.132	785.81
285.364	777.81
285.595	776.81
285.826	758.81
286.057	772.81
286.288	768.81
286.52	777.81
286.751	788.81
286.982	786.81
287.213	778.81
287.444	775.81
287.675	785.81
287.906	780.81
288.138	814.81
288.369	786.81
288.6	831.81
288.831	800.81
289.062	774.81
289.293	796.81
289.524	795.81
289.755	827.81
289.986	820.81
290.217	823.81
290.448	798.81
290.679	812.81
290.91	832.81
291.141	816.81
291.371	822.81
291.602	818.81
291.833	830.81
292.064	815.81
292.295	815.81
292.526	831.81
292.757	820.81
292.987	833.81
293.218	826.81
293.449	844.81
293.68	844.81
293.91	844.81
294.141	832.81
294.372	842.81
294.603	817.81
294.833	830.81
295.064	816.81
295.295	845.81
295.525	871.81
295.756	856.81
295.987	854.81
296.217	853.81
296.448	866.81
296.679	875.81
296.909	873.81
297.14	875.81
297.37	889.81
297.601	880.81
297.831	890.81
298.062	872.81
298.292	897.81
298.523	907.81
298.753	899.81
298.984	907.81
299.214	887.81
299.445	914.81
299.675	907.81
299.905	933.81
300.136	911.81
300.366	950.81
300.597	961.81
300.827	969.81
301.057	919.81
301.288	936.81
301.518	963.81
301.748	940.81
301.979	969.81
302.209	933.81
302.439	958.81
302.669	951.81
302.9	962.81
303.13	925.81
303.36	963.81
303.59	950.81
303.82	945.81
304.051	958.81
304.281	977.81
304.511	938.81
304.741	952.81
304.971	961.81
305.201	964.81
305.431	1000.81
305.661	1001.81
305.891	993.81
306.121	996.81
306.352	978.81
306.582	959.81
306.812	932.81
307.042	938.81
307.272	945.81
307.502	968.81
307.731	975.81
307.961	977.81
308.191	986.81
308.421	968.81
308.651	915.81
308.881	937.81
309.111	942.81
309.341	930.81
309.571	955.81
309.8	981.81
310.03	965.81
310.26	1026.81
310.49	1010.81
310.72	984.81
310.949	976.81
311.179	978.81
311.409	995.81
311.639	991.81
311.868	1000.81
312.098	999.81
312.328	991.81
312.557	1041.81
312.787	991.81
313.017	1011.81
313.246	1001.81
313.476	1022.81
313.706	1072.81
313.935	1026.81
314.165	1026.81
314.394	1043.81
314.624	1017.81
314.853	1016.81
315.083	1025.81
315.312	1028.81
315.542	1055.81
315.771	1021.81
316.001	985.81
316.23	1035.81
316.46	1017.81
316.689	1038.81
316.919	1062.81
317.148	1012.81
317.377	1016.81
317.607	1007.81
317.836	1035.81
318.065	1028.81
318.295	1044.81
318.524	1032.81
318.753	1035.81
318.983	1039.81
319.212	1024.81
319.441	1050.81
319.67	1014.81
319.9	1040.81
320.129	1032.81
320.358	1043.81
320.587	1048.81
320.816	1051.81
321.046	1059.81
321.275	1043.81
321.504	1024.81
321.733	1072.81
321.962	1048.81
322.191	1084.81
322.42	1068.81
322.649	1059.81
322.878	1066.81
323.108	1097.81
323.337	1076.81
323.566	1053.81
323.795	1077.81
324.024	1077.81
324.253	1066.81
324.482	1132.81
324.71	1098.81
324.939	1077.81
325.168	1109.81
325.397	1082.81
325.626	1106.81
325.855	1112.81
326.084	1128.81
326.313	1140.81
326.542	1123.81
326.77	1142.81
326.999	1125.81
327.228	1111.81
327.457	1127.81
327.686	1134.81
327.914	1121.81
328.143	1138.81
328.372	1156.81
328.6	1169.81
328.829	1146.81
329.058	1128.81
329.287	1120.81
329.515	1167.81
329.744	1118.81
329.972	1154.81
330.201	1145.81
330.43	1177.81
330.658	1166.81
330.887	1158.81
331.115	1164.81
331.344	1138.81
331.572	1174.81
331.801	1204.81
332.03	1202.81
332.258	1225.81
332.486	1248.81
332.715	1218.81
332.943	1220.81
333.172	1273.81
333.4	1282.81
333.629	1315.81
333.857	1355.81
334.085	1349.81
334.314	1309.81
334.542	1333.81
334.771	1345.81
334.999	1312.81
335.227	1326.81
335.455	1284.81
335.684	1301.81
335.912	1305.81
336.14	1338.81
336.369	1312.81
336.597	1355.81
336.825	1333.81
337.053	1356.81
337.281	1358.81
337.51	1305.81
337.738	1321.81
337.966	1318.81
338.194	1251.81
338.422	1278.81
338.65	1278.81
338.878	1246.81
339.106	1224.81
339.334	1270.81
339.562	1260.81
339.79	1200.81
340.018	1218.81
340.246	1185.81
340.474	1184.81
340.702	1191.81
340.93	1180.81
341.158	1193.81
341.386	1228.81
341.614	1254.81
341.842	1260.81
342.07	1175.81
342.298	1158.81
342.526	1218.81
342.754	1219.81
342.981	1214.81
343.209	1183.81
343.437	1253.81
343.665	1272.81
343.893	1305.81
344.12	1302.81
344.348	1259.81
344.576	1294.81
344.804	1291.81
345.031	1204.81
345.259	1226.81
345.487	1225.81
345.714	1223.81
345.942	1218.81
346.17	1270.81
346.397	1243.81
346.625	1210.81
346.853	1160.81
347.08	1191.81
347.308	1170.81
347.535	1173.81
347.763	1154.81
347.99	1171.81
348.218	1142.81
348.445	1130.81
348.673	1120.81
348.9	1119.81
349.128	1141.81
349.355	1142.81
349.583	1169.81
349.81	1130.81
350.037	1146.81
350.265	1124.81
350.492	1096.81
350.72	1093.81
350.947	1138.81
351.174	1120.81
351.402	1160.81
351.629	1158.81
351.856	1151.81
352.083	1141.81
352.311	1086.81
352.538	1162.81
352.765	1174.81
352.992	1092.81
353.22	1073.81
353.447	1057.81
353.674	1085.81
353.901	1102.81
354.128	1078.81
354.355	1092.81
354.583	1074.81
354.81	1060.81
355.037	1096.81
355.264	1078.81
355.491	1054.81
355.718	1085.81
355.945	1059.81
356.172	1076.81
356.399	1089.81
356.626	1118.81
356.853	1158.81
357.08	1083.81
357.307	1100.81
357.534	1106.81
357.761	1079.81
357.988	1065.81
358.215	1088.81
358.441	1077.81
358.668	1062.81
358.895	1076.81
359.122	1072.81
359.349	1062.81
359.576	1074.81
359.802	1089.81
360.029	1081.81
360.256	1037.81
360.483	1085.81
360.709	1072.81
360.936	1063.81
361.163	1088.81
361.39	1100.81
361.616	1115.81
361.843	1111.81
362.07	1125.81
362.296	1103.81
362.523	1060.81
362.749	1090.81
362.976	1083.81
363.203	1086.81
363.429	1046.81
363.656	1026.81
363.882	1082.81
364.109	1048.81
364.335	1035.81
364.562	1027.81
364.788	1071.81
365.015	1068.81
365.241	1054.81
365.468	1048.81
365.694	1064.81
365.92	1070.81
366.147	1046.81
366.373	1082.81
366.599	1054.81
366.826	1052.81
367.052	1028.81
367.278	1050.81
367.505	1072.81
367.731	1043.81
367.957	1051.81
368.184	1071.81
368.41	1074.81
368.636	1084.81
368.862	1066.81
369.089	1068.81
369.315	1086.81
369.541	1075.81
369.767	1066.81
369.993	1086.81
370.219	1068.81
370.445	1100.81
370.672	1087.81
370.898	1109.81
371.124	1111.81
371.35	1080.81
371.576	1129.81
371.802	1104.81
372.028	1088.81
372.254	1107.81
372.48	1100.81
372.706	1125.81
372.932	1099.81
373.158	1118.81
373.384	1115.81
373.61	1085.81
373.835	1110.81
374.061	1116.81
374.287	1143.81
374.513	1126.81
374.739	1148.81
374.965	1189.81
375.191	1158.81
375.416	1163.81
375.642	1125.81
375.868	1129.81
376.094	1128.81
376.319	1093.81
376.545	1090.81
376.771	1129.81
376.997	1094.81
377.222	1055.81
377.448	1077.81
377.674	1094.81
377.899	1088.81
378.125	1076.81
378.35	1089.81
378.576	1080.81
378.802	1106.81
379.027	1086.81
379.253	1091.81
379.478	1074.81
379.704	1088.81
379.929	1087.81
380.155	1067.81
380.38	1054.81
380.606	1086.81
380.831	1084.81
381.057	1136.81
381.282	1091.81
381.507	1066.81
381.733	1088.81
381.958	1095.81
382.184	1088.81
382.409	1100.81
382.634	1107.81
382.86	1100.81
383.085	1099.81
383.31	1150.81
383.535	1129.81
383.761	1162.81
383.986	1141.81
384.211	1163.81
384.436	1174.81
384.662	1182.81
384.887	1168.81
385.112	1195.81
385.337	1193.81
385.562	1194.81
385.787	1243.81
386.013	1247.81
386.238	1219.81
386.463	1218.81
386.688	1240.81
386.913	1212.81
387.138	1171.81
387.363	1236.81
387.588	1210.81
387.813	1235.81
388.038	1226.81
388.263	1226.81
388.488	1244.81
388.713	1195.81
388.938	1228.81
389.163	1239.81
389.387	1221.81
389.612	1231.81
389.837	1232.81
390.062	1214.81
390.287	1204.81
390.512	1183.81
390.736	1231.81
390.961	1289.81
391.186	1230.81
391.411	1278.81
391.636	1308.81
391.86	1313.81
392.085	1298.81
392.31	1305.81
392.534	1293.81
392.759	1299.81
392.984	1327.81
393.208	1281.81
393.433	1275.81
393.658	1279.81
393.882	1303.81
394.107	1304.81
394.331	1296.81
394.556	1300.81
394.78	1284.81
395.005	1276.81
395.229	1284.81
395.454	1321.81
395.678	1370.81
395.903	1306.81
396.127	1320.81
396.352	1321.81
396.576	1262.81
396.801	1298.81
397.025	1303.81
397.249	1354.81
397.474	1370.81
397.698	1382.81
397.922	1354.81
398.147	1382.81
398.371	1382.81
398.595	1403.81
398.82	1450.81
399.044	1505.81
399.268	1568.81
399.492	1712.81
399.717	1803.81
399.941	1844.81
400.165	1746.81
400.389	1656.81
400.613	1596.81
400.837	1574.81
401.062	1513.81
401.286	1500.81
401.51	1537.81
401.734	1448.81
401.958	1515.81
402.182	1486.81
402.406	1485.81
402.63	1517.81
402.854	1500.81
403.078	1497.81
403.302	1531.81
403.526	1522.81
403.75	1571.81
403.974	1580.81
404.198	1569.81
404.422	1526.81
404.645	1545.81
404.869	1570.81
405.093	1557.81
405.317	1524.81
405.541	1589.81
405.765	1582.81
405.988	1564.81
406.212	1590.81
406.436	1591.81
406.66	1610.81
406.883	1635.81
407.107	1678.81
407.331	1664.81
407.555	1775.81
407.778	1796.81
408.002	1781.81
408.226	1693.81
408.449	1672.81
408.673	1680.81
408.896	1670.81
409.12	1637.81
409.344	1619.81
409.567	1643.81
409.791	1628.81
410.014	1637.81
410.238	1593.81
410.461	1609.81
410.685	1604.81
410.908	1556.81
411.132	1541.81
411.355	1532.81
411.578	1554.81
411.802	1557.81
412.025	1544.81
412.249	1584.81
412.472	1558.81
412.695	1528.81
412.919	1518.81
413.142	1515.81
413.365	1518.81
413.589	1544.81
413.812	1515.81
414.035	1454.81
414.258	1498.81
414.482	1514.81
414.705	1517.81
414.928	1510.81
415.151	1511.81
415.374	1515.81
415.597	1528.81
415.821	1457.81
416.044	1480.81
416.267	1474.81
416.49	1464.81
416.713	1456.81
416.936	1465.81
417.159	1449.81
417.382	1469.81
417.605	1452.81
417.828	1458.81
418.051	1463.81
418.274	1476.81
418.497	1461.81
418.72	1460.81
418.943	1439.81
419.166	1558.81
419.389	1668.81
419.611	1648.81
419.834	1590.81
420.057	1571.81
420.28	1490.81
420.503	1487.81
420.726	1463.81
420.948	1436.81
421.171	1466.81
421.394	1466.81
421.617	1459.81
421.839	1482.81
422.062	1476.81
422.285	1454.81
422.507	1460.81
422.73	1488.81
422.953	1491.81
423.175	1479.81
423.398	1516.81
423.621	1489.81
423.843	1483.81
424.066	1480.81
424.288	1523.81
424.511	1498.81
424.733	1509.81
424.956	1472.81
425.178	1490.81
425.401	1532.81
425.623	1479.81
425.846	1447.81
426.068	1464.81
426.291	1420.81
426.513	1429.81
426.735	1446.81
426.958	1480.81
427.18	1417.81
427.402	1429.81
427.625	1450.81
427.847	1404.81
428.069	1430.81
428.292	1409.81
428.514	1436.81
428.736	1410.81
428.958	1474.81
429.181	1433.81
429.403	1408.81
429.625	1432.81
429.847	1411.81
430.069	1426.81
430.292	1420.81
430.514	1385.81
430.736	1405.81
430.958	1441.81
431.18	1428.81
431.402	1430.81
431.624	1417.81
431.846	1442.81
432.068	1442.81
432.29	1502.81
432.512	1420.81
432.734	1448.81
432.956	1413.81
433.178	1486.81
433.4	1493.81
433.622	1478.81
433.844	1504.81
434.066	1483.81
434.287	1502.81
434.509	1499.81
434.731	1508.81
434.953	1531.81
435.175	1534.81
435.397	1540.81
435.618	1458.81
435.84	1469.81
436.062	1458.81
436.284	1473.81
436.505	1456.81
436.727	1450.81
436.949	1443.81
437.17	1451.81
437.392	1446.81
437.614	1433.81
437.835	1403.81
438.057	1404.81
438.278	1407.81
438.5	1396.81
438.721	1366.81
438.943	1410.81
439.165	1402.81
439.386	1401.81
439.608	1460.81
439.829	1420.81
440.05	1456.81
440.272	1442.81
440.493	1463.81
440.715	1484.81
440.936	1466.81
441.158	1466.81
441.379	1503.81
441.6	1559.81
441.822	1538.81
442.043	1570.81
442.264	1507.81
442.486	1522.81
442.707	1511.81
442.928	1544.81
443.149	1558.81
443.371	1540.81
443.592	1610.81
443.813	1594.81
444.034	1575.81
444.255	1584.81
444.476	1580.81
444.698	1648.81
444.919	1668.81
445.14	1750.81
445.361	1687.81
445.582	1569.81
445.803	1538.81
446.024	1536.81
446.245	1555.81
446.466	1501.81
446.687	1472.81
446.908	1465.81
447.129	1428.81
447.35	1412.81
447.571	1414.81
447.792	1411.81
448.013	1393.81
448.234	1323.81
448.455	1348.81
448.675	1375.81
448.896	1352.81
449.117	1359.81
449.338	1352.81
449.559	1338.81
449.779	1336.81
450	1355.81
450.221	1339.81
450.442	1334.81
450.662	1344.81
450.883	1352.81
451.104	1345.81
451.324	1366.81
451.545	1363.81
451.766	1385.81
451.986	1344.81
452.207	1342.81
452.428	1346.81
452.648	1341.81
452.869	1324.81
453.089	1313.81
453.31	1368.81
453.53	1288.81
453.751	1294.81
453.971	1314.81
454.192	1309.81
454.412	1324.81
454.633	1318.81
454.853	1281.81
455.073	1303.81
455.294	1313.81
455.514	1322.81
455.734	1326.81
455.955	1334.81
456.175	1302.81
456.395	1256.81
456.616	1291.81
456.836	1300.81
457.056	1291.81
457.276	1287.81
457.497	1320.81
457.717	1311.81
457.937	1351.81
458.157	1334.81
458.377	1355.81
458.598	1359.81
458.818	1382.81
459.038	1390.81
459.258	1428.81
459.478	1474.81
459.698	1526.81
459.918	1562.81
460.138	1543.81
460.358	1616.81
460.578	1608.81
460.798	1642.81
461.018	1686.81
461.238	1632.81
461.458	1654.81
461.678	1658.81
461.898	1651.81
462.118	1632.81
462.338	1718.81
462.558	1767.81
462.777	1740.81
462.997	1879.81
463.217	1943.81
463.437	1923.81
463.657	1868.81
463.876	1872.81
464.096	1806.81
464.316	1804.81
464.536	1813.81
464.755	1770.81
464.975	1698.81
465.195	1688.81
465.414	1611.81
465.634	1582.81
465.854	1576.81
466.073	1536.81
466.293	1498.81
466.512	1457.81
466.732	1466.81
466.951	1414.81
467.171	1450.81
467.391	1469.81
467.61	1436.81
467.829	1459.81
468.049	1450.81
468.268	1390.81
468.488	1388.81
468.707	1393.81
468.927	1440.81
469.146	1441.81
469.365	1409.81
469.585	1431.81
469.804	1435.81
470.023	1446.81
470.243	1423.81
470.462	1450.81
470.681	1458.81
470.901	1422.81
471.12	1451.81
471.339	1476.81
471.558	1458.81
471.777	1484.81
471.997	1457.81
472.216	1428.81
472.435	1416.81
472.654	1405.81
472.873	1396.81
473.092	1420.81
473.311	1384.81
473.53	1396.81
473.749	1456.81
473.968	1417.81
474.187	1429.81
474.406	1426.81
474.625	1394.81
474.844	1406.81
475.063	1425.81
475.282	1466.81
475.501	1461.81
475.72	1470.81
475.939	1490.81
476.158	1475.81
476.377	1468.81
476.596	1476.81
476.814	1522.81
477.033	1524.81
477.252	1543.81
477.471	1568.81
477.69	1590.81
477.908	1603.81
478.127	1616.81
478.346	1602.81
478.564	1649.81
478.783	1707.81
479.002	1736.81
479.22	1744.81
479.439	1736.81
479.658	1733.81
479.876	1706.81
480.095	1719.81
480.313	1752.81
480.532	1765.81
480.751	1787.81
480.969	1721.81
481.188	1714.81
481.406	1713.81
481.624	1676.81
481.843	1664.81
482.061	1647.81
482.28	1634.81
482.498	1678.81
482.717	1634.81
482.935	1711.81
483.153	1670.81
483.372	1652.81
483.59	1736.81
483.808	1691.81
484.027	1660.81
484.245	1654.81
484.463	1643.81
484.681	1684.81
484.9	1703.81
485.118	1703.81
485.336	1700.81
485.554	1680.81
485.772	1735.81
485.99	1732.81
486.209	1705.81
486.427	1649.81
486.645	1727.81
486.863	1726.81
487.081	1678.81
487.299	1770.81
487.517	1729.81
487.735	1736.81
487.953	1716.81
488.171	1752.81
488.389	1708.81
488.607	1727.81
488.825	1700.81
489.043	1699.81
489.261	1703.81
489.479	1674.81
489.696	1738.81
489.914	1742.81
490.132	1722.81
490.35	1737.81
490.568	1739.81
