Data from NiCl2@0.125M.TitratingCurve.Agarose3%dH2O.NegLispCup.LampEnergy10.LIBS07252019_HRD10591_18-29-17-575.txt Node
Date: Thu Jul 25 18:29:17 EDT 2019
User: cochatt
Spectrometer: HR+D1059
Trigger mode: 1
Integration Time (sec): 1.000000E-1
Scans to average: 1
Electric dark correction enabled: true
Nonlinearity correction enabled: false
Boxcar width: 0
XAxis mode: Wavelengths
Number of Pixels in Spectrum: 2048
>>>>>Begin Spectral Data<<<<<
223.165	-28.12
223.4	-28.12
223.635	-28.12
223.869	-23.12
224.104	-21.12
224.338	-13.12
224.573	-3.12
224.808	-9.12
225.042	-20.12
225.277	-1.12
225.511	7.88
225.746	-2.12
225.98	29.88
226.215	14.88
226.449	12.88
226.683	5.88
226.918	22.88
227.152	26.88
227.387	26.88
227.621	30.88
227.856	50.88
228.09	50.88
228.324	58.88
228.559	56.88
228.793	60.88
229.027	100.88
229.262	102.88
229.496	117.88
229.73	118.88
229.964	130.88
230.199	141.88
230.433	145.88
230.667	134.88
230.901	129.88
231.136	146.88
231.37	147.88
231.604	134.88
231.838	123.88
232.072	151.88
232.306	148.88
232.541	153.88
232.775	136.88
233.009	152.88
233.243	155.88
233.477	149.88
233.711	151.88
233.945	148.88
234.179	150.88
234.413	152.88
234.647	167.88
234.881	159.88
235.115	150.88
235.349	146.88
235.583	146.88
235.817	155.88
236.051	148.88
236.285	155.88
236.519	172.88
236.753	151.88
236.987	168.88
237.221	161.88
237.455	180.88
237.689	178.88
237.922	168.88
238.156	154.88
238.39	160.88
238.624	169.88
238.858	168.88
239.091	165.88
239.325	185.88
239.559	185.88
239.793	165.88
240.027	187.88
240.26	168.88
240.494	180.88
240.728	176.88
240.961	190.88
241.195	179.88
241.429	214.88
241.662	187.88
241.896	196.88
242.13	194.88
242.363	191.88
242.597	199.88
242.83	209.88
243.064	202.88
243.298	211.88
243.531	200.88
243.765	227.88
243.998	203.88
244.232	215.88
244.465	207.88
244.699	202.88
244.932	228.88
245.166	207.88
245.399	216.88
245.633	230.88
245.866	217.88
246.099	211.88
246.333	227.88
246.566	233.88
246.8	242.88
247.033	235.88
247.266	246.88
247.5	243.88
247.733	238.88
247.966	240.88
248.2	212.88
248.433	234.88
248.666	240.88
248.899	254.88
249.133	245.88
249.366	256.88
249.599	254.88
249.832	253.88
250.066	252.88
250.299	282.88
250.532	249.88
250.765	261.88
250.998	245.88
251.231	252.88
251.465	246.88
251.698	262.88
251.931	272.88
252.164	280.88
252.397	257.88
252.63	288.88
252.863	279.88
253.096	281.88
253.329	288.88
253.562	281.88
253.795	301.88
254.028	290.88
254.261	278.88
254.494	289.88
254.727	292.88
254.96	280.88
255.193	290.88
255.426	292.88
255.659	291.88
255.892	297.88
256.124	296.88
256.357	313.88
256.59	284.88
256.823	287.88
257.056	298.88
257.289	306.88
257.521	304.88
257.754	317.88
257.987	310.88
258.22	306.88
258.452	331.88
258.685	305.88
258.918	322.88
259.151	324.88
259.383	316.88
259.616	309.88
259.849	316.88
260.081	310.88
260.314	342.88
260.547	336.88
260.779	332.88
261.012	322.88
261.244	344.88
261.477	345.88
261.71	328.88
261.942	331.88
262.175	348.88
262.407	327.88
262.64	348.88
262.872	338.88
263.105	331.88
263.337	349.88
263.57	337.88
263.802	350.88
264.035	340.88
264.267	349.88
264.499	367.88
264.732	348.88
264.964	357.88
265.197	361.88
265.429	369.88
265.661	361.88
265.894	358.88
266.126	361.88
266.358	372.88
266.591	374.88
266.823	365.88
267.055	350.88
267.287	360.88
267.52	360.88
267.752	376.88
267.984	380.88
268.216	400.88
268.448	374.88
268.681	378.88
268.913	385.88
269.145	378.88
269.377	378.88
269.609	357.88
269.841	374.88
270.073	380.88
270.306	405.88
270.538	375.88
270.77	378.88
271.002	367.88
271.234	403.88
271.466	388.88
271.698	379.88
271.93	388.88
272.162	399.88
272.394	413.88
272.626	408.88
272.858	404.88
273.09	392.88
273.322	391.88
273.553	404.88
273.785	421.88
274.017	426.88
274.249	417.88
274.481	426.88
274.713	388.88
274.945	388.88
275.176	422.88
275.408	426.88
275.64	399.88
275.872	442.88
276.104	417.88
276.335	426.88
276.567	409.88
276.799	404.88
277.031	418.88
277.262	438.88
277.494	434.88
277.726	445.88
277.957	449.88
278.189	445.88
278.421	439.88
278.652	436.88
278.884	444.88
279.115	434.88
279.347	449.88
279.579	445.88
279.81	448.88
280.042	491.88
280.273	440.88
280.505	456.88
280.736	455.88
280.968	452.88
281.199	469.88
281.431	468.88
281.662	460.88
281.894	441.88
282.125	469.88
282.356	472.88
282.588	477.88
282.819	474.88
283.051	491.88
283.282	461.88
283.513	489.88
283.745	467.88
283.976	494.88
284.207	491.88
284.439	489.88
284.67	499.88
284.901	475.88
285.132	493.88
285.364	483.88
285.595	495.88
285.826	501.88
286.057	499.88
286.288	468.88
286.52	498.88
286.751	513.88
286.982	508.88
287.213	522.88
287.444	498.88
287.675	505.88
287.906	497.88
288.138	514.88
288.369	518.88
288.6	524.88
288.831	514.88
289.062	521.88
289.293	516.88
289.524	527.88
289.755	520.88
289.986	518.88
290.217	526.88
290.448	532.88
290.679	532.88
290.91	541.88
291.141	536.88
291.371	544.88
291.602	525.88
291.833	535.88
292.064	522.88
292.295	549.88
292.526	534.88
292.757	535.88
292.987	548.88
293.218	512.88
293.449	556.88
293.68	540.88
293.91	524.88
294.141	532.88
294.372	520.88
294.603	554.88
294.833	547.88
295.064	564.88
295.295	530.88
295.525	540.88
295.756	561.88
295.987	560.88
296.217	572.88
296.448	561.88
296.679	541.88
296.909	568.88
297.14	563.88
297.37	567.88
297.601	572.88
297.831	563.88
298.062	583.88
298.292	582.88
298.523	607.88
298.753	608.88
298.984	612.88
299.214	582.88
299.445	587.88
299.675	580.88
299.905	582.88
300.136	588.88
300.366	589.88
300.597	605.88
300.827	602.88
301.057	606.88
301.288	631.88
301.518	607.88
301.748	616.88
301.979	613.88
302.209	626.88
302.439	595.88
302.669	601.88
302.9	602.88
303.13	591.88
303.36	577.88
303.59	580.88
303.82	567.88
304.051	597.88
304.281	608.88
304.511	578.88
304.741	595.88
304.971	599.88
305.201	602.88
305.431	591.88
305.661	594.88
305.891	588.88
306.121	581.88
306.352	602.88
306.582	591.88
306.812	594.88
307.042	600.88
307.272	600.88
307.502	596.88
307.731	599.88
307.961	581.88
308.191	593.88
308.421	570.88
308.651	594.88
308.881	572.88
309.111	587.88
309.341	595.88
309.571	590.88
309.8	581.88
310.03	578.88
310.26	568.88
310.49	571.88
310.72	576.88
310.949	583.88
311.179	586.88
311.409	564.88
311.639	612.88
311.868	620.88
312.098	614.88
312.328	611.88
312.557	604.88
312.787	605.88
313.017	603.88
313.246	624.88
313.476	611.88
313.706	633.88
313.935	624.88
314.165	628.88
314.394	631.88
314.624	620.88
314.853	615.88
315.083	625.88
315.312	624.88
315.542	640.88
315.771	617.88
316.001	596.88
316.23	614.88
316.46	602.88
316.689	603.88
316.919	617.88
317.148	617.88
317.377	605.88
317.607	589.88
317.836	623.88
318.065	604.88
318.295	608.88
318.524	626.88
318.753	591.88
318.983	609.88
319.212	609.88
319.441	601.88
319.67	628.88
319.9	610.88
320.129	632.88
320.358	589.88
320.587	599.88
320.816	605.88
321.046	613.88
321.275	607.88
321.504	609.88
321.733	615.88
321.962	621.88
322.191	616.88
322.42	631.88
322.649	600.88
322.878	600.88
323.108	598.88
323.337	610.88
323.566	624.88
323.795	644.88
324.024	622.88
324.253	625.88
324.482	621.88
324.71	644.88
324.939	633.88
325.168	638.88
325.397	628.88
325.626	631.88
325.855	668.88
326.084	672.88
326.313	675.88
326.542	690.88
326.77	674.88
326.999	689.88
327.228	629.88
327.457	668.88
327.686	670.88
327.914	664.88
328.143	660.88
328.372	668.88
328.6	650.88
328.829	655.88
329.058	670.88
329.287	668.88
329.515	663.88
329.744	665.88
329.972	683.88
330.201	661.88
330.43	666.88
330.658	673.88
330.887	710.88
331.115	685.88
331.344	690.88
331.572	696.88
331.801	709.88
332.03	716.88
332.258	748.88
332.486	757.88
332.715	798.88
332.943	816.88
333.172	860.88
333.4	924.88
333.629	919.88
333.857	937.88
334.085	910.88
334.314	865.88
334.542	862.88
334.771	854.88
334.999	851.88
335.227	827.88
335.455	839.88
335.684	843.88
335.912	817.88
336.14	820.88
336.369	783.88
336.597	805.88
336.825	806.88
337.053	800.88
337.281	802.88
337.51	755.88
337.738	778.88
337.966	746.88
338.194	757.88
338.422	727.88
338.65	708.88
338.878	719.88
339.106	724.88
339.334	720.88
339.562	723.88
339.79	697.88
340.018	696.88
340.246	667.88
340.474	681.88
340.702	688.88
340.93	682.88
341.158	682.88
341.386	682.88
341.614	689.88
341.842	684.88
342.07	674.88
342.298	670.88
342.526	679.88
342.754	684.88
342.981	682.88
343.209	712.88
343.437	715.88
343.665	778.88
343.893	830.88
344.12	886.88
344.348	844.88
344.576	800.88
344.804	754.88
345.031	714.88
345.259	721.88
345.487	733.88
345.714	707.88
345.942	701.88
346.17	698.88
346.397	661.88
346.625	683.88
346.853	680.88
347.08	670.88
347.308	675.88
347.535	692.88
347.763	696.88
347.99	688.88
348.218	679.88
348.445	672.88
348.673	668.88
348.9	662.88
349.128	654.88
349.355	669.88
349.583	668.88
349.81	635.88
350.037	660.88
350.265	632.88
350.492	639.88
350.72	636.88
350.947	642.88
351.174	629.88
351.402	621.88
351.629	636.88
351.856	640.88
352.083	640.88
352.311	609.88
352.538	613.88
352.765	644.88
352.992	635.88
353.22	625.88
353.447	629.88
353.674	643.88
353.901	629.88
354.128	622.88
354.355	616.88
354.583	636.88
354.81	654.88
355.037	637.88
355.264	640.88
355.491	632.88
355.718	633.88
355.945	644.88
356.172	647.88
356.399	672.88
356.626	640.88
356.853	648.88
357.08	646.88
357.307	653.88
357.534	635.88
357.761	644.88
357.988	653.88
358.215	638.88
358.441	671.88
358.668	638.88
358.895	635.88
359.122	638.88
359.349	644.88
359.576	633.88
359.802	643.88
360.029	619.88
360.256	653.88
360.483	666.88
360.709	652.88
360.936	636.88
361.163	630.88
361.39	640.88
361.616	637.88
361.843	628.88
362.07	648.88
362.296	655.88
362.523	655.88
362.749	670.88
362.976	632.88
363.203	617.88
363.429	646.88
363.656	634.88
363.882	647.88
364.109	635.88
364.335	629.88
364.562	615.88
364.788	625.88
365.015	642.88
365.241	624.88
365.468	611.88
365.694	652.88
365.92	645.88
366.147	645.88
366.373	633.88
366.599	617.88
366.826	616.88
367.052	632.88
367.278	644.88
367.505	644.88
367.731	652.88
367.957	647.88
368.184	651.88
368.41	625.88
368.636	665.88
368.862	656.88
369.089	637.88
369.315	664.88
369.541	678.88
369.767	657.88
369.993	672.88
370.219	674.88
370.445	677.88
370.672	680.88
370.898	714.88
371.124	696.88
371.35	680.88
371.576	735.88
371.802	706.88
372.028	706.88
372.254	690.88
372.48	738.88
372.706	703.88
372.932	728.88
373.158	724.88
373.384	722.88
373.61	704.88
373.835	734.88
374.061	690.88
374.287	702.88
374.513	716.88
374.739	740.88
374.965	762.88
375.191	790.88
375.416	801.88
375.642	770.88
375.868	752.88
376.094	717.88
376.319	727.88
376.545	706.88
376.771	695.88
376.997	701.88
377.222	757.88
377.448	708.88
377.674	688.88
377.899	678.88
378.125	667.88
378.35	690.88
378.576	680.88
378.802	704.88
379.027	699.88
379.253	677.88
379.478	676.88
379.704	687.88
379.929	696.88
380.155	677.88
380.38	688.88
380.606	704.88
380.831	705.88
381.057	692.88
381.282	685.88
381.507	714.88
381.733	706.88
381.958	700.88
382.184	732.88
382.409	720.88
382.634	714.88
382.86	737.88
383.085	768.88
383.31	761.88
383.535	798.88
383.761	770.88
383.986	792.88
384.211	827.88
384.436	821.88
384.662	832.88
384.887	871.88
385.112	857.88
385.337	850.88
385.562	861.88
385.787	854.88
386.013	867.88
386.238	859.88
386.463	866.88
386.688	844.88
386.913	836.88
387.138	858.88
387.363	835.88
387.588	840.88
387.813	845.88
388.038	836.88
388.263	844.88
388.488	851.88
388.713	828.88
388.938	821.88
389.163	812.88
389.387	817.88
389.612	822.88
389.837	823.88
390.062	792.88
390.287	810.88
390.512	852.88
390.736	854.88
390.961	867.88
391.186	836.88
391.411	909.88
391.636	946.88
391.86	936.88
392.085	950.88
392.31	974.88
392.534	907.88
392.759	908.88
392.984	890.88
393.208	880.88
393.433	896.88
393.658	891.88
393.882	914.88
394.107	909.88
394.331	933.88
394.556	918.88
394.78	886.88
395.005	915.88
395.229	948.88
395.454	954.88
395.678	973.88
395.903	962.88
396.127	956.88
396.352	914.88
396.576	877.88
396.801	892.88
397.025	876.88
397.249	895.88
397.474	944.88
397.698	940.88
397.922	964.88
398.147	936.88
398.371	960.88
398.595	988.88
398.82	1035.88
399.044	1103.88
399.268	1231.88
399.492	1444.88
399.717	1673.88
399.941	1675.88
400.165	1470.88
400.389	1296.88
400.613	1189.88
400.837	1131.88
401.062	1110.88
401.286	1104.88
401.51	1078.88
401.734	1040.88
401.958	1085.88
402.182	1063.88
402.406	1097.88
402.63	1113.88
402.854	1133.88
403.078	1162.88
403.302	1210.88
403.526	1238.88
403.75	1258.88
403.974	1277.88
404.198	1265.88
404.422	1273.88
404.645	1244.88
404.869	1222.88
405.093	1238.88
405.317	1207.88
405.541	1153.88
405.765	1197.88
405.988	1196.88
406.212	1196.88
406.436	1210.88
406.66	1215.88
406.883	1195.88
407.107	1308.88
407.331	1382.88
407.555	1408.88
407.778	1426.88
408.002	1374.88
408.226	1367.88
408.449	1292.88
408.673	1215.88
408.896	1220.88
409.12	1192.88
409.344	1235.88
409.567	1237.88
409.791	1246.88
410.014	1230.88
410.238	1194.88
410.461	1190.88
410.685	1195.88
410.908	1170.88
411.132	1136.88
411.355	1111.88
411.578	1118.88
411.802	1112.88
412.025	1125.88
412.249	1158.88
412.472	1128.88
412.695	1096.88
412.919	1056.88
413.142	1061.88
413.365	1076.88
413.589	1088.88
413.812	1037.88
414.035	1051.88
414.258	1032.88
414.482	1084.88
414.705	1118.88
414.928	1117.88
415.151	1098.88
415.374	1093.88
415.597	1084.88
415.821	1062.88
416.044	1051.88
416.267	1046.88
416.49	1048.88
416.713	1019.88
416.936	1053.88
417.159	1026.88
417.382	1056.88
417.605	1070.88
417.828	1047.88
418.051	1075.88
418.274	1048.88
418.497	1067.88
418.72	1102.88
418.943	1117.88
419.166	1181.88
419.389	1257.88
419.611	1229.88
419.834	1185.88
420.057	1142.88
420.28	1080.88
420.503	1054.88
420.726	1045.88
420.948	1047.88
421.171	1079.88
421.394	1017.88
421.617	1049.88
421.839	1077.88
422.062	1046.88
422.285	1036.88
422.507	1069.88
422.73	1067.88
422.953	1106.88
423.175	1098.88
423.398	1154.88
423.621	1142.88
423.843	1174.88
424.066	1163.88
424.288	1171.88
424.511	1131.88
424.733	1129.88
424.956	1102.88
425.178	1090.88
425.401	1105.88
425.623	1075.88
425.846	1034.88
426.068	1036.88
426.291	1030.88
426.513	1009.88
426.735	985.88
426.958	1003.88
427.18	951.88
427.402	977.88
427.625	956.88
427.847	961.88
428.069	958.88
428.292	946.88
428.514	944.88
428.736	954.88
428.958	933.88
429.181	949.88
429.403	910.88
429.625	937.88
429.847	915.88
430.069	923.88
430.292	893.88
430.514	877.88
430.736	936.88
430.958	942.88
431.18	914.88
431.402	931.88
431.624	935.88
431.846	970.88
432.068	957.88
432.29	969.88
432.512	941.88
432.734	971.88
432.956	954.88
433.178	953.88
433.4	952.88
433.622	973.88
433.844	961.88
434.066	943.88
434.287	923.88
434.509	992.88
434.731	1051.88
434.953	1062.88
435.175	1097.88
435.397	1074.88
435.618	1037.88
435.84	1022.88
436.062	961.88
436.284	960.88
436.505	962.88
436.727	932.88
436.949	931.88
437.17	965.88
437.392	948.88
437.614	938.88
437.835	896.88
438.057	908.88
438.278	901.88
438.5	888.88
438.721	916.88
438.943	902.88
439.165	914.88
439.386	939.88
439.608	920.88
439.829	923.88
440.05	937.88
440.272	981.88
440.493	989.88
440.715	993.88
440.936	984.88
441.158	994.88
441.379	1033.88
441.6	1089.88
441.822	1086.88
442.043	1088.88
442.264	1079.88
442.486	1059.88
442.707	1077.88
442.928	1091.88
443.149	1068.88
443.371	1034.88
443.592	1063.88
443.813	1068.88
444.034	1098.88
444.255	1156.88
444.476	1184.88
444.698	1239.88
444.919	1352.88
445.14	1386.88
445.361	1224.88
445.582	1117.88
445.803	1076.88
446.024	1035.88
446.245	1002.88
446.466	1002.88
446.687	986.88
446.908	955.88
447.129	912.88
447.35	934.88
447.571	926.88
447.792	911.88
448.013	909.88
448.234	907.88
448.455	888.88
448.675	909.88
448.896	869.88
449.117	852.88
449.338	889.88
449.559	847.88
449.779	863.88
450	871.88
450.221	882.88
450.442	873.88
450.662	893.88
450.883	892.88
451.104	937.88
451.324	940.88
451.545	917.88
451.766	899.88
451.986	918.88
452.207	909.88
452.428	903.88
452.648	896.88
452.869	882.88
453.089	881.88
453.31	876.88
453.53	856.88
453.751	850.88
453.971	878.88
454.192	869.88
454.412	844.88
454.633	848.88
454.853	853.88
455.073	857.88
455.294	838.88
455.514	836.88
455.734	837.88
455.955	831.88
456.175	846.88
456.395	814.88
456.616	835.88
456.836	809.88
457.056	825.88
457.276	805.88
457.497	812.88
457.717	816.88
457.937	820.88
458.157	812.88
458.377	858.88
458.598	856.88
458.818	893.88
459.038	902.88
459.258	920.88
459.478	979.88
459.698	966.88
459.918	1016.88
460.138	1080.88
460.358	1156.88
460.578	1147.88
460.798	1130.88
461.018	1170.88
461.238	1150.88
461.458	1138.88
461.678	1115.88
461.898	1131.88
462.118	1137.88
462.338	1184.88
462.558	1229.88
462.777	1253.88
462.997	1477.88
463.217	1581.88
463.437	1595.88
463.657	1460.88
463.876	1368.88
464.096	1354.88
464.316	1355.88
464.536	1377.88
464.755	1323.88
464.975	1280.88
465.195	1200.88
465.414	1095.88
465.634	1043.88
465.854	977.88
466.073	984.88
466.293	949.88
466.512	960.88
466.732	937.88
466.951	949.88
467.171	936.88
467.391	923.88
467.61	934.88
467.829	904.88
468.049	918.88
468.268	884.88
468.488	870.88
468.707	861.88
468.927	877.88
469.146	894.88
469.365	916.88
469.585	895.88
469.804	895.88
470.023	924.88
470.243	942.88
470.462	951.88
470.681	958.88
470.901	969.88
471.12	913.88
471.339	879.88
471.558	889.88
471.777	937.88
471.997	894.88
472.216	869.88
472.435	876.88
472.654	857.88
472.873	839.88
473.092	854.88
473.311	857.88
473.53	838.88
473.749	843.88
473.968	849.88
474.187	836.88
474.406	856.88
474.625	837.88
474.844	843.88
475.063	869.88
475.282	847.88
475.501	873.88
475.72	889.88
475.939	886.88
476.158	873.88
476.377	867.88
476.596	882.88
476.814	888.88
477.033	895.88
477.252	900.88
477.471	945.88
477.69	985.88
477.908	962.88
478.127	1032.88
478.346	1026.88
478.564	1030.88
478.783	1004.88
479.002	1071.88
479.22	1099.88
479.439	1049.88
479.658	1015.88
479.876	1020.88
480.095	1073.88
480.313	1114.88
480.532	1130.88
480.751	1168.88
480.969	1111.88
481.188	1034.88
481.406	1023.88
481.624	997.88
481.843	978.88
482.061	962.88
482.28	950.88
482.498	945.88
482.717	926.88
482.935	946.88
483.153	980.88
483.372	950.88
483.59	953.88
483.808	954.88
484.027	974.88
484.245	962.88
484.463	973.88
484.681	997.88
484.9	1026.88
485.118	1033.88
485.336	997.88
485.554	1004.88
485.772	1008.88
485.99	991.88
486.209	1024.88
486.427	1032.88
486.645	1063.88
486.863	1046.88
487.081	1034.88
487.299	1012.88
487.517	967.88
487.735	969.88
487.953	1025.88
488.171	1026.88
488.389	1000.88
488.607	1005.88
488.825	960.88
489.043	980.88
489.261	992.88
489.479	987.88
489.696	1001.88
489.914	1016.88
490.132	1012.88
490.35	1008.88
490.568	1045.88
490.786	1015.88
491.003	1032.88
491.221	1037.88
491.439	1040.88
491.657	994.88
491.874	1006.88
492.092	1038.88
492.31	1045.88
492.527	1054.88
492.745	1037.88
492.963	1034.88
493.18	1056.88
493.398	1031.88
493.615	1065.88
493.833	1047.88
494.05	1053.88
494.268	1066.88
494.485	1049.88
494.703	1053.88
494.92	1082.88
495.138	1062.88
495.355	1046.88
495.573	1065.88
495.79	1076.88
496.008	1085.88
496.225	1097.88
496.442	1087.88
496.66	1116.88
496.877	1133.88
497.094	1114.88
497.312	1147.88
497.529	1199.88
497.746	1194.88
497.963	1233.88
498.181	1297.88
