Data from NiCl2@0.5M.TitratingCurve.Agarose3%dH2O.NegLispCup.LampEnergy10.LIBS07252019_HRD10591_18-21-43-572.txt Node
Date: Thu Jul 25 18:21:43 EDT 2019
User: cochatt
Spectrometer: HR+D1059
Trigger mode: 1
Integration Time (sec): 1.000000E-1
Scans to average: 1
Electric dark correction enabled: true
Nonlinearity correction enabled: false
Boxcar width: 0
XAxis mode: Wavelengths
Number of Pixels in Spectrum: 2048
>>>>>Begin Spectral Data<<<<<
223.165	-18
223.4	-18
223.635	-18
223.869	-7
224.104	1
224.338	-18
224.573	-14
224.808	-23
225.042	-19
225.277	-9
225.511	-1
225.746	3
225.98	4
226.215	11
226.449	14
226.683	15
226.918	26
227.152	35
227.387	34
227.621	39
227.856	32
228.09	44
228.324	39
228.559	43
228.793	71
229.027	112
229.262	131
229.496	127
229.73	120
229.964	140
230.199	142
230.433	127
230.667	141
230.901	139
231.136	146
231.37	149
231.604	143
231.838	150
232.072	153
232.306	157
232.541	158
232.775	161
233.009	151
233.243	144
233.477	158
233.711	155
233.945	153
234.179	161
234.413	151
234.647	154
234.881	159
235.115	169
235.349	167
235.583	147
235.817	159
236.051	154
236.285	169
236.519	156
236.753	172
236.987	187
237.221	177
237.455	170
237.689	177
237.922	173
238.156	170
238.39	179
238.624	169
238.858	180
239.091	174
239.325	204
239.559	176
239.793	177
240.027	188
240.26	203
240.494	185
240.728	203
240.961	199
241.195	214
241.429	201
241.662	215
241.896	221
242.13	221
242.363	200
242.597	226
242.83	221
243.064	217
243.298	210
243.531	241
243.765	221
243.998	242
244.232	237
244.465	228
244.699	233
244.932	251
245.166	234
245.399	245
245.633	235
245.866	235
246.099	248
246.333	238
246.566	246
246.8	261
247.033	239
247.266	256
247.5	245
247.733	251
247.966	270
248.2	253
248.433	269
248.666	252
248.899	260
249.133	263
249.366	281
249.599	267
249.832	265
250.066	284
250.299	279
250.532	277
250.765	286
250.998	269
251.231	263
251.465	268
251.698	287
251.931	293
252.164	291
252.397	303
252.63	292
252.863	306
253.096	303
253.329	309
253.562	315
253.795	303
254.028	307
254.261	317
254.494	315
254.727	295
254.96	312
255.193	315
255.426	313
255.659	332
255.892	324
256.124	323
256.357	332
256.59	321
256.823	347
257.056	342
257.289	324
257.521	350
257.754	340
257.987	329
258.22	358
258.452	347
258.685	343
258.918	350
259.151	346
259.383	350
259.616	344
259.849	381
260.081	331
260.314	353
260.547	333
260.779	340
261.012	369
261.244	372
261.477	372
261.71	355
261.942	363
262.175	346
262.407	374
262.64	373
262.872	357
263.105	381
263.337	369
263.57	372
263.802	376
264.035	382
264.267	377
264.499	379
264.732	370
264.964	385
265.197	380
265.429	417
265.661	409
265.894	395
266.126	395
266.358	410
266.591	375
266.823	375
267.055	420
267.287	405
267.52	396
267.752	409
267.984	429
268.216	410
268.448	434
268.681	412
268.913	424
269.145	414
269.377	429
269.609	430
269.841	434
270.073	421
270.306	422
270.538	425
270.77	405
271.002	443
271.234	419
271.466	424
271.698	437
271.93	430
272.162	445
272.394	429
272.626	441
272.858	436
273.09	448
273.322	457
273.553	424
273.785	457
274.017	477
274.249	456
274.481	458
274.713	434
274.945	477
275.176	467
275.408	478
275.64	459
275.872	461
276.104	467
276.335	477
276.567	470
276.799	477
277.031	476
277.262	467
277.494	486
277.726	480
277.957	495
278.189	489
278.421	484
278.652	506
278.884	486
279.115	499
279.347	519
279.579	510
279.81	489
280.042	503
280.273	495
280.505	513
280.736	512
280.968	494
281.199	521
281.431	524
281.662	519
281.894	527
282.125	494
282.356	553
282.588	554
282.819	550
283.051	546
283.282	529
283.513	539
283.745	521
283.976	555
284.207	529
284.439	533
284.67	549
284.901	551
285.132	545
285.364	568
285.595	561
285.826	550
286.057	563
286.288	575
286.52	575
286.751	553
286.982	582
287.213	594
287.444	585
287.675	576
287.906	587
288.138	599
288.369	605
288.6	586
288.831	591
289.062	618
289.293	574
289.524	593
289.755	608
289.986	591
290.217	609
290.448	620
290.679	596
290.91	594
291.141	610
291.371	594
291.602	591
291.833	593
292.064	601
292.295	610
292.526	626
292.757	592
292.987	622
293.218	591
293.449	594
293.68	593
293.91	592
294.141	622
294.372	617
294.603	623
294.833	615
295.064	625
295.295	598
295.525	605
295.756	607
295.987	624
296.217	636
296.448	620
296.679	625
296.909	626
297.14	615
297.37	643
297.601	654
297.831	643
298.062	621
298.292	644
298.523	675
298.753	678
298.984	665
299.214	644
299.445	678
299.675	671
299.905	658
300.136	653
300.366	689
300.597	691
300.827	695
301.057	701
301.288	686
301.518	710
301.748	707
301.979	728
302.209	689
302.439	703
302.669	700
302.9	693
303.13	702
303.36	714
303.59	654
303.82	706
304.051	707
304.281	682
304.511	692
304.741	693
304.971	711
305.201	708
305.431	693
305.661	676
305.891	689
306.121	671
306.352	683
306.582	695
306.812	669
307.042	656
307.272	663
307.502	682
307.731	666
307.961	700
308.191	665
308.421	677
308.651	682
308.881	694
309.111	646
309.341	704
309.571	673
309.8	686
310.03	700
310.26	700
310.49	691
310.72	666
310.949	653
311.179	701
311.409	679
311.639	701
311.868	714
312.098	726
312.328	712
312.557	717
312.787	725
313.017	686
313.246	716
313.476	740
313.706	735
313.935	729
314.165	726
314.394	727
314.624	721
314.853	736
315.083	735
315.312	733
315.542	719
315.771	709
316.001	741
316.23	705
316.46	724
316.689	701
316.919	723
317.148	738
317.377	720
317.607	695
317.836	725
318.065	723
318.295	732
318.524	730
318.753	742
318.983	738
319.212	721
319.441	709
319.67	716
319.9	727
320.129	725
320.358	716
320.587	722
320.816	725
321.046	723
321.275	727
321.504	732
321.733	731
321.962	737
322.191	716
322.42	723
322.649	737
322.878	743
323.108	739
323.337	749
323.566	728
323.795	732
324.024	752
324.253	731
324.482	757
324.71	751
324.939	719
325.168	747
325.397	777
325.626	791
325.855	765
326.084	773
326.313	809
326.542	797
326.77	799
326.999	772
327.228	793
327.457	748
327.686	789
327.914	781
328.143	802
328.372	809
328.6	790
328.829	793
329.058	793
329.287	786
329.515	834
329.744	809
329.972	804
330.201	802
330.43	810
330.658	822
330.887	837
331.115	834
331.344	835
331.572	835
331.801	882
332.03	894
332.258	877
332.486	942
332.715	961
332.943	965
333.172	992
333.4	1053
333.629	1057
333.857	1129
334.085	1039
334.314	1049
334.542	1035
334.771	998
334.999	1017
335.227	1000
335.455	985
335.684	983
335.912	1004
336.14	955
336.369	974
336.597	973
336.825	970
337.053	981
337.281	941
337.51	922
337.738	894
337.966	908
338.194	885
338.422	884
338.65	835
338.878	843
339.106	878
339.334	919
339.562	865
339.79	835
340.018	838
340.246	813
340.474	838
340.702	819
340.93	851
341.158	851
341.386	854
341.614	886
341.842	825
342.07	812
342.298	847
342.526	836
342.754	835
342.981	854
343.209	871
343.437	917
343.665	941
343.893	992
344.12	1020
344.348	986
344.576	957
344.804	927
345.031	893
345.259	864
345.487	875
345.714	845
345.942	842
346.17	835
346.397	829
346.625	799
346.853	785
347.08	807
347.308	801
347.535	810
347.763	825
347.99	803
348.218	789
348.445	815
348.673	807
348.9	801
349.128	814
349.355	814
349.583	813
349.81	804
350.037	792
350.265	774
350.492	777
350.72	758
350.947	738
351.174	775
351.402	768
351.629	786
351.856	796
352.083	787
352.311	761
352.538	787
352.765	805
352.992	770
353.22	744
353.447	737
353.674	760
353.901	745
354.128	738
354.355	751
354.583	742
354.81	739
355.037	747
355.264	744
355.491	769
355.718	761
355.945	759
356.172	776
356.399	751
356.626	762
356.853	798
357.08	763
357.307	771
357.534	776
357.761	741
357.988	771
358.215	739
358.441	741
358.668	774
358.895	782
359.122	787
359.349	779
359.576	789
359.802	769
360.029	772
360.256	736
360.483	789
360.709	764
360.936	781
361.163	782
361.39	821
361.616	785
361.843	776
362.07	802
362.296	812
362.523	753
362.749	764
362.976	742
363.203	759
363.429	733
363.656	768
363.882	743
364.109	748
364.335	734
364.562	767
364.788	769
365.015	759
365.241	746
365.468	746
365.694	729
365.92	760
366.147	744
366.373	767
366.599	753
366.826	757
367.052	755
367.278	739
367.505	741
367.731	799
367.957	759
368.184	755
368.41	760
368.636	772
368.862	770
369.089	758
369.315	770
369.541	776
369.767	744
369.993	754
370.219	791
370.445	799
370.672	789
370.898	791
371.124	794
371.35	832
371.576	791
371.802	783
372.028	799
372.254	805
372.48	821
372.706	832
372.932	841
373.158	837
373.384	854
373.61	819
373.835	811
374.061	817
374.287	821
374.513	819
374.739	877
374.965	915
375.191	885
375.416	907
375.642	888
375.868	861
376.094	845
376.319	841
376.545	839
376.771	810
376.997	831
377.222	822
377.448	792
377.674	814
377.899	816
378.125	795
378.35	803
378.576	818
378.802	794
379.027	805
379.253	803
379.478	798
379.704	780
379.929	782
380.155	789
380.38	774
380.606	793
380.831	805
381.057	804
381.282	834
381.507	804
381.733	813
381.958	794
382.184	808
382.409	837
382.634	847
382.86	855
383.085	863
383.31	862
383.535	870
383.761	869
383.986	883
384.211	917
384.436	953
384.662	951
384.887	962
385.112	980
385.337	961
385.562	964
385.787	956
386.013	1005
386.238	985
386.463	967
386.688	974
386.913	952
387.138	971
387.363	963
387.588	957
387.813	952
388.038	964
388.263	986
388.488	962
388.713	952
388.938	951
389.163	946
389.387	951
389.612	957
389.837	968
390.062	934
390.287	965
390.512	961
390.736	964
390.961	961
391.186	993
391.411	1016
391.636	1075
391.86	1080
392.085	1091
392.31	1129
392.534	1058
392.759	1090
392.984	1001
393.208	1011
393.433	1043
393.658	995
393.882	1048
394.107	1024
394.331	1049
394.556	1061
394.78	1059
395.005	1037
395.229	1055
395.454	1077
395.678	1106
395.903	1088
396.127	1077
396.352	1015
396.576	1040
396.801	995
397.025	1059
397.249	1037
397.474	1075
397.698	1110
397.922	1137
398.147	1080
398.371	1091
398.595	1151
398.82	1212
399.044	1291
399.268	1456
399.492	1652
399.717	1890
399.941	1868
400.165	1637
400.389	1481
400.613	1377
400.837	1313
401.062	1273
401.286	1235
401.51	1217
401.734	1221
401.958	1226
402.182	1254
402.406	1266
402.63	1287
402.854	1275
403.078	1338
403.302	1359
403.526	1378
403.75	1395
403.974	1418
404.198	1403
404.422	1430
404.645	1372
404.869	1388
405.093	1347
405.317	1341
405.541	1393
405.765	1350
405.988	1339
406.212	1379
406.436	1331
406.66	1367
406.883	1389
407.107	1485
407.331	1576
407.555	1607
407.778	1604
408.002	1544
408.226	1522
408.449	1508
408.673	1439
408.896	1383
409.12	1393
409.344	1391
409.567	1367
409.791	1373
410.014	1369
410.238	1359
410.461	1353
410.685	1339
410.908	1298
411.132	1284
411.355	1271
411.578	1280
411.802	1265
412.025	1300
412.249	1319
412.472	1315
412.695	1280
412.919	1255
413.142	1226
413.365	1237
413.589	1236
413.812	1243
414.035	1265
414.258	1212
414.482	1257
414.705	1250
414.928	1254
415.151	1257
415.374	1217
415.597	1240
415.821	1191
416.044	1193
416.267	1190
416.49	1165
416.713	1234
416.936	1211
417.159	1222
417.382	1215
417.605	1192
417.828	1190
418.051	1219
418.274	1230
418.497	1195
418.72	1249
418.943	1249
419.166	1346
419.389	1421
419.611	1402
419.834	1297
420.057	1273
420.28	1236
420.503	1188
420.726	1219
420.948	1219
421.171	1235
421.394	1251
421.617	1219
421.839	1220
422.062	1235
422.285	1228
422.507	1228
422.73	1254
422.953	1247
423.175	1280
423.398	1300
423.621	1274
423.843	1301
424.066	1321
424.288	1297
424.511	1268
424.733	1291
424.956	1252
425.178	1247
425.401	1226
425.623	1220
425.846	1163
426.068	1195
426.291	1153
426.513	1157
426.735	1163
426.958	1149
427.18	1105
427.402	1134
427.625	1097
427.847	1095
428.069	1094
428.292	1117
428.514	1101
428.736	1102
428.958	1086
429.181	1045
429.403	1076
429.625	1055
429.847	1052
430.069	1082
430.292	1070
430.514	1033
430.736	1026
430.958	1054
431.18	1054
431.402	1077
431.624	1078
431.846	1071
432.068	1119
432.29	1117
432.512	1109
432.734	1106
432.956	1077
433.178	1101
433.4	1093
433.622	1102
433.844	1132
434.066	1119
434.287	1137
434.509	1158
434.731	1183
434.953	1245
435.175	1238
435.397	1245
435.618	1134
435.84	1111
436.062	1085
436.284	1097
436.505	1076
436.727	1089
436.949	1118
437.17	1071
437.392	1094
437.614	1092
437.835	1032
438.057	1067
438.278	1051
438.5	1035
438.721	1075
438.943	1072
439.165	1058
439.386	1068
439.608	1097
439.829	1106
440.05	1120
440.272	1124
440.493	1107
440.715	1090
440.936	1125
441.158	1147
441.379	1177
441.6	1229
441.822	1226
442.043	1246
442.264	1226
442.486	1235
442.707	1241
442.928	1202
443.149	1213
443.371	1193
443.592	1231
443.813	1229
444.034	1244
444.255	1313
444.476	1358
444.698	1423
444.919	1485
445.14	1531
445.361	1396
445.582	1275
445.803	1225
446.024	1194
446.245	1163
446.466	1146
446.687	1121
446.908	1110
447.129	1102
447.35	1055
447.571	1075
447.792	1049
448.013	1076
448.234	1018
448.455	1009
448.675	1010
448.896	1030
449.117	1010
449.338	1021
449.559	968
449.779	989
450	989
450.221	989
450.442	1030
450.662	1014
450.883	1036
451.104	1053
451.324	1057
451.545	1028
451.766	1032
451.986	1020
452.207	1012
452.428	1005
452.648	1013
452.869	974
453.089	956
453.31	987
453.53	1006
453.751	961
453.971	951
454.192	972
454.412	957
454.633	971
454.853	946
455.073	961
455.294	972
455.514	949
455.734	947
455.955	933
456.175	973
456.395	943
456.616	962
456.836	958
457.056	930
457.276	928
457.497	966
457.717	918
457.937	948
458.157	981
458.377	1007
458.598	1006
458.818	1011
459.038	1053
459.258	1079
459.478	1137
459.698	1135
459.918	1183
460.138	1250
460.358	1284
460.578	1290
460.798	1349
461.018	1307
461.238	1281
461.458	1298
461.678	1284
461.898	1313
462.118	1324
462.338	1378
462.558	1450
462.777	1525
462.997	1620
463.217	1727
463.437	1753
463.657	1644
463.876	1506
464.096	1541
464.316	1531
464.536	1519
464.755	1471
464.975	1442
465.195	1348
465.414	1266
465.634	1228
465.854	1159
466.073	1137
466.293	1141
466.512	1124
466.732	1083
466.951	1087
467.171	1051
467.391	1060
467.61	1053
467.829	1078
468.049	1049
468.268	984
468.488	998
468.707	1035
468.927	1039
469.146	1025
469.365	1040
469.585	1057
469.804	1064
470.023	1082
470.243	1065
470.462	1126
470.681	1112
470.901	1094
471.12	1089
471.339	1089
471.558	1052
471.777	1071
471.997	1036
472.216	1027
472.435	1034
472.654	1018
472.873	1003
473.092	971
473.311	996
473.53	1026
473.749	1023
473.968	996
474.187	989
474.406	971
474.625	1013
474.844	993
475.063	1027
475.282	1023
475.501	1032
475.72	1039
475.939	1030
476.158	1026
476.377	1029
476.596	1022
476.814	1070
477.033	1055
477.252	1080
477.471	1105
477.69	1120
477.908	1152
478.127	1170
478.346	1201
478.564	1211
478.783	1235
479.002	1267
479.22	1239
479.439	1273
479.658	1237
479.876	1262
480.095	1273
480.313	1305
480.532	1342
480.751	1324
480.969	1272
481.188	1233
481.406	1181
481.624	1175
481.843	1163
482.061	1133
482.28	1139
482.498	1138
482.717	1143
482.935	1152
483.153	1164
483.372	1119
483.59	1167
483.808	1141
484.027	1116
484.245	1164
484.463	1203
484.681	1145
484.9	1170
485.118	1167
485.336	1173
485.554	1209
485.772	1202
485.99	1217
486.209	1219
486.427	1202
486.645	1203
486.863	1205
487.081	1213
487.299	1224
487.517	1186
487.735	1165
487.953	1203
488.171	1210
488.389	1231
488.607	1160
488.825	1175
489.043	1150
489.261	1166
489.479	1195
489.696	1179
489.914	1162
490.132	1202
490.35	1193
490.568	1210
490.786	1232
491.003	1235
491.221	1203
491.439	1229
491.657	1194
491.874	1209
492.092	1229
492.31	1235
492.527	1252
492.745	1243
492.963	1240
493.18	1253
493.398	1273
493.615	1230
493.833	1273
494.05	1230
494.268	1256
494.485	1317
494.703	1313
494.92	1258
495.138	1274
495.355	1297
495.573	1291
495.79	1296
496.008	1300
496.225	1293
496.442	1333
496.66	1337
496.877	1380
497.094	1388
497.312	1399
497.529	1413
497.746	1479
497.963	1515
498.181	1585
498.398	1611
498.615	1735
498.832	1887
499.049	2004
499.267	2164
499.484	2375
499.701	2624
499.918	2915
500.135	3256
500.352	3654
500.569	3845
500.786	3798
501.003	3585
501.22	3231
501.437	2840
501.654	2502
501.871	2307
502.088	2098
502.305	1942
502.522	1878
502.739	1799
502.956	1675
503.172	1602
503.389	1553
503.606	1504
503.823	1468
504.04	1477
504.256	1497
504.473	1517
504.69	1555
504.907	1499
505.123	1432
505.34	1332
505.557	1261
505.773	1238
505.99	1224
506.207	1195
506.423	1155
506.64	1179
506.856	1172
507.073	1153
507.289	1125
507.506	1113
507.722	1106
507.939	1101
508.155	1063
508.372	1108
508.588	1113
508.805	1061
509.021	1037
509.238	1028
509.454	1014
509.67	1021
509.887	1018
510.103	1015
510.319	1022
510.536	1038
510.752	1019
510.968	1016
511.184	1006
511.401	994
511.617	997
511.833	1016
512.049	997
512.265	975
512.481	1005
512.698	1022
512.914	1028
513.13	998
513.346	990
513.562	999
513.778	1023
513.994	1018
514.21	1031
514.426	1006
514.642	1033
514.858	996
515.074	1030
515.29	1058
515.506	1053
515.721	1080
515.937	1107
516.153	1108
516.369	1132
516.585	1157
516.801	1188
517.016	1247
517.232	1313
517.448	1342
517.664	1407
517.879	1433
518.095	1448
518.311	1407
518.527	1332
518.742	1281
518.958	1215
519.173	1156
519.389	1157
519.605	1117
519.82	1090
520.036	1088
520.251	1057
520.467	1068
520.682	1028
520.898	1025
521.113	1026
521.329	1017
521.544	984
521.76	967
521.975	981
522.19	958
522.406	934
522.621	945
522.836	925
523.052	936
523.267	911
523.482	947
523.698	914
523.913	943
524.128	915
524.343	927
524.559	921
524.774	909
524.989	904
525.204	909
525.419	939
525.634	900
525.849	920
526.064	925
526.28	888
526.495	882
526.71	895
526.925	911
527.14	945
527.355	896
527.57	889
527.785	889
527.999	881
528.214	909
528.429	890
528.644	874
528.859	881
529.074	883
529.289	905
529.503	895
529.718	889
529.933	899
530.148	877
530.363	891
530.577	878
530.792	899
531.007	903
531.221	908
531.436	896
531.651	902
531.865	906
532.08	881
532.295	909
532.509	892
532.724	917
532.938	870
533.153	862
533.367	878
533.582	910
533.796	901
534.011	879
534.225	862
534.44	883
534.654	866
534.868	901
535.083	847
535.297	889
535.511	872
535.726	887
535.94	871
536.154	844
536.369	831
536.583	824
536.797	833
537.011	835
537.225	834
537.44	836
537.654	835
537.868	819
538.082	804
538.296	791
538.51	812
538.724	821
538.938	833
539.153	791
539.367	833
539.581	825
539.795	815
540.009	803
540.222	817
540.436	795
540.65	808
540.864	782
541.078	808
541.292	784
541.506	804
541.72	780
541.934	792
542.147	833
542.361	839
542.575	797
542.789	820
543.002	805
543.216	787
543.43	787
543.644	793
543.857	796
544.071	782
544.285	821
544.498	792
544.712	827
544.925	806
545.139	834
545.352	840
545.566	811
545.779	808
545.993	845
546.206	814
546.42	839
546.633	839
546.847	834
547.06	828
547.274	847
547.487	817
547.7	825
547.914	849
548.127	843
548.34	834
548.554	815
548.767	819
548.98	859
549.193	843
549.407	839
549.62	869
549.833	859
550.046	864
550.259	827
550.473	830
550.686	829
550.899	817
551.112	827
551.325	792
551.538	799
551.751	800
551.964	814
552.177	836
552.39	854
552.603	886
552.816	885
553.029	888
553.242	886
553.455	906
553.667	930
553.88	889
554.093	879
