Data from NiCl2@0.125M.TitratingCurve.Agarose3%dH2O.NegLispCup.LampEnergy10.LIBS07252019_HRD10591_18-29-58-574.txt Node
Date: Thu Jul 25 18:29:58 EDT 2019
User: cochatt
Spectrometer: HR+D1059
Trigger mode: 1
Integration Time (sec): 1.000000E-1
Scans to average: 1
Electric dark correction enabled: true
Nonlinearity correction enabled: false
Boxcar width: 0
XAxis mode: Wavelengths
Number of Pixels in Spectrum: 2048
>>>>>Begin Spectral Data<<<<<
223.165	-16.19
223.4	-16.19
223.635	-16.19
223.869	-9.19
224.104	-20.19
224.338	-21.19
224.573	-13.19
224.808	-6.19
225.042	-7.19
225.277	-23.19
225.511	-10.19
225.746	9.81
225.98	2.81
226.215	16.81
226.449	18.81
226.683	25.81
226.918	16.81
227.152	35.81
227.387	19.81
227.621	27.81
227.856	41.81
228.09	44.81
228.324	44.81
228.559	55.81
228.793	77.81
229.027	109.81
229.262	114.81
229.496	116.81
229.73	119.81
229.964	122.81
230.199	130.81
230.433	142.81
230.667	135.81
230.901	143.81
231.136	131.81
231.37	138.81
231.604	141.81
231.838	147.81
232.072	152.81
232.306	140.81
232.541	152.81
232.775	163.81
233.009	154.81
233.243	160.81
233.477	160.81
233.711	147.81
233.945	163.81
234.179	149.81
234.413	164.81
234.647	168.81
234.881	134.81
235.115	146.81
235.349	159.81
235.583	141.81
235.817	161.81
236.051	167.81
236.285	166.81
236.519	156.81
236.753	139.81
236.987	165.81
237.221	169.81
237.455	171.81
237.689	167.81
237.922	162.81
238.156	152.81
238.39	180.81
238.624	168.81
238.858	177.81
239.091	166.81
239.325	171.81
239.559	177.81
239.793	207.81
240.027	171.81
240.26	180.81
240.494	180.81
240.728	165.81
240.961	180.81
241.195	197.81
241.429	182.81
241.662	175.81
241.896	178.81
242.13	180.81
242.363	211.81
242.597	193.81
242.83	210.81
243.064	209.81
243.298	210.81
243.531	198.81
243.765	208.81
243.998	208.81
244.232	216.81
244.465	216.81
244.699	222.81
244.932	217.81
245.166	226.81
245.399	233.81
245.633	220.81
245.866	234.81
246.099	224.81
246.333	215.81
246.566	222.81
246.8	222.81
247.033	239.81
247.266	231.81
247.5	244.81
247.733	244.81
247.966	234.81
248.2	238.81
248.433	239.81
248.666	247.81
248.899	238.81
249.133	254.81
249.366	233.81
249.599	260.81
249.832	253.81
250.066	250.81
250.299	259.81
250.532	260.81
250.765	256.81
250.998	245.81
251.231	264.81
251.465	261.81
251.698	273.81
251.931	272.81
252.164	255.81
252.397	280.81
252.63	287.81
252.863	269.81
253.096	287.81
253.329	300.81
253.562	265.81
253.795	290.81
254.028	297.81
254.261	293.81
254.494	298.81
254.727	292.81
254.96	299.81
255.193	288.81
255.426	287.81
255.659	320.81
255.892	300.81
256.124	300.81
256.357	296.81
256.59	296.81
256.823	290.81
257.056	295.81
257.289	295.81
257.521	295.81
257.754	309.81
257.987	308.81
258.22	312.81
258.452	307.81
258.685	307.81
258.918	298.81
259.151	333.81
259.383	324.81
259.616	307.81
259.849	329.81
260.081	331.81
260.314	329.81
260.547	333.81
260.779	316.81
261.012	308.81
261.244	329.81
261.477	348.81
261.71	332.81
261.942	341.81
262.175	331.81
262.407	335.81
262.64	345.81
262.872	342.81
263.105	341.81
263.337	340.81
263.57	361.81
263.802	335.81
264.035	338.81
264.267	375.81
264.499	355.81
264.732	366.81
264.964	358.81
265.197	337.81
265.429	362.81
265.661	357.81
265.894	340.81
266.126	381.81
266.358	361.81
266.591	365.81
266.823	368.81
267.055	363.81
267.287	363.81
267.52	381.81
267.752	367.81
267.984	364.81
268.216	369.81
268.448	361.81
268.681	373.81
268.913	359.81
269.145	379.81
269.377	362.81
269.609	365.81
269.841	395.81
270.073	373.81
270.306	386.81
270.538	371.81
270.77	373.81
271.002	385.81
271.234	397.81
271.466	401.81
271.698	387.81
271.93	387.81
272.162	395.81
272.394	420.81
272.626	398.81
272.858	381.81
273.09	421.81
273.322	403.81
273.553	395.81
273.785	397.81
274.017	408.81
274.249	414.81
274.481	396.81
274.713	417.81
274.945	425.81
275.176	415.81
275.408	424.81
275.64	441.81
275.872	440.81
276.104	412.81
276.335	443.81
276.567	438.81
276.799	429.81
277.031	414.81
277.262	413.81
277.494	447.81
277.726	440.81
277.957	455.81
278.189	441.81
278.421	444.81
278.652	453.81
278.884	447.81
279.115	422.81
279.347	445.81
279.579	450.81
279.81	458.81
280.042	455.81
280.273	445.81
280.505	457.81
280.736	473.81
280.968	465.81
281.199	465.81
281.431	469.81
281.662	467.81
281.894	478.81
282.125	467.81
282.356	491.81
282.588	488.81
282.819	481.81
283.051	485.81
283.282	469.81
283.513	477.81
283.745	484.81
283.976	480.81
284.207	494.81
284.439	485.81
284.67	507.81
284.901	485.81
285.132	521.81
285.364	505.81
285.595	498.81
285.826	502.81
286.057	508.81
286.288	510.81
286.52	499.81
286.751	513.81
286.982	534.81
287.213	514.81
287.444	503.81
287.675	505.81
287.906	531.81
288.138	521.81
288.369	523.81
288.6	544.81
288.831	543.81
289.062	543.81
289.293	502.81
289.524	527.81
289.755	554.81
289.986	525.81
290.217	531.81
290.448	544.81
290.679	531.81
290.91	549.81
291.141	544.81
291.371	548.81
291.602	564.81
291.833	543.81
292.064	505.81
292.295	546.81
292.526	546.81
292.757	553.81
292.987	537.81
293.218	534.81
293.449	570.81
293.68	539.81
293.91	533.81
294.141	539.81
294.372	563.81
294.603	565.81
294.833	545.81
295.064	577.81
295.295	551.81
295.525	547.81
295.756	575.81
295.987	537.81
296.217	571.81
296.448	571.81
296.679	568.81
296.909	586.81
297.14	592.81
297.37	571.81
297.601	577.81
297.831	583.81
298.062	582.81
298.292	595.81
298.523	627.81
298.753	631.81
298.984	607.81
299.214	607.81
299.445	599.81
299.675	601.81
299.905	596.81
300.136	597.81
300.366	589.81
300.597	609.81
300.827	632.81
301.057	609.81
301.288	627.81
301.518	625.81
301.748	633.81
301.979	633.81
302.209	598.81
302.439	614.81
302.669	616.81
302.9	631.81
303.13	614.81
303.36	607.81
303.59	597.81
303.82	569.81
304.051	594.81
304.281	603.81
304.511	608.81
304.741	611.81
304.971	610.81
305.201	627.81
305.431	597.81
305.661	602.81
305.891	612.81
306.121	615.81
306.352	577.81
306.582	602.81
306.812	593.81
307.042	586.81
307.272	575.81
307.502	577.81
307.731	602.81
307.961	593.81
308.191	579.81
308.421	588.81
308.651	589.81
308.881	587.81
309.111	593.81
309.341	576.81
309.571	597.81
309.8	612.81
310.03	589.81
310.26	572.81
310.49	578.81
310.72	581.81
310.949	608.81
311.179	605.81
311.409	633.81
311.639	614.81
311.868	609.81
312.098	626.81
312.328	608.81
312.557	631.81
312.787	610.81
313.017	597.81
313.246	637.81
313.476	646.81
313.706	641.81
313.935	637.81
314.165	636.81
314.394	623.81
314.624	601.81
314.853	623.81
315.083	639.81
315.312	619.81
315.542	645.81
315.771	619.81
316.001	607.81
316.23	621.81
316.46	620.81
316.689	635.81
316.919	601.81
317.148	610.81
317.377	628.81
317.607	623.81
317.836	627.81
318.065	627.81
318.295	623.81
318.524	602.81
318.753	615.81
318.983	585.81
319.212	618.81
319.441	633.81
319.67	639.81
319.9	616.81
320.129	620.81
320.358	612.81
320.587	621.81
320.816	628.81
321.046	635.81
321.275	645.81
321.504	616.81
321.733	625.81
321.962	631.81
322.191	639.81
322.42	644.81
322.649	629.81
322.878	635.81
323.108	603.81
323.337	624.81
323.566	644.81
323.795	643.81
324.024	649.81
324.253	623.81
324.482	643.81
324.71	654.81
324.939	613.81
325.168	647.81
325.397	645.81
325.626	656.81
325.855	657.81
326.084	676.81
326.313	696.81
326.542	681.81
326.77	701.81
326.999	678.81
327.228	649.81
327.457	676.81
327.686	693.81
327.914	676.81
328.143	663.81
328.372	681.81
328.6	690.81
328.829	691.81
329.058	677.81
329.287	651.81
329.515	687.81
329.744	691.81
329.972	684.81
330.201	674.81
330.43	696.81
330.658	704.81
330.887	691.81
331.115	699.81
331.344	722.81
331.572	723.81
331.801	738.81
332.03	770.81
332.258	757.81
332.486	805.81
332.715	815.81
332.943	853.81
333.172	886.81
333.4	902.81
333.629	931.81
333.857	927.81
334.085	927.81
334.314	860.81
334.542	901.81
334.771	877.81
334.999	858.81
335.227	845.81
335.455	850.81
335.684	857.81
335.912	848.81
336.14	836.81
336.369	798.81
336.597	795.81
336.825	845.81
337.053	815.81
337.281	788.81
337.51	797.81
337.738	753.81
337.966	750.81
338.194	783.81
338.422	714.81
338.65	721.81
338.878	737.81
339.106	727.81
339.334	746.81
339.562	741.81
339.79	709.81
340.018	701.81
340.246	714.81
340.474	692.81
340.702	718.81
340.93	716.81
341.158	747.81
341.386	721.81
341.614	719.81
341.842	723.81
342.07	704.81
342.298	695.81
342.526	706.81
342.754	692.81
342.981	696.81
343.209	721.81
343.437	753.81
343.665	801.81
343.893	874.81
344.12	908.81
344.348	856.81
344.576	808.81
344.804	763.81
345.031	749.81
345.259	733.81
345.487	706.81
345.714	711.81
345.942	694.81
346.17	704.81
346.397	692.81
346.625	700.81
346.853	691.81
347.08	697.81
347.308	699.81
347.535	722.81
347.763	703.81
347.99	728.81
348.218	684.81
348.445	674.81
348.673	694.81
348.9	684.81
349.128	687.81
349.355	683.81
349.583	683.81
349.81	695.81
350.037	689.81
350.265	658.81
350.492	688.81
350.72	660.81
350.947	632.81
351.174	667.81
351.402	669.81
351.629	679.81
351.856	644.81
352.083	627.81
352.311	659.81
352.538	669.81
352.765	665.81
352.992	649.81
353.22	662.81
353.447	636.81
353.674	637.81
353.901	670.81
354.128	654.81
354.355	664.81
354.583	663.81
354.81	668.81
355.037	667.81
355.264	679.81
355.491	669.81
355.718	660.81
355.945	663.81
356.172	679.81
356.399	682.81
356.626	688.81
356.853	667.81
357.08	664.81
357.307	669.81
357.534	666.81
357.761	648.81
357.988	669.81
358.215	653.81
358.441	667.81
358.668	680.81
358.895	668.81
359.122	679.81
359.349	645.81
359.576	670.81
359.802	682.81
360.029	660.81
360.256	643.81
360.483	691.81
360.709	674.81
360.936	659.81
361.163	655.81
361.39	652.81
361.616	673.81
361.843	666.81
362.07	661.81
362.296	663.81
362.523	651.81
362.749	634.81
362.976	659.81
363.203	657.81
363.429	674.81
363.656	666.81
363.882	664.81
364.109	677.81
364.335	643.81
364.562	631.81
364.788	657.81
365.015	644.81
365.241	662.81
365.468	667.81
365.694	679.81
365.92	683.81
366.147	646.81
366.373	661.81
366.599	664.81
366.826	674.81
367.052	667.81
367.278	651.81
367.505	667.81
367.731	659.81
367.957	679.81
368.184	669.81
368.41	664.81
368.636	641.81
368.862	661.81
369.089	680.81
369.315	669.81
369.541	701.81
369.767	705.81
369.993	669.81
370.219	716.81
370.445	691.81
370.672	699.81
370.898	716.81
371.124	699.81
371.35	725.81
371.576	734.81
371.802	707.81
372.028	721.81
372.254	712.81
372.48	731.81
372.706	737.81
372.932	745.81
373.158	752.81
373.384	752.81
373.61	717.81
373.835	738.81
374.061	699.81
374.287	730.81
374.513	755.81
374.739	751.81
374.965	781.81
375.191	823.81
375.416	821.81
375.642	771.81
375.868	805.81
376.094	767.81
376.319	757.81
376.545	748.81
376.771	731.81
376.997	727.81
377.222	721.81
377.448	721.81
377.674	739.81
377.899	737.81
378.125	711.81
378.35	708.81
378.576	723.81
378.802	703.81
379.027	714.81
379.253	710.81
379.478	736.81
379.704	709.81
379.929	726.81
380.155	711.81
380.38	696.81
380.606	703.81
380.831	703.81
381.057	734.81
381.282	738.81
381.507	728.81
381.733	730.81
381.958	708.81
382.184	716.81
382.409	768.81
382.634	748.81
382.86	754.81
383.085	772.81
383.31	795.81
383.535	797.81
383.761	816.81
383.986	820.81
384.211	844.81
384.436	848.81
384.662	834.81
384.887	867.81
385.112	898.81
385.337	891.81
385.562	891.81
385.787	902.81
386.013	897.81
386.238	886.81
386.463	886.81
386.688	887.81
386.913	851.81
387.138	844.81
387.363	873.81
387.588	859.81
387.813	857.81
388.038	865.81
388.263	870.81
388.488	869.81
388.713	877.81
388.938	882.81
389.163	845.81
389.387	816.81
389.612	827.81
389.837	849.81
390.062	859.81
390.287	870.81
390.512	852.81
390.736	866.81
390.961	861.81
391.186	879.81
391.411	905.81
391.636	928.81
391.86	978.81
392.085	983.81
392.31	998.81
392.534	961.81
392.759	940.81
392.984	956.81
393.208	930.81
393.433	910.81
393.658	916.81
393.882	919.81
394.107	936.81
394.331	939.81
394.556	920.81
394.78	934.81
395.005	930.81
395.229	921.81
395.454	971.81
395.678	1017.81
395.903	992.81
396.127	1000.81
396.352	938.81
396.576	909.81
396.801	895.81
397.025	913.81
397.249	957.81
397.474	965.81
397.698	950.81
397.922	941.81
398.147	965.81
398.371	1017.81
398.595	1035.81
398.82	1073.81
399.044	1140.81
399.268	1285.81
399.492	1484.81
399.717	1673.81
399.941	1727.81
400.165	1495.81
400.389	1339.81
400.613	1209.81
400.837	1172.81
401.062	1097.81
401.286	1127.81
401.51	1107.81
401.734	1085.81
401.958	1104.81
402.182	1111.81
402.406	1099.81
402.63	1140.81
402.854	1153.81
403.078	1195.81
403.302	1279.81
403.526	1256.81
403.75	1263.81
403.974	1257.81
404.198	1302.81
404.422	1312.81
404.645	1252.81
404.869	1279.81
405.093	1245.81
405.317	1223.81
405.541	1222.81
405.765	1238.81
405.988	1206.81
406.212	1223.81
406.436	1205.81
406.66	1256.81
406.883	1279.81
407.107	1311.81
407.331	1403.81
407.555	1459.81
407.778	1447.81
408.002	1401.81
408.226	1383.81
408.449	1335.81
408.673	1285.81
408.896	1242.81
409.12	1233.81
409.344	1242.81
409.567	1299.81
409.791	1282.81
410.014	1268.81
410.238	1285.81
410.461	1212.81
410.685	1241.81
410.908	1157.81
411.132	1164.81
411.355	1171.81
411.578	1157.81
411.802	1156.81
412.025	1158.81
412.249	1188.81
412.472	1149.81
412.695	1095.81
412.919	1113.81
413.142	1096.81
413.365	1082.81
413.589	1131.81
413.812	1114.81
414.035	1104.81
414.258	1091.81
414.482	1117.81
414.705	1131.81
414.928	1113.81
415.151	1085.81
415.374	1106.81
415.597	1075.81
415.821	1060.81
416.044	1075.81
416.267	1074.81
416.49	1046.81
416.713	1049.81
416.936	1066.81
417.159	1114.81
417.382	1096.81
417.605	1091.81
417.828	1069.81
418.051	1106.81
418.274	1080.81
418.497	1105.81
418.72	1118.81
418.943	1120.81
419.166	1190.81
419.389	1299.81
419.611	1265.81
419.834	1179.81
420.057	1138.81
420.28	1113.81
420.503	1103.81
420.726	1065.81
420.948	1085.81
421.171	1066.81
421.394	1106.81
421.617	1104.81
421.839	1103.81
422.062	1094.81
422.285	1097.81
422.507	1110.81
422.73	1141.81
422.953	1126.81
423.175	1155.81
423.398	1161.81
423.621	1174.81
423.843	1177.81
424.066	1172.81
424.288	1193.81
424.511	1171.81
424.733	1173.81
424.956	1135.81
425.178	1148.81
425.401	1139.81
425.623	1101.81
425.846	1047.81
426.068	1080.81
426.291	1020.81
426.513	1064.81
426.735	1027.81
426.958	1031.81
427.18	999.81
427.402	1010.81
427.625	994.81
427.847	996.81
428.069	959.81
428.292	997.81
428.514	976.81
428.736	988.81
428.958	982.81
429.181	981.81
429.403	954.81
429.625	951.81
429.847	952.81
430.069	947.81
430.292	986.81
430.514	948.81
430.736	963.81
430.958	949.81
431.18	943.81
431.402	943.81
431.624	956.81
431.846	963.81
432.068	971.81
432.29	997.81
432.512	957.81
432.734	985.81
432.956	983.81
433.178	1033.81
433.4	979.81
433.622	985.81
433.844	1013.81
434.066	996.81
434.287	1027.81
434.509	1043.81
434.731	1090.81
434.953	1086.81
435.175	1142.81
435.397	1119.81
435.618	1080.81
435.84	1060.81
436.062	1005.81
436.284	979.81
436.505	1013.81
436.727	990.81
436.949	986.81
437.17	963.81
437.392	960.81
437.614	984.81
437.835	937.81
438.057	952.81
438.278	911.81
438.5	959.81
438.721	964.81
438.943	969.81
439.165	966.81
439.386	950.81
439.608	960.81
439.829	994.81
440.05	1006.81
440.272	972.81
440.493	1022.81
440.715	1025.81
440.936	1021.81
441.158	1052.81
441.379	1085.81
441.6	1118.81
441.822	1135.81
442.043	1130.81
442.264	1105.81
442.486	1076.81
442.707	1066.81
442.928	1117.81
443.149	1097.81
443.371	1100.81
443.592	1101.81
443.813	1136.81
444.034	1131.81
444.255	1156.81
444.476	1233.81
444.698	1299.81
444.919	1358.81
445.14	1426.81
445.361	1299.81
445.582	1114.81
445.803	1094.81
446.024	1040.81
446.245	1040.81
446.466	1014.81
446.687	1002.81
446.908	1002.81
447.129	988.81
447.35	975.81
447.571	927.81
447.792	889.81
448.013	921.81
448.234	913.81
448.455	932.81
448.675	898.81
448.896	926.81
449.117	864.81
449.338	920.81
449.559	897.81
449.779	879.81
450	883.81
450.221	901.81
450.442	897.81
450.662	933.81
450.883	939.81
451.104	969.81
451.324	946.81
451.545	953.81
451.766	912.81
451.986	935.81
452.207	912.81
452.428	902.81
452.648	926.81
452.869	920.81
453.089	907.81
453.31	904.81
453.53	887.81
453.751	879.81
453.971	880.81
454.192	851.81
454.412	876.81
454.633	856.81
454.853	901.81
455.073	851.81
455.294	852.81
455.514	876.81
455.734	861.81
455.955	834.81
456.175	828.81
456.395	856.81
456.616	848.81
456.836	869.81
457.056	845.81
457.276	832.81
457.497	839.81
457.717	838.81
457.937	883.81
458.157	859.81
458.377	887.81
458.598	898.81
458.818	901.81
459.038	918.81
459.258	994.81
459.478	1003.81
459.698	1052.81
459.918	1064.81
460.138	1092.81
460.358	1153.81
460.578	1181.81
460.798	1183.81
461.018	1227.81
461.238	1176.81
461.458	1163.81
461.678	1159.81
461.898	1172.81
462.118	1199.81
462.338	1256.81
462.558	1299.81
462.777	1330.81
462.997	1443.81
463.217	1613.81
463.437	1620.81
463.657	1479.81
463.876	1369.81
464.096	1415.81
464.316	1393.81
464.536	1429.81
464.755	1353.81
464.975	1312.81
465.195	1221.81
465.414	1148.81
465.634	1109.81
465.854	1052.81
466.073	1034.81
466.293	1015.81
466.512	973.81
466.732	952.81
466.951	945.81
467.171	940.81
467.391	980.81
467.61	934.81
467.829	957.81
468.049	943.81
468.268	906.81
468.488	924.81
468.707	917.81
468.927	930.81
469.146	907.81
469.365	920.81
469.585	945.81
469.804	962.81
470.023	991.81
470.243	979.81
470.462	1007.81
470.681	970.81
470.901	985.81
471.12	986.81
471.339	984.81
471.558	955.81
471.777	943.81
471.997	951.81
472.216	918.81
472.435	899.81
472.654	904.81
472.873	891.81
473.092	889.81
473.311	899.81
473.53	883.81
473.749	879.81
473.968	891.81
474.187	881.81
474.406	907.81
474.625	912.81
474.844	887.81
475.063	888.81
475.282	907.81
475.501	937.81
475.72	899.81
475.939	909.81
476.158	909.81
476.377	922.81
476.596	933.81
476.814	948.81
477.033	932.81
477.252	976.81
477.471	970.81
477.69	985.81
477.908	1037.81
478.127	1071.81
478.346	1052.81
478.564	1087.81
478.783	1091.81
479.002	1153.81
479.22	1126.81
479.439	1103.81
479.658	1124.81
479.876	1120.81
480.095	1160.81
480.313	1171.81
480.532	1208.81
480.751	1232.81
480.969	1166.81
481.188	1116.81
481.406	1113.81
481.624	1056.81
481.843	1032.81
482.061	1011.81
482.28	1043.81
482.498	1026.81
482.717	1001.81
482.935	1052.81
483.153	1009.81
483.372	1027.81
483.59	1027.81
483.808	1006.81
484.027	1015.81
484.245	1044.81
484.463	1040.81
484.681	1052.81
484.9	1055.81
485.118	1082.81
485.336	1065.81
485.554	1086.81
485.772	1077.81
485.99	1071.81
486.209	1106.81
486.427	1124.81
486.645	1085.81
486.863	1098.81
487.081	1050.81
487.299	1087.81
487.517	1088.81
487.735	1058.81
487.953	1082.81
488.171	1066.81
488.389	1080.81
488.607	1071.81
488.825	1039.81
489.043	1018.81
489.261	1055.81
489.479	1056.81
489.696	1068.81
489.914	1063.81
490.132	1083.81
490.35	1105.81
490.568	1075.81
490.786	1060.81
491.003	1082.81
491.221	1088.81
491.439	1101.81
491.657	1085.81
491.874	1096.81
492.092	1078.81
492.31	1112.81
492.527	1113.81
492.745	1082.81
492.963	1085.81
493.18	1104.81
493.398	1103.81
493.615	1121.81
493.833	1085.81
494.05	1129.81
494.268	1152.81
494.485	1121.81
494.703	1119.81
494.92	1131.81
495.138	1137.81
495.355	1127.81
495.573	1119.81
495.79	1166.81
496.008	1149.81
496.225	1141.81
496.442	1147.81
496.66	1197.81
496.877	1173.81
497.094	1230.81
497.312	1229.81
497.529	1231.81
