Data from NiCl2@0.125M.TitratingCurve.Agarose3%dH2O.NegLispCup.LampEnergy10.LIBS07252019_HRD10591_18-28-23-574.txt Node
Date: Thu Jul 25 18:28:23 EDT 2019
User: cochatt
Spectrometer: HR+D1059
Trigger mode: 1
Integration Time (sec): 1.000000E-1
Scans to average: 1
Electric dark correction enabled: true
Nonlinearity correction enabled: false
Boxcar width: 0
XAxis mode: Wavelengths
Number of Pixels in Spectrum: 2048
>>>>>Begin Spectral Data<<<<<
223.165	-11.44
223.4	-11.44
223.635	-11.44
223.869	-15.44
224.104	-18.44
224.338	-19.44
224.573	-11.44
224.808	-9.44
225.042	-13.44
225.277	-7.44
225.511	-12.44
225.746	2.56
225.98	5.56
226.215	-3.44
226.449	23.56
226.683	22.56
226.918	36.56
227.152	31.56
227.387	31.56
227.621	45.56
227.856	45.56
228.09	47.56
228.324	57.56
228.559	56.56
228.793	62.56
229.027	125.56
229.262	121.56
229.496	134.56
229.73	125.56
229.964	141.56
230.199	135.56
230.433	139.56
230.667	143.56
230.901	141.56
231.136	160.56
231.37	170.56
231.604	144.56
231.838	143.56
232.072	154.56
232.306	176.56
232.541	162.56
232.775	168.56
233.009	193.56
233.243	165.56
233.477	176.56
233.711	188.56
233.945	174.56
234.179	179.56
234.413	178.56
234.647	176.56
234.881	175.56
235.115	180.56
235.349	186.56
235.583	176.56
235.817	183.56
236.051	184.56
236.285	176.56
236.519	177.56
236.753	182.56
236.987	191.56
237.221	194.56
237.455	172.56
237.689	191.56
237.922	192.56
238.156	206.56
238.39	180.56
238.624	214.56
238.858	204.56
239.091	194.56
239.325	199.56
239.559	232.56
239.793	203.56
240.027	200.56
240.26	220.56
240.494	221.56
240.728	226.56
240.961	198.56
241.195	228.56
241.429	238.56
241.662	221.56
241.896	238.56
242.13	237.56
242.363	239.56
242.597	243.56
242.83	234.56
243.064	223.56
243.298	263.56
243.531	258.56
243.765	245.56
243.998	232.56
244.232	260.56
244.465	247.56
244.699	265.56
244.932	285.56
245.166	266.56
245.399	272.56
245.633	270.56
245.866	286.56
246.099	292.56
246.333	267.56
246.566	269.56
246.8	264.56
247.033	284.56
247.266	274.56
247.5	276.56
247.733	279.56
247.966	277.56
248.2	316.56
248.433	294.56
248.666	306.56
248.899	289.56
249.133	306.56
249.366	303.56
249.599	318.56
249.832	291.56
250.066	301.56
250.299	306.56
250.532	332.56
250.765	313.56
250.998	297.56
251.231	314.56
251.465	318.56
251.698	333.56
251.931	317.56
252.164	319.56
252.397	343.56
252.63	331.56
252.863	338.56
253.096	343.56
253.329	344.56
253.562	358.56
253.795	358.56
254.028	352.56
254.261	361.56
254.494	329.56
254.727	348.56
254.96	344.56
255.193	355.56
255.426	343.56
255.659	346.56
255.892	358.56
256.124	356.56
256.357	342.56
256.59	367.56
256.823	373.56
257.056	361.56
257.289	365.56
257.521	380.56
257.754	376.56
257.987	380.56
258.22	376.56
258.452	381.56
258.685	393.56
258.918	381.56
259.151	386.56
259.383	375.56
259.616	366.56
259.849	384.56
260.081	396.56
260.314	399.56
260.547	401.56
260.779	380.56
261.012	383.56
261.244	398.56
261.477	406.56
261.71	407.56
261.942	408.56
262.175	410.56
262.407	412.56
262.64	414.56
262.872	418.56
263.105	398.56
263.337	410.56
263.57	424.56
263.802	407.56
264.035	415.56
264.267	447.56
264.499	442.56
264.732	430.56
264.964	448.56
265.197	451.56
265.429	421.56
265.661	431.56
265.894	458.56
266.126	464.56
266.358	456.56
266.591	453.56
266.823	465.56
267.055	459.56
267.287	461.56
267.52	442.56
267.752	463.56
267.984	448.56
268.216	447.56
268.448	457.56
268.681	452.56
268.913	465.56
269.145	459.56
269.377	467.56
269.609	465.56
269.841	462.56
270.073	475.56
270.306	485.56
270.538	463.56
270.77	477.56
271.002	465.56
271.234	488.56
271.466	486.56
271.698	514.56
271.93	499.56
272.162	495.56
272.394	506.56
272.626	491.56
272.858	494.56
273.09	515.56
273.322	501.56
273.553	486.56
273.785	536.56
274.017	519.56
274.249	512.56
274.481	523.56
274.713	519.56
274.945	508.56
275.176	548.56
275.408	512.56
275.64	509.56
275.872	553.56
276.104	543.56
276.335	540.56
276.567	556.56
276.799	563.56
277.031	565.56
277.262	528.56
277.494	540.56
277.726	542.56
277.957	552.56
278.189	545.56
278.421	543.56
278.652	545.56
278.884	564.56
279.115	536.56
279.347	543.56
279.579	555.56
279.81	597.56
280.042	564.56
280.273	561.56
280.505	565.56
280.736	570.56
280.968	574.56
281.199	582.56
281.431	580.56
281.662	589.56
281.894	581.56
282.125	610.56
282.356	596.56
282.588	606.56
282.819	602.56
283.051	622.56
283.282	589.56
283.513	622.56
283.745	614.56
283.976	630.56
284.207	603.56
284.439	630.56
284.67	629.56
284.901	613.56
285.132	641.56
285.364	606.56
285.595	628.56
285.826	628.56
286.057	627.56
286.288	630.56
286.52	644.56
286.751	667.56
286.982	641.56
287.213	632.56
287.444	626.56
287.675	651.56
287.906	647.56
288.138	642.56
288.369	652.56
288.6	658.56
288.831	655.56
289.062	644.56
289.293	671.56
289.524	670.56
289.755	667.56
289.986	666.56
290.217	648.56
290.448	666.56
290.679	667.56
290.91	643.56
291.141	650.56
291.371	662.56
291.602	656.56
291.833	666.56
292.064	674.56
292.295	686.56
292.526	668.56
292.757	672.56
292.987	661.56
293.218	630.56
293.449	676.56
293.68	686.56
293.91	689.56
294.141	663.56
294.372	668.56
294.603	687.56
294.833	720.56
295.064	685.56
295.295	659.56
295.525	679.56
295.756	680.56
295.987	700.56
296.217	690.56
296.448	710.56
296.679	708.56
296.909	701.56
297.14	698.56
297.37	709.56
297.601	726.56
297.831	724.56
298.062	720.56
298.292	737.56
298.523	753.56
298.753	740.56
298.984	758.56
299.214	747.56
299.445	762.56
299.675	740.56
299.905	740.56
300.136	726.56
300.366	728.56
300.597	736.56
300.827	766.56
301.057	774.56
301.288	764.56
301.518	779.56
301.748	766.56
301.979	799.56
302.209	781.56
302.439	776.56
302.669	778.56
302.9	750.56
303.13	750.56
303.36	746.56
303.59	742.56
303.82	757.56
304.051	771.56
304.281	752.56
304.511	764.56
304.741	767.56
304.971	762.56
305.201	777.56
305.431	755.56
305.661	760.56
305.891	744.56
306.121	772.56
306.352	754.56
306.582	723.56
306.812	724.56
307.042	742.56
307.272	748.56
307.502	743.56
307.731	739.56
307.961	720.56
308.191	702.56
308.421	706.56
308.651	747.56
308.881	732.56
309.111	743.56
309.341	725.56
309.571	750.56
309.8	759.56
310.03	757.56
310.26	746.56
310.49	776.56
310.72	735.56
310.949	768.56
311.179	762.56
311.409	754.56
311.639	746.56
311.868	760.56
312.098	783.56
312.328	783.56
312.557	773.56
312.787	782.56
313.017	798.56
313.246	780.56
313.476	802.56
313.706	795.56
313.935	797.56
314.165	804.56
314.394	818.56
314.624	829.56
314.853	796.56
315.083	814.56
315.312	802.56
315.542	812.56
315.771	828.56
316.001	805.56
316.23	785.56
316.46	785.56
316.689	775.56
316.919	797.56
317.148	772.56
317.377	758.56
317.607	773.56
317.836	777.56
318.065	789.56
318.295	779.56
318.524	776.56
318.753	758.56
318.983	794.56
319.212	801.56
319.441	784.56
319.67	788.56
319.9	781.56
320.129	794.56
320.358	802.56
320.587	796.56
320.816	777.56
321.046	794.56
321.275	771.56
321.504	799.56
321.733	790.56
321.962	805.56
322.191	806.56
322.42	800.56
322.649	741.56
322.878	789.56
323.108	793.56
323.337	831.56
323.566	807.56
323.795	845.56
324.024	805.56
324.253	821.56
324.482	815.56
324.71	808.56
324.939	807.56
325.168	810.56
325.397	838.56
325.626	839.56
325.855	831.56
326.084	849.56
326.313	879.56
326.542	881.56
326.77	864.56
326.999	863.56
327.228	836.56
327.457	849.56
327.686	854.56
327.914	847.56
328.143	846.56
328.372	854.56
328.6	844.56
328.829	854.56
329.058	872.56
329.287	882.56
329.515	870.56
329.744	843.56
329.972	852.56
330.201	854.56
330.43	884.56
330.658	886.56
330.887	874.56
331.115	882.56
331.344	894.56
331.572	911.56
331.801	936.56
332.03	955.56
332.258	963.56
332.486	1024.56
332.715	1060.56
332.943	1067.56
333.172	1151.56
333.4	1188.56
333.629	1212.56
333.857	1212.56
334.085	1175.56
334.314	1200.56
334.542	1133.56
334.771	1130.56
334.999	1129.56
335.227	1087.56
335.455	1072.56
335.684	1082.56
335.912	1060.56
336.14	1047.56
336.369	1048.56
336.597	1047.56
336.825	1032.56
337.053	1024.56
337.281	1027.56
337.51	1023.56
337.738	994.56
337.966	964.56
338.194	949.56
338.422	927.56
338.65	944.56
338.878	935.56
339.106	928.56
339.334	925.56
339.562	922.56
339.79	927.56
340.018	892.56
340.246	875.56
340.474	900.56
340.702	888.56
340.93	914.56
341.158	933.56
341.386	899.56
341.614	889.56
341.842	912.56
342.07	910.56
342.298	863.56
342.526	868.56
342.754	904.56
342.981	908.56
343.209	923.56
343.437	953.56
343.665	1041.56
343.893	1115.56
344.12	1160.56
344.348	1094.56
344.576	1000.56
344.804	971.56
345.031	943.56
345.259	914.56
345.487	911.56
345.714	908.56
345.942	894.56
346.17	872.56
346.397	915.56
346.625	896.56
346.853	886.56
347.08	873.56
347.308	879.56
347.535	870.56
347.763	882.56
347.99	916.56
348.218	864.56
348.445	854.56
348.673	861.56
348.9	874.56
349.128	861.56
349.355	836.56
349.583	847.56
349.81	841.56
350.037	857.56
350.265	848.56
350.492	813.56
350.72	832.56
350.947	834.56
351.174	810.56
351.402	848.56
351.629	785.56
351.856	835.56
352.083	813.56
352.311	826.56
352.538	848.56
352.765	840.56
352.992	826.56
353.22	823.56
353.447	811.56
353.674	837.56
353.901	821.56
354.128	832.56
354.355	844.56
354.583	803.56
354.81	805.56
355.037	835.56
355.264	852.56
355.491	838.56
355.718	853.56
355.945	859.56
356.172	856.56
356.399	844.56
356.626	851.56
356.853	856.56
357.08	855.56
357.307	835.56
357.534	838.56
357.761	849.56
357.988	828.56
358.215	798.56
358.441	831.56
358.668	826.56
358.895	826.56
359.122	818.56
359.349	835.56
359.576	854.56
359.802	841.56
360.029	823.56
360.256	860.56
360.483	808.56
360.709	831.56
360.936	834.56
361.163	855.56
361.39	815.56
361.616	836.56
361.843	844.56
362.07	830.56
362.296	843.56
362.523	823.56
362.749	858.56
362.976	857.56
363.203	808.56
363.429	816.56
363.656	855.56
363.882	826.56
364.109	818.56
364.335	827.56
364.562	842.56
364.788	811.56
365.015	836.56
365.241	808.56
365.468	825.56
365.694	802.56
365.92	826.56
366.147	850.56
366.373	828.56
366.599	831.56
366.826	847.56
367.052	845.56
367.278	822.56
367.505	834.56
367.731	843.56
367.957	840.56
368.184	847.56
368.41	845.56
368.636	847.56
368.862	857.56
369.089	848.56
369.315	864.56
369.541	849.56
369.767	877.56
369.993	855.56
370.219	870.56
370.445	884.56
370.672	871.56
370.898	886.56
371.124	852.56
371.35	919.56
371.576	900.56
371.802	905.56
372.028	918.56
372.254	920.56
372.48	939.56
372.706	952.56
372.932	980.56
373.158	931.56
373.384	939.56
373.61	889.56
373.835	925.56
374.061	921.56
374.287	918.56
374.513	910.56
374.739	982.56
374.965	989.56
375.191	1007.56
375.416	990.56
375.642	966.56
375.868	984.56
376.094	956.56
376.319	950.56
376.545	936.56
376.771	940.56
376.997	906.56
377.222	914.56
377.448	893.56
377.674	902.56
377.899	906.56
378.125	914.56
378.35	890.56
378.576	893.56
378.802	909.56
379.027	903.56
379.253	892.56
379.478	908.56
379.704	899.56
379.929	899.56
380.155	873.56
380.38	889.56
380.606	908.56
380.831	905.56
381.057	920.56
381.282	904.56
381.507	910.56
381.733	926.56
381.958	933.56
382.184	925.56
382.409	972.56
382.634	948.56
382.86	959.56
383.085	968.56
383.31	973.56
383.535	968.56
383.761	1034.56
383.986	1050.56
384.211	1055.56
384.436	1118.56
384.662	1096.56
384.887	1097.56
385.112	1088.56
385.337	1105.56
385.562	1128.56
385.787	1103.56
386.013	1126.56
386.238	1123.56
386.463	1145.56
386.688	1127.56
386.913	1074.56
387.138	1100.56
387.363	1103.56
387.588	1070.56
387.813	1078.56
388.038	1104.56
388.263	1056.56
388.488	1112.56
388.713	1117.56
388.938	1086.56
389.163	1080.56
389.387	1056.56
389.612	1064.56
389.837	1064.56
390.062	1095.56
390.287	1083.56
390.512	1070.56
390.736	1089.56
390.961	1130.56
391.186	1142.56
391.411	1154.56
391.636	1183.56
391.86	1220.56
392.085	1262.56
392.31	1269.56
392.534	1210.56
392.759	1180.56
392.984	1143.56
393.208	1149.56
393.433	1157.56
393.658	1148.56
393.882	1160.56
394.107	1199.56
394.331	1156.56
394.556	1166.56
394.78	1195.56
395.005	1192.56
395.229	1177.56
395.454	1214.56
395.678	1263.56
395.903	1232.56
396.127	1239.56
396.352	1170.56
396.576	1148.56
396.801	1134.56
397.025	1189.56
397.249	1193.56
397.474	1246.56
397.698	1199.56
397.922	1246.56
398.147	1232.56
398.371	1257.56
398.595	1296.56
398.82	1377.56
399.044	1488.56
399.268	1628.56
399.492	1977.56
399.717	2239.56
399.941	2183.56
400.165	1914.56
400.389	1683.56
400.613	1517.56
400.837	1461.56
401.062	1415.56
401.286	1405.56
401.51	1397.56
401.734	1382.56
401.958	1396.56
402.182	1398.56
402.406	1427.56
402.63	1464.56
402.854	1485.56
403.078	1520.56
403.302	1585.56
403.526	1583.56
403.75	1653.56
403.974	1639.56
404.198	1631.56
404.422	1699.56
404.645	1674.56
404.869	1615.56
405.093	1561.56
405.317	1571.56
405.541	1561.56
405.765	1579.56
405.988	1550.56
406.212	1504.56
406.436	1519.56
406.66	1549.56
406.883	1606.56
407.107	1687.56
407.331	1755.56
407.555	1796.56
407.778	1835.56
408.002	1756.56
408.226	1744.56
408.449	1706.56
408.673	1605.56
408.896	1591.56
409.12	1579.56
409.344	1567.56
409.567	1565.56
409.791	1595.56
410.014	1567.56
410.238	1594.56
410.461	1590.56
410.685	1548.56
410.908	1468.56
411.132	1491.56
411.355	1442.56
411.578	1450.56
411.802	1418.56
412.025	1481.56
412.249	1452.56
412.472	1451.56
412.695	1465.56
412.919	1418.56
413.142	1357.56
413.365	1390.56
413.589	1374.56
413.812	1360.56
414.035	1346.56
414.258	1392.56
414.482	1400.56
414.705	1456.56
414.928	1432.56
415.151	1402.56
415.374	1388.56
415.597	1360.56
415.821	1356.56
416.044	1348.56
416.267	1365.56
416.49	1360.56
416.713	1352.56
416.936	1353.56
417.159	1366.56
417.382	1350.56
417.605	1349.56
417.828	1370.56
418.051	1382.56
418.274	1374.56
418.497	1401.56
418.72	1412.56
418.943	1396.56
419.166	1459.56
419.389	1603.56
419.611	1589.56
419.834	1506.56
420.057	1474.56
420.28	1420.56
420.503	1371.56
420.726	1319.56
420.948	1354.56
421.171	1358.56
421.394	1365.56
421.617	1361.56
421.839	1402.56
422.062	1398.56
422.285	1378.56
422.507	1400.56
422.73	1402.56
422.953	1431.56
423.175	1419.56
423.398	1481.56
423.621	1460.56
423.843	1538.56
424.066	1510.56
424.288	1476.56
424.511	1396.56
424.733	1411.56
424.956	1398.56
425.178	1402.56
425.401	1409.56
425.623	1372.56
425.846	1310.56
426.068	1334.56
426.291	1334.56
426.513	1289.56
426.735	1297.56
426.958	1258.56
427.18	1215.56
427.402	1213.56
427.625	1205.56
427.847	1234.56
428.069	1264.56
428.292	1225.56
428.514	1213.56
428.736	1191.56
428.958	1223.56
429.181	1180.56
429.403	1160.56
429.625	1182.56
429.847	1180.56
430.069	1154.56
430.292	1158.56
430.514	1179.56
430.736	1151.56
430.958	1146.56
431.18	1182.56
431.402	1190.56
431.624	1177.56
431.846	1187.56
432.068	1218.56
432.29	1249.56
432.512	1183.56
432.734	1190.56
432.956	1183.56
433.178	1221.56
433.4	1230.56
433.622	1210.56
433.844	1234.56
434.066	1225.56
434.287	1259.56
434.509	1314.56
434.731	1304.56
434.953	1406.56
435.175	1428.56
435.397	1343.56
435.618	1272.56
435.84	1245.56
436.062	1239.56
436.284	1228.56
436.505	1225.56
436.727	1219.56
436.949	1221.56
437.17	1170.56
437.392	1174.56
437.614	1157.56
437.835	1148.56
438.057	1164.56
438.278	1142.56
438.5	1151.56
438.721	1149.56
438.943	1173.56
439.165	1152.56
439.386	1195.56
439.608	1206.56
439.829	1199.56
440.05	1195.56
440.272	1224.56
440.493	1224.56
440.715	1207.56
440.936	1269.56
441.158	1268.56
441.379	1303.56
441.6	1402.56
441.822	1402.56
442.043	1405.56
442.264	1380.56
442.486	1352.56
442.707	1330.56
442.928	1382.56
443.149	1369.56
443.371	1338.56
443.592	1355.56
443.813	1383.56
444.034	1399.56
444.255	1448.56
444.476	1477.56
444.698	1603.56
444.919	1687.56
445.14	1764.56
445.361	1526.56
445.582	1406.56
445.803	1345.56
446.024	1287.56
446.245	1271.56
446.466	1261.56
446.687	1204.56
446.908	1224.56
447.129	1186.56
447.35	1150.56
447.571	1156.56
447.792	1132.56
448.013	1158.56
448.234	1121.56
448.455	1127.56
448.675	1090.56
448.896	1091.56
449.117	1096.56
449.338	1081.56
449.559	1081.56
449.779	1103.56
450	1070.56
450.221	1086.56
450.442	1122.56
450.662	1140.56
450.883	1105.56
451.104	1148.56
451.324	1122.56
451.545	1116.56
451.766	1135.56
451.986	1138.56
452.207	1128.56
452.428	1092.56
452.648	1088.56
452.869	1073.56
453.089	1076.56
453.31	1093.56
453.53	1104.56
453.751	1056.56
453.971	1064.56
454.192	1066.56
454.412	1071.56
454.633	1053.56
454.853	1067.56
455.073	1050.56
455.294	1062.56
455.514	987.56
455.734	1007.56
455.955	1036.56
456.175	1012.56
456.395	1005.56
456.616	1002.56
456.836	1026.56
457.056	1005.56
457.276	1010.56
457.497	1036.56
457.717	1013.56
457.937	1026.56
458.157	1058.56
458.377	1066.56
458.598	1056.56
458.818	1138.56
459.038	1128.56
459.258	1200.56
459.478	1211.56
459.698	1226.56
459.918	1253.56
460.138	1352.56
460.358	1459.56
460.578	1448.56
460.798	1446.56
461.018	1500.56
461.238	1418.56
461.458	1438.56
461.678	1478.56
461.898	1439.56
462.118	1429.56
462.338	1504.56
462.558	1558.56
462.777	1595.56
462.997	1793.56
463.217	2000.56
463.437	1986.56
463.657	1812.56
463.876	1694.56
464.096	1706.56
464.316	1668.56
464.536	1698.56
464.755	1655.56
464.975	1565.56
465.195	1512.56
465.414	1410.56
465.634	1309.56
465.854	1242.56
466.073	1204.56
466.293	1194.56
466.512	1159.56
466.732	1153.56
466.951	1176.56
467.171	1136.56
467.391	1172.56
467.61	1166.56
467.829	1147.56
468.049	1144.56
468.268	1115.56
468.488	1095.56
468.707	1068.56
468.927	1112.56
469.146	1057.56
469.365	1108.56
469.585	1113.56
469.804	1155.56
470.023	1180.56
470.243	1154.56
470.462	1190.56
470.681	1187.56
470.901	1200.56
471.12	1167.56
471.339	1141.56
471.558	1143.56
471.777	1124.56
471.997	1106.56
472.216	1087.56
472.435	1115.56
472.654	1087.56
472.873	1075.56
473.092	1054.56
473.311	1071.56
473.53	1063.56
473.749	1061.56
473.968	1064.56
474.187	1028.56
474.406	1045.56
474.625	1047.56
474.844	1036.56
475.063	1094.56
475.282	1074.56
475.501	1060.56
475.72	1088.56
475.939	1108.56
476.158	1102.56
476.377	1109.56
476.596	1108.56
476.814	1110.56
477.033	1102.56
477.252	1145.56
477.471	1148.56
477.69	1198.56
477.908	1235.56
478.127	1276.56
478.346	1308.56
478.564	1294.56
478.783	1314.56
479.002	1352.56
479.22	1368.56
479.439	1303.56
479.658	1294.56
479.876	1328.56
480.095	1358.56
480.313	1436.56
480.532	1474.56
480.751	1444.56
480.969	1382.56
481.188	1302.56
481.406	1285.56
481.624	1231.56
481.843	1234.56
482.061	1195.56
482.28	1185.56
482.498	1203.56
482.717	1208.56
482.935	1167.56
483.153	1195.56
483.372	1208.56
483.59	1161.56
483.808	1205.56
484.027	1209.56
484.245	1237.56
484.463	1245.56
484.681	1230.56
484.9	1257.56
485.118	1243.56
485.336	1212.56
485.554	1236.56
485.772	1271.56
485.99	1263.56
486.209	1300.56
486.427	1293.56
486.645	1278.56
486.863	1287.56
487.081	1300.56
487.299	1272.56
487.517	1288.56
487.735	1254.56
487.953	1299.56
488.171	1262.56
488.389	1220.56
488.607	1239.56
488.825	1239.56
489.043	1226.56
489.261	1222.56
489.479	1257.56
489.696	1245.56
489.914	1269.56
490.132	1273.56
490.35	1269.56
490.568	1276.56
490.786	1260.56
491.003	1252.56
491.221	1255.56
491.439	1286.56
491.657	1277.56
491.874	1280.56
492.092	1254.56
492.31	1326.56
492.527	1294.56
492.745	1287.56
492.963	1306.56
493.18	1318.56
493.398	1308.56
493.615	1325.56
493.833	1320.56
494.05	1340.56
494.268	1352.56
