Data from NiCl2@0.5M.TitratingCurve.Agarose3%dH2O.NegLispCup.LampEnergy10.LIBS07252019_HRD10591_18-21-04-571.txt Node
Date: Thu Jul 25 18:21:04 EDT 2019
User: cochatt
Spectrometer: HR+D1059
Trigger mode: 1
Integration Time (sec): 1.000000E-1
Scans to average: 1
Electric dark correction enabled: true
Nonlinearity correction enabled: false
Boxcar width: 0
XAxis mode: Wavelengths
Number of Pixels in Spectrum: 2048
>>>>>Begin Spectral Data<<<<<
223.165	-11.94
223.4	-11.94
223.635	-11.94
223.869	-35.94
224.104	-14.94
224.338	-4.94
224.573	-20.94
224.808	-17.94
225.042	-17.94
225.277	8.06
225.511	4.06
225.746	21.06
225.98	5.06
226.215	-2.94
226.449	-0.94
226.683	24.06
226.918	28.06
227.152	38.06
227.387	24.06
227.621	43.06
227.856	51.06
228.09	32.06
228.324	53.06
228.559	51.06
228.793	84.06
229.027	121.06
229.262	100.06
229.496	108.06
229.73	119.06
229.964	131.06
230.199	123.06
230.433	131.06
230.667	160.06
230.901	123.06
231.136	132.06
231.37	119.06
231.604	132.06
231.838	151.06
232.072	141.06
232.306	146.06
232.541	149.06
232.775	147.06
233.009	128.06
233.243	146.06
233.477	143.06
233.711	139.06
233.945	155.06
234.179	143.06
234.413	149.06
234.647	144.06
234.881	156.06
235.115	141.06
235.349	157.06
235.583	145.06
235.817	131.06
236.051	148.06
236.285	135.06
236.519	139.06
236.753	155.06
236.987	139.06
237.221	150.06
237.455	142.06
237.689	164.06
237.922	150.06
238.156	145.06
238.39	156.06
238.624	151.06
238.858	148.06
239.091	162.06
239.325	166.06
239.559	187.06
239.793	188.06
240.027	176.06
240.26	178.06
240.494	165.06
240.728	161.06
240.961	179.06
241.195	169.06
241.429	177.06
241.662	169.06
241.896	169.06
242.13	192.06
242.363	176.06
242.597	179.06
242.83	189.06
243.064	195.06
243.298	194.06
243.531	182.06
243.765	182.06
243.998	199.06
244.232	204.06
244.465	198.06
244.699	193.06
244.932	202.06
245.166	200.06
245.399	199.06
245.633	201.06
245.866	210.06
246.099	193.06
246.333	193.06
246.566	192.06
246.8	195.06
247.033	205.06
247.266	203.06
247.5	209.06
247.733	212.06
247.966	222.06
248.2	217.06
248.433	212.06
248.666	227.06
248.899	224.06
249.133	203.06
249.366	217.06
249.599	231.06
249.832	237.06
250.066	225.06
250.299	220.06
250.532	227.06
250.765	237.06
250.998	235.06
251.231	246.06
251.465	238.06
251.698	245.06
251.931	238.06
252.164	227.06
252.397	248.06
252.63	265.06
252.863	237.06
253.096	231.06
253.329	247.06
253.562	228.06
253.795	251.06
254.028	251.06
254.261	223.06
254.494	260.06
254.727	256.06
254.96	268.06
255.193	276.06
255.426	278.06
255.659	255.06
255.892	263.06
256.124	284.06
256.357	256.06
256.59	268.06
256.823	267.06
257.056	268.06
257.289	279.06
257.521	271.06
257.754	271.06
257.987	262.06
258.22	283.06
258.452	272.06
258.685	281.06
258.918	259.06
259.151	271.06
259.383	272.06
259.616	261.06
259.849	279.06
260.081	273.06
260.314	283.06
260.547	280.06
260.779	308.06
261.012	289.06
261.244	299.06
261.477	303.06
261.71	298.06
261.942	287.06
262.175	278.06
262.407	286.06
262.64	296.06
262.872	317.06
263.105	297.06
263.337	307.06
263.57	287.06
263.802	301.06
264.035	317.06
264.267	298.06
264.499	316.06
264.732	323.06
264.964	329.06
265.197	315.06
265.429	317.06
265.661	317.06
265.894	310.06
266.126	303.06
266.358	317.06
266.591	300.06
266.823	319.06
267.055	347.06
267.287	333.06
267.52	321.06
267.752	327.06
267.984	314.06
268.216	328.06
268.448	329.06
268.681	340.06
268.913	344.06
269.145	320.06
269.377	326.06
269.609	323.06
269.841	335.06
270.073	336.06
270.306	331.06
270.538	344.06
270.77	335.06
271.002	341.06
271.234	350.06
271.466	331.06
271.698	337.06
271.93	332.06
272.162	349.06
272.394	339.06
272.626	337.06
272.858	327.06
273.09	328.06
273.322	362.06
273.553	338.06
273.785	351.06
274.017	350.06
274.249	360.06
274.481	358.06
274.713	363.06
274.945	383.06
275.176	355.06
275.408	361.06
275.64	374.06
275.872	379.06
276.104	379.06
276.335	361.06
276.567	379.06
276.799	391.06
277.031	377.06
277.262	380.06
277.494	365.06
277.726	392.06
277.957	387.06
278.189	381.06
278.421	373.06
278.652	398.06
278.884	391.06
279.115	378.06
279.347	393.06
279.579	405.06
279.81	402.06
280.042	381.06
280.273	397.06
280.505	390.06
280.736	402.06
280.968	398.06
281.199	392.06
281.431	412.06
281.662	402.06
281.894	409.06
282.125	424.06
282.356	415.06
282.588	423.06
282.819	413.06
283.051	419.06
283.282	408.06
283.513	410.06
283.745	409.06
283.976	415.06
284.207	452.06
284.439	431.06
284.67	426.06
284.901	429.06
285.132	422.06
285.364	446.06
285.595	428.06
285.826	432.06
286.057	437.06
286.288	439.06
286.52	428.06
286.751	447.06
286.982	427.06
287.213	439.06
287.444	454.06
287.675	455.06
287.906	440.06
288.138	459.06
288.369	457.06
288.6	445.06
288.831	467.06
289.062	464.06
289.293	473.06
289.524	429.06
289.755	462.06
289.986	453.06
290.217	486.06
290.448	461.06
290.679	472.06
290.91	462.06
291.141	469.06
291.371	482.06
291.602	471.06
291.833	488.06
292.064	479.06
292.295	469.06
292.526	504.06
292.757	448.06
292.987	463.06
293.218	464.06
293.449	474.06
293.68	488.06
293.91	474.06
294.141	452.06
294.372	471.06
294.603	482.06
294.833	499.06
295.064	480.06
295.295	463.06
295.525	447.06
295.756	487.06
295.987	478.06
296.217	489.06
296.448	484.06
296.679	484.06
296.909	473.06
297.14	501.06
297.37	509.06
297.601	512.06
297.831	521.06
298.062	493.06
298.292	507.06
298.523	524.06
298.753	531.06
298.984	517.06
299.214	526.06
299.445	527.06
299.675	520.06
299.905	514.06
300.136	525.06
300.366	553.06
300.597	553.06
300.827	552.06
301.057	528.06
301.288	547.06
301.518	542.06
301.748	535.06
301.979	543.06
302.209	564.06
302.439	547.06
302.669	548.06
302.9	522.06
303.13	532.06
303.36	516.06
303.59	548.06
303.82	545.06
304.051	555.06
304.281	574.06
304.511	519.06
304.741	536.06
304.971	559.06
305.201	561.06
305.431	565.06
305.661	561.06
305.891	546.06
306.121	547.06
306.352	537.06
306.582	529.06
306.812	515.06
307.042	529.06
307.272	542.06
307.502	538.06
307.731	527.06
307.961	537.06
308.191	536.06
308.421	525.06
308.651	529.06
308.881	538.06
309.111	529.06
309.341	527.06
309.571	524.06
309.8	516.06
310.03	574.06
310.26	569.06
310.49	567.06
310.72	536.06
310.949	552.06
311.179	538.06
311.409	539.06
311.639	537.06
311.868	550.06
312.098	556.06
312.328	559.06
312.557	560.06
312.787	548.06
313.017	575.06
313.246	571.06
313.476	576.06
313.706	605.06
313.935	571.06
314.165	582.06
314.394	577.06
314.624	567.06
314.853	575.06
315.083	587.06
315.312	573.06
315.542	571.06
315.771	564.06
316.001	595.06
316.23	573.06
316.46	572.06
316.689	555.06
316.919	583.06
317.148	565.06
317.377	567.06
317.607	573.06
317.836	573.06
318.065	559.06
318.295	568.06
318.524	596.06
318.753	588.06
318.983	573.06
319.212	571.06
319.441	555.06
319.67	552.06
319.9	590.06
320.129	592.06
320.358	570.06
320.587	586.06
320.816	569.06
321.046	582.06
321.275	567.06
321.504	579.06
321.733	579.06
321.962	592.06
322.191	579.06
322.42	579.06
322.649	586.06
322.878	585.06
323.108	597.06
323.337	579.06
323.566	592.06
323.795	581.06
324.024	590.06
324.253	589.06
324.482	623.06
324.71	591.06
324.939	608.06
325.168	591.06
325.397	569.06
325.626	568.06
325.855	607.06
326.084	622.06
326.313	620.06
326.542	631.06
326.77	638.06
326.999	622.06
327.228	602.06
327.457	616.06
327.686	614.06
327.914	637.06
328.143	631.06
328.372	608.06
328.6	620.06
328.829	621.06
329.058	614.06
329.287	612.06
329.515	630.06
329.744	615.06
329.972	633.06
330.201	630.06
330.43	647.06
330.658	630.06
330.887	649.06
331.115	653.06
331.344	662.06
331.572	634.06
331.801	662.06
332.03	663.06
332.258	701.06
332.486	736.06
332.715	735.06
332.943	742.06
333.172	775.06
333.4	777.06
333.629	828.06
333.857	800.06
334.085	803.06
334.314	803.06
334.542	770.06
334.771	781.06
334.999	755.06
335.227	770.06
335.455	745.06
335.684	762.06
335.912	773.06
336.14	760.06
336.369	741.06
336.597	740.06
336.825	780.06
337.053	769.06
337.281	731.06
337.51	713.06
337.738	723.06
337.966	731.06
338.194	736.06
338.422	706.06
338.65	667.06
338.878	677.06
339.106	656.06
339.334	715.06
339.562	699.06
339.79	655.06
340.018	665.06
340.246	643.06
340.474	657.06
340.702	632.06
340.93	669.06
341.158	667.06
341.386	700.06
341.614	719.06
341.842	703.06
342.07	668.06
342.298	663.06
342.526	657.06
342.754	639.06
342.981	674.06
343.209	683.06
343.437	712.06
343.665	754.06
343.893	751.06
344.12	777.06
344.348	776.06
344.576	736.06
344.804	731.06
345.031	696.06
345.259	686.06
345.487	700.06
345.714	669.06
345.942	656.06
346.17	718.06
346.397	661.06
346.625	644.06
346.853	612.06
347.08	631.06
347.308	627.06
347.535	664.06
347.763	627.06
347.99	655.06
348.218	618.06
348.445	633.06
348.673	643.06
348.9	622.06
349.128	639.06
349.355	659.06
349.583	682.06
349.81	612.06
350.037	589.06
350.265	597.06
350.492	602.06
350.72	612.06
350.947	616.06
351.174	643.06
351.402	635.06
351.629	639.06
351.856	647.06
352.083	635.06
352.311	612.06
352.538	673.06
352.765	661.06
352.992	618.06
353.22	605.06
353.447	576.06
353.674	601.06
353.901	606.06
354.128	598.06
354.355	588.06
354.583	589.06
354.81	593.06
355.037	585.06
355.264	604.06
355.491	597.06
355.718	582.06
355.945	629.06
356.172	599.06
356.399	609.06
356.626	610.06
356.853	647.06
357.08	628.06
357.307	619.06
357.534	598.06
357.761	592.06
357.988	631.06
358.215	607.06
358.441	586.06
358.668	593.06
358.895	589.06
359.122	605.06
359.349	600.06
359.576	622.06
359.802	598.06
360.029	616.06
360.256	614.06
360.483	593.06
360.709	607.06
360.936	629.06
361.163	644.06
361.39	617.06
361.616	617.06
361.843	631.06
362.07	636.06
362.296	647.06
362.523	584.06
362.749	591.06
362.976	618.06
363.203	601.06
363.429	612.06
363.656	601.06
363.882	611.06
364.109	597.06
364.335	601.06
364.562	586.06
364.788	579.06
365.015	597.06
365.241	590.06
365.468	585.06
365.694	602.06
365.92	587.06
366.147	601.06
366.373	603.06
366.599	584.06
366.826	589.06
367.052	599.06
367.278	603.06
367.505	617.06
367.731	607.06
367.957	614.06
368.184	594.06
368.41	609.06
368.636	608.06
368.862	619.06
369.089	603.06
369.315	632.06
369.541	618.06
369.767	631.06
369.993	611.06
370.219	619.06
370.445	636.06
370.672	618.06
370.898	627.06
371.124	631.06
371.35	629.06
371.576	621.06
371.802	657.06
372.028	651.06
372.254	649.06
372.48	649.06
372.706	671.06
372.932	672.06
373.158	647.06
373.384	667.06
373.61	647.06
373.835	633.06
374.061	652.06
374.287	657.06
374.513	676.06
374.739	667.06
374.965	693.06
375.191	728.06
375.416	687.06
375.642	665.06
375.868	680.06
376.094	647.06
376.319	643.06
376.545	667.06
376.771	632.06
376.997	657.06
377.222	640.06
377.448	660.06
377.674	629.06
377.899	643.06
378.125	618.06
378.35	629.06
378.576	648.06
378.802	622.06
379.027	653.06
379.253	643.06
379.478	624.06
379.704	623.06
379.929	639.06
380.155	626.06
380.38	645.06
380.606	647.06
380.831	638.06
381.057	632.06
381.282	655.06
381.507	640.06
381.733	639.06
381.958	651.06
382.184	649.06
382.409	673.06
382.634	657.06
382.86	670.06
383.085	691.06
383.31	663.06
383.535	675.06
383.761	695.06
383.986	707.06
384.211	704.06
384.436	711.06
384.662	747.06
384.887	739.06
385.112	740.06
385.337	736.06
385.562	764.06
385.787	765.06
386.013	771.06
386.238	762.06
386.463	748.06
386.688	760.06
386.913	750.06
387.138	747.06
387.363	726.06
387.588	713.06
387.813	744.06
388.038	741.06
388.263	752.06
388.488	767.06
388.713	741.06
388.938	743.06
389.163	758.06
389.387	727.06
389.612	755.06
389.837	730.06
390.062	743.06
390.287	757.06
390.512	749.06
390.736	763.06
390.961	743.06
391.186	777.06
391.411	789.06
391.636	815.06
391.86	816.06
392.085	844.06
392.31	832.06
392.534	835.06
392.759	798.06
392.984	801.06
393.208	798.06
393.433	779.06
393.658	819.06
393.882	799.06
394.107	797.06
394.331	812.06
394.556	798.06
394.78	827.06
395.005	817.06
395.229	811.06
395.454	827.06
395.678	851.06
395.903	835.06
396.127	831.06
396.352	829.06
396.576	802.06
396.801	798.06
397.025	833.06
397.249	849.06
397.474	850.06
397.698	831.06
397.922	832.06
398.147	861.06
398.371	868.06
398.595	891.06
398.82	921.06
399.044	1003.06
399.268	1093.06
399.492	1207.06
399.717	1325.06
399.941	1277.06
400.165	1183.06
400.389	1111.06
400.613	1033.06
400.837	990.06
401.062	955.06
401.286	924.06
401.51	926.06
401.734	951.06
401.958	951.06
402.182	949.06
402.406	936.06
402.63	983.06
402.854	994.06
403.078	981.06
403.302	981.06
403.526	1031.06
403.75	1027.06
403.974	1040.06
404.198	1048.06
404.422	1017.06
404.645	1017.06
404.869	1027.06
405.093	1022.06
405.317	1010.06
405.541	1038.06
405.765	1006.06
405.988	1056.06
406.212	1017.06
406.436	1038.06
406.66	1071.06
406.883	1039.06
407.107	1114.06
407.331	1136.06
407.555	1178.06
407.778	1187.06
408.002	1142.06
408.226	1109.06
408.449	1129.06
408.673	1076.06
408.896	1049.06
409.12	1049.06
409.344	1033.06
409.567	1037.06
409.791	1076.06
410.014	1027.06
410.238	1047.06
410.461	1044.06
410.685	1006.06
410.908	985.06
411.132	992.06
411.355	952.06
411.578	979.06
411.802	984.06
412.025	968.06
412.249	1011.06
412.472	998.06
412.695	959.06
412.919	952.06
413.142	917.06
413.365	937.06
413.589	943.06
413.812	930.06
414.035	905.06
414.258	950.06
414.482	956.06
414.705	991.06
414.928	955.06
415.151	929.06
415.374	940.06
415.597	971.06
415.821	919.06
416.044	893.06
416.267	932.06
416.49	923.06
416.713	914.06
416.936	926.06
417.159	910.06
417.382	916.06
417.605	911.06
417.828	900.06
418.051	914.06
418.274	927.06
418.497	939.06
418.72	965.06
418.943	939.06
419.166	987.06
419.389	1065.06
419.611	1060.06
419.834	992.06
420.057	980.06
420.28	943.06
420.503	900.06
420.726	943.06
420.948	889.06
421.171	917.06
421.394	926.06
421.617	909.06
421.839	950.06
422.062	935.06
422.285	924.06
422.507	958.06
422.73	945.06
422.953	919.06
423.175	947.06
423.398	942.06
423.621	949.06
423.843	983.06
424.066	962.06
424.288	963.06
424.511	965.06
424.733	939.06
424.956	951.06
425.178	921.06
425.401	917.06
425.623	903.06
425.846	899.06
426.068	919.06
426.291	900.06
426.513	899.06
426.735	894.06
426.958	897.06
427.18	878.06
427.402	845.06
427.625	868.06
427.847	868.06
428.069	861.06
428.292	847.06
428.514	821.06
428.736	843.06
428.958	856.06
429.181	840.06
429.403	837.06
429.625	823.06
429.847	831.06
430.069	834.06
430.292	835.06
430.514	841.06
430.736	834.06
430.958	861.06
431.18	811.06
431.402	843.06
431.624	834.06
431.846	853.06
432.068	853.06
432.29	873.06
432.512	851.06
432.734	864.06
432.956	861.06
433.178	867.06
433.4	877.06
433.622	883.06
433.844	867.06
434.066	854.06
434.287	872.06
434.509	887.06
434.731	925.06
434.953	940.06
435.175	921.06
435.397	941.06
435.618	885.06
435.84	867.06
436.062	859.06
436.284	867.06
436.505	854.06
436.727	858.06
436.949	850.06
437.17	884.06
437.392	852.06
437.614	833.06
437.835	799.06
438.057	820.06
438.278	807.06
438.5	830.06
438.721	833.06
438.943	852.06
439.165	817.06
439.386	835.06
439.608	869.06
439.829	837.06
440.05	836.06
440.272	870.06
440.493	860.06
440.715	863.06
440.936	867.06
441.158	895.06
441.379	920.06
441.6	960.06
441.822	965.06
442.043	965.06
442.264	942.06
442.486	920.06
442.707	923.06
442.928	936.06
443.149	911.06
443.371	947.06
443.592	928.06
443.813	975.06
444.034	960.06
444.255	979.06
444.476	1000.06
444.698	1076.06
444.919	1091.06
445.14	1157.06
445.361	1080.06
445.582	968.06
445.803	925.06
446.024	886.06
446.245	880.06
446.466	883.06
446.687	851.06
446.908	904.06
447.129	846.06
447.35	816.06
447.571	809.06
447.792	804.06
448.013	798.06
448.234	816.06
448.455	821.06
448.675	825.06
448.896	805.06
449.117	788.06
449.338	803.06
449.559	790.06
449.779	775.06
450	784.06
450.221	803.06
450.442	793.06
450.662	763.06
450.883	821.06
451.104	824.06
451.324	783.06
451.545	792.06
451.766	798.06
451.986	789.06
452.207	780.06
452.428	781.06
452.648	783.06
452.869	757.06
453.089	760.06
453.31	777.06
453.53	743.06
453.751	759.06
453.971	781.06
454.192	787.06
454.412	769.06
454.633	756.06
454.853	749.06
455.073	741.06
455.294	772.06
455.514	728.06
455.734	751.06
455.955	745.06
456.175	747.06
456.395	754.06
456.616	723.06
456.836	735.06
457.056	730.06
457.276	729.06
457.497	756.06
457.717	726.06
457.937	742.06
458.157	752.06
458.377	775.06
458.598	779.06
458.818	826.06
459.038	821.06
459.258	819.06
459.478	877.06
459.698	915.06
459.918	911.06
460.138	953.06
460.358	974.06
460.578	996.06
460.798	1027.06
461.018	1042.06
461.238	992.06
461.458	963.06
461.678	982.06
461.898	1011.06
462.118	1019.06
462.338	1046.06
462.558	1075.06
462.777	1108.06
462.997	1190.06
463.217	1272.06
463.437	1283.06
463.657	1195.06
463.876	1147.06
464.096	1170.06
464.316	1144.06
464.536	1177.06
464.755	1131.06
464.975	1057.06
465.195	1050.06
465.414	995.06
465.634	914.06
465.854	923.06
466.073	885.06
466.293	849.06
466.512	859.06
466.732	802.06
466.951	821.06
467.171	812.06
467.391	846.06
467.61	831.06
467.829	809.06
468.049	806.06
468.268	820.06
468.488	805.06
468.707	785.06
468.927	824.06
469.146	817.06
469.365	827.06
469.585	812.06
469.804	827.06
470.023	840.06
470.243	839.06
470.462	840.06
470.681	861.06
470.901	851.06
471.12	847.06
471.339	849.06
471.558	845.06
471.777	812.06
471.997	803.06
472.216	793.06
472.435	790.06
472.654	801.06
472.873	786.06
473.092	804.06
473.311	774.06
473.53	771.06
473.749	761.06
473.968	778.06
474.187	746.06
474.406	788.06
474.625	777.06
474.844	767.06
475.063	799.06
475.282	789.06
475.501	808.06
475.72	789.06
475.939	793.06
476.158	817.06
476.377	831.06
476.596	806.06
476.814	824.06
477.033	822.06
477.252	881.06
477.471	871.06
477.69	863.06
477.908	889.06
478.127	917.06
478.346	925.06
478.564	967.06
478.783	955.06
479.002	996.06
479.22	995.06
479.439	999.06
479.658	990.06
479.876	962.06
480.095	983.06
480.313	1006.06
480.532	1019.06
480.751	1045.06
480.969	969.06
481.188	955.06
481.406	954.06
481.624	933.06
481.843	911.06
482.061	904.06
482.28	912.06
482.498	913.06
482.717	884.06
482.935	903.06
483.153	899.06
483.372	919.06
483.59	953.06
483.808	920.06
484.027	957.06
484.245	900.06
484.463	941.06
484.681	938.06
484.9	944.06
485.118	954.06
485.336	952.06
485.554	961.06
485.772	919.06
485.99	959.06
486.209	974.06
486.427	952.06
486.645	945.06
486.863	974.06
487.081	963.06
487.299	981.06
487.517	925.06
487.735	967.06
487.953	987.06
488.171	956.06
488.389	968.06
488.607	942.06
488.825	920.06
489.043	939.06
489.261	901.06
489.479	980.06
489.696	945.06
489.914	946.06
490.132	955.06
490.35	938.06
490.568	978.06
490.786	970.06
491.003	990.06
491.221	967.06
491.439	979.06
491.657	986.06
491.874	985.06
492.092	985.06
492.31	1005.06
492.527	974.06
492.745	981.06
492.963	957.06
493.18	983.06
493.398	985.06
493.615	1006.06
493.833	1011.06
494.05	989.06
494.268	1011.06
494.485	1013.06
494.703	998.06
494.92	1005.06
495.138	1012.06
495.355	1011.06
495.573	1033.06
495.79	1054.06
496.008	1037.06
496.225	1024.06
496.442	1041.06
496.66	1043.06
496.877	1104.06
497.094	1083.06
497.312	1103.06
497.529	1148.06
497.746	1121.06
497.963	1152.06
498.181	1217.06
498.398	1255.06
498.615	1343.06
498.832	1398.06
499.049	1531.06
499.267	1587.06
499.484	1740.06
499.701	1878.06
499.918	2019.06
500.135	2277.06
500.352	2534.06
