Data from NiCl2@0.125M.TitratingCurve.Agarose3%dH2O.NegLispCup.LampEnergy10.LIBS07252019_HRD10591_18-28-11-574.txt Node
Date: Thu Jul 25 18:28:11 EDT 2019
User: cochatt
Spectrometer: HR+D1059
Trigger mode: 1
Integration Time (sec): 1.000000E-1
Scans to average: 1
Electric dark correction enabled: true
Nonlinearity correction enabled: false
Boxcar width: 0
XAxis mode: Wavelengths
Number of Pixels in Spectrum: 2048
>>>>>Begin Spectral Data<<<<<
223.165	-19.5
223.4	-19.5
223.635	-19.5
223.869	-21.5
224.104	-21.5
224.338	-12.5
224.573	-23.5
224.808	-11.5
225.042	3.5
225.277	0.5
225.511	-6.5
225.746	15.5
225.98	2.5
226.215	17.5
226.449	10.5
226.683	11.5
226.918	27.5
227.152	27.5
227.387	27.5
227.621	35.5
227.856	32.5
228.09	48.5
228.324	45.5
228.559	55.5
228.793	92.5
229.027	114.5
229.262	131.5
229.496	121.5
229.73	127.5
229.964	140.5
230.199	129.5
230.433	143.5
230.667	143.5
230.901	159.5
231.136	158.5
231.37	152.5
231.604	166.5
231.838	158.5
232.072	161.5
232.306	153.5
232.541	167.5
232.775	163.5
233.009	183.5
233.243	164.5
233.477	174.5
233.711	172.5
233.945	175.5
234.179	165.5
234.413	168.5
234.647	163.5
234.881	185.5
235.115	177.5
235.349	190.5
235.583	173.5
235.817	174.5
236.051	181.5
236.285	168.5
236.519	183.5
236.753	187.5
236.987	179.5
237.221	187.5
237.455	207.5
237.689	205.5
237.922	191.5
238.156	196.5
238.39	199.5
238.624	203.5
238.858	202.5
239.091	196.5
239.325	215.5
239.559	204.5
239.793	208.5
240.027	213.5
240.26	204.5
240.494	204.5
240.728	239.5
240.961	209.5
241.195	220.5
241.429	224.5
241.662	218.5
241.896	226.5
242.13	241.5
242.363	237.5
242.597	234.5
242.83	236.5
243.064	243.5
243.298	228.5
243.531	247.5
243.765	239.5
243.998	257.5
244.232	248.5
244.465	259.5
244.699	268.5
244.932	259.5
245.166	276.5
245.399	249.5
245.633	272.5
245.866	259.5
246.099	250.5
246.333	283.5
246.566	275.5
246.8	262.5
247.033	289.5
247.266	295.5
247.5	278.5
247.733	266.5
247.966	274.5
248.2	290.5
248.433	291.5
248.666	299.5
248.899	291.5
249.133	288.5
249.366	313.5
249.599	303.5
249.832	307.5
250.066	315.5
250.299	307.5
250.532	319.5
250.765	306.5
250.998	321.5
251.231	315.5
251.465	314.5
251.698	338.5
251.931	320.5
252.164	328.5
252.397	346.5
252.63	329.5
252.863	352.5
253.096	347.5
253.329	341.5
253.562	352.5
253.795	349.5
254.028	343.5
254.261	343.5
254.494	367.5
254.727	316.5
254.96	355.5
255.193	351.5
255.426	350.5
255.659	335.5
255.892	367.5
256.124	358.5
256.357	360.5
256.59	368.5
256.823	374.5
257.056	364.5
257.289	364.5
257.521	356.5
257.754	369.5
257.987	391.5
258.22	392.5
258.452	378.5
258.685	384.5
258.918	375.5
259.151	365.5
259.383	389.5
259.616	381.5
259.849	396.5
260.081	383.5
260.314	419.5
260.547	398.5
260.779	394.5
261.012	393.5
261.244	416.5
261.477	399.5
261.71	408.5
261.942	402.5
262.175	420.5
262.407	427.5
262.64	422.5
262.872	401.5
263.105	419.5
263.337	421.5
263.57	434.5
263.802	421.5
264.035	418.5
264.267	443.5
264.499	421.5
264.732	449.5
264.964	440.5
265.197	427.5
265.429	446.5
265.661	451.5
265.894	423.5
266.126	434.5
266.358	451.5
266.591	435.5
266.823	464.5
267.055	451.5
267.287	471.5
267.52	457.5
267.752	460.5
267.984	458.5
268.216	461.5
268.448	474.5
268.681	473.5
268.913	445.5
269.145	464.5
269.377	457.5
269.609	476.5
269.841	471.5
270.073	459.5
270.306	469.5
270.538	492.5
270.77	469.5
271.002	489.5
271.234	490.5
271.466	499.5
271.698	490.5
271.93	492.5
272.162	490.5
272.394	502.5
272.626	507.5
272.858	496.5
273.09	501.5
273.322	504.5
273.553	519.5
273.785	518.5
274.017	483.5
274.249	535.5
274.481	517.5
274.713	533.5
274.945	535.5
275.176	534.5
275.408	516.5
275.64	518.5
275.872	525.5
276.104	537.5
276.335	528.5
276.567	539.5
276.799	555.5
277.031	540.5
277.262	540.5
277.494	537.5
277.726	565.5
277.957	548.5
278.189	537.5
278.421	543.5
278.652	555.5
278.884	564.5
279.115	546.5
279.347	528.5
279.579	543.5
279.81	537.5
280.042	565.5
280.273	541.5
280.505	577.5
280.736	564.5
280.968	587.5
281.199	584.5
281.431	554.5
281.662	588.5
281.894	580.5
282.125	577.5
282.356	581.5
282.588	608.5
282.819	617.5
283.051	598.5
283.282	602.5
283.513	605.5
283.745	620.5
283.976	597.5
284.207	618.5
284.439	613.5
284.67	627.5
284.901	618.5
285.132	631.5
285.364	617.5
285.595	616.5
285.826	630.5
286.057	623.5
286.288	607.5
286.52	613.5
286.751	631.5
286.982	665.5
287.213	633.5
287.444	646.5
287.675	629.5
287.906	630.5
288.138	644.5
288.369	669.5
288.6	664.5
288.831	674.5
289.062	620.5
289.293	652.5
289.524	624.5
289.755	637.5
289.986	642.5
290.217	657.5
290.448	690.5
290.679	671.5
290.91	678.5
291.141	660.5
291.371	663.5
291.602	665.5
291.833	665.5
292.064	667.5
292.295	665.5
292.526	683.5
292.757	662.5
292.987	685.5
293.218	669.5
293.449	679.5
293.68	667.5
293.91	672.5
294.141	671.5
294.372	692.5
294.603	683.5
294.833	693.5
295.064	681.5
295.295	695.5
295.525	691.5
295.756	713.5
295.987	686.5
296.217	700.5
296.448	723.5
296.679	705.5
296.909	683.5
297.14	689.5
297.37	721.5
297.601	716.5
297.831	718.5
298.062	739.5
298.292	747.5
298.523	761.5
298.753	770.5
298.984	724.5
299.214	720.5
299.445	729.5
299.675	724.5
299.905	751.5
300.136	735.5
300.366	719.5
300.597	735.5
300.827	768.5
301.057	766.5
301.288	775.5
301.518	740.5
301.748	771.5
301.979	803.5
302.209	756.5
302.439	760.5
302.669	752.5
302.9	789.5
303.13	741.5
303.36	748.5
303.59	749.5
303.82	753.5
304.051	779.5
304.281	740.5
304.511	758.5
304.741	755.5
304.971	767.5
305.201	768.5
305.431	773.5
305.661	779.5
305.891	754.5
306.121	741.5
306.352	771.5
306.582	756.5
306.812	733.5
307.042	742.5
307.272	735.5
307.502	753.5
307.731	749.5
307.961	753.5
308.191	729.5
308.421	742.5
308.651	744.5
308.881	728.5
309.111	712.5
309.341	736.5
309.571	734.5
309.8	746.5
310.03	747.5
310.26	729.5
310.49	729.5
310.72	733.5
310.949	737.5
311.179	736.5
311.409	758.5
311.639	753.5
311.868	792.5
312.098	744.5
312.328	781.5
312.557	779.5
312.787	765.5
313.017	776.5
313.246	789.5
313.476	787.5
313.706	816.5
313.935	778.5
314.165	836.5
314.394	836.5
314.624	795.5
314.853	790.5
315.083	803.5
315.312	799.5
315.542	817.5
315.771	787.5
316.001	800.5
316.23	782.5
316.46	771.5
316.689	785.5
316.919	769.5
317.148	805.5
317.377	796.5
317.607	781.5
317.836	778.5
318.065	769.5
318.295	781.5
318.524	766.5
318.753	789.5
318.983	778.5
319.212	781.5
319.441	791.5
319.67	792.5
319.9	772.5
320.129	794.5
320.358	778.5
320.587	787.5
320.816	804.5
321.046	796.5
321.275	774.5
321.504	792.5
321.733	771.5
321.962	785.5
322.191	823.5
322.42	791.5
322.649	792.5
322.878	784.5
323.108	803.5
323.337	777.5
323.566	844.5
323.795	799.5
324.024	791.5
324.253	834.5
324.482	806.5
324.71	802.5
324.939	815.5
325.168	832.5
325.397	819.5
325.626	832.5
325.855	858.5
326.084	855.5
326.313	879.5
326.542	855.5
326.77	876.5
326.999	869.5
327.228	846.5
327.457	843.5
327.686	833.5
327.914	875.5
328.143	883.5
328.372	870.5
328.6	844.5
328.829	856.5
329.058	846.5
329.287	853.5
329.515	844.5
329.744	866.5
329.972	888.5
330.201	865.5
330.43	856.5
330.658	862.5
330.887	910.5
331.115	901.5
331.344	904.5
331.572	915.5
331.801	922.5
332.03	959.5
332.258	989.5
332.486	988.5
332.715	1014.5
332.943	1064.5
333.172	1111.5
333.4	1174.5
333.629	1187.5
333.857	1165.5
334.085	1163.5
334.314	1156.5
334.542	1099.5
334.771	1102.5
334.999	1068.5
335.227	1066.5
335.455	1100.5
335.684	1059.5
335.912	1052.5
336.14	1049.5
336.369	1000.5
336.597	1043.5
336.825	1021.5
337.053	1002.5
337.281	1008.5
337.51	988.5
337.738	974.5
337.966	951.5
338.194	937.5
338.422	941.5
338.65	922.5
338.878	951.5
339.106	960.5
339.334	936.5
339.562	939.5
339.79	903.5
340.018	920.5
340.246	894.5
340.474	888.5
340.702	881.5
340.93	917.5
341.158	899.5
341.386	903.5
341.614	894.5
341.842	884.5
342.07	909.5
342.298	907.5
342.526	902.5
342.754	884.5
342.981	905.5
343.209	915.5
343.437	928.5
343.665	1011.5
343.893	1062.5
344.12	1153.5
344.348	1078.5
344.576	1003.5
344.804	959.5
345.031	923.5
345.259	903.5
345.487	924.5
345.714	899.5
345.942	861.5
346.17	889.5
346.397	878.5
346.625	880.5
346.853	851.5
347.08	855.5
347.308	889.5
347.535	903.5
347.763	886.5
347.99	893.5
348.218	880.5
348.445	876.5
348.673	868.5
348.9	846.5
349.128	865.5
349.355	835.5
349.583	883.5
349.81	832.5
350.037	842.5
350.265	831.5
350.492	825.5
350.72	850.5
350.947	818.5
351.174	820.5
351.402	830.5
351.629	859.5
351.856	823.5
352.083	843.5
352.311	825.5
352.538	822.5
352.765	835.5
352.992	817.5
353.22	813.5
353.447	828.5
353.674	817.5
353.901	813.5
354.128	805.5
354.355	797.5
354.583	798.5
354.81	840.5
355.037	854.5
355.264	863.5
355.491	817.5
355.718	848.5
355.945	837.5
356.172	843.5
356.399	849.5
356.626	828.5
356.853	853.5
357.08	847.5
357.307	834.5
357.534	831.5
357.761	820.5
357.988	812.5
358.215	841.5
358.441	831.5
358.668	827.5
358.895	834.5
359.122	838.5
359.349	818.5
359.576	851.5
359.802	825.5
360.029	857.5
360.256	849.5
360.483	825.5
360.709	838.5
360.936	848.5
361.163	834.5
361.39	841.5
361.616	825.5
361.843	824.5
362.07	832.5
362.296	835.5
362.523	827.5
362.749	849.5
362.976	829.5
363.203	831.5
363.429	831.5
363.656	811.5
363.882	823.5
364.109	815.5
364.335	811.5
364.562	835.5
364.788	815.5
365.015	841.5
365.241	834.5
365.468	831.5
365.694	821.5
365.92	801.5
366.147	821.5
366.373	834.5
366.599	841.5
366.826	791.5
367.052	825.5
367.278	833.5
367.505	835.5
367.731	839.5
367.957	843.5
368.184	821.5
368.41	863.5
368.636	841.5
368.862	839.5
369.089	858.5
369.315	856.5
369.541	839.5
369.767	873.5
369.993	879.5
370.219	862.5
370.445	885.5
370.672	878.5
370.898	887.5
371.124	911.5
371.35	889.5
371.576	918.5
371.802	889.5
372.028	873.5
372.254	889.5
372.48	931.5
372.706	943.5
372.932	947.5
373.158	907.5
373.384	931.5
373.61	884.5
373.835	894.5
374.061	919.5
374.287	907.5
374.513	929.5
374.739	980.5
374.965	1009.5
375.191	1039.5
375.416	994.5
375.642	992.5
375.868	951.5
376.094	949.5
376.319	919.5
376.545	936.5
376.771	923.5
376.997	903.5
377.222	920.5
377.448	913.5
377.674	926.5
377.899	913.5
378.125	879.5
378.35	891.5
378.576	883.5
378.802	904.5
379.027	883.5
379.253	891.5
379.478	884.5
379.704	884.5
379.929	896.5
380.155	893.5
380.38	927.5
380.606	908.5
380.831	919.5
381.057	901.5
381.282	931.5
381.507	909.5
381.733	912.5
381.958	919.5
382.184	907.5
382.409	931.5
382.634	943.5
382.86	943.5
383.085	956.5
383.31	971.5
383.535	1007.5
383.761	964.5
383.986	1039.5
384.211	1061.5
384.436	1059.5
384.662	1081.5
384.887	1112.5
385.112	1076.5
385.337	1108.5
385.562	1137.5
385.787	1130.5
386.013	1127.5
386.238	1114.5
386.463	1112.5
386.688	1129.5
386.913	1132.5
387.138	1087.5
387.363	1087.5
387.588	1078.5
387.813	1088.5
388.038	1063.5
388.263	1081.5
388.488	1089.5
388.713	1115.5
388.938	1074.5
389.163	1079.5
389.387	1081.5
389.612	1040.5
389.837	1090.5
390.062	1074.5
390.287	1060.5
390.512	1092.5
390.736	1076.5
390.961	1096.5
391.186	1116.5
391.411	1188.5
391.636	1153.5
391.86	1199.5
392.085	1265.5
392.31	1243.5
392.534	1219.5
392.759	1166.5
392.984	1187.5
393.208	1172.5
393.433	1148.5
393.658	1143.5
393.882	1148.5
394.107	1166.5
394.331	1161.5
394.556	1169.5
394.78	1182.5
395.005	1181.5
395.229	1153.5
395.454	1229.5
395.678	1231.5
395.903	1245.5
396.127	1229.5
396.352	1187.5
396.576	1156.5
396.801	1128.5
397.025	1164.5
397.249	1192.5
397.474	1228.5
397.698	1222.5
397.922	1233.5
398.147	1259.5
398.371	1261.5
398.595	1297.5
398.82	1348.5
399.044	1437.5
399.268	1585.5
399.492	1847.5
399.717	2195.5
399.941	2142.5
400.165	1892.5
400.389	1711.5
400.613	1563.5
400.837	1459.5
401.062	1417.5
401.286	1357.5
401.51	1369.5
401.734	1364.5
401.958	1383.5
402.182	1383.5
402.406	1432.5
402.63	1445.5
402.854	1476.5
403.078	1477.5
403.302	1539.5
403.526	1571.5
403.75	1591.5
403.974	1635.5
404.198	1611.5
404.422	1656.5
404.645	1647.5
404.869	1570.5
405.093	1587.5
405.317	1523.5
405.541	1548.5
405.765	1505.5
405.988	1499.5
406.212	1501.5
406.436	1507.5
406.66	1564.5
406.883	1556.5
407.107	1663.5
407.331	1777.5
407.555	1860.5
407.778	1804.5
408.002	1768.5
408.226	1724.5
408.449	1646.5
408.673	1589.5
408.896	1601.5
409.12	1533.5
409.344	1586.5
409.567	1562.5
409.791	1595.5
410.014	1569.5
410.238	1555.5
410.461	1560.5
410.685	1527.5
410.908	1510.5
411.132	1487.5
411.355	1455.5
411.578	1429.5
411.802	1414.5
412.025	1423.5
412.249	1460.5
412.472	1479.5
412.695	1429.5
412.919	1378.5
413.142	1410.5
413.365	1355.5
413.589	1375.5
413.812	1367.5
414.035	1342.5
414.258	1342.5
414.482	1365.5
414.705	1394.5
414.928	1395.5
415.151	1427.5
415.374	1403.5
415.597	1368.5
415.821	1355.5
416.044	1357.5
416.267	1351.5
416.49	1350.5
416.713	1347.5
416.936	1373.5
417.159	1382.5
417.382	1346.5
417.605	1360.5
417.828	1391.5
418.051	1397.5
418.274	1375.5
418.497	1356.5
418.72	1399.5
418.943	1415.5
419.166	1488.5
419.389	1621.5
419.611	1593.5
419.834	1475.5
420.057	1442.5
420.28	1371.5
420.503	1363.5
420.726	1354.5
420.948	1350.5
421.171	1345.5
421.394	1372.5
421.617	1338.5
421.839	1378.5
422.062	1384.5
422.285	1315.5
422.507	1389.5
422.73	1403.5
422.953	1398.5
423.175	1449.5
423.398	1466.5
423.621	1446.5
423.843	1483.5
424.066	1468.5
424.288	1465.5
424.511	1440.5
424.733	1431.5
424.956	1367.5
425.178	1400.5
425.401	1382.5
425.623	1323.5
425.846	1316.5
426.068	1298.5
426.291	1279.5
426.513	1297.5
426.735	1263.5
426.958	1282.5
427.18	1212.5
427.402	1241.5
427.625	1284.5
427.847	1224.5
428.069	1204.5
428.292	1230.5
428.514	1187.5
428.736	1211.5
428.958	1217.5
429.181	1162.5
429.403	1173.5
429.625	1187.5
429.847	1155.5
430.069	1188.5
430.292	1175.5
430.514	1154.5
430.736	1179.5
430.958	1171.5
431.18	1219.5
431.402	1186.5
431.624	1189.5
431.846	1203.5
432.068	1203.5
432.29	1236.5
432.512	1199.5
432.734	1226.5
432.956	1211.5
433.178	1211.5
433.4	1212.5
433.622	1206.5
433.844	1190.5
434.066	1212.5
434.287	1267.5
434.509	1292.5
434.731	1349.5
434.953	1397.5
435.175	1382.5
435.397	1356.5
435.618	1292.5
435.84	1244.5
436.062	1227.5
436.284	1237.5
436.505	1234.5
436.727	1221.5
436.949	1201.5
437.17	1203.5
437.392	1194.5
437.614	1202.5
437.835	1145.5
438.057	1153.5
438.278	1160.5
438.5	1142.5
438.721	1152.5
438.943	1163.5
439.165	1181.5
439.386	1180.5
439.608	1185.5
439.829	1217.5
440.05	1216.5
440.272	1243.5
440.493	1226.5
440.715	1223.5
440.936	1230.5
441.158	1281.5
441.379	1311.5
441.6	1354.5
441.822	1403.5
442.043	1399.5
442.264	1359.5
442.486	1329.5
442.707	1333.5
442.928	1393.5
443.149	1339.5
443.371	1349.5
443.592	1331.5
443.813	1371.5
444.034	1388.5
444.255	1463.5
444.476	1519.5
444.698	1586.5
444.919	1666.5
445.14	1693.5
445.361	1552.5
445.582	1430.5
445.803	1340.5
446.024	1283.5
446.245	1307.5
446.466	1258.5
446.687	1237.5
446.908	1239.5
447.129	1216.5
447.35	1186.5
447.571	1154.5
447.792	1148.5
448.013	1132.5
448.234	1136.5
448.455	1122.5
448.675	1105.5
448.896	1118.5
449.117	1085.5
449.338	1102.5
449.559	1128.5
449.779	1111.5
450	1090.5
450.221	1096.5
450.442	1110.5
450.662	1131.5
450.883	1104.5
451.104	1134.5
451.324	1116.5
451.545	1131.5
451.766	1147.5
451.986	1124.5
452.207	1107.5
452.428	1104.5
452.648	1099.5
452.869	1089.5
453.089	1055.5
453.31	1123.5
453.53	1077.5
453.751	1060.5
453.971	1051.5
454.192	1056.5
454.412	1047.5
454.633	1049.5
454.853	1060.5
455.073	1039.5
455.294	1043.5
455.514	1038.5
455.734	1047.5
455.955	1020.5
456.175	1027.5
456.395	1003.5
456.616	1030.5
456.836	1014.5
457.056	1004.5
457.276	1023.5
457.497	1027.5
457.717	1033.5
457.937	1059.5
458.157	1071.5
458.377	1069.5
458.598	1084.5
458.818	1090.5
459.038	1122.5
459.258	1187.5
459.478	1227.5
459.698	1233.5
459.918	1287.5
460.138	1339.5
460.358	1433.5
460.578	1439.5
460.798	1463.5
461.018	1466.5
461.238	1411.5
461.458	1412.5
461.678	1453.5
461.898	1430.5
462.118	1442.5
462.338	1577.5
462.558	1590.5
462.777	1643.5
462.997	1750.5
463.217	1983.5
463.437	1988.5
463.657	1757.5
463.876	1677.5
464.096	1680.5
464.316	1678.5
464.536	1703.5
464.755	1640.5
464.975	1550.5
465.195	1478.5
465.414	1417.5
465.634	1305.5
465.854	1248.5
466.073	1242.5
466.293	1215.5
466.512	1205.5
466.732	1166.5
466.951	1143.5
467.171	1184.5
467.391	1169.5
467.61	1153.5
467.829	1193.5
468.049	1156.5
468.268	1133.5
468.488	1114.5
468.707	1081.5
468.927	1117.5
469.146	1112.5
469.365	1147.5
469.585	1132.5
469.804	1174.5
470.023	1192.5
470.243	1196.5
470.462	1198.5
470.681	1215.5
470.901	1228.5
471.12	1179.5
471.339	1170.5
471.558	1146.5
471.777	1116.5
471.997	1099.5
472.216	1097.5
472.435	1094.5
472.654	1095.5
472.873	1079.5
473.092	1061.5
473.311	1083.5
473.53	1090.5
473.749	1092.5
473.968	1102.5
474.187	1042.5
474.406	1045.5
474.625	1080.5
474.844	1082.5
475.063	1073.5
475.282	1078.5
475.501	1101.5
475.72	1109.5
475.939	1111.5
476.158	1079.5
476.377	1118.5
476.596	1111.5
476.814	1119.5
477.033	1123.5
477.252	1164.5
477.471	1186.5
477.69	1227.5
477.908	1236.5
478.127	1225.5
478.346	1301.5
478.564	1329.5
478.783	1321.5
479.002	1388.5
479.22	1374.5
479.439	1362.5
479.658	1316.5
479.876	1354.5
480.095	1384.5
480.313	1428.5
480.532	1500.5
480.751	1497.5
480.969	1429.5
481.188	1371.5
481.406	1331.5
481.624	1268.5
481.843	1237.5
482.061	1236.5
482.28	1234.5
482.498	1236.5
482.717	1208.5
482.935	1239.5
483.153	1226.5
483.372	1219.5
483.59	1244.5
483.808	1245.5
484.027	1241.5
484.245	1224.5
484.463	1233.5
484.681	1266.5
484.9	1274.5
485.118	1261.5
485.336	1283.5
485.554	1291.5
485.772	1277.5
485.99	1326.5
486.209	1319.5
486.427	1314.5
486.645	1326.5
486.863	1320.5
487.081	1298.5
487.299	1299.5
487.517	1249.5
487.735	1311.5
487.953	1266.5
488.171	1285.5
488.389	1305.5
488.607	1271.5
488.825	1298.5
489.043	1276.5
489.261	1236.5
489.479	1287.5
489.696	1291.5
489.914	1275.5
490.132	1281.5
490.35	1284.5
490.568	1298.5
490.786	1296.5
491.003	1291.5
491.221	1293.5
491.439	1299.5
491.657	1283.5
491.874	1288.5
492.092	1297.5
492.31	1315.5
492.527	1336.5
492.745	1331.5
492.963	1349.5
493.18	1326.5
493.398	1357.5
493.615	1341.5
493.833	1365.5
494.05	1377.5
494.268	1382.5
494.485	1354.5
494.703	1342.5
494.92	1396.5
495.138	1390.5
495.355	1352.5
495.573	1386.5
495.79	1382.5
496.008	1402.5
496.225	1404.5
496.442	1391.5
496.66	1415.5
496.877	1450.5
497.094	1416.5
497.312	1475.5
497.529	1482.5
497.746	1538.5
497.963	1572.5
498.181	1645.5
498.398	1703.5
498.615	1868.5
498.832	1935.5
499.049	2103.5
499.267	2292.5
499.484	2502.5
499.701	2774.5
499.918	3119.5
500.135	3540.5
500.352	4121.5
500.569	4379.5
500.786	4296.5
501.003	3951.5
501.22	3532.5
501.437	3105.5
501.654	2707.5
501.871	2458.5
502.088	2225.5
502.305	2077.5
502.522	1975.5
502.739	1888.5
502.956	1777.5
503.172	1753.5
503.389	1629.5
503.606	1596.5
503.823	1556.5
504.04	1584.5
504.256	1593.5
504.473	1650.5
504.69	1715.5
504.907	1660.5
505.123	1503.5
505.34	1451.5
505.557	1385.5
505.773	1338.5
505.99	1294.5
506.207	1270.5
506.423	1219.5
506.64	1234.5
506.856	1242.5
507.073	1234.5
507.289	1228.5
507.506	1198.5
507.722	1203.5
507.939	1214.5
508.155	1171.5
508.372	1135.5
508.588	1157.5
508.805	1146.5
509.021	1143.5
509.238	1125.5
509.454	1115.5
509.67	1140.5
509.887	1103.5
510.103	1104.5
510.319	1077.5
510.536	1105.5
510.752	1100.5
