Data from NiCl2@0.125M.TitratingCurve.Agarose3%dH2O.NegLispCup.LampEnergy10.LIBS07252019_HRD10591_18-27-19-573.txt Node
Date: Thu Jul 25 18:27:19 EDT 2019
User: cochatt
Spectrometer: HR+D1059
Trigger mode: 1
Integration Time (sec): 1.000000E-1
Scans to average: 1
Electric dark correction enabled: true
Nonlinearity correction enabled: false
Boxcar width: 0
XAxis mode: Wavelengths
Number of Pixels in Spectrum: 2048
>>>>>Begin Spectral Data<<<<<
223.165	-18.94
223.4	-18.94
223.635	-18.94
223.869	-7.94
224.104	-19.94
224.338	-28.94
224.573	-19.94
224.808	-6.94
225.042	-13.94
225.277	-4.94
225.511	3.06
225.746	1.06
225.98	12.06
226.215	10.06
226.449	10.06
226.683	24.06
226.918	33.06
227.152	28.06
227.387	29.06
227.621	29.06
227.856	41.06
228.09	50.06
228.324	48.06
228.559	51.06
228.793	81.06
229.027	131.06
229.262	122.06
229.496	137.06
229.73	143.06
229.964	146.06
230.199	133.06
230.433	149.06
230.667	149.06
230.901	153.06
231.136	154.06
231.37	155.06
231.604	150.06
231.838	161.06
232.072	161.06
232.306	167.06
232.541	178.06
232.775	170.06
233.009	170.06
233.243	165.06
233.477	182.06
233.711	167.06
233.945	191.06
234.179	175.06
234.413	166.06
234.647	183.06
234.881	180.06
235.115	185.06
235.349	177.06
235.583	179.06
235.817	180.06
236.051	177.06
236.285	181.06
236.519	170.06
236.753	181.06
236.987	200.06
237.221	194.06
237.455	188.06
237.689	188.06
237.922	186.06
238.156	199.06
238.39	195.06
238.624	206.06
238.858	214.06
239.091	215.06
239.325	185.06
239.559	230.06
239.793	200.06
240.027	215.06
240.26	223.06
240.494	219.06
240.728	224.06
240.961	213.06
241.195	212.06
241.429	223.06
241.662	236.06
241.896	226.06
242.13	217.06
242.363	233.06
242.597	229.06
242.83	264.06
243.064	247.06
243.298	248.06
243.531	256.06
243.765	247.06
243.998	256.06
244.232	239.06
244.465	258.06
244.699	276.06
244.932	275.06
245.166	273.06
245.399	274.06
245.633	265.06
245.866	270.06
246.099	264.06
246.333	274.06
246.566	264.06
246.8	272.06
247.033	269.06
247.266	287.06
247.5	280.06
247.733	279.06
247.966	283.06
248.2	303.06
248.433	297.06
248.666	300.06
248.899	307.06
249.133	319.06
249.366	299.06
249.599	298.06
249.832	293.06
250.066	318.06
250.299	315.06
250.532	314.06
250.765	307.06
250.998	335.06
251.231	336.06
251.465	320.06
251.698	316.06
251.931	324.06
252.164	337.06
252.397	323.06
252.63	335.06
252.863	355.06
253.096	326.06
253.329	323.06
253.562	322.06
253.795	344.06
254.028	346.06
254.261	342.06
254.494	355.06
254.727	347.06
254.96	349.06
255.193	343.06
255.426	356.06
255.659	359.06
255.892	359.06
256.124	357.06
256.357	368.06
256.59	359.06
256.823	350.06
257.056	355.06
257.289	369.06
257.521	356.06
257.754	380.06
257.987	385.06
258.22	365.06
258.452	379.06
258.685	373.06
258.918	370.06
259.151	397.06
259.383	389.06
259.616	397.06
259.849	388.06
260.081	404.06
260.314	392.06
260.547	398.06
260.779	406.06
261.012	397.06
261.244	399.06
261.477	418.06
261.71	377.06
261.942	407.06
262.175	409.06
262.407	429.06
262.64	385.06
262.872	416.06
263.105	425.06
263.337	438.06
263.57	431.06
263.802	436.06
264.035	432.06
264.267	435.06
264.499	444.06
264.732	437.06
264.964	433.06
265.197	441.06
265.429	439.06
265.661	429.06
265.894	432.06
266.126	443.06
266.358	453.06
266.591	445.06
266.823	440.06
267.055	477.06
267.287	482.06
267.52	467.06
267.752	453.06
267.984	465.06
268.216	455.06
268.448	468.06
268.681	460.06
268.913	475.06
269.145	470.06
269.377	467.06
269.609	472.06
269.841	474.06
270.073	477.06
270.306	467.06
270.538	468.06
270.77	479.06
271.002	479.06
271.234	495.06
271.466	483.06
271.698	489.06
271.93	491.06
272.162	514.06
272.394	495.06
272.626	495.06
272.858	498.06
273.09	504.06
273.322	500.06
273.553	514.06
273.785	517.06
274.017	508.06
274.249	531.06
274.481	520.06
274.713	519.06
274.945	520.06
275.176	535.06
275.408	502.06
275.64	533.06
275.872	528.06
276.104	544.06
276.335	527.06
276.567	530.06
276.799	536.06
277.031	541.06
277.262	550.06
277.494	556.06
277.726	528.06
277.957	558.06
278.189	552.06
278.421	547.06
278.652	551.06
278.884	538.06
279.115	551.06
279.347	568.06
279.579	569.06
279.81	555.06
280.042	599.06
280.273	570.06
280.505	578.06
280.736	581.06
280.968	585.06
281.199	593.06
281.431	588.06
281.662	583.06
281.894	587.06
282.125	603.06
282.356	609.06
282.588	607.06
282.819	587.06
283.051	592.06
283.282	597.06
283.513	610.06
283.745	613.06
283.976	623.06
284.207	623.06
284.439	613.06
284.67	620.06
284.901	632.06
285.132	618.06
285.364	639.06
285.595	611.06
285.826	644.06
286.057	616.06
286.288	641.06
286.52	633.06
286.751	659.06
286.982	644.06
287.213	623.06
287.444	651.06
287.675	657.06
287.906	648.06
288.138	657.06
288.369	664.06
288.6	665.06
288.831	671.06
289.062	656.06
289.293	643.06
289.524	668.06
289.755	662.06
289.986	650.06
290.217	660.06
290.448	673.06
290.679	650.06
290.91	671.06
291.141	694.06
291.371	664.06
291.602	684.06
291.833	689.06
292.064	674.06
292.295	677.06
292.526	662.06
292.757	663.06
292.987	674.06
293.218	693.06
293.449	676.06
293.68	699.06
293.91	663.06
294.141	677.06
294.372	714.06
294.603	659.06
294.833	661.06
295.064	670.06
295.295	694.06
295.525	669.06
295.756	691.06
295.987	681.06
296.217	687.06
296.448	697.06
296.679	704.06
296.909	704.06
297.14	691.06
297.37	699.06
297.601	689.06
297.831	704.06
298.062	707.06
298.292	753.06
298.523	766.06
298.753	754.06
298.984	717.06
299.214	739.06
299.445	723.06
299.675	721.06
299.905	734.06
300.136	728.06
300.366	753.06
300.597	755.06
300.827	762.06
301.057	763.06
301.288	776.06
301.518	749.06
301.748	763.06
301.979	768.06
302.209	754.06
302.439	773.06
302.669	749.06
302.9	741.06
303.13	735.06
303.36	759.06
303.59	776.06
303.82	745.06
304.051	775.06
304.281	788.06
304.511	754.06
304.741	753.06
304.971	769.06
305.201	787.06
305.431	756.06
305.661	778.06
305.891	725.06
306.121	749.06
306.352	765.06
306.582	746.06
306.812	749.06
307.042	755.06
307.272	745.06
307.502	761.06
307.731	734.06
307.961	744.06
308.191	746.06
308.421	746.06
308.651	753.06
308.881	719.06
309.111	736.06
309.341	738.06
309.571	753.06
309.8	751.06
310.03	773.06
310.26	760.06
310.49	763.06
310.72	790.06
310.949	760.06
311.179	767.06
311.409	749.06
311.639	769.06
311.868	797.06
312.098	785.06
312.328	788.06
312.557	789.06
312.787	785.06
313.017	778.06
313.246	807.06
313.476	796.06
313.706	803.06
313.935	819.06
314.165	812.06
314.394	839.06
314.624	828.06
314.853	794.06
315.083	835.06
315.312	801.06
315.542	806.06
315.771	790.06
316.001	787.06
316.23	812.06
316.46	809.06
316.689	826.06
316.919	789.06
317.148	809.06
317.377	792.06
317.607	821.06
317.836	795.06
318.065	815.06
318.295	807.06
318.524	806.06
318.753	778.06
318.983	807.06
319.212	768.06
319.441	799.06
319.67	799.06
319.9	788.06
320.129	808.06
320.358	795.06
320.587	790.06
320.816	793.06
321.046	796.06
321.275	794.06
321.504	805.06
321.733	818.06
321.962	800.06
322.191	797.06
322.42	811.06
322.649	812.06
322.878	809.06
323.108	817.06
323.337	806.06
323.566	825.06
323.795	821.06
324.024	817.06
324.253	829.06
324.482	846.06
324.71	838.06
324.939	841.06
325.168	844.06
325.397	844.06
325.626	838.06
325.855	880.06
326.084	856.06
326.313	879.06
326.542	874.06
326.77	889.06
326.999	855.06
327.228	853.06
327.457	881.06
327.686	880.06
327.914	875.06
328.143	863.06
328.372	877.06
328.6	871.06
328.829	880.06
329.058	879.06
329.287	871.06
329.515	887.06
329.744	915.06
329.972	895.06
330.201	859.06
330.43	884.06
330.658	903.06
330.887	934.06
331.115	893.06
331.344	924.06
331.572	933.06
331.801	932.06
332.03	962.06
332.258	994.06
332.486	1012.06
332.715	993.06
332.943	1043.06
333.172	1075.06
333.4	1116.06
333.629	1122.06
333.857	1164.06
334.085	1187.06
334.314	1148.06
334.542	1136.06
334.771	1120.06
334.999	1105.06
335.227	1106.06
335.455	1085.06
335.684	1055.06
335.912	1111.06
336.14	1088.06
336.369	1085.06
336.597	1049.06
336.825	1075.06
337.053	1057.06
337.281	1061.06
337.51	1008.06
337.738	997.06
337.966	978.06
338.194	961.06
338.422	975.06
338.65	967.06
338.878	924.06
339.106	942.06
339.334	949.06
339.562	949.06
339.79	940.06
340.018	924.06
340.246	909.06
340.474	923.06
340.702	939.06
340.93	941.06
341.158	933.06
341.386	932.06
341.614	937.06
341.842	932.06
342.07	927.06
342.298	924.06
342.526	908.06
342.754	901.06
342.981	901.06
343.209	940.06
343.437	984.06
343.665	1050.06
343.893	1090.06
344.12	1106.06
344.348	1117.06
344.576	1033.06
344.804	1012.06
345.031	961.06
345.259	930.06
345.487	930.06
345.714	910.06
345.942	897.06
346.17	915.06
346.397	915.06
346.625	884.06
346.853	884.06
347.08	883.06
347.308	877.06
347.535	885.06
347.763	905.06
347.99	901.06
348.218	919.06
348.445	890.06
348.673	870.06
348.9	883.06
349.128	887.06
349.355	891.06
349.583	870.06
349.81	892.06
350.037	893.06
350.265	907.06
350.492	851.06
350.72	865.06
350.947	866.06
351.174	870.06
351.402	857.06
351.629	894.06
351.856	842.06
352.083	852.06
352.311	846.06
352.538	839.06
352.765	847.06
352.992	816.06
353.22	834.06
353.447	855.06
353.674	835.06
353.901	845.06
354.128	835.06
354.355	835.06
354.583	865.06
354.81	879.06
355.037	853.06
355.264	857.06
355.491	866.06
355.718	851.06
355.945	872.06
356.172	854.06
356.399	843.06
356.626	884.06
356.853	879.06
357.08	872.06
357.307	861.06
357.534	868.06
357.761	872.06
357.988	871.06
358.215	867.06
358.441	860.06
358.668	858.06
358.895	876.06
359.122	857.06
359.349	869.06
359.576	864.06
359.802	898.06
360.029	824.06
360.256	851.06
360.483	856.06
360.709	848.06
360.936	837.06
361.163	828.06
361.39	839.06
361.616	850.06
361.843	837.06
362.07	877.06
362.296	851.06
362.523	841.06
362.749	841.06
362.976	900.06
363.203	847.06
363.429	850.06
363.656	865.06
363.882	868.06
364.109	848.06
364.335	864.06
364.562	838.06
364.788	859.06
365.015	860.06
365.241	837.06
365.468	840.06
365.694	888.06
365.92	860.06
366.147	862.06
366.373	846.06
366.599	870.06
366.826	844.06
367.052	867.06
367.278	867.06
367.505	860.06
367.731	872.06
367.957	877.06
368.184	860.06
368.41	869.06
368.636	896.06
368.862	881.06
369.089	870.06
369.315	877.06
369.541	880.06
369.767	869.06
369.993	889.06
370.219	898.06
370.445	914.06
370.672	875.06
370.898	894.06
371.124	900.06
371.35	930.06
371.576	940.06
371.802	944.06
372.028	920.06
372.254	956.06
372.48	943.06
372.706	956.06
372.932	937.06
373.158	969.06
373.384	947.06
373.61	925.06
373.835	948.06
374.061	930.06
374.287	944.06
374.513	973.06
374.739	1012.06
374.965	1007.06
375.191	1001.06
375.416	994.06
375.642	1001.06
375.868	982.06
376.094	967.06
376.319	968.06
376.545	919.06
376.771	925.06
376.997	927.06
377.222	939.06
377.448	940.06
377.674	929.06
377.899	922.06
378.125	924.06
378.35	901.06
378.576	944.06
378.802	903.06
379.027	920.06
379.253	915.06
379.478	906.06
379.704	913.06
379.929	922.06
380.155	905.06
380.38	921.06
380.606	933.06
380.831	918.06
381.057	911.06
381.282	939.06
381.507	935.06
381.733	935.06
381.958	940.06
382.184	954.06
382.409	958.06
382.634	933.06
382.86	980.06
383.085	988.06
383.31	989.06
383.535	1015.06
383.761	1019.06
383.986	1031.06
384.211	1030.06
384.436	1052.06
384.662	1098.06
384.887	1101.06
385.112	1116.06
385.337	1122.06
385.562	1093.06
385.787	1100.06
386.013	1128.06
386.238	1120.06
386.463	1119.06
386.688	1112.06
386.913	1118.06
387.138	1098.06
387.363	1111.06
387.588	1115.06
387.813	1102.06
388.038	1095.06
388.263	1099.06
388.488	1115.06
388.713	1110.06
388.938	1102.06
389.163	1067.06
389.387	1095.06
389.612	1087.06
389.837	1092.06
390.062	1079.06
390.287	1090.06
390.512	1072.06
390.736	1093.06
390.961	1129.06
391.186	1154.06
391.411	1168.06
391.636	1204.06
391.86	1224.06
392.085	1262.06
392.31	1235.06
392.534	1212.06
392.759	1202.06
392.984	1186.06
393.208	1162.06
393.433	1176.06
393.658	1165.06
393.882	1190.06
394.107	1223.06
394.331	1199.06
394.556	1188.06
394.78	1201.06
395.005	1213.06
395.229	1189.06
395.454	1230.06
395.678	1256.06
395.903	1249.06
396.127	1268.06
396.352	1225.06
396.576	1167.06
396.801	1175.06
397.025	1209.06
397.249	1235.06
397.474	1239.06
397.698	1225.06
397.922	1265.06
398.147	1261.06
398.371	1291.06
398.595	1344.06
398.82	1362.06
399.044	1435.06
399.268	1617.06
399.492	1822.06
399.717	2075.06
399.941	2034.06
400.165	1819.06
400.389	1683.06
400.613	1569.06
400.837	1500.06
401.062	1445.06
401.286	1420.06
401.51	1375.06
401.734	1407.06
401.958	1413.06
402.182	1445.06
402.406	1463.06
402.63	1448.06
402.854	1486.06
403.078	1452.06
403.302	1520.06
403.526	1533.06
403.75	1572.06
403.974	1580.06
404.198	1593.06
404.422	1547.06
404.645	1561.06
404.869	1542.06
405.093	1557.06
405.317	1535.06
405.541	1562.06
405.765	1523.06
405.988	1535.06
406.212	1502.06
406.436	1546.06
406.66	1558.06
406.883	1562.06
407.107	1656.06
407.331	1692.06
407.555	1777.06
407.778	1767.06
408.002	1715.06
408.226	1713.06
408.449	1647.06
408.673	1595.06
408.896	1585.06
409.12	1547.06
409.344	1576.06
409.567	1516.06
409.791	1553.06
410.014	1548.06
410.238	1537.06
410.461	1525.06
410.685	1521.06
410.908	1501.06
411.132	1496.06
411.355	1407.06
411.578	1442.06
411.802	1427.06
412.025	1421.06
412.249	1449.06
412.472	1475.06
412.695	1426.06
412.919	1386.06
413.142	1398.06
413.365	1409.06
413.589	1407.06
413.812	1372.06
414.035	1368.06
414.258	1373.06
414.482	1372.06
414.705	1404.06
414.928	1438.06
415.151	1411.06
415.374	1378.06
415.597	1393.06
415.821	1347.06
416.044	1342.06
416.267	1358.06
416.49	1342.06
416.713	1325.06
416.936	1371.06
417.159	1367.06
417.382	1357.06
417.605	1332.06
417.828	1337.06
418.051	1396.06
418.274	1387.06
418.497	1374.06
418.72	1395.06
418.943	1364.06
419.166	1487.06
419.389	1548.06
419.611	1523.06
419.834	1481.06
420.057	1412.06
420.28	1346.06
420.503	1364.06
420.726	1337.06
420.948	1358.06
421.171	1347.06
421.394	1342.06
421.617	1373.06
421.839	1380.06
422.062	1386.06
422.285	1347.06
422.507	1404.06
422.73	1431.06
422.953	1394.06
423.175	1439.06
423.398	1435.06
423.621	1404.06
423.843	1436.06
424.066	1441.06
424.288	1426.06
424.511	1465.06
424.733	1385.06
424.956	1370.06
425.178	1379.06
425.401	1367.06
425.623	1373.06
425.846	1320.06
426.068	1363.06
426.291	1335.06
426.513	1318.06
426.735	1316.06
426.958	1295.06
427.18	1265.06
427.402	1290.06
427.625	1260.06
427.847	1229.06
428.069	1251.06
428.292	1238.06
428.514	1207.06
428.736	1219.06
428.958	1225.06
429.181	1210.06
429.403	1207.06
429.625	1183.06
429.847	1211.06
430.069	1221.06
430.292	1214.06
430.514	1197.06
430.736	1211.06
430.958	1212.06
431.18	1199.06
431.402	1243.06
431.624	1217.06
431.846	1226.06
432.068	1250.06
432.29	1263.06
432.512	1203.06
432.734	1240.06
432.956	1213.06
433.178	1241.06
433.4	1237.06
433.622	1234.06
433.844	1254.06
434.066	1234.06
434.287	1193.06
434.509	1289.06
434.731	1335.06
434.953	1371.06
435.175	1376.06
435.397	1370.06
435.618	1305.06
435.84	1236.06
436.062	1282.06
436.284	1246.06
436.505	1213.06
436.727	1188.06
436.949	1196.06
437.17	1215.06
437.392	1204.06
437.614	1223.06
437.835	1160.06
438.057	1153.06
438.278	1165.06
438.5	1205.06
438.721	1219.06
438.943	1208.06
439.165	1165.06
439.386	1193.06
439.608	1222.06
439.829	1220.06
440.05	1229.06
440.272	1247.06
440.493	1232.06
440.715	1260.06
440.936	1292.06
441.158	1291.06
441.379	1299.06
441.6	1370.06
441.822	1341.06
442.043	1356.06
442.264	1355.06
442.486	1314.06
442.707	1342.06
442.928	1332.06
443.149	1330.06
443.371	1338.06
443.592	1345.06
443.813	1360.06
444.034	1381.06
444.255	1426.06
444.476	1475.06
444.698	1553.06
444.919	1589.06
445.14	1695.06
445.361	1557.06
445.582	1429.06
445.803	1314.06
446.024	1335.06
446.245	1308.06
446.466	1293.06
446.687	1229.06
446.908	1243.06
447.129	1229.06
447.35	1211.06
447.571	1159.06
447.792	1140.06
448.013	1161.06
448.234	1118.06
448.455	1155.06
448.675	1130.06
448.896	1153.06
449.117	1121.06
449.338	1145.06
449.559	1143.06
449.779	1121.06
450	1096.06
450.221	1115.06
450.442	1137.06
450.662	1111.06
450.883	1131.06
451.104	1160.06
451.324	1140.06
451.545	1111.06
451.766	1135.06
451.986	1109.06
452.207	1111.06
452.428	1111.06
452.648	1090.06
452.869	1101.06
453.089	1069.06
453.31	1110.06
453.53	1064.06
453.751	1053.06
453.971	1063.06
454.192	1095.06
454.412	1041.06
454.633	1081.06
454.853	1067.06
455.073	1041.06
455.294	1065.06
455.514	1048.06
455.734	1046.06
455.955	1051.06
456.175	1059.06
456.395	1014.06
456.616	1020.06
456.836	1035.06
457.056	1034.06
457.276	1039.06
457.497	1064.06
457.717	1049.06
457.937	1057.06
458.157	1072.06
458.377	1105.06
458.598	1109.06
458.818	1148.06
459.038	1138.06
459.258	1187.06
459.478	1207.06
459.698	1251.06
459.918	1291.06
460.138	1321.06
460.358	1404.06
460.578	1413.06
460.798	1428.06
461.018	1443.06
461.238	1407.06
461.458	1402.06
461.678	1419.06
461.898	1427.06
462.118	1451.06
462.338	1543.06
462.558	1543.06
462.777	1597.06
462.997	1740.06
463.217	1859.06
463.437	1847.06
463.657	1691.06
463.876	1667.06
464.096	1660.06
464.316	1650.06
464.536	1653.06
464.755	1575.06
464.975	1508.06
465.195	1447.06
465.414	1369.06
465.634	1333.06
465.854	1260.06
466.073	1264.06
466.293	1228.06
466.512	1216.06
466.732	1209.06
466.951	1183.06
467.171	1174.06
467.391	1173.06
467.61	1188.06
467.829	1166.06
468.049	1169.06
468.268	1132.06
468.488	1130.06
468.707	1117.06
468.927	1156.06
469.146	1114.06
469.365	1120.06
469.585	1117.06
469.804	1178.06
470.023	1195.06
470.243	1214.06
470.462	1189.06
470.681	1236.06
470.901	1231.06
471.12	1181.06
471.339	1186.06
471.558	1157.06
471.777	1156.06
471.997	1142.06
472.216	1130.06
472.435	1129.06
472.654	1074.06
472.873	1072.06
473.092	1115.06
473.311	1117.06
473.53	1122.06
473.749	1092.06
473.968	1087.06
474.187	1087.06
474.406	1096.06
474.625	1087.06
474.844	1097.06
475.063	1128.06
475.282	1125.06
475.501	1136.06
475.72	1105.06
475.939	1117.06
476.158	1125.06
476.377	1139.06
476.596	1147.06
476.814	1177.06
477.033	1171.06
477.252	1193.06
477.471	1201.06
477.69	1230.06
477.908	1299.06
478.127	1314.06
478.346	1319.06
478.564	1319.06
478.783	1359.06
479.002	1356.06
479.22	1373.06
479.439	1345.06
479.658	1409.06
479.876	1375.06
480.095	1373.06
480.313	1452.06
480.532	1451.06
480.751	1488.06
480.969	1434.06
481.188	1364.06
481.406	1351.06
481.624	1296.06
481.843	1283.06
482.061	1289.06
482.28	1283.06
482.498	1293.06
482.717	1282.06
482.935	1265.06
483.153	1286.06
483.372	1265.06
483.59	1298.06
483.808	1279.06
484.027	1304.06
484.245	1281.06
484.463	1299.06
484.681	1333.06
484.9	1343.06
485.118	1339.06
485.336	1301.06
485.554	1338.06
485.772	1312.06
485.99	1325.06
486.209	1343.06
486.427	1339.06
486.645	1324.06
486.863	1322.06
487.081	1315.06
487.299	1308.06
487.517	1336.06
487.735	1347.06
487.953	1350.06
488.171	1340.06
488.389	1345.06
488.607	1332.06
488.825	1304.06
489.043	1307.06
489.261	1295.06
489.479	1319.06
489.696	1350.06
489.914	1359.06
490.132	1336.06
490.35	1301.06
490.568	1323.06
490.786	1357.06
491.003	1366.06
491.221	1332.06
491.439	1357.06
491.657	1349.06
491.874	1366.06
492.092	1351.06
492.31	1366.06
492.527	1364.06
492.745	1375.06
492.963	1383.06
493.18	1360.06
493.398	1377.06
493.615	1381.06
493.833	1374.06
494.05	1396.06
494.268	1417.06
