Data from NiCl2@0.0625M.TitratingCurve.Agarose3%dH2O.NegLispCup.LampEnergy10.LIBS07252019_HRD10591_18-34-35-576.txt Node
Date: Thu Jul 25 18:34:35 EDT 2019
User: cochatt
Spectrometer: HR+D1059
Trigger mode: 1
Integration Time (sec): 1.000000E-1
Scans to average: 1
Electric dark correction enabled: true
Nonlinearity correction enabled: false
Boxcar width: 0
XAxis mode: Wavelengths
Number of Pixels in Spectrum: 2048
>>>>>Begin Spectral Data<<<<<
223.165	-8.06
223.4	-8.06
223.635	-8.06
223.869	-20.06
224.104	-7.06
224.338	-20.06
224.573	-17.06
224.808	-15.06
225.042	-14.06
225.277	2.94
225.511	3.94
225.746	7.94
225.98	1.94
226.215	13.94
226.449	16.94
226.683	29.94
226.918	12.94
227.152	10.94
227.387	13.94
227.621	30.94
227.856	53.94
228.09	51.94
228.324	44.94
228.559	56.94
228.793	63.94
229.027	118.94
229.262	161.94
229.496	155.94
229.73	157.94
229.964	133.94
230.199	158.94
230.433	155.94
230.667	150.94
230.901	169.94
231.136	160.94
231.37	160.94
231.604	187.94
231.838	160.94
232.072	176.94
232.306	183.94
232.541	192.94
232.775	182.94
233.009	180.94
233.243	169.94
233.477	178.94
233.711	197.94
233.945	195.94
234.179	188.94
234.413	191.94
234.647	200.94
234.881	190.94
235.115	205.94
235.349	212.94
235.583	201.94
235.817	197.94
236.051	203.94
236.285	203.94
236.519	199.94
236.753	216.94
236.987	207.94
237.221	210.94
237.455	220.94
237.689	208.94
237.922	217.94
238.156	228.94
238.39	234.94
238.624	215.94
238.858	245.94
239.091	221.94
239.325	218.94
239.559	239.94
239.793	236.94
240.027	250.94
240.26	231.94
240.494	246.94
240.728	251.94
240.961	269.94
241.195	265.94
241.429	255.94
241.662	262.94
241.896	256.94
242.13	264.94
242.363	269.94
242.597	275.94
242.83	271.94
243.064	283.94
243.298	262.94
243.531	283.94
243.765	291.94
243.998	277.94
244.232	292.94
244.465	296.94
244.699	287.94
244.932	303.94
245.166	309.94
245.399	313.94
245.633	315.94
245.866	321.94
246.099	301.94
246.333	308.94
246.566	308.94
246.8	309.94
247.033	323.94
247.266	332.94
247.5	340.94
247.733	323.94
247.966	330.94
248.2	323.94
248.433	332.94
248.666	339.94
248.899	344.94
249.133	367.94
249.366	360.94
249.599	354.94
249.832	342.94
250.066	360.94
250.299	365.94
250.532	369.94
250.765	375.94
250.998	382.94
251.231	372.94
251.465	390.94
251.698	383.94
251.931	390.94
252.164	383.94
252.397	394.94
252.63	390.94
252.863	390.94
253.096	395.94
253.329	394.94
253.562	379.94
253.795	402.94
254.028	390.94
254.261	405.94
254.494	435.94
254.727	409.94
254.96	395.94
255.193	399.94
255.426	407.94
255.659	424.94
255.892	435.94
256.124	427.94
256.357	453.94
256.59	450.94
256.823	445.94
257.056	451.94
257.289	435.94
257.521	443.94
257.754	444.94
257.987	454.94
258.22	441.94
258.452	435.94
258.685	442.94
258.918	462.94
259.151	464.94
259.383	447.94
259.616	469.94
259.849	459.94
260.081	476.94
260.314	481.94
260.547	460.94
260.779	479.94
261.012	491.94
261.244	488.94
261.477	490.94
261.71	499.94
261.942	482.94
262.175	493.94
262.407	477.94
262.64	485.94
262.872	497.94
263.105	493.94
263.337	516.94
263.57	537.94
263.802	505.94
264.035	509.94
264.267	515.94
264.499	521.94
264.732	495.94
264.964	522.94
265.197	518.94
265.429	511.94
265.661	540.94
265.894	526.94
266.126	528.94
266.358	539.94
266.591	522.94
266.823	557.94
267.055	537.94
267.287	527.94
267.52	549.94
267.752	560.94
267.984	535.94
268.216	555.94
268.448	573.94
268.681	563.94
268.913	556.94
269.145	572.94
269.377	555.94
269.609	579.94
269.841	557.94
270.073	562.94
270.306	592.94
270.538	580.94
270.77	579.94
271.002	562.94
271.234	578.94
271.466	583.94
271.698	578.94
271.93	582.94
272.162	600.94
272.394	608.94
272.626	591.94
272.858	593.94
273.09	609.94
273.322	630.94
273.553	627.94
273.785	634.94
274.017	612.94
274.249	612.94
274.481	630.94
274.713	637.94
274.945	630.94
275.176	644.94
275.408	639.94
275.64	643.94
275.872	619.94
276.104	654.94
276.335	657.94
276.567	635.94
276.799	669.94
277.031	669.94
277.262	645.94
277.494	633.94
277.726	683.94
277.957	673.94
278.189	659.94
278.421	650.94
278.652	667.94
278.884	657.94
279.115	689.94
279.347	691.94
279.579	696.94
279.81	681.94
280.042	677.94
280.273	685.94
280.505	707.94
280.736	675.94
280.968	687.94
281.199	681.94
281.431	709.94
281.662	726.94
281.894	726.94
282.125	697.94
282.356	719.94
282.588	732.94
282.819	731.94
283.051	707.94
283.282	742.94
283.513	727.94
283.745	696.94
283.976	739.94
284.207	726.94
284.439	741.94
284.67	778.94
284.901	755.94
285.132	722.94
285.364	769.94
285.595	776.94
285.826	752.94
286.057	798.94
286.288	763.94
286.52	763.94
286.751	785.94
286.982	763.94
287.213	767.94
287.444	783.94
287.675	753.94
287.906	784.94
288.138	778.94
288.369	790.94
288.6	768.94
288.831	803.94
289.062	807.94
289.293	795.94
289.524	795.94
289.755	767.94
289.986	778.94
290.217	795.94
290.448	793.94
290.679	802.94
290.91	809.94
291.141	792.94
291.371	774.94
291.602	825.94
291.833	783.94
292.064	821.94
292.295	806.94
292.526	823.94
292.757	824.94
292.987	793.94
293.218	806.94
293.449	803.94
293.68	824.94
293.91	817.94
294.141	831.94
294.372	811.94
294.603	822.94
294.833	801.94
295.064	846.94
295.295	822.94
295.525	845.94
295.756	825.94
295.987	833.94
296.217	845.94
296.448	831.94
296.679	859.94
296.909	837.94
297.14	845.94
297.37	887.94
297.601	857.94
297.831	836.94
298.062	872.94
298.292	891.94
298.523	885.94
298.753	880.94
298.984	898.94
299.214	860.94
299.445	895.94
299.675	869.94
299.905	862.94
300.136	869.94
300.366	911.94
300.597	907.94
300.827	908.94
301.057	868.94
301.288	923.94
301.518	923.94
301.748	927.94
301.979	932.94
302.209	923.94
302.439	932.94
302.669	914.94
302.9	915.94
303.13	920.94
303.36	950.94
303.59	913.94
303.82	902.94
304.051	916.94
304.281	907.94
304.511	945.94
304.741	928.94
304.971	929.94
305.201	913.94
305.431	906.94
305.661	895.94
305.891	911.94
306.121	940.94
306.352	925.94
306.582	936.94
306.812	926.94
307.042	911.94
307.272	895.94
307.502	937.94
307.731	905.94
307.961	891.94
308.191	922.94
308.421	924.94
308.651	899.94
308.881	911.94
309.111	908.94
309.341	885.94
309.571	873.94
309.8	917.94
310.03	920.94
310.26	919.94
310.49	912.94
310.72	928.94
310.949	929.94
311.179	945.94
311.409	942.94
311.639	931.94
311.868	952.94
312.098	953.94
312.328	949.94
312.557	932.94
312.787	941.94
313.017	941.94
313.246	991.94
313.476	960.94
313.706	975.94
313.935	988.94
314.165	1017.94
314.394	955.94
314.624	1000.94
314.853	954.94
315.083	972.94
315.312	1004.94
315.542	984.94
315.771	1006.94
316.001	991.94
316.23	971.94
316.46	984.94
316.689	1005.94
316.919	1007.94
317.148	963.94
317.377	947.94
317.607	964.94
317.836	953.94
318.065	995.94
318.295	982.94
318.524	971.94
318.753	990.94
318.983	951.94
319.212	966.94
319.441	952.94
319.67	976.94
319.9	971.94
320.129	977.94
320.358	987.94
320.587	967.94
320.816	980.94
321.046	991.94
321.275	1005.94
321.504	994.94
321.733	989.94
321.962	985.94
322.191	1004.94
322.42	1009.94
322.649	1005.94
322.878	977.94
323.108	995.94
323.337	976.94
323.566	1012.94
323.795	1005.94
324.024	1034.94
324.253	1014.94
324.482	1013.94
324.71	1038.94
324.939	1035.94
325.168	1046.94
325.397	1025.94
325.626	1064.94
325.855	1045.94
326.084	1060.94
326.313	1112.94
326.542	1060.94
326.77	1094.94
326.999	1071.94
327.228	1051.94
327.457	1053.94
327.686	1030.94
327.914	1064.94
328.143	1084.94
328.372	1089.94
328.6	1090.94
328.829	1084.94
329.058	1088.94
329.287	1046.94
329.515	1106.94
329.744	1080.94
329.972	1103.94
330.201	1102.94
330.43	1109.94
330.658	1071.94
330.887	1063.94
331.115	1088.94
331.344	1131.94
331.572	1154.94
331.801	1153.94
332.03	1146.94
332.258	1145.94
332.486	1207.94
332.715	1212.94
332.943	1237.94
333.172	1283.94
333.4	1311.94
333.629	1320.94
333.857	1387.94
334.085	1340.94
334.314	1380.94
334.542	1329.94
334.771	1308.94
334.999	1334.94
335.227	1372.94
335.455	1294.94
335.684	1310.94
335.912	1328.94
336.14	1308.94
336.369	1280.94
336.597	1281.94
336.825	1304.94
337.053	1297.94
337.281	1239.94
337.51	1252.94
337.738	1195.94
337.966	1189.94
338.194	1201.94
338.422	1188.94
338.65	1190.94
338.878	1184.94
339.106	1172.94
339.334	1196.94
339.562	1173.94
339.79	1147.94
340.018	1120.94
340.246	1143.94
340.474	1121.94
340.702	1107.94
340.93	1149.94
341.158	1128.94
341.386	1106.94
341.614	1107.94
341.842	1132.94
342.07	1113.94
342.298	1086.94
342.526	1105.94
342.754	1131.94
342.981	1097.94
343.209	1121.94
343.437	1191.94
343.665	1212.94
343.893	1317.94
344.12	1327.94
344.348	1289.94
344.576	1215.94
344.804	1191.94
345.031	1151.94
345.259	1150.94
345.487	1124.94
345.714	1149.94
345.942	1128.94
346.17	1093.94
346.397	1091.94
346.625	1101.94
346.853	1102.94
347.08	1028.94
347.308	1071.94
347.535	1073.94
347.763	1105.94
347.99	1107.94
348.218	1059.94
348.445	1046.94
348.673	1065.94
348.9	1069.94
349.128	1060.94
349.355	1048.94
349.583	1095.94
349.81	1069.94
350.037	1031.94
350.265	1051.94
350.492	1034.94
350.72	1060.94
350.947	1014.94
351.174	1054.94
351.402	1050.94
351.629	1040.94
351.856	1033.94
352.083	1068.94
352.311	1048.94
352.538	1053.94
352.765	1046.94
352.992	1027.94
353.22	1003.94
353.447	1031.94
353.674	1053.94
353.901	1013.94
354.128	1045.94
354.355	1028.94
354.583	999.94
354.81	998.94
355.037	1015.94
355.264	1037.94
355.491	1027.94
355.718	1039.94
355.945	1077.94
356.172	1060.94
356.399	1044.94
356.626	1045.94
356.853	1038.94
357.08	1041.94
357.307	1036.94
357.534	1056.94
357.761	1033.94
357.988	1060.94
358.215	1033.94
358.441	1017.94
358.668	1030.94
358.895	1031.94
359.122	1020.94
359.349	1027.94
359.576	1033.94
359.802	1032.94
360.029	1002.94
360.256	1037.94
360.483	1053.94
360.709	1064.94
360.936	1071.94
361.163	1053.94
361.39	1041.94
361.616	1049.94
361.843	1028.94
362.07	1057.94
362.296	1045.94
362.523	1061.94
362.749	1074.94
362.976	1013.94
363.203	1037.94
363.429	1038.94
363.656	1045.94
363.882	1021.94
364.109	1045.94
364.335	1031.94
364.562	1055.94
364.788	1033.94
365.015	1031.94
365.241	1053.94
365.468	1025.94
365.694	1028.94
365.92	1045.94
366.147	1019.94
366.373	1044.94
366.599	1031.94
366.826	1051.94
367.052	1043.94
367.278	1044.94
367.505	1029.94
367.731	1035.94
367.957	1082.94
368.184	1021.94
368.41	1083.94
368.636	1068.94
368.862	1063.94
369.089	1078.94
369.315	1063.94
369.541	1073.94
369.767	1087.94
369.993	1069.94
370.219	1100.94
370.445	1079.94
370.672	1105.94
370.898	1120.94
371.124	1113.94
371.35	1128.94
371.576	1140.94
371.802	1115.94
372.028	1110.94
372.254	1116.94
372.48	1137.94
372.706	1147.94
372.932	1162.94
373.158	1147.94
373.384	1135.94
373.61	1145.94
373.835	1135.94
374.061	1109.94
374.287	1143.94
374.513	1163.94
374.739	1194.94
374.965	1219.94
375.191	1225.94
375.416	1220.94
375.642	1219.94
375.868	1203.94
376.094	1187.94
376.319	1136.94
376.545	1126.94
376.771	1107.94
376.997	1117.94
377.222	1111.94
377.448	1125.94
377.674	1121.94
377.899	1119.94
378.125	1117.94
378.35	1133.94
378.576	1108.94
378.802	1112.94
379.027	1127.94
379.253	1114.94
379.478	1106.94
379.704	1111.94
379.929	1085.94
380.155	1086.94
380.38	1107.94
380.606	1108.94
380.831	1128.94
381.057	1089.94
381.282	1125.94
381.507	1123.94
381.733	1111.94
381.958	1125.94
382.184	1129.94
382.409	1186.94
382.634	1167.94
382.86	1179.94
383.085	1176.94
383.31	1196.94
383.535	1169.94
383.761	1238.94
383.986	1211.94
384.211	1251.94
384.436	1224.94
384.662	1275.94
384.887	1343.94
385.112	1301.94
385.337	1270.94
385.562	1325.94
385.787	1363.94
386.013	1314.94
386.238	1350.94
386.463	1334.94
386.688	1318.94
386.913	1338.94
387.138	1354.94
387.363	1324.94
387.588	1307.94
387.813	1335.94
388.038	1284.94
388.263	1311.94
388.488	1315.94
388.713	1341.94
388.938	1322.94
389.163	1309.94
389.387	1334.94
389.612	1319.94
389.837	1300.94
390.062	1341.94
390.287	1327.94
390.512	1338.94
390.736	1338.94
390.961	1329.94
391.186	1365.94
391.411	1384.94
391.636	1447.94
391.86	1451.94
392.085	1498.94
392.31	1482.94
392.534	1445.94
392.759	1431.94
392.984	1411.94
393.208	1407.94
393.433	1394.94
393.658	1403.94
393.882	1388.94
394.107	1420.94
394.331	1425.94
394.556	1410.94
394.78	1421.94
395.005	1441.94
395.229	1463.94
395.454	1458.94
395.678	1491.94
395.903	1486.94
396.127	1473.94
396.352	1435.94
396.576	1456.94
396.801	1447.94
397.025	1443.94
397.249	1451.94
397.474	1515.94
397.698	1481.94
397.922	1529.94
398.147	1522.94
398.371	1532.94
398.595	1585.94
398.82	1589.94
399.044	1763.94
399.268	1820.94
399.492	2073.94
399.717	2220.94
399.941	2335.94
400.165	2121.94
400.389	1935.94
400.613	1817.94
400.837	1780.94
401.062	1698.94
401.286	1747.94
401.51	1669.94
401.734	1647.94
401.958	1681.94
402.182	1668.94
402.406	1676.94
402.63	1691.94
402.854	1703.94
403.078	1741.94
403.302	1760.94
403.526	1792.94
403.75	1774.94
403.974	1849.94
404.198	1836.94
404.422	1794.94
404.645	1822.94
404.869	1797.94
405.093	1772.94
405.317	1757.94
405.541	1806.94
405.765	1780.94
405.988	1781.94
406.212	1802.94
406.436	1838.94
406.66	1874.94
406.883	1886.94
407.107	1935.94
407.331	2006.94
407.555	2047.94
407.778	2034.94
408.002	2048.94
408.226	1989.94
408.449	2014.94
408.673	1924.94
408.896	1857.94
409.12	1846.94
409.344	1836.94
409.567	1828.94
409.791	1855.94
410.014	1810.94
410.238	1823.94
410.461	1823.94
410.685	1816.94
410.908	1822.94
411.132	1735.94
411.355	1713.94
411.578	1752.94
411.802	1696.94
412.025	1718.94
412.249	1753.94
412.472	1741.94
412.695	1705.94
412.919	1669.94
413.142	1675.94
413.365	1659.94
413.589	1666.94
413.812	1667.94
414.035	1643.94
414.258	1642.94
414.482	1637.94
414.705	1658.94
414.928	1646.94
415.151	1644.94
415.374	1629.94
415.597	1625.94
415.821	1583.94
416.044	1589.94
416.267	1615.94
416.49	1597.94
416.713	1556.94
416.936	1617.94
417.159	1555.94
417.382	1571.94
417.605	1589.94
417.828	1572.94
418.051	1600.94
418.274	1629.94
418.497	1591.94
418.72	1591.94
418.943	1622.94
419.166	1696.94
419.389	1846.94
419.611	1840.94
419.834	1752.94
420.057	1696.94
420.28	1626.94
420.503	1587.94
420.726	1571.94
420.948	1550.94
421.171	1579.94
421.394	1603.94
421.617	1560.94
421.839	1585.94
422.062	1645.94
422.285	1574.94
422.507	1618.94
422.73	1605.94
422.953	1621.94
423.175	1640.94
423.398	1655.94
423.621	1617.94
423.843	1615.94
424.066	1666.94
424.288	1591.94
424.511	1643.94
424.733	1611.94
424.956	1587.94
425.178	1595.94
425.401	1647.94
425.623	1585.94
425.846	1547.94
426.068	1583.94
426.291	1517.94
426.513	1517.94
426.735	1500.94
426.958	1527.94
427.18	1473.94
427.402	1478.94
427.625	1467.94
427.847	1466.94
428.069	1455.94
428.292	1493.94
428.514	1478.94
428.736	1437.94
428.958	1465.94
429.181	1452.94
429.403	1417.94
429.625	1428.94
429.847	1421.94
430.069	1447.94
430.292	1426.94
430.514	1397.94
430.736	1447.94
430.958	1453.94
431.18	1421.94
431.402	1464.94
431.624	1409.94
431.846	1467.94
432.068	1473.94
432.29	1496.94
432.512	1453.94
432.734	1470.94
432.956	1453.94
433.178	1469.94
433.4	1460.94
433.622	1486.94
433.844	1466.94
434.066	1528.94
434.287	1495.94
434.509	1558.94
434.731	1591.94
434.953	1623.94
435.175	1609.94
435.397	1600.94
435.618	1554.94
435.84	1527.94
436.062	1482.94
436.284	1470.94
436.505	1440.94
436.727	1446.94
436.949	1478.94
437.17	1489.94
437.392	1438.94
437.614	1426.94
437.835	1387.94
438.057	1366.94
438.278	1403.94
438.5	1378.94
438.721	1391.94
438.943	1411.94
439.165	1397.94
439.386	1381.94
439.608	1413.94
439.829	1430.94
440.05	1413.94
440.272	1442.94
440.493	1399.94
440.715	1440.94
440.936	1493.94
441.158	1496.94
441.379	1538.94
441.6	1597.94
441.822	1579.94
442.043	1579.94
442.264	1565.94
442.486	1543.94
442.707	1537.94
442.928	1506.94
443.149	1533.94
443.371	1551.94
443.592	1529.94
443.813	1589.94
444.034	1588.94
444.255	1610.94
444.476	1677.94
444.698	1715.94
444.919	1772.94
445.14	1872.94
445.361	1727.94
445.582	1627.94
445.803	1559.94
446.024	1539.94
446.245	1499.94
446.466	1464.94
446.687	1433.94
446.908	1441.94
447.129	1373.94
447.35	1412.94
447.571	1411.94
447.792	1348.94
448.013	1363.94
448.234	1295.94
448.455	1305.94
448.675	1327.94
448.896	1317.94
449.117	1279.94
449.338	1296.94
449.559	1305.94
449.779	1324.94
450	1272.94
450.221	1314.94
450.442	1336.94
450.662	1323.94
450.883	1297.94
451.104	1329.94
451.324	1284.94
451.545	1303.94
451.766	1291.94
451.986	1292.94
452.207	1274.94
452.428	1238.94
452.648	1265.94
452.869	1269.94
453.089	1236.94
453.31	1248.94
453.53	1254.94
453.751	1247.94
453.971	1249.94
454.192	1262.94
454.412	1223.94
454.633	1244.94
454.853	1245.94
455.073	1216.94
455.294	1221.94
455.514	1209.94
455.734	1231.94
455.955	1181.94
456.175	1210.94
456.395	1237.94
456.616	1198.94
456.836	1223.94
457.056	1210.94
457.276	1206.94
457.497	1234.94
457.717	1213.94
457.937	1250.94
458.157	1220.94
458.377	1269.94
458.598	1274.94
458.818	1348.94
459.038	1356.94
459.258	1380.94
459.478	1421.94
459.698	1477.94
459.918	1480.94
460.138	1535.94
460.358	1557.94
460.578	1653.94
460.798	1656.94
461.018	1683.94
461.238	1634.94
461.458	1606.94
461.678	1620.94
461.898	1673.94
462.118	1647.94
462.338	1721.94
462.558	1768.94
462.777	1824.94
462.997	1953.94
463.217	2025.94
463.437	2094.94
463.657	1949.94
463.876	1868.94
464.096	1877.94
464.316	1853.94
464.536	1847.94
464.755	1815.94
464.975	1749.94
465.195	1713.94
465.414	1603.94
465.634	1503.94
465.854	1507.94
466.073	1455.94
466.293	1411.94
466.512	1411.94
466.732	1373.94
466.951	1375.94
467.171	1367.94
467.391	1379.94
467.61	1357.94
467.829	1343.94
468.049	1343.94
468.268	1330.94
468.488	1296.94
468.707	1325.94
468.927	1327.94
469.146	1313.94
469.365	1329.94
469.585	1325.94
469.804	1336.94
470.023	1395.94
470.243	1389.94
470.462	1408.94
470.681	1392.94
470.901	1388.94
471.12	1399.94
471.339	1352.94
471.558	1325.94
471.777	1367.94
471.997	1345.94
472.216	1312.94
472.435	1312.94
472.654	1324.94
472.873	1285.94
473.092	1295.94
473.311	1301.94
473.53	1275.94
473.749	1297.94
473.968	1288.94
474.187	1293.94
474.406	1275.94
474.625	1325.94
474.844	1340.94
475.063	1362.94
475.282	1329.94
475.501	1349.94
475.72	1341.94
475.939	1356.94
476.158	1361.94
476.377	1390.94
476.596	1385.94
476.814	1392.94
477.033	1439.94
477.252	1407.94
477.471	1421.94
477.69	1477.94
477.908	1508.94
478.127	1529.94
478.346	1576.94
478.564	1600.94
478.783	1561.94
479.002	1625.94
479.22	1684.94
479.439	1620.94
479.658	1622.94
479.876	1628.94
480.095	1613.94
480.313	1713.94
480.532	1734.94
480.751	1744.94
480.969	1659.94
481.188	1698.94
481.406	1655.94
481.624	1618.94
481.843	1620.94
482.061	1580.94
482.28	1582.94
482.498	1577.94
482.717	1556.94
482.935	1598.94
483.153	1611.94
483.372	1599.94
483.59	1633.94
483.808	1633.94
484.027	1633.94
484.245	1672.94
484.463	1653.94
484.681	1728.94
484.9	1661.94
485.118	1733.94
485.336	1740.94
485.554	1717.94
485.772	1744.94
485.99	1792.94
486.209	1732.94
486.427	1787.94
486.645	1778.94
486.863	1750.94
487.081	1723.94
487.299	1718.94
487.517	1680.94
487.735	1710.94
487.953	1720.94
488.171	1709.94
488.389	1724.94
488.607	1671.94
488.825	1677.94
489.043	1665.94
489.261	1656.94
489.479	1675.94
489.696	1604.94
489.914	1657.94
490.132	1632.94
490.35	1638.94
490.568	1655.94
490.786	1648.94
491.003	1636.94
491.221	1643.94
