Data from NiCl2@0.5M.TitratingCurve.Agarose3%dH2O.NegLispCup.LampEnergy10.LIBS07252019_HRD10591_18-20-35-588.txt Node
Date: Thu Jul 25 18:20:35 EDT 2019
User: cochatt
Spectrometer: HR+D1059
Trigger mode: 1
Integration Time (sec): 1.000000E-1
Scans to average: 1
Electric dark correction enabled: true
Nonlinearity correction enabled: false
Boxcar width: 0
XAxis mode: Wavelengths
Number of Pixels in Spectrum: 2048
>>>>>Begin Spectral Data<<<<<
223.165	0.5
223.4	0.5
223.635	0.5
223.869	-10.5
224.104	-16.5
224.338	-22.5
224.573	-3.5
224.808	-19.5
225.042	-19.5
225.277	-9.5
225.511	-4.5
225.746	9.5
225.98	12.5
226.215	4.5
226.449	9.5
226.683	26.5
226.918	18.5
227.152	24.5
227.387	34.5
227.621	47.5
227.856	47.5
228.09	45.5
228.324	51.5
228.559	54.5
228.793	61.5
229.027	105.5
229.262	99.5
229.496	116.5
229.73	123.5
229.964	120.5
230.199	124.5
230.433	129.5
230.667	145.5
230.901	136.5
231.136	150.5
231.37	149.5
231.604	135.5
231.838	143.5
232.072	135.5
232.306	154.5
232.541	137.5
232.775	146.5
233.009	154.5
233.243	164.5
233.477	145.5
233.711	140.5
233.945	149.5
234.179	127.5
234.413	146.5
234.647	154.5
234.881	147.5
235.115	153.5
235.349	141.5
235.583	157.5
235.817	159.5
236.051	152.5
236.285	145.5
236.519	145.5
236.753	147.5
236.987	141.5
237.221	157.5
237.455	175.5
237.689	170.5
237.922	153.5
238.156	148.5
238.39	155.5
238.624	152.5
238.858	168.5
239.091	188.5
239.325	179.5
239.559	187.5
239.793	185.5
240.027	183.5
240.26	182.5
240.494	182.5
240.728	194.5
240.961	189.5
241.195	182.5
241.429	199.5
241.662	194.5
241.896	192.5
242.13	193.5
242.363	184.5
242.597	183.5
242.83	178.5
243.064	196.5
243.298	214.5
243.531	211.5
243.765	233.5
243.998	223.5
244.232	213.5
244.465	214.5
244.699	201.5
244.932	227.5
245.166	213.5
245.399	211.5
245.633	215.5
245.866	235.5
246.099	211.5
246.333	207.5
246.566	218.5
246.8	205.5
247.033	214.5
247.266	210.5
247.5	227.5
247.733	233.5
247.966	243.5
248.2	243.5
248.433	264.5
248.666	243.5
248.899	253.5
249.133	247.5
249.366	251.5
249.599	242.5
249.832	236.5
250.066	247.5
250.299	266.5
250.532	259.5
250.765	255.5
250.998	266.5
251.231	261.5
251.465	284.5
251.698	252.5
251.931	262.5
252.164	270.5
252.397	274.5
252.63	284.5
252.863	263.5
253.096	273.5
253.329	266.5
253.562	277.5
253.795	298.5
254.028	283.5
254.261	275.5
254.494	267.5
254.727	273.5
254.96	287.5
255.193	292.5
255.426	292.5
255.659	304.5
255.892	281.5
256.124	295.5
256.357	299.5
256.59	293.5
256.823	310.5
257.056	287.5
257.289	311.5
257.521	292.5
257.754	290.5
257.987	328.5
258.22	324.5
258.452	293.5
258.685	312.5
258.918	310.5
259.151	310.5
259.383	313.5
259.616	310.5
259.849	316.5
260.081	314.5
260.314	331.5
260.547	333.5
260.779	322.5
261.012	312.5
261.244	336.5
261.477	325.5
261.71	328.5
261.942	336.5
262.175	339.5
262.407	338.5
262.64	339.5
262.872	342.5
263.105	331.5
263.337	339.5
263.57	335.5
263.802	340.5
264.035	363.5
264.267	364.5
264.499	338.5
264.732	352.5
264.964	365.5
265.197	336.5
265.429	348.5
265.661	348.5
265.894	339.5
266.126	356.5
266.358	353.5
266.591	377.5
266.823	365.5
267.055	376.5
267.287	351.5
267.52	356.5
267.752	376.5
267.984	385.5
268.216	379.5
268.448	385.5
268.681	385.5
268.913	394.5
269.145	362.5
269.377	393.5
269.609	385.5
269.841	407.5
270.073	382.5
270.306	388.5
270.538	387.5
270.77	369.5
271.002	407.5
271.234	403.5
271.466	400.5
271.698	392.5
271.93	419.5
272.162	417.5
272.394	419.5
272.626	401.5
272.858	401.5
273.09	408.5
273.322	419.5
273.553	417.5
273.785	397.5
274.017	429.5
274.249	394.5
274.481	433.5
274.713	449.5
274.945	439.5
275.176	430.5
275.408	431.5
275.64	398.5
275.872	436.5
276.104	423.5
276.335	439.5
276.567	433.5
276.799	433.5
277.031	431.5
277.262	437.5
277.494	455.5
277.726	455.5
277.957	444.5
278.189	456.5
278.421	439.5
278.652	457.5
278.884	455.5
279.115	458.5
279.347	451.5
279.579	474.5
279.81	486.5
280.042	453.5
280.273	470.5
280.505	444.5
280.736	478.5
280.968	460.5
281.199	483.5
281.431	460.5
281.662	492.5
281.894	481.5
282.125	492.5
282.356	511.5
282.588	479.5
282.819	476.5
283.051	478.5
283.282	477.5
283.513	483.5
283.745	474.5
283.976	516.5
284.207	511.5
284.439	490.5
284.67	507.5
284.901	501.5
285.132	520.5
285.364	518.5
285.595	505.5
285.826	502.5
286.057	530.5
286.288	517.5
286.52	513.5
286.751	500.5
286.982	513.5
287.213	524.5
287.444	526.5
287.675	535.5
287.906	521.5
288.138	514.5
288.369	522.5
288.6	532.5
288.831	531.5
289.062	535.5
289.293	530.5
289.524	551.5
289.755	521.5
289.986	543.5
290.217	537.5
290.448	535.5
290.679	548.5
290.91	533.5
291.141	539.5
291.371	560.5
291.602	570.5
291.833	548.5
292.064	543.5
292.295	540.5
292.526	549.5
292.757	558.5
292.987	551.5
293.218	536.5
293.449	549.5
293.68	538.5
293.91	550.5
294.141	559.5
294.372	560.5
294.603	568.5
294.833	547.5
295.064	546.5
295.295	554.5
295.525	566.5
295.756	572.5
295.987	541.5
296.217	559.5
296.448	577.5
296.679	583.5
296.909	578.5
297.14	571.5
297.37	587.5
297.601	581.5
297.831	579.5
298.062	561.5
298.292	585.5
298.523	591.5
298.753	617.5
298.984	611.5
299.214	596.5
299.445	594.5
299.675	627.5
299.905	613.5
300.136	613.5
300.366	630.5
300.597	620.5
300.827	639.5
301.057	611.5
301.288	612.5
301.518	625.5
301.748	615.5
301.979	643.5
302.209	644.5
302.439	628.5
302.669	635.5
302.9	604.5
303.13	619.5
303.36	624.5
303.59	628.5
303.82	635.5
304.051	646.5
304.281	646.5
304.511	621.5
304.741	610.5
304.971	634.5
305.201	657.5
305.431	659.5
305.661	649.5
305.891	624.5
306.121	630.5
306.352	621.5
306.582	607.5
306.812	616.5
307.042	605.5
307.272	625.5
307.502	636.5
307.731	628.5
307.961	642.5
308.191	620.5
308.421	629.5
308.651	622.5
308.881	590.5
309.111	609.5
309.341	599.5
309.571	608.5
309.8	667.5
310.03	629.5
310.26	633.5
310.49	638.5
310.72	611.5
310.949	641.5
311.179	637.5
311.409	640.5
311.639	619.5
311.868	637.5
312.098	621.5
312.328	644.5
312.557	642.5
312.787	633.5
313.017	654.5
313.246	649.5
313.476	683.5
313.706	683.5
313.935	669.5
314.165	661.5
314.394	675.5
314.624	672.5
314.853	684.5
315.083	676.5
315.312	666.5
315.542	680.5
315.771	660.5
316.001	682.5
316.23	665.5
316.46	664.5
316.689	664.5
316.919	627.5
317.148	668.5
317.377	669.5
317.607	664.5
317.836	653.5
318.065	646.5
318.295	642.5
318.524	646.5
318.753	649.5
318.983	660.5
319.212	650.5
319.441	641.5
319.67	643.5
319.9	657.5
320.129	648.5
320.358	653.5
320.587	633.5
320.816	666.5
321.046	687.5
321.275	673.5
321.504	694.5
321.733	657.5
321.962	690.5
322.191	689.5
322.42	677.5
322.649	685.5
322.878	674.5
323.108	654.5
323.337	655.5
323.566	680.5
323.795	694.5
324.024	684.5
324.253	646.5
324.482	663.5
324.71	692.5
324.939	679.5
325.168	691.5
325.397	692.5
325.626	704.5
325.855	735.5
326.084	701.5
326.313	747.5
326.542	719.5
326.77	721.5
326.999	707.5
327.228	705.5
327.457	732.5
327.686	729.5
327.914	720.5
328.143	719.5
328.372	704.5
328.6	720.5
328.829	712.5
329.058	730.5
329.287	708.5
329.515	710.5
329.744	731.5
329.972	724.5
330.201	755.5
330.43	740.5
330.658	729.5
330.887	761.5
331.115	753.5
331.344	780.5
331.572	751.5
331.801	765.5
332.03	795.5
332.258	804.5
332.486	831.5
332.715	854.5
332.943	840.5
333.172	874.5
333.4	891.5
333.629	895.5
333.857	940.5
334.085	947.5
334.314	949.5
334.542	924.5
334.771	925.5
334.999	904.5
335.227	914.5
335.455	921.5
335.684	885.5
335.912	894.5
336.14	900.5
336.369	880.5
336.597	890.5
336.825	883.5
337.053	865.5
337.281	892.5
337.51	848.5
337.738	839.5
337.966	823.5
338.194	843.5
338.422	832.5
338.65	780.5
338.878	784.5
339.106	791.5
339.334	803.5
339.562	792.5
339.79	779.5
340.018	781.5
340.246	755.5
340.474	749.5
340.702	755.5
340.93	753.5
341.158	764.5
341.386	785.5
341.614	788.5
341.842	805.5
342.07	744.5
342.298	752.5
342.526	780.5
342.754	733.5
342.981	746.5
343.209	767.5
343.437	802.5
343.665	840.5
343.893	890.5
344.12	896.5
344.348	868.5
344.576	870.5
344.804	807.5
345.031	802.5
345.259	766.5
345.487	787.5
345.714	786.5
345.942	801.5
346.17	797.5
346.397	797.5
346.625	731.5
346.853	736.5
347.08	746.5
347.308	747.5
347.535	747.5
347.763	739.5
347.99	742.5
348.218	718.5
348.445	717.5
348.673	735.5
348.9	729.5
349.128	740.5
349.355	733.5
349.583	745.5
349.81	711.5
350.037	703.5
350.265	688.5
350.492	699.5
350.72	710.5
350.947	698.5
351.174	721.5
351.402	712.5
351.629	712.5
351.856	750.5
352.083	712.5
352.311	707.5
352.538	710.5
352.765	754.5
352.992	687.5
353.22	676.5
353.447	674.5
353.674	700.5
353.901	694.5
354.128	706.5
354.355	692.5
354.583	694.5
354.81	695.5
355.037	694.5
355.264	696.5
355.491	685.5
355.718	696.5
355.945	677.5
356.172	711.5
356.399	712.5
356.626	693.5
356.853	731.5
357.08	713.5
357.307	706.5
357.534	701.5
357.761	700.5
357.988	700.5
358.215	699.5
358.441	700.5
358.668	677.5
358.895	697.5
359.122	645.5
359.349	671.5
359.576	707.5
359.802	681.5
360.029	689.5
360.256	688.5
360.483	695.5
360.709	682.5
360.936	700.5
361.163	701.5
361.39	712.5
361.616	690.5
361.843	690.5
362.07	709.5
362.296	713.5
362.523	688.5
362.749	697.5
362.976	679.5
363.203	668.5
363.429	681.5
363.656	673.5
363.882	668.5
364.109	713.5
364.335	667.5
364.562	664.5
364.788	687.5
365.015	702.5
365.241	691.5
365.468	671.5
365.694	678.5
365.92	695.5
366.147	690.5
366.373	684.5
366.599	692.5
366.826	693.5
367.052	668.5
367.278	678.5
367.505	697.5
367.731	708.5
367.957	684.5
368.184	693.5
368.41	690.5
368.636	693.5
368.862	693.5
369.089	710.5
369.315	695.5
369.541	709.5
369.767	730.5
369.993	730.5
370.219	724.5
370.445	708.5
370.672	723.5
370.898	763.5
371.124	739.5
371.35	725.5
371.576	720.5
371.802	751.5
372.028	720.5
372.254	717.5
372.48	729.5
372.706	782.5
372.932	755.5
373.158	774.5
373.384	762.5
373.61	737.5
373.835	736.5
374.061	742.5
374.287	743.5
374.513	766.5
374.739	810.5
374.965	812.5
375.191	818.5
375.416	796.5
375.642	788.5
375.868	759.5
376.094	761.5
376.319	753.5
376.545	748.5
376.771	759.5
376.997	763.5
377.222	727.5
377.448	742.5
377.674	728.5
377.899	724.5
378.125	712.5
378.35	739.5
378.576	719.5
378.802	711.5
379.027	727.5
379.253	726.5
379.478	713.5
379.704	715.5
379.929	723.5
380.155	726.5
380.38	728.5
380.606	719.5
380.831	723.5
381.057	746.5
381.282	716.5
381.507	731.5
381.733	721.5
381.958	760.5
382.184	748.5
382.409	722.5
382.634	759.5
382.86	736.5
383.085	761.5
383.31	755.5
383.535	764.5
383.761	782.5
383.986	805.5
384.211	824.5
384.436	817.5
384.662	842.5
384.887	843.5
385.112	859.5
385.337	843.5
385.562	855.5
385.787	877.5
386.013	883.5
386.238	866.5
386.463	862.5
386.688	915.5
386.913	866.5
387.138	880.5
387.363	866.5
387.588	848.5
387.813	843.5
388.038	839.5
388.263	868.5
388.488	893.5
388.713	866.5
388.938	857.5
389.163	854.5
389.387	872.5
389.612	861.5
389.837	866.5
390.062	833.5
390.287	845.5
390.512	856.5
390.736	882.5
390.961	887.5
391.186	893.5
391.411	907.5
391.636	934.5
391.86	931.5
392.085	972.5
392.31	983.5
392.534	968.5
392.759	913.5
392.984	936.5
393.208	903.5
393.433	927.5
393.658	918.5
393.882	923.5
394.107	933.5
394.331	922.5
394.556	937.5
394.78	917.5
395.005	951.5
395.229	945.5
395.454	945.5
395.678	984.5
395.903	977.5
396.127	980.5
396.352	945.5
396.576	931.5
396.801	915.5
397.025	940.5
397.249	957.5
397.474	979.5
397.698	991.5
397.922	1001.5
398.147	999.5
398.371	1034.5
398.595	1055.5
398.82	1085.5
399.044	1137.5
399.268	1209.5
399.492	1370.5
399.717	1489.5
399.941	1527.5
400.165	1402.5
400.389	1307.5
400.613	1223.5
400.837	1157.5
401.062	1130.5
401.286	1123.5
401.51	1112.5
401.734	1063.5
401.958	1105.5
402.182	1058.5
402.406	1094.5
402.63	1141.5
402.854	1163.5
403.078	1145.5
403.302	1175.5
403.526	1174.5
403.75	1151.5
403.974	1211.5
404.198	1221.5
404.422	1241.5
404.645	1211.5
404.869	1176.5
405.093	1233.5
405.317	1199.5
405.541	1225.5
405.765	1204.5
405.988	1234.5
406.212	1223.5
406.436	1189.5
406.66	1244.5
406.883	1243.5
407.107	1265.5
407.331	1331.5
407.555	1373.5
407.778	1399.5
408.002	1347.5
408.226	1322.5
408.449	1317.5
408.673	1261.5
408.896	1248.5
409.12	1261.5
409.344	1203.5
409.567	1207.5
409.791	1251.5
410.014	1248.5
410.238	1188.5
410.461	1228.5
410.685	1221.5
410.908	1200.5
411.132	1183.5
411.355	1158.5
411.578	1154.5
411.802	1166.5
412.025	1129.5
412.249	1163.5
412.472	1198.5
412.695	1138.5
412.919	1135.5
413.142	1106.5
413.365	1079.5
413.589	1129.5
413.812	1112.5
414.035	1097.5
414.258	1101.5
414.482	1137.5
414.705	1126.5
414.928	1128.5
415.151	1128.5
415.374	1100.5
415.597	1113.5
415.821	1084.5
416.044	1083.5
416.267	1092.5
416.49	1068.5
416.713	1065.5
416.936	1064.5
417.159	1062.5
417.382	1091.5
417.605	1044.5
417.828	1062.5
418.051	1094.5
418.274	1103.5
418.497	1047.5
418.72	1113.5
418.943	1108.5
419.166	1185.5
419.389	1264.5
419.611	1227.5
419.834	1229.5
420.057	1133.5
420.28	1119.5
420.503	1055.5
420.726	1087.5
420.948	1095.5
421.171	1103.5
421.394	1091.5
421.617	1107.5
421.839	1098.5
422.062	1090.5
422.285	1076.5
422.507	1100.5
422.73	1071.5
422.953	1115.5
423.175	1115.5
423.398	1148.5
423.621	1111.5
423.843	1109.5
424.066	1137.5
424.288	1163.5
424.511	1135.5
424.733	1108.5
424.956	1115.5
425.178	1089.5
425.401	1106.5
425.623	1088.5
425.846	1058.5
426.068	1041.5
426.291	1063.5
426.513	1046.5
426.735	1052.5
426.958	1016.5
427.18	1008.5
427.402	994.5
427.625	1028.5
427.847	1021.5
428.069	1005.5
428.292	996.5
428.514	971.5
428.736	986.5
428.958	1034.5
429.181	962.5
429.403	982.5
429.625	967.5
429.847	968.5
430.069	974.5
430.292	946.5
430.514	974.5
430.736	981.5
430.958	987.5
431.18	970.5
431.402	997.5
431.624	1017.5
431.846	1023.5
432.068	1019.5
432.29	1012.5
432.512	968.5
432.734	1027.5
432.956	1027.5
433.178	999.5
433.4	999.5
433.622	1004.5
433.844	1038.5
434.066	1016.5
434.287	1036.5
434.509	1058.5
434.731	1093.5
434.953	1105.5
435.175	1101.5
435.397	1120.5
435.618	1017.5
435.84	1052.5
436.062	1037.5
436.284	1019.5
436.505	986.5
436.727	1007.5
436.949	1009.5
437.17	987.5
437.392	991.5
437.614	989.5
437.835	953.5
438.057	980.5
438.278	967.5
438.5	988.5
438.721	965.5
438.943	968.5
439.165	983.5
439.386	997.5
439.608	1009.5
439.829	994.5
440.05	1013.5
440.272	1018.5
440.493	1036.5
440.715	1014.5
440.936	1039.5
441.158	1041.5
441.379	1082.5
441.6	1113.5
441.822	1088.5
442.043	1129.5
442.264	1075.5
442.486	1067.5
442.707	1093.5
442.928	1099.5
443.149	1085.5
443.371	1095.5
443.592	1099.5
443.813	1108.5
444.034	1108.5
444.255	1136.5
444.476	1192.5
444.698	1244.5
444.919	1258.5
445.14	1387.5
445.361	1244.5
445.582	1132.5
445.803	1088.5
446.024	1051.5
446.245	1039.5
446.466	1069.5
446.687	1023.5
446.908	1063.5
447.129	989.5
447.35	980.5
447.571	992.5
447.792	936.5
448.013	954.5
448.234	921.5
448.455	950.5
448.675	947.5
448.896	953.5
449.117	940.5
449.338	954.5
449.559	910.5
449.779	915.5
450	938.5
450.221	918.5
450.442	917.5
450.662	964.5
450.883	934.5
451.104	947.5
451.324	956.5
451.545	949.5
451.766	931.5
451.986	933.5
452.207	927.5
452.428	931.5
452.648	930.5
452.869	919.5
453.089	914.5
453.31	922.5
453.53	881.5
453.751	877.5
453.971	880.5
454.192	911.5
454.412	880.5
454.633	857.5
454.853	873.5
455.073	880.5
455.294	879.5
455.514	869.5
455.734	866.5
455.955	871.5
456.175	873.5
456.395	875.5
456.616	856.5
456.836	866.5
457.056	862.5
457.276	855.5
457.497	867.5
457.717	875.5
457.937	883.5
458.157	874.5
458.377	915.5
458.598	941.5
458.818	932.5
459.038	969.5
459.258	979.5
459.478	1029.5
459.698	1031.5
459.918	1055.5
460.138	1097.5
460.358	1143.5
460.578	1183.5
460.798	1176.5
461.018	1169.5
461.238	1149.5
461.458	1165.5
461.678	1196.5
461.898	1179.5
462.118	1187.5
462.338	1247.5
462.558	1319.5
462.777	1369.5
462.997	1437.5
463.217	1491.5
463.437	1543.5
463.657	1409.5
463.876	1379.5
464.096	1386.5
464.316	1391.5
464.536	1367.5
464.755	1330.5
464.975	1261.5
465.195	1211.5
465.414	1164.5
465.634	1068.5
465.854	1036.5
466.073	1046.5
466.293	1024.5
466.512	991.5
466.732	997.5
466.951	991.5
467.171	965.5
467.391	992.5
467.61	982.5
467.829	983.5
468.049	971.5
468.268	944.5
468.488	936.5
468.707	933.5
468.927	933.5
469.146	953.5
469.365	957.5
469.585	960.5
469.804	981.5
470.023	981.5
470.243	999.5
470.462	992.5
470.681	1011.5
470.901	1025.5
471.12	1013.5
471.339	963.5
471.558	976.5
471.777	970.5
471.997	979.5
472.216	946.5
472.435	944.5
472.654	924.5
472.873	941.5
473.092	930.5
473.311	907.5
473.53	905.5
473.749	907.5
473.968	936.5
474.187	938.5
474.406	930.5
474.625	948.5
474.844	949.5
475.063	921.5
475.282	918.5
475.501	956.5
475.72	960.5
475.939	927.5
476.158	940.5
476.377	985.5
476.596	953.5
476.814	960.5
477.033	984.5
477.252	997.5
477.471	999.5
477.69	1033.5
477.908	1044.5
478.127	1082.5
478.346	1115.5
478.564	1115.5
478.783	1128.5
479.002	1147.5
479.22	1158.5
479.439	1153.5
479.658	1149.5
479.876	1170.5
480.095	1170.5
480.313	1180.5
480.532	1171.5
480.751	1187.5
480.969	1161.5
481.188	1155.5
481.406	1081.5
481.624	1090.5
481.843	1058.5
482.061	1057.5
482.28	1075.5
482.498	1087.5
482.717	1064.5
482.935	1067.5
483.153	1078.5
483.372	1083.5
483.59	1050.5
483.808	1071.5
484.027	1071.5
484.245	1101.5
484.463	1089.5
484.681	1120.5
484.9	1087.5
485.118	1097.5
485.336	1094.5
485.554	1129.5
485.772	1101.5
485.99	1112.5
486.209	1122.5
486.427	1105.5
486.645	1150.5
486.863	1137.5
487.081	1138.5
487.299	1115.5
487.517	1111.5
487.735	1130.5
487.953	1136.5
488.171	1130.5
488.389	1093.5
488.607	1119.5
488.825	1080.5
489.043	1080.5
489.261	1092.5
489.479	1089.5
489.696	1091.5
489.914	1112.5
490.132	1113.5
490.35	1135.5
490.568	1119.5
490.786	1127.5
491.003	1115.5
491.221	1139.5
491.439	1132.5
491.657	1151.5
491.874	1147.5
492.092	1140.5
492.31	1169.5
492.527	1179.5
492.745	1190.5
492.963	1143.5
493.18	1151.5
493.398	1210.5
493.615	1163.5
493.833	1148.5
494.05	1177.5
494.268	1183.5
494.485	1173.5
494.703	1224.5
494.92	1210.5
495.138	1216.5
495.355	1187.5
495.573	1177.5
495.79	1200.5
496.008	1229.5
496.225	1219.5
496.442	1226.5
496.66	1261.5
496.877	1244.5
497.094	1285.5
497.312	1304.5
497.529	1331.5
497.746	1353.5
497.963	1411.5
498.181	1483.5
498.398	1511.5
498.615	1611.5
498.832	1660.5
499.049	1818.5
499.267	1961.5
499.484	2113.5
499.701	2323.5
499.918	2508.5
500.135	2772.5
500.352	3002.5
500.569	3173.5
500.786	3121.5
501.003	2935.5
501.22	2767.5
501.437	2474.5
501.654	2221.5
501.871	2016.5
502.088	1919.5
502.305	1781.5
502.522	1718.5
502.739	1663.5
502.956	1532.5
503.172	1484.5
503.389	1448.5
503.606	1405.5
503.823	1392.5
504.04	1354.5
504.256	1363.5
504.473	1364.5
504.69	1394.5
504.907	1347.5
505.123	1254.5
505.34	1222.5
505.557	1171.5
505.773	1169.5
505.99	1134.5
506.207	1100.5
506.423	1104.5
506.64	1099.5
506.856	1053.5
507.073	1070.5
507.289	1026.5
507.506	1027.5
507.722	1057.5
507.939	1023.5
508.155	1024.5
508.372	1010.5
508.588	981.5
508.805	1009.5
509.021	1015.5
509.238	994.5
509.454	1004.5
509.67	953.5
509.887	966.5
510.103	980.5
510.319	959.5
510.536	968.5
510.752	962.5
510.968	988.5
511.184	931.5
511.401	940.5
511.617	954.5
511.833	966.5
512.049	947.5
512.265	954.5
512.481	940.5
512.698	940.5
512.914	944.5
513.13	956.5
513.346	955.5
513.562	954.5
513.778	943.5
513.994	955.5
514.21	986.5
