Data from NiCl2@0.125M.TitratingCurve.Agarose3%dH2O.NegLispCup.LampEnergy10.LIBS07252019_HRD10591_18-29-59-575.txt Node
Date: Thu Jul 25 18:29:59 EDT 2019
User: cochatt
Spectrometer: HR+D1059
Trigger mode: 1
Integration Time (sec): 1.000000E-1
Scans to average: 1
Electric dark correction enabled: true
Nonlinearity correction enabled: false
Boxcar width: 0
XAxis mode: Wavelengths
Number of Pixels in Spectrum: 2048
>>>>>Begin Spectral Data<<<<<
223.165	-6.81
223.4	-6.81
223.635	-6.81
223.869	-12.81
224.104	-17.81
224.338	-8.81
224.573	-14.81
224.808	-14.81
225.042	-15.81
225.277	-9.81
225.511	-9.81
225.746	3.19
225.98	8.19
226.215	24.19
226.449	1.19
226.683	25.19
226.918	17.19
227.152	32.19
227.387	50.19
227.621	38.19
227.856	38.19
228.09	36.19
228.324	50.19
228.559	60.19
228.793	80.19
229.027	113.19
229.262	115.19
229.496	114.19
229.73	131.19
229.964	135.19
230.199	131.19
230.433	141.19
230.667	148.19
230.901	127.19
231.136	141.19
231.37	144.19
231.604	155.19
231.838	154.19
232.072	167.19
232.306	151.19
232.541	146.19
232.775	165.19
233.009	153.19
233.243	155.19
233.477	158.19
233.711	154.19
233.945	169.19
234.179	155.19
234.413	143.19
234.647	177.19
234.881	154.19
235.115	141.19
235.349	158.19
235.583	159.19
235.817	162.19
236.051	151.19
236.285	169.19
236.519	154.19
236.753	170.19
236.987	172.19
237.221	154.19
237.455	165.19
237.689	173.19
237.922	161.19
238.156	181.19
238.39	179.19
238.624	181.19
238.858	177.19
239.091	185.19
239.325	195.19
239.559	169.19
239.793	195.19
240.027	179.19
240.26	186.19
240.494	207.19
240.728	190.19
240.961	183.19
241.195	198.19
241.429	193.19
241.662	203.19
241.896	192.19
242.13	201.19
242.363	203.19
242.597	209.19
242.83	200.19
243.064	210.19
243.298	211.19
243.531	193.19
243.765	225.19
243.998	212.19
244.232	206.19
244.465	220.19
244.699	214.19
244.932	226.19
245.166	229.19
245.399	226.19
245.633	214.19
245.866	219.19
246.099	233.19
246.333	215.19
246.566	221.19
246.8	233.19
247.033	232.19
247.266	231.19
247.5	230.19
247.733	234.19
247.966	258.19
248.2	240.19
248.433	252.19
248.666	257.19
248.899	270.19
249.133	258.19
249.366	277.19
249.599	275.19
249.832	262.19
250.066	261.19
250.299	254.19
250.532	284.19
250.765	241.19
250.998	264.19
251.231	269.19
251.465	276.19
251.698	269.19
251.931	273.19
252.164	276.19
252.397	268.19
252.63	284.19
252.863	281.19
253.096	281.19
253.329	289.19
253.562	277.19
253.795	273.19
254.028	293.19
254.261	293.19
254.494	282.19
254.727	312.19
254.96	291.19
255.193	281.19
255.426	294.19
255.659	268.19
255.892	296.19
256.124	296.19
256.357	291.19
256.59	296.19
256.823	302.19
257.056	294.19
257.289	291.19
257.521	308.19
257.754	295.19
257.987	321.19
258.22	317.19
258.452	294.19
258.685	310.19
258.918	312.19
259.151	312.19
259.383	323.19
259.616	315.19
259.849	332.19
260.081	342.19
260.314	315.19
260.547	325.19
260.779	329.19
261.012	329.19
261.244	339.19
261.477	328.19
261.71	337.19
261.942	335.19
262.175	333.19
262.407	329.19
262.64	339.19
262.872	322.19
263.105	327.19
263.337	348.19
263.57	341.19
263.802	349.19
264.035	352.19
264.267	354.19
264.499	344.19
264.732	359.19
264.964	362.19
265.197	358.19
265.429	355.19
265.661	373.19
265.894	351.19
266.126	350.19
266.358	339.19
266.591	354.19
266.823	367.19
267.055	361.19
267.287	368.19
267.52	363.19
267.752	377.19
267.984	357.19
268.216	354.19
268.448	365.19
268.681	362.19
268.913	383.19
269.145	404.19
269.377	385.19
269.609	364.19
269.841	389.19
270.073	376.19
270.306	375.19
270.538	388.19
270.77	377.19
271.002	380.19
271.234	376.19
271.466	382.19
271.698	393.19
271.93	391.19
272.162	388.19
272.394	412.19
272.626	402.19
272.858	375.19
273.09	407.19
273.322	395.19
273.553	411.19
273.785	395.19
274.017	397.19
274.249	409.19
274.481	412.19
274.713	394.19
274.945	429.19
275.176	437.19
275.408	410.19
275.64	419.19
275.872	408.19
276.104	419.19
276.335	410.19
276.567	400.19
276.799	400.19
277.031	433.19
277.262	440.19
277.494	440.19
277.726	410.19
277.957	424.19
278.189	438.19
278.421	438.19
278.652	425.19
278.884	435.19
279.115	445.19
279.347	443.19
279.579	424.19
279.81	432.19
280.042	449.19
280.273	443.19
280.505	453.19
280.736	451.19
280.968	474.19
281.199	467.19
281.431	469.19
281.662	476.19
281.894	440.19
282.125	463.19
282.356	462.19
282.588	448.19
282.819	446.19
283.051	486.19
283.282	474.19
283.513	496.19
283.745	484.19
283.976	493.19
284.207	485.19
284.439	480.19
284.67	488.19
284.901	494.19
285.132	509.19
285.364	498.19
285.595	502.19
285.826	513.19
286.057	508.19
286.288	496.19
286.52	507.19
286.751	514.19
286.982	499.19
287.213	508.19
287.444	508.19
287.675	504.19
287.906	506.19
288.138	522.19
288.369	498.19
288.6	523.19
288.831	511.19
289.062	521.19
289.293	529.19
289.524	526.19
289.755	518.19
289.986	533.19
290.217	515.19
290.448	539.19
290.679	527.19
290.91	531.19
291.141	537.19
291.371	541.19
291.602	554.19
291.833	543.19
292.064	529.19
292.295	522.19
292.526	542.19
292.757	544.19
292.987	536.19
293.218	530.19
293.449	560.19
293.68	528.19
293.91	530.19
294.141	535.19
294.372	569.19
294.603	546.19
294.833	534.19
295.064	530.19
295.295	572.19
295.525	534.19
295.756	555.19
295.987	536.19
296.217	578.19
296.448	568.19
296.679	563.19
296.909	555.19
297.14	556.19
297.37	549.19
297.601	555.19
297.831	569.19
298.062	596.19
298.292	591.19
298.523	635.19
298.753	605.19
298.984	605.19
299.214	594.19
299.445	561.19
299.675	573.19
299.905	581.19
300.136	581.19
300.366	595.19
300.597	597.19
300.827	613.19
301.057	597.19
301.288	614.19
301.518	608.19
301.748	623.19
301.979	621.19
302.209	630.19
302.439	594.19
302.669	615.19
302.9	592.19
303.13	581.19
303.36	582.19
303.59	602.19
303.82	605.19
304.051	612.19
304.281	631.19
304.511	589.19
304.741	588.19
304.971	617.19
305.201	589.19
305.431	610.19
305.661	581.19
305.891	599.19
306.121	586.19
306.352	585.19
306.582	605.19
306.812	582.19
307.042	586.19
307.272	591.19
307.502	577.19
307.731	575.19
307.961	577.19
308.191	585.19
308.421	582.19
308.651	596.19
308.881	567.19
309.111	587.19
309.341	593.19
309.571	578.19
309.8	585.19
310.03	575.19
310.26	583.19
310.49	591.19
310.72	567.19
310.949	603.19
311.179	607.19
311.409	605.19
311.639	598.19
311.868	595.19
312.098	598.19
312.328	610.19
312.557	606.19
312.787	599.19
313.017	603.19
313.246	619.19
313.476	605.19
313.706	619.19
313.935	627.19
314.165	632.19
314.394	615.19
314.624	635.19
314.853	633.19
315.083	611.19
315.312	621.19
315.542	621.19
315.771	615.19
316.001	615.19
316.23	609.19
316.46	598.19
316.689	608.19
316.919	616.19
317.148	616.19
317.377	612.19
317.607	630.19
317.836	595.19
318.065	586.19
318.295	612.19
318.524	593.19
318.753	604.19
318.983	599.19
319.212	591.19
319.441	593.19
319.67	600.19
319.9	611.19
320.129	593.19
320.358	595.19
320.587	595.19
320.816	630.19
321.046	620.19
321.275	626.19
321.504	613.19
321.733	617.19
321.962	609.19
322.191	636.19
322.42	630.19
322.649	607.19
322.878	626.19
323.108	614.19
323.337	641.19
323.566	599.19
323.795	621.19
324.024	603.19
324.253	620.19
324.482	610.19
324.71	631.19
324.939	642.19
325.168	633.19
325.397	635.19
325.626	634.19
325.855	627.19
326.084	695.19
326.313	676.19
326.542	667.19
326.77	683.19
326.999	657.19
327.228	630.19
327.457	653.19
327.686	655.19
327.914	678.19
328.143	667.19
328.372	664.19
328.6	653.19
328.829	660.19
329.058	664.19
329.287	654.19
329.515	671.19
329.744	677.19
329.972	675.19
330.201	672.19
330.43	665.19
330.658	667.19
330.887	683.19
331.115	677.19
331.344	698.19
331.572	699.19
331.801	710.19
332.03	733.19
332.258	733.19
332.486	762.19
332.715	795.19
332.943	794.19
333.172	848.19
333.4	863.19
333.629	927.19
333.857	931.19
334.085	907.19
334.314	869.19
334.542	889.19
334.771	864.19
334.999	849.19
335.227	826.19
335.455	825.19
335.684	808.19
335.912	817.19
336.14	810.19
336.369	791.19
336.597	822.19
336.825	824.19
337.053	802.19
337.281	777.19
337.51	772.19
337.738	748.19
337.966	740.19
338.194	736.19
338.422	724.19
338.65	718.19
338.878	723.19
339.106	723.19
339.334	726.19
339.562	705.19
339.79	702.19
340.018	681.19
340.246	701.19
340.474	701.19
340.702	699.19
340.93	684.19
341.158	690.19
341.386	707.19
341.614	690.19
341.842	685.19
342.07	714.19
342.298	688.19
342.526	678.19
342.754	696.19
342.981	699.19
343.209	700.19
343.437	751.19
343.665	747.19
343.893	833.19
344.12	849.19
344.348	835.19
344.576	816.19
344.804	767.19
345.031	751.19
345.259	726.19
345.487	707.19
345.714	701.19
345.942	679.19
346.17	696.19
346.397	725.19
346.625	684.19
346.853	679.19
347.08	665.19
347.308	673.19
347.535	700.19
347.763	689.19
347.99	717.19
348.218	716.19
348.445	686.19
348.673	659.19
348.9	669.19
349.128	671.19
349.355	680.19
349.583	650.19
349.81	656.19
350.037	667.19
350.265	641.19
350.492	663.19
350.72	654.19
350.947	650.19
351.174	655.19
351.402	658.19
351.629	649.19
351.856	647.19
352.083	643.19
352.311	622.19
352.538	660.19
352.765	651.19
352.992	634.19
353.22	629.19
353.447	636.19
353.674	636.19
353.901	625.19
354.128	641.19
354.355	643.19
354.583	642.19
354.81	649.19
355.037	669.19
355.264	663.19
355.491	648.19
355.718	651.19
355.945	657.19
356.172	690.19
356.399	661.19
356.626	657.19
356.853	660.19
357.08	638.19
357.307	655.19
357.534	630.19
357.761	647.19
357.988	662.19
358.215	661.19
358.441	657.19
358.668	662.19
358.895	653.19
359.122	655.19
359.349	652.19
359.576	670.19
359.802	651.19
360.029	635.19
360.256	649.19
360.483	639.19
360.709	647.19
360.936	650.19
361.163	651.19
361.39	648.19
361.616	658.19
361.843	646.19
362.07	645.19
362.296	649.19
362.523	636.19
362.749	642.19
362.976	661.19
363.203	624.19
363.429	637.19
363.656	641.19
363.882	634.19
364.109	638.19
364.335	643.19
364.562	631.19
364.788	643.19
365.015	647.19
365.241	642.19
365.468	642.19
365.694	643.19
365.92	641.19
366.147	661.19
366.373	658.19
366.599	641.19
366.826	618.19
367.052	665.19
367.278	666.19
367.505	666.19
367.731	658.19
367.957	645.19
368.184	639.19
368.41	654.19
368.636	679.19
368.862	663.19
369.089	652.19
369.315	675.19
369.541	662.19
369.767	664.19
369.993	648.19
370.219	694.19
370.445	679.19
370.672	695.19
370.898	709.19
371.124	677.19
371.35	715.19
371.576	718.19
371.802	706.19
372.028	673.19
372.254	701.19
372.48	727.19
372.706	729.19
372.932	730.19
373.158	727.19
373.384	717.19
373.61	703.19
373.835	708.19
374.061	711.19
374.287	712.19
374.513	709.19
374.739	775.19
374.965	766.19
375.191	793.19
375.416	798.19
375.642	785.19
375.868	753.19
376.094	750.19
376.319	723.19
376.545	727.19
376.771	718.19
376.997	730.19
377.222	731.19
377.448	721.19
377.674	718.19
377.899	724.19
378.125	707.19
378.35	685.19
378.576	697.19
378.802	691.19
379.027	685.19
379.253	709.19
379.478	694.19
379.704	701.19
379.929	689.19
380.155	687.19
380.38	713.19
380.606	710.19
380.831	693.19
381.057	672.19
381.282	687.19
381.507	716.19
381.733	731.19
381.958	733.19
382.184	720.19
382.409	719.19
382.634	747.19
382.86	732.19
383.085	759.19
383.31	742.19
383.535	778.19
383.761	810.19
383.986	806.19
384.211	821.19
384.436	800.19
384.662	855.19
384.887	863.19
385.112	855.19
385.337	866.19
385.562	837.19
385.787	871.19
386.013	859.19
386.238	873.19
386.463	850.19
386.688	841.19
386.913	841.19
387.138	846.19
387.363	839.19
387.588	843.19
387.813	859.19
388.038	849.19
388.263	845.19
388.488	832.19
388.713	842.19
388.938	872.19
389.163	798.19
389.387	841.19
389.612	823.19
389.837	831.19
390.062	823.19
390.287	821.19
390.512	806.19
390.736	835.19
390.961	837.19
391.186	847.19
391.411	911.19
391.636	878.19
391.86	933.19
392.085	971.19
392.31	941.19
392.534	936.19
392.759	913.19
392.984	919.19
393.208	904.19
393.433	885.19
393.658	929.19
393.882	899.19
394.107	900.19
394.331	905.19
394.556	919.19
394.78	889.19
395.005	920.19
395.229	883.19
395.454	925.19
395.678	959.19
395.903	958.19
396.127	950.19
396.352	894.19
396.576	872.19
396.801	893.19
397.025	893.19
397.249	882.19
397.474	935.19
397.698	938.19
397.922	967.19
398.147	920.19
398.371	943.19
398.595	991.19
398.82	1030.19
399.044	1108.19
399.268	1227.19
399.492	1412.19
399.717	1603.19
399.941	1637.19
400.165	1443.19
400.389	1269.19
400.613	1177.19
400.837	1133.19
401.062	1084.19
401.286	1040.19
401.51	1054.19
401.734	1037.19
401.958	1077.19
402.182	1072.19
402.406	1070.19
402.63	1114.19
402.854	1137.19
403.078	1165.19
403.302	1206.19
403.526	1221.19
403.75	1185.19
403.974	1217.19
404.198	1227.19
404.422	1218.19
404.645	1215.19
404.869	1220.19
405.093	1249.19
405.317	1187.19
405.541	1149.19
405.765	1165.19
405.988	1124.19
406.212	1163.19
406.436	1150.19
406.66	1181.19
406.883	1181.19
407.107	1291.19
407.331	1321.19
407.555	1410.19
407.778	1388.19
408.002	1346.19
408.226	1297.19
408.449	1282.19
408.673	1221.19
408.896	1207.19
409.12	1201.19
409.344	1201.19
409.567	1217.19
409.791	1222.19
410.014	1225.19
410.238	1199.19
410.461	1207.19
410.685	1165.19
410.908	1142.19
411.132	1089.19
411.355	1089.19
411.578	1084.19
411.802	1078.19
412.025	1080.19
412.249	1106.19
412.472	1111.19
412.695	1067.19
412.919	1067.19
413.142	1088.19
413.365	1041.19
413.589	1022.19
413.812	1051.19
414.035	1062.19
414.258	1051.19
414.482	1063.19
414.705	1083.19
414.928	1071.19
415.151	1050.19
415.374	1053.19
415.597	1072.19
415.821	1041.19
416.044	1041.19
416.267	1023.19
416.49	1023.19
416.713	1047.19
416.936	1070.19
417.159	1065.19
417.382	1054.19
417.605	1032.19
417.828	1066.19
418.051	1037.19
418.274	1074.19
418.497	1057.19
418.72	1107.19
418.943	1105.19
419.166	1145.19
419.389	1243.19
419.611	1207.19
419.834	1162.19
420.057	1120.19
420.28	1098.19
420.503	1062.19
420.726	1051.19
420.948	1042.19
421.171	1047.19
421.394	1017.19
421.617	1050.19
421.839	1102.19
422.062	1075.19
422.285	1037.19
422.507	1070.19
422.73	1084.19
422.953	1085.19
423.175	1097.19
423.398	1118.19
423.621	1088.19
423.843	1168.19
424.066	1111.19
424.288	1111.19
424.511	1105.19
424.733	1117.19
424.956	1089.19
425.178	1074.19
425.401	1073.19
425.623	1070.19
425.846	1005.19
426.068	1030.19
426.291	1031.19
426.513	1004.19
426.735	1005.19
426.958	969.19
427.18	940.19
427.402	973.19
427.625	982.19
427.847	924.19
428.069	929.19
428.292	977.19
428.514	969.19
428.736	939.19
428.958	957.19
429.181	924.19
429.403	915.19
429.625	937.19
429.847	921.19
430.069	920.19
430.292	945.19
430.514	928.19
430.736	922.19
430.958	921.19
431.18	882.19
431.402	928.19
431.624	921.19
431.846	934.19
432.068	954.19
432.29	962.19
432.512	962.19
432.734	979.19
432.956	932.19
433.178	961.19
433.4	976.19
433.622	960.19
433.844	983.19
434.066	971.19
434.287	984.19
434.509	994.19
434.731	1063.19
434.953	1089.19
435.175	1073.19
435.397	1097.19
435.618	991.19
435.84	980.19
436.062	967.19
436.284	952.19
436.505	950.19
436.727	989.19
436.949	981.19
437.17	937.19
437.392	939.19
437.614	934.19
437.835	925.19
438.057	913.19
438.278	887.19
438.5	897.19
438.721	882.19
438.943	934.19
439.165	922.19
439.386	964.19
439.608	940.19
439.829	943.19
440.05	945.19
440.272	953.19
440.493	978.19
440.715	997.19
440.936	976.19
441.158	1003.19
441.379	1004.19
441.6	1080.19
441.822	1081.19
442.043	1114.19
442.264	1043.19
442.486	1038.19
442.707	1071.19
442.928	1068.19
443.149	1050.19
443.371	1050.19
443.592	1073.19
443.813	1080.19
444.034	1076.19
444.255	1114.19
444.476	1168.19
444.698	1222.19
444.919	1289.19
445.14	1382.19
445.361	1243.19
445.582	1122.19
445.803	1047.19
446.024	1016.19
446.245	1003.19
446.466	1010.19
446.687	962.19
446.908	973.19
447.129	957.19
447.35	939.19
447.571	926.19
447.792	926.19
448.013	920.19
448.234	894.19
448.455	908.19
448.675	893.19
448.896	888.19
449.117	892.19
449.338	875.19
449.559	864.19
449.779	874.19
450	888.19
450.221	885.19
450.442	915.19
450.662	897.19
450.883	905.19
451.104	940.19
451.324	908.19
451.545	908.19
451.766	909.19
451.986	894.19
452.207	879.19
452.428	908.19
452.648	866.19
452.869	841.19
453.089	865.19
453.31	879.19
453.53	850.19
453.751	846.19
453.971	872.19
454.192	850.19
454.412	818.19
454.633	845.19
454.853	850.19
455.073	805.19
455.294	816.19
455.514	815.19
455.734	837.19
455.955	806.19
456.175	834.19
456.395	828.19
456.616	808.19
456.836	851.19
457.056	820.19
457.276	808.19
457.497	830.19
457.717	849.19
457.937	841.19
458.157	842.19
458.377	847.19
458.598	873.19
458.818	877.19
459.038	890.19
459.258	951.19
459.478	962.19
459.698	990.19
459.918	1009.19
460.138	1072.19
460.358	1129.19
460.578	1157.19
460.798	1146.19
461.018	1163.19
461.238	1117.19
461.458	1124.19
461.678	1103.19
461.898	1124.19
462.118	1149.19
462.338	1207.19
462.558	1226.19
462.777	1277.19
462.997	1394.19
463.217	1517.19
463.437	1515.19
463.657	1415.19
463.876	1335.19
464.096	1343.19
464.316	1335.19
464.536	1315.19
464.755	1297.19
464.975	1238.19
465.195	1191.19
465.414	1106.19
465.634	1037.19
465.854	998.19
466.073	980.19
466.293	953.19
466.512	953.19
466.732	923.19
466.951	940.19
467.171	927.19
467.391	931.19
467.61	912.19
467.829	929.19
468.049	928.19
468.268	890.19
468.488	891.19
468.707	859.19
468.927	884.19
469.146	899.19
469.365	898.19
469.585	894.19
469.804	941.19
470.023	930.19
470.243	939.19
470.462	974.19
470.681	966.19
470.901	959.19
471.12	935.19
471.339	926.19
471.558	917.19
471.777	912.19
471.997	896.19
472.216	906.19
472.435	877.19
472.654	859.19
472.873	847.19
473.092	873.19
473.311	863.19
473.53	867.19
473.749	861.19
473.968	863.19
474.187	854.19
474.406	847.19
474.625	837.19
474.844	895.19
475.063	873.19
475.282	876.19
475.501	894.19
475.72	877.19
475.939	909.19
476.158	903.19
476.377	871.19
476.596	887.19
476.814	919.19
477.033	889.19
477.252	935.19
477.471	955.19
477.69	979.19
477.908	1015.19
478.127	1021.19
478.346	1040.19
478.564	1063.19
478.783	1064.19
479.002	1082.19
479.22	1111.19
479.439	1091.19
479.658	1043.19
479.876	1040.19
480.095	1085.19
480.313	1155.19
480.532	1179.19
480.751	1171.19
480.969	1130.19
481.188	1098.19
481.406	1046.19
481.624	1034.19
481.843	992.19
482.061	1011.19
482.28	976.19
482.498	1007.19
482.717	983.19
482.935	997.19
483.153	997.19
483.372	977.19
483.59	994.19
483.808	1018.19
484.027	1009.19
484.245	1016.19
484.463	1015.19
484.681	1033.19
484.9	1014.19
485.118	1039.19
485.336	1051.19
485.554	1033.19
485.772	1052.19
485.99	1064.19
486.209	1081.19
486.427	1091.19
486.645	1067.19
486.863	1087.19
487.081	1074.19
487.299	1083.19
487.517	1066.19
487.735	1053.19
487.953	1082.19
488.171	1051.19
488.389	1040.19
488.607	1026.19
488.825	998.19
489.043	1042.19
489.261	1044.19
489.479	1013.19
489.696	1045.19
489.914	1052.19
490.132	1039.19
490.35	1043.19
490.568	1061.19
490.786	1014.19
491.003	1051.19
491.221	1048.19
491.439	1037.19
491.657	1047.19
491.874	1031.19
492.092	1044.19
492.31	1062.19
492.527	1078.19
492.745	1073.19
492.963	1054.19
493.18	1062.19
493.398	1095.19
493.615	1070.19
493.833	1070.19
494.05	1074.19
494.268	1109.19
494.485	1087.19
494.703	1117.19
494.92	1128.19
495.138	1103.19
495.355	1063.19
495.573	1104.19
495.79	1116.19
496.008	1118.19
496.225	1090.19
496.442	1136.19
496.66	1131.19
496.877	1152.19
497.094	1186.19
497.312	1169.19
497.529	1224.19
497.746	1217.19
497.963	1261.19
