Data from NiCl2@0.5M.TitratingCurve.Agarose3%dH2O.NegLispCup.LampEnergy10.LIBS07252019_HRD10591_18-20-00-571.txt Node
Date: Thu Jul 25 18:20:00 EDT 2019
User: cochatt
Spectrometer: HR+D1059
Trigger mode: 1
Integration Time (sec): 1.000000E-1
Scans to average: 1
Electric dark correction enabled: true
Nonlinearity correction enabled: false
Boxcar width: 0
XAxis mode: Wavelengths
Number of Pixels in Spectrum: 2048
>>>>>Begin Spectral Data<<<<<
223.165	-24.19
223.4	-24.19
223.635	-24.19
223.869	-12.19
224.104	-31.19
224.338	-21.19
224.573	-11.19
224.808	-9.19
225.042	-19.19
225.277	-6.19
225.511	-0.19
225.746	21.81
225.98	6.81
226.215	20.81
226.449	21.81
226.683	26.81
226.918	15.81
227.152	20.81
227.387	34.81
227.621	43.81
227.856	46.81
228.09	50.81
228.324	57.81
228.559	52.81
228.793	59.81
229.027	79.81
229.262	79.81
229.496	97.81
229.73	94.81
229.964	115.81
230.199	123.81
230.433	114.81
230.667	117.81
230.901	128.81
231.136	113.81
231.37	123.81
231.604	122.81
231.838	137.81
232.072	129.81
232.306	131.81
232.541	136.81
232.775	124.81
233.009	112.81
233.243	137.81
233.477	117.81
233.711	129.81
233.945	137.81
234.179	140.81
234.413	129.81
234.647	134.81
234.881	121.81
235.115	133.81
235.349	135.81
235.583	136.81
235.817	124.81
236.051	129.81
236.285	127.81
236.519	131.81
236.753	129.81
236.987	126.81
237.221	124.81
237.455	153.81
237.689	148.81
237.922	135.81
238.156	141.81
238.39	147.81
238.624	140.81
238.858	146.81
239.091	143.81
239.325	146.81
239.559	155.81
239.793	147.81
240.027	160.81
240.26	162.81
240.494	158.81
240.728	145.81
240.961	153.81
241.195	153.81
241.429	153.81
241.662	150.81
241.896	151.81
242.13	153.81
242.363	170.81
242.597	164.81
242.83	171.81
243.064	173.81
243.298	179.81
243.531	175.81
243.765	152.81
243.998	164.81
244.232	181.81
244.465	162.81
244.699	178.81
244.932	179.81
245.166	186.81
245.399	178.81
245.633	181.81
245.866	187.81
246.099	186.81
246.333	182.81
246.566	181.81
246.8	175.81
247.033	194.81
247.266	180.81
247.5	197.81
247.733	194.81
247.966	189.81
248.2	191.81
248.433	206.81
248.666	187.81
248.899	195.81
249.133	201.81
249.366	204.81
249.599	193.81
249.832	191.81
250.066	203.81
250.299	208.81
250.532	199.81
250.765	201.81
250.998	205.81
251.231	199.81
251.465	222.81
251.698	221.81
251.931	212.81
252.164	220.81
252.397	194.81
252.63	221.81
252.863	213.81
253.096	219.81
253.329	243.81
253.562	230.81
253.795	221.81
254.028	219.81
254.261	230.81
254.494	229.81
254.727	221.81
254.96	231.81
255.193	236.81
255.426	225.81
255.659	215.81
255.892	208.81
256.124	225.81
256.357	239.81
256.59	236.81
256.823	245.81
257.056	250.81
257.289	268.81
257.521	225.81
257.754	238.81
257.987	235.81
258.22	233.81
258.452	210.81
258.685	245.81
258.918	233.81
259.151	249.81
259.383	267.81
259.616	255.81
259.849	272.81
260.081	228.81
260.314	245.81
260.547	252.81
260.779	252.81
261.012	236.81
261.244	259.81
261.477	253.81
261.71	269.81
261.942	258.81
262.175	268.81
262.407	252.81
262.64	253.81
262.872	257.81
263.105	273.81
263.337	274.81
263.57	271.81
263.802	279.81
264.035	272.81
264.267	263.81
264.499	259.81
264.732	288.81
264.964	272.81
265.197	272.81
265.429	294.81
265.661	268.81
265.894	277.81
266.126	284.81
266.358	272.81
266.591	291.81
266.823	293.81
267.055	292.81
267.287	290.81
267.52	284.81
267.752	292.81
267.984	300.81
268.216	296.81
268.448	298.81
268.681	296.81
268.913	293.81
269.145	301.81
269.377	317.81
269.609	296.81
269.841	302.81
270.073	312.81
270.306	314.81
270.538	297.81
270.77	310.81
271.002	298.81
271.234	307.81
271.466	307.81
271.698	317.81
271.93	311.81
272.162	329.81
272.394	331.81
272.626	314.81
272.858	317.81
273.09	314.81
273.322	315.81
273.553	328.81
273.785	324.81
274.017	314.81
274.249	325.81
274.481	323.81
274.713	316.81
274.945	314.81
275.176	322.81
275.408	314.81
275.64	344.81
275.872	314.81
276.104	330.81
276.335	344.81
276.567	332.81
276.799	347.81
277.031	325.81
277.262	342.81
277.494	336.81
277.726	341.81
277.957	340.81
278.189	340.81
278.421	355.81
278.652	353.81
278.884	341.81
279.115	361.81
279.347	342.81
279.579	357.81
279.81	339.81
280.042	333.81
280.273	366.81
280.505	359.81
280.736	378.81
280.968	359.81
281.199	341.81
281.431	373.81
281.662	372.81
281.894	359.81
282.125	362.81
282.356	373.81
282.588	386.81
282.819	367.81
283.051	384.81
283.282	381.81
283.513	383.81
283.745	363.81
283.976	368.81
284.207	359.81
284.439	387.81
284.67	389.81
284.901	386.81
285.132	379.81
285.364	405.81
285.595	377.81
285.826	378.81
286.057	376.81
286.288	385.81
286.52	396.81
286.751	388.81
286.982	392.81
287.213	399.81
287.444	386.81
287.675	411.81
287.906	404.81
288.138	405.81
288.369	389.81
288.6	415.81
288.831	415.81
289.062	419.81
289.293	405.81
289.524	399.81
289.755	405.81
289.986	421.81
290.217	439.81
290.448	428.81
290.679	395.81
290.91	410.81
291.141	402.81
291.371	416.81
291.602	419.81
291.833	415.81
292.064	413.81
292.295	414.81
292.526	399.81
292.757	424.81
292.987	413.81
293.218	414.81
293.449	414.81
293.68	410.81
293.91	417.81
294.141	424.81
294.372	417.81
294.603	420.81
294.833	421.81
295.064	425.81
295.295	421.81
295.525	439.81
295.756	442.81
295.987	439.81
296.217	446.81
296.448	438.81
296.679	427.81
296.909	422.81
297.14	438.81
297.37	436.81
297.601	449.81
297.831	445.81
298.062	442.81
298.292	465.81
298.523	454.81
298.753	465.81
298.984	465.81
299.214	465.81
299.445	450.81
299.675	478.81
299.905	461.81
300.136	448.81
300.366	467.81
300.597	486.81
300.827	475.81
301.057	476.81
301.288	497.81
301.518	491.81
301.748	492.81
301.979	461.81
302.209	488.81
302.439	487.81
302.669	468.81
302.9	484.81
303.13	470.81
303.36	471.81
303.59	479.81
303.82	489.81
304.051	487.81
304.281	497.81
304.511	492.81
304.741	481.81
304.971	477.81
305.201	513.81
305.431	509.81
305.661	494.81
305.891	482.81
306.121	485.81
306.352	470.81
306.582	468.81
306.812	472.81
307.042	463.81
307.272	466.81
307.502	486.81
307.731	489.81
307.961	485.81
308.191	484.81
308.421	486.81
308.651	487.81
308.881	494.81
309.111	484.81
309.341	473.81
309.571	462.81
309.8	474.81
310.03	481.81
310.26	486.81
310.49	504.81
310.72	491.81
310.949	485.81
311.179	483.81
311.409	480.81
311.639	490.81
311.868	490.81
312.098	503.81
312.328	484.81
312.557	525.81
312.787	498.81
313.017	509.81
313.246	517.81
313.476	501.81
313.706	518.81
313.935	511.81
314.165	521.81
314.394	534.81
314.624	507.81
314.853	483.81
315.083	510.81
315.312	505.81
315.542	506.81
315.771	513.81
316.001	508.81
316.23	515.81
316.46	495.81
316.689	538.81
316.919	509.81
317.148	530.81
317.377	531.81
317.607	517.81
317.836	477.81
318.065	514.81
318.295	494.81
318.524	509.81
318.753	510.81
318.983	510.81
319.212	515.81
319.441	530.81
319.67	534.81
319.9	528.81
320.129	515.81
320.358	544.81
320.587	517.81
320.816	516.81
321.046	519.81
321.275	521.81
321.504	511.81
321.733	513.81
321.962	503.81
322.191	527.81
322.42	509.81
322.649	519.81
322.878	515.81
323.108	492.81
323.337	531.81
323.566	528.81
323.795	517.81
324.024	533.81
324.253	526.81
324.482	531.81
324.71	541.81
324.939	537.81
325.168	525.81
325.397	542.81
325.626	527.81
325.855	527.81
326.084	553.81
326.313	559.81
326.542	563.81
326.77	548.81
326.999	546.81
327.228	530.81
327.457	536.81
327.686	567.81
327.914	569.81
328.143	551.81
328.372	567.81
328.6	553.81
328.829	543.81
329.058	534.81
329.287	569.81
329.515	567.81
329.744	558.81
329.972	553.81
330.201	556.81
330.43	579.81
330.658	571.81
330.887	580.81
331.115	579.81
331.344	583.81
331.572	578.81
331.801	613.81
332.03	599.81
332.258	617.81
332.486	639.81
332.715	653.81
332.943	633.81
333.172	684.81
333.4	716.81
333.629	744.81
333.857	741.81
334.085	716.81
334.314	712.81
334.542	682.81
334.771	697.81
334.999	681.81
335.227	681.81
335.455	697.81
335.684	673.81
335.912	682.81
336.14	656.81
336.369	669.81
336.597	675.81
336.825	679.81
337.053	677.81
337.281	679.81
337.51	651.81
337.738	632.81
337.966	621.81
338.194	645.81
338.422	621.81
338.65	617.81
338.878	613.81
339.106	596.81
339.334	625.81
339.562	607.81
339.79	587.81
340.018	588.81
340.246	582.81
340.474	595.81
340.702	604.81
340.93	586.81
341.158	589.81
341.386	589.81
341.614	604.81
341.842	604.81
342.07	589.81
342.298	596.81
342.526	586.81
342.754	579.81
342.981	594.81
343.209	611.81
343.437	648.81
343.665	665.81
343.893	686.81
344.12	689.81
344.348	656.81
344.576	645.81
344.804	635.81
345.031	617.81
345.259	584.81
345.487	580.81
345.714	604.81
345.942	606.81
346.17	583.81
346.397	585.81
346.625	573.81
346.853	548.81
347.08	555.81
347.308	569.81
347.535	573.81
347.763	559.81
347.99	552.81
348.218	538.81
348.445	564.81
348.673	575.81
348.9	546.81
349.128	569.81
349.355	553.81
349.583	566.81
349.81	543.81
350.037	556.81
350.265	553.81
350.492	545.81
350.72	535.81
350.947	545.81
351.174	555.81
351.402	573.81
351.629	541.81
351.856	546.81
352.083	518.81
352.311	536.81
352.538	539.81
352.765	562.81
352.992	551.81
353.22	550.81
353.447	523.81
353.674	537.81
353.901	535.81
354.128	540.81
354.355	531.81
354.583	523.81
354.81	535.81
355.037	541.81
355.264	528.81
355.491	527.81
355.718	537.81
355.945	526.81
356.172	542.81
356.399	557.81
356.626	550.81
356.853	542.81
357.08	525.81
357.307	540.81
357.534	543.81
357.761	526.81
357.988	525.81
358.215	534.81
358.441	515.81
358.668	518.81
358.895	531.81
359.122	527.81
359.349	519.81
359.576	533.81
359.802	530.81
360.029	535.81
360.256	546.81
360.483	530.81
360.709	511.81
360.936	524.81
361.163	541.81
361.39	545.81
361.616	526.81
361.843	551.81
362.07	545.81
362.296	561.81
362.523	544.81
362.749	545.81
362.976	525.81
363.203	534.81
363.429	509.81
363.656	527.81
363.882	505.81
364.109	527.81
364.335	528.81
364.562	525.81
364.788	527.81
365.015	527.81
365.241	523.81
365.468	537.81
365.694	522.81
365.92	511.81
366.147	515.81
366.373	525.81
366.599	507.81
366.826	511.81
367.052	530.81
367.278	534.81
367.505	549.81
367.731	547.81
367.957	541.81
368.184	532.81
368.41	522.81
368.636	524.81
368.862	543.81
369.089	503.81
369.315	555.81
369.541	562.81
369.767	522.81
369.993	540.81
370.219	551.81
370.445	554.81
370.672	550.81
370.898	541.81
371.124	560.81
371.35	579.81
371.576	561.81
371.802	572.81
372.028	555.81
372.254	569.81
372.48	581.81
372.706	578.81
372.932	579.81
373.158	589.81
373.384	587.81
373.61	567.81
373.835	565.81
374.061	564.81
374.287	577.81
374.513	578.81
374.739	602.81
374.965	605.81
375.191	622.81
375.416	602.81
375.642	600.81
375.868	610.81
376.094	585.81
376.319	571.81
376.545	593.81
376.771	586.81
376.997	592.81
377.222	567.81
377.448	546.81
377.674	551.81
377.899	535.81
378.125	562.81
378.35	550.81
378.576	547.81
378.802	546.81
379.027	545.81
379.253	545.81
379.478	545.81
379.704	545.81
379.929	528.81
380.155	557.81
380.38	563.81
380.606	539.81
380.831	545.81
381.057	589.81
381.282	550.81
381.507	554.81
381.733	571.81
381.958	579.81
382.184	562.81
382.409	566.81
382.634	563.81
382.86	585.81
383.085	610.81
383.31	603.81
383.535	597.81
383.761	601.81
383.986	613.81
384.211	626.81
384.436	629.81
384.662	619.81
384.887	627.81
385.112	631.81
385.337	651.81
385.562	659.81
385.787	644.81
386.013	652.81
386.238	646.81
386.463	643.81
386.688	650.81
386.913	646.81
387.138	652.81
387.363	660.81
387.588	631.81
387.813	633.81
388.038	649.81
388.263	651.81
388.488	654.81
388.713	645.81
388.938	650.81
389.163	627.81
389.387	647.81
389.612	627.81
389.837	615.81
390.062	641.81
390.287	634.81
390.512	639.81
390.736	651.81
390.961	648.81
391.186	664.81
391.411	668.81
391.636	671.81
391.86	709.81
392.085	731.81
392.31	717.81
392.534	723.81
392.759	689.81
392.984	685.81
393.208	671.81
393.433	664.81
393.658	711.81
393.882	675.81
394.107	682.81
394.331	691.81
394.556	691.81
394.78	682.81
395.005	718.81
395.229	707.81
395.454	702.81
395.678	717.81
395.903	705.81
396.127	732.81
396.352	695.81
396.576	678.81
396.801	693.81
397.025	683.81
397.249	717.81
397.474	707.81
397.698	729.81
397.922	725.81
398.147	733.81
398.371	734.81
398.595	755.81
398.82	802.81
399.044	853.81
399.268	937.81
399.492	1067.81
399.717	1159.81
399.941	1139.81
400.165	1020.81
400.389	934.81
400.613	865.81
400.837	833.81
401.062	823.81
401.286	808.81
401.51	807.81
401.734	804.81
401.958	815.81
402.182	818.81
402.406	843.81
402.63	839.81
402.854	875.81
403.078	842.81
403.302	884.81
403.526	868.81
403.75	901.81
403.974	920.81
404.198	895.81
404.422	910.81
404.645	897.81
404.869	898.81
405.093	895.81
405.317	885.81
405.541	867.81
405.765	872.81
405.988	873.81
406.212	875.81
406.436	885.81
406.66	933.81
406.883	916.81
407.107	961.81
407.331	1001.81
407.555	1036.81
407.778	1028.81
408.002	1030.81
408.226	1002.81
408.449	961.81
408.673	919.81
408.896	921.81
409.12	902.81
409.344	941.81
409.567	907.81
409.791	926.81
410.014	876.81
410.238	889.81
410.461	893.81
410.685	879.81
410.908	862.81
411.132	858.81
411.355	854.81
411.578	863.81
411.802	874.81
412.025	853.81
412.249	861.81
412.472	841.81
412.695	831.81
412.919	820.81
413.142	823.81
413.365	817.81
413.589	830.81
413.812	830.81
414.035	818.81
414.258	813.81
414.482	841.81
414.705	839.81
414.928	839.81
415.151	849.81
415.374	845.81
415.597	820.81
415.821	803.81
416.044	769.81
416.267	790.81
416.49	789.81
416.713	809.81
416.936	827.81
417.159	798.81
417.382	802.81
417.605	800.81
417.828	825.81
418.051	792.81
418.274	833.81
418.497	805.81
418.72	827.81
418.943	841.81
419.166	890.81
419.389	911.81
419.611	927.81
419.834	870.81
420.057	861.81
420.28	827.81
420.503	823.81
420.726	808.81
420.948	811.81
421.171	810.81
421.394	795.81
421.617	819.81
421.839	816.81
422.062	831.81
422.285	810.81
422.507	842.81
422.73	850.81
422.953	854.81
423.175	841.81
423.398	875.81
423.621	874.81
423.843	867.81
424.066	870.81
424.288	866.81
424.511	853.81
424.733	855.81
424.956	846.81
425.178	841.81
425.401	825.81
425.623	828.81
425.846	808.81
426.068	804.81
426.291	803.81
426.513	789.81
426.735	806.81
426.958	804.81
427.18	729.81
427.402	761.81
427.625	780.81
427.847	739.81
428.069	730.81
428.292	758.81
428.514	755.81
428.736	755.81
428.958	761.81
429.181	729.81
429.403	727.81
429.625	739.81
429.847	725.81
430.069	745.81
430.292	735.81
430.514	723.81
430.736	748.81
430.958	734.81
431.18	722.81
431.402	720.81
431.624	736.81
431.846	761.81
432.068	779.81
432.29	760.81
432.512	739.81
432.734	770.81
432.956	751.81
433.178	763.81
433.4	777.81
433.622	773.81
433.844	773.81
434.066	791.81
434.287	771.81
434.509	803.81
434.731	840.81
434.953	841.81
435.175	852.81
435.397	825.81
435.618	771.81
435.84	790.81
436.062	761.81
436.284	767.81
436.505	784.81
436.727	765.81
436.949	755.81
437.17	749.81
437.392	742.81
437.614	759.81
437.835	755.81
438.057	741.81
438.278	730.81
438.5	714.81
438.721	741.81
438.943	733.81
439.165	733.81
439.386	747.81
439.608	764.81
439.829	730.81
440.05	755.81
440.272	746.81
440.493	772.81
440.715	754.81
440.936	783.81
441.158	811.81
441.379	807.81
441.6	872.81
441.822	860.81
442.043	844.81
442.264	844.81
442.486	845.81
442.707	851.81
442.928	834.81
443.149	833.81
443.371	823.81
443.592	851.81
443.813	878.81
444.034	874.81
444.255	866.81
444.476	929.81
444.698	963.81
444.919	1005.81
445.14	1098.81
445.361	947.81
445.582	908.81
445.803	860.81
446.024	809.81
446.245	814.81
446.466	781.81
446.687	799.81
446.908	772.81
447.129	771.81
447.35	755.81
447.571	770.81
447.792	744.81
448.013	753.81
448.234	725.81
448.455	739.81
448.675	722.81
448.896	725.81
449.117	734.81
449.338	701.81
449.559	695.81
449.779	708.81
450	696.81
450.221	715.81
450.442	711.81
450.662	737.81
450.883	751.81
451.104	740.81
451.324	731.81
451.545	722.81
451.766	711.81
451.986	730.81
452.207	699.81
452.428	709.81
452.648	725.81
452.869	701.81
453.089	682.81
453.31	701.81
453.53	696.81
453.751	678.81
453.971	663.81
454.192	706.81
454.412	681.81
454.633	676.81
454.853	694.81
455.073	679.81
455.294	660.81
455.514	663.81
455.734	669.81
455.955	679.81
456.175	681.81
456.395	668.81
456.616	655.81
456.836	647.81
457.056	671.81
457.276	663.81
457.497	660.81
457.717	668.81
457.937	659.81
458.157	683.81
458.377	708.81
458.598	699.81
458.818	708.81
459.038	742.81
459.258	738.81
459.478	780.81
459.698	800.81
459.918	823.81
460.138	832.81
460.358	840.81
460.578	871.81
460.798	923.81
461.018	905.81
461.238	899.81
461.458	905.81
461.678	879.81
461.898	900.81
462.118	885.81
462.338	957.81
462.558	1007.81
462.777	1003.81
462.997	1074.81
463.217	1167.81
463.437	1167.81
463.657	1078.81
463.876	1025.81
464.096	1034.81
464.316	1020.81
464.536	1036.81
464.755	1004.81
464.975	967.81
465.195	908.81
465.414	868.81
465.634	833.81
465.854	825.81
466.073	800.81
466.293	787.81
466.512	766.81
466.732	762.81
466.951	773.81
467.171	749.81
467.391	750.81
467.61	753.81
467.829	748.81
468.049	775.81
468.268	736.81
468.488	725.81
468.707	743.81
468.927	729.81
469.146	718.81
469.365	737.81
469.585	749.81
469.804	740.81
470.023	734.81
470.243	788.81
470.462	796.81
470.681	784.81
470.901	749.81
471.12	784.81
471.339	774.81
471.558	741.81
471.777	746.81
471.997	740.81
472.216	714.81
472.435	712.81
472.654	725.81
472.873	722.81
473.092	715.81
473.311	721.81
473.53	705.81
473.749	693.81
473.968	713.81
474.187	708.81
474.406	717.81
474.625	729.81
474.844	723.81
475.063	704.81
475.282	725.81
475.501	730.81
475.72	732.81
475.939	734.81
476.158	733.81
476.377	745.81
476.596	739.81
476.814	738.81
477.033	726.81
477.252	765.81
477.471	783.81
477.69	794.81
477.908	799.81
478.127	828.81
478.346	829.81
478.564	843.81
478.783	844.81
479.002	894.81
479.22	897.81
479.439	889.81
479.658	876.81
479.876	857.81
480.095	886.81
480.313	906.81
480.532	926.81
480.751	914.81
480.969	908.81
481.188	875.81
481.406	873.81
481.624	834.81
481.843	819.81
482.061	829.81
482.28	836.81
482.498	807.81
482.717	817.81
482.935	824.81
483.153	842.81
483.372	838.81
483.59	852.81
483.808	813.81
484.027	831.81
484.245	861.81
484.463	855.81
484.681	848.81
484.9	868.81
485.118	860.81
485.336	852.81
485.554	844.81
485.772	864.81
485.99	875.81
486.209	863.81
486.427	866.81
486.645	883.81
486.863	896.81
487.081	854.81
487.299	874.81
487.517	872.81
487.735	891.81
487.953	875.81
488.171	898.81
488.389	877.81
488.607	848.81
488.825	842.81
489.043	824.81
489.261	855.81
489.479	884.81
489.696	895.81
489.914	917.81
490.132	868.81
490.35	877.81
490.568	851.81
490.786	867.81
491.003	881.81
491.221	897.81
491.439	900.81
491.657	871.81
491.874	901.81
492.092	927.81
492.31	878.81
492.527	915.81
492.745	923.81
492.963	940.81
493.18	888.81
493.398	910.81
493.615	931.81
493.833	933.81
494.05	931.81
494.268	936.81
494.485	930.81
494.703	918.81
494.92	933.81
495.138	927.81
495.355	970.81
495.573	953.81
495.79	918.81
496.008	968.81
496.225	917.81
496.442	925.81
496.66	948.81
496.877	977.81
497.094	999.81
497.312	988.81
497.529	1003.81
497.746	1014.81
497.963	1063.81
498.181	1088.81
498.398	1145.81
498.615	1187.81
498.832	1300.81
499.049	1371.81
499.267	1466.81
499.484	1565.81
499.701	1719.81
499.918	1863.81
500.135	2112.81
500.352	2346.81
500.569	2414.81
500.786	2384.81
501.003	2263.81
501.22	2078.81
