Data from NiCl2@0.0625M.TitratingCurve.Agarose3%dH2O.NegLispCup.LampEnergy10.LIBS07252019_HRD10591_18-34-58-576.txt Node
Date: Thu Jul 25 18:34:58 EDT 2019
User: cochatt
Spectrometer: HR+D1059
Trigger mode: 1
Integration Time (sec): 1.000000E-1
Scans to average: 1
Electric dark correction enabled: true
Nonlinearity correction enabled: false
Boxcar width: 0
XAxis mode: Wavelengths
Number of Pixels in Spectrum: 2048
>>>>>Begin Spectral Data<<<<<
223.165	-2.44
223.4	-2.44
223.635	-2.44
223.869	-18.44
224.104	-23.44
224.338	-18.44
224.573	-14.44
224.808	-5.44
225.042	-12.44
225.277	-8.44
225.511	-5.44
225.746	0.56
225.98	16.56
226.215	9.56
226.449	17.56
226.683	14.56
226.918	23.56
227.152	26.56
227.387	37.56
227.621	43.56
227.856	51.56
228.09	39.56
228.324	40.56
228.559	58.56
228.793	59.56
229.027	107.56
229.262	125.56
229.496	130.56
229.73	129.56
229.964	141.56
230.199	150.56
230.433	154.56
230.667	153.56
230.901	142.56
231.136	163.56
231.37	144.56
231.604	142.56
231.838	152.56
232.072	154.56
232.306	157.56
232.541	168.56
232.775	169.56
233.009	156.56
233.243	167.56
233.477	171.56
233.711	182.56
233.945	184.56
234.179	169.56
234.413	178.56
234.647	166.56
234.881	187.56
235.115	170.56
235.349	176.56
235.583	182.56
235.817	184.56
236.051	176.56
236.285	190.56
236.519	175.56
236.753	170.56
236.987	187.56
237.221	184.56
237.455	188.56
237.689	182.56
237.922	208.56
238.156	201.56
238.39	191.56
238.624	181.56
238.858	203.56
239.091	201.56
239.325	181.56
239.559	210.56
239.793	205.56
240.027	212.56
240.26	216.56
240.494	208.56
240.728	219.56
240.961	217.56
241.195	228.56
241.429	229.56
241.662	227.56
241.896	227.56
242.13	244.56
242.363	214.56
242.597	234.56
242.83	239.56
243.064	218.56
243.298	244.56
243.531	247.56
243.765	246.56
243.998	270.56
244.232	243.56
244.465	250.56
244.699	245.56
244.932	258.56
245.166	265.56
245.399	270.56
245.633	260.56
245.866	269.56
246.099	268.56
246.333	270.56
246.566	282.56
246.8	284.56
247.033	278.56
247.266	258.56
247.5	278.56
247.733	266.56
247.966	288.56
248.2	311.56
248.433	296.56
248.666	298.56
248.899	283.56
249.133	304.56
249.366	289.56
249.599	283.56
249.832	298.56
250.066	296.56
250.299	317.56
250.532	301.56
250.765	312.56
250.998	316.56
251.231	323.56
251.465	314.56
251.698	330.56
251.931	331.56
252.164	321.56
252.397	327.56
252.63	327.56
252.863	337.56
253.096	353.56
253.329	352.56
253.562	352.56
253.795	329.56
254.028	366.56
254.261	362.56
254.494	324.56
254.727	328.56
254.96	356.56
255.193	358.56
255.426	358.56
255.659	346.56
255.892	376.56
256.124	358.56
256.357	362.56
256.59	366.56
256.823	371.56
257.056	355.56
257.289	366.56
257.521	370.56
257.754	368.56
257.987	374.56
258.22	362.56
258.452	388.56
258.685	398.56
258.918	370.56
259.151	368.56
259.383	375.56
259.616	381.56
259.849	391.56
260.081	399.56
260.314	395.56
260.547	386.56
260.779	389.56
261.012	406.56
261.244	392.56
261.477	418.56
261.71	399.56
261.942	400.56
262.175	407.56
262.407	414.56
262.64	403.56
262.872	420.56
263.105	437.56
263.337	426.56
263.57	420.56
263.802	418.56
264.035	420.56
264.267	413.56
264.499	410.56
264.732	449.56
264.964	446.56
265.197	457.56
265.429	420.56
265.661	418.56
265.894	452.56
266.126	442.56
266.358	437.56
266.591	430.56
266.823	448.56
267.055	460.56
267.287	449.56
267.52	434.56
267.752	459.56
267.984	454.56
268.216	453.56
268.448	453.56
268.681	478.56
268.913	457.56
269.145	480.56
269.377	486.56
269.609	472.56
269.841	465.56
270.073	466.56
270.306	474.56
270.538	477.56
270.77	483.56
271.002	483.56
271.234	480.56
271.466	498.56
271.698	498.56
271.93	465.56
272.162	500.56
272.394	485.56
272.626	491.56
272.858	500.56
273.09	492.56
273.322	502.56
273.553	509.56
273.785	500.56
274.017	505.56
274.249	513.56
274.481	512.56
274.713	497.56
274.945	522.56
275.176	528.56
275.408	516.56
275.64	521.56
275.872	526.56
276.104	529.56
276.335	545.56
276.567	550.56
276.799	554.56
277.031	526.56
277.262	533.56
277.494	550.56
277.726	537.56
277.957	552.56
278.189	548.56
278.421	556.56
278.652	554.56
278.884	571.56
279.115	578.56
279.347	572.56
279.579	571.56
279.81	562.56
280.042	579.56
280.273	580.56
280.505	555.56
280.736	569.56
280.968	580.56
281.199	596.56
281.431	588.56
281.662	589.56
281.894	590.56
282.125	596.56
282.356	600.56
282.588	579.56
282.819	599.56
283.051	588.56
283.282	605.56
283.513	612.56
283.745	605.56
283.976	595.56
284.207	604.56
284.439	605.56
284.67	613.56
284.901	617.56
285.132	628.56
285.364	622.56
285.595	607.56
285.826	620.56
286.057	620.56
286.288	641.56
286.52	630.56
286.751	640.56
286.982	646.56
287.213	641.56
287.444	652.56
287.675	635.56
287.906	632.56
288.138	612.56
288.369	633.56
288.6	660.56
288.831	645.56
289.062	640.56
289.293	635.56
289.524	642.56
289.755	640.56
289.986	630.56
290.217	657.56
290.448	655.56
290.679	679.56
290.91	660.56
291.141	657.56
291.371	664.56
291.602	658.56
291.833	670.56
292.064	659.56
292.295	663.56
292.526	680.56
292.757	673.56
292.987	639.56
293.218	652.56
293.449	674.56
293.68	655.56
293.91	673.56
294.141	666.56
294.372	683.56
294.603	669.56
294.833	676.56
295.064	676.56
295.295	674.56
295.525	685.56
295.756	688.56
295.987	666.56
296.217	690.56
296.448	690.56
296.679	691.56
296.909	685.56
297.14	696.56
297.37	708.56
297.601	714.56
297.831	678.56
298.062	693.56
298.292	707.56
298.523	714.56
298.753	714.56
298.984	715.56
299.214	711.56
299.445	691.56
299.675	708.56
299.905	718.56
300.136	722.56
300.366	716.56
300.597	735.56
300.827	745.56
301.057	724.56
301.288	735.56
301.518	754.56
301.748	754.56
301.979	761.56
302.209	753.56
302.439	745.56
302.669	743.56
302.9	768.56
303.13	773.56
303.36	782.56
303.59	747.56
303.82	727.56
304.051	756.56
304.281	744.56
304.511	748.56
304.741	748.56
304.971	765.56
305.201	737.56
305.431	754.56
305.661	769.56
305.891	767.56
306.121	745.56
306.352	732.56
306.582	727.56
306.812	717.56
307.042	748.56
307.272	747.56
307.502	750.56
307.731	757.56
307.961	738.56
308.191	733.56
308.421	744.56
308.651	756.56
308.881	742.56
309.111	765.56
309.341	708.56
309.571	768.56
309.8	740.56
310.03	732.56
310.26	747.56
310.49	736.56
310.72	743.56
310.949	749.56
311.179	772.56
311.409	747.56
311.639	757.56
311.868	741.56
312.098	791.56
312.328	768.56
312.557	794.56
312.787	766.56
313.017	766.56
313.246	798.56
313.476	784.56
313.706	780.56
313.935	794.56
314.165	794.56
314.394	824.56
314.624	818.56
314.853	819.56
315.083	791.56
315.312	813.56
315.542	823.56
315.771	809.56
316.001	784.56
316.23	790.56
316.46	804.56
316.689	801.56
316.919	817.56
317.148	806.56
317.377	813.56
317.607	806.56
317.836	772.56
318.065	816.56
318.295	804.56
318.524	780.56
318.753	778.56
318.983	773.56
319.212	800.56
319.441	774.56
319.67	794.56
319.9	804.56
320.129	804.56
320.358	792.56
320.587	808.56
320.816	797.56
321.046	801.56
321.275	814.56
321.504	791.56
321.733	793.56
321.962	803.56
322.191	805.56
322.42	797.56
322.649	790.56
322.878	813.56
323.108	828.56
323.337	818.56
323.566	832.56
323.795	809.56
324.024	839.56
324.253	838.56
324.482	825.56
324.71	837.56
324.939	838.56
325.168	848.56
325.397	820.56
325.626	834.56
325.855	862.56
326.084	838.56
326.313	861.56
326.542	865.56
326.77	877.56
326.999	860.56
327.228	870.56
327.457	850.56
327.686	833.56
327.914	882.56
328.143	866.56
328.372	887.56
328.6	868.56
328.829	876.56
329.058	846.56
329.287	856.56
329.515	868.56
329.744	854.56
329.972	885.56
330.201	846.56
330.43	890.56
330.658	874.56
330.887	907.56
331.115	923.56
331.344	913.56
331.572	907.56
331.801	946.56
332.03	925.56
332.258	944.56
332.486	971.56
332.715	978.56
332.943	1039.56
333.172	1012.56
333.4	1059.56
333.629	1082.56
333.857	1124.56
334.085	1099.56
334.314	1051.56
334.542	1077.56
334.771	1088.56
334.999	1089.56
335.227	1073.56
335.455	1085.56
335.684	1038.56
335.912	1059.56
336.14	1048.56
336.369	1068.56
336.597	1058.56
336.825	999.56
337.053	1028.56
337.281	1034.56
337.51	992.56
337.738	998.56
337.966	965.56
338.194	984.56
338.422	952.56
338.65	933.56
338.878	949.56
339.106	945.56
339.334	948.56
339.562	941.56
339.79	918.56
340.018	925.56
340.246	923.56
340.474	921.56
340.702	933.56
340.93	898.56
341.158	922.56
341.386	923.56
341.614	901.56
341.842	925.56
342.07	889.56
342.298	917.56
342.526	889.56
342.754	898.56
342.981	897.56
343.209	934.56
343.437	962.56
343.665	964.56
343.893	1045.56
344.12	1053.56
344.348	1048.56
344.576	1005.56
344.804	940.56
345.031	938.56
345.259	920.56
345.487	899.56
345.714	912.56
345.942	904.56
346.17	905.56
346.397	903.56
346.625	892.56
346.853	899.56
347.08	873.56
347.308	887.56
347.535	908.56
347.763	868.56
347.99	855.56
348.218	854.56
348.445	885.56
348.673	864.56
348.9	885.56
349.128	864.56
349.355	838.56
349.583	856.56
349.81	874.56
350.037	859.56
350.265	864.56
350.492	866.56
350.72	861.56
350.947	849.56
351.174	839.56
351.402	852.56
351.629	834.56
351.856	837.56
352.083	837.56
352.311	824.56
352.538	850.56
352.765	837.56
352.992	844.56
353.22	817.56
353.447	824.56
353.674	826.56
353.901	854.56
354.128	841.56
354.355	813.56
354.583	825.56
354.81	830.56
355.037	860.56
355.264	821.56
355.491	837.56
355.718	840.56
355.945	845.56
356.172	860.56
356.399	868.56
356.626	847.56
356.853	841.56
357.08	874.56
357.307	819.56
357.534	840.56
357.761	813.56
357.988	851.56
358.215	839.56
358.441	867.56
358.668	847.56
358.895	857.56
359.122	850.56
359.349	829.56
359.576	850.56
359.802	858.56
360.029	838.56
360.256	853.56
360.483	847.56
360.709	850.56
360.936	841.56
361.163	822.56
361.39	852.56
361.616	828.56
361.843	833.56
362.07	857.56
362.296	864.56
362.523	823.56
362.749	845.56
362.976	837.56
363.203	812.56
363.429	840.56
363.656	837.56
363.882	821.56
364.109	833.56
364.335	831.56
364.562	832.56
364.788	849.56
365.015	837.56
365.241	842.56
365.468	838.56
365.694	871.56
365.92	811.56
366.147	834.56
366.373	849.56
366.599	873.56
366.826	873.56
367.052	833.56
367.278	825.56
367.505	852.56
367.731	880.56
367.957	845.56
368.184	854.56
368.41	852.56
368.636	855.56
368.862	873.56
369.089	869.56
369.315	853.56
369.541	877.56
369.767	910.56
369.993	878.56
370.219	882.56
370.445	871.56
370.672	887.56
370.898	895.56
371.124	894.56
371.35	916.56
371.576	945.56
371.802	920.56
372.028	910.56
372.254	909.56
372.48	923.56
372.706	906.56
372.932	951.56
373.158	972.56
373.384	915.56
373.61	908.56
373.835	933.56
374.061	926.56
374.287	937.56
374.513	944.56
374.739	968.56
374.965	981.56
375.191	996.56
375.416	989.56
375.642	965.56
375.868	959.56
376.094	927.56
376.319	939.56
376.545	933.56
376.771	900.56
376.997	898.56
377.222	917.56
377.448	916.56
377.674	883.56
377.899	905.56
378.125	906.56
378.35	905.56
378.576	899.56
378.802	888.56
379.027	896.56
379.253	905.56
379.478	882.56
379.704	904.56
379.929	888.56
380.155	894.56
380.38	889.56
380.606	903.56
380.831	903.56
381.057	906.56
381.282	876.56
381.507	884.56
381.733	882.56
381.958	914.56
382.184	928.56
382.409	918.56
382.634	923.56
382.86	926.56
383.085	972.56
383.31	978.56
383.535	976.56
383.761	966.56
383.986	987.56
384.211	997.56
384.436	1004.56
384.662	1036.56
384.887	1046.56
385.112	1031.56
385.337	1021.56
385.562	1067.56
385.787	1067.56
386.013	1052.56
386.238	1052.56
386.463	1050.56
386.688	1063.56
386.913	1053.56
387.138	1034.56
387.363	1092.56
387.588	1072.56
387.813	1080.56
388.038	1066.56
388.263	1088.56
388.488	1075.56
388.713	1078.56
388.938	1067.56
389.163	1078.56
389.387	1034.56
389.612	1063.56
389.837	1067.56
390.062	1058.56
390.287	1056.56
390.512	1052.56
390.736	1073.56
390.961	1103.56
391.186	1094.56
391.411	1106.56
391.636	1136.56
391.86	1155.56
392.085	1149.56
392.31	1181.56
392.534	1138.56
392.759	1140.56
392.984	1119.56
393.208	1127.56
393.433	1127.56
393.658	1126.56
393.882	1142.56
394.107	1139.56
394.331	1130.56
394.556	1115.56
394.78	1139.56
395.005	1146.56
395.229	1143.56
395.454	1155.56
395.678	1204.56
395.903	1202.56
396.127	1190.56
396.352	1152.56
396.576	1150.56
396.801	1140.56
397.025	1168.56
397.249	1175.56
397.474	1207.56
397.698	1210.56
397.922	1198.56
398.147	1216.56
398.371	1258.56
398.595	1284.56
398.82	1306.56
399.044	1412.56
399.268	1498.56
399.492	1619.56
399.717	1757.56
399.941	1776.56
400.165	1701.56
400.389	1550.56
400.613	1485.56
400.837	1405.56
401.062	1385.56
401.286	1378.56
401.51	1316.56
401.734	1288.56
401.958	1323.56
402.182	1338.56
402.406	1314.56
402.63	1351.56
402.854	1389.56
403.078	1362.56
403.302	1402.56
403.526	1416.56
403.75	1442.56
403.974	1422.56
404.198	1434.56
404.422	1463.56
404.645	1402.56
404.869	1417.56
405.093	1449.56
405.317	1408.56
405.541	1422.56
405.765	1425.56
405.988	1442.56
406.212	1458.56
406.436	1426.56
406.66	1465.56
406.883	1477.56
407.107	1576.56
407.331	1616.56
407.555	1683.56
407.778	1629.56
408.002	1606.56
408.226	1611.56
408.449	1611.56
408.673	1544.56
408.896	1501.56
409.12	1466.56
409.344	1491.56
409.567	1456.56
409.791	1456.56
410.014	1448.56
410.238	1465.56
410.461	1447.56
410.685	1420.56
410.908	1440.56
411.132	1421.56
411.355	1374.56
411.578	1363.56
411.802	1373.56
412.025	1382.56
412.249	1394.56
412.472	1394.56
412.695	1374.56
412.919	1358.56
413.142	1377.56
413.365	1338.56
413.589	1349.56
413.812	1317.56
414.035	1291.56
414.258	1307.56
414.482	1344.56
414.705	1330.56
414.928	1328.56
415.151	1347.56
415.374	1307.56
415.597	1302.56
415.821	1292.56
416.044	1311.56
416.267	1268.56
416.49	1277.56
416.713	1257.56
416.936	1266.56
417.159	1270.56
417.382	1264.56
417.605	1260.56
417.828	1264.56
418.051	1284.56
418.274	1255.56
418.497	1276.56
418.72	1300.56
418.943	1313.56
419.166	1360.56
419.389	1492.56
419.611	1453.56
419.834	1378.56
420.057	1382.56
420.28	1316.56
420.503	1284.56
420.726	1298.56
420.948	1279.56
421.171	1250.56
421.394	1240.56
421.617	1261.56
421.839	1298.56
422.062	1260.56
422.285	1281.56
422.507	1286.56
422.73	1261.56
422.953	1282.56
423.175	1290.56
423.398	1267.56
423.621	1287.56
423.843	1314.56
424.066	1305.56
424.288	1266.56
424.511	1304.56
424.733	1291.56
424.956	1288.56
425.178	1248.56
425.401	1259.56
425.623	1280.56
425.846	1269.56
426.068	1260.56
426.291	1222.56
426.513	1221.56
426.735	1207.56
426.958	1252.56
427.18	1188.56
427.402	1207.56
427.625	1203.56
427.847	1154.56
428.069	1174.56
428.292	1189.56
428.514	1167.56
428.736	1153.56
428.958	1193.56
429.181	1148.56
429.403	1160.56
429.625	1178.56
429.847	1158.56
430.069	1148.56
430.292	1169.56
430.514	1152.56
430.736	1172.56
430.958	1149.56
431.18	1136.56
431.402	1172.56
431.624	1153.56
431.846	1179.56
432.068	1196.56
432.29	1197.56
432.512	1186.56
432.734	1174.56
432.956	1182.56
433.178	1195.56
433.4	1155.56
433.622	1192.56
433.844	1213.56
434.066	1200.56
434.287	1234.56
434.509	1261.56
434.731	1260.56
434.953	1286.56
435.175	1295.56
435.397	1292.56
435.618	1251.56
435.84	1213.56
436.062	1202.56
436.284	1167.56
436.505	1178.56
436.727	1170.56
436.949	1170.56
437.17	1163.56
437.392	1141.56
437.614	1133.56
437.835	1127.56
438.057	1142.56
438.278	1114.56
438.5	1108.56
438.721	1102.56
438.943	1130.56
439.165	1106.56
439.386	1140.56
439.608	1147.56
439.829	1174.56
440.05	1210.56
440.272	1158.56
440.493	1172.56
440.715	1181.56
440.936	1187.56
441.158	1178.56
441.379	1234.56
441.6	1301.56
441.822	1263.56
442.043	1242.56
442.264	1265.56
442.486	1225.56
442.707	1239.56
442.928	1237.56
443.149	1254.56
443.371	1253.56
443.592	1259.56
443.813	1289.56
444.034	1286.56
444.255	1280.56
444.476	1350.56
444.698	1404.56
444.919	1408.56
445.14	1460.56
445.361	1362.56
445.582	1314.56
445.803	1249.56
446.024	1263.56
446.245	1227.56
446.466	1221.56
446.687	1148.56
446.908	1157.56
447.129	1111.56
447.35	1106.56
447.571	1131.56
447.792	1092.56
448.013	1102.56
448.234	1107.56
448.455	1080.56
448.675	1054.56
448.896	1068.56
449.117	1063.56
449.338	1066.56
449.559	1038.56
449.779	1039.56
450	1029.56
450.221	1044.56
450.442	1050.56
450.662	1044.56
450.883	1036.56
451.104	1035.56
451.324	1031.56
451.545	1053.56
451.766	1039.56
451.986	1040.56
452.207	1057.56
452.428	1028.56
452.648	1009.56
452.869	993.56
453.089	996.56
453.31	1021.56
453.53	1024.56
453.751	1018.56
453.971	1034.56
454.192	1013.56
454.412	984.56
454.633	988.56
454.853	1005.56
455.073	993.56
455.294	1027.56
455.514	999.56
455.734	977.56
455.955	938.56
456.175	964.56
456.395	972.56
456.616	986.56
456.836	977.56
457.056	1008.56
457.276	982.56
457.497	1002.56
457.717	999.56
457.937	1036.56
458.157	1008.56
458.377	1005.56
458.598	1051.56
458.818	1082.56
459.038	1077.56
459.258	1141.56
459.478	1165.56
459.698	1185.56
459.918	1176.56
460.138	1221.56
460.358	1261.56
460.578	1257.56
460.798	1298.56
461.018	1333.56
461.238	1312.56
461.458	1336.56
461.678	1289.56
461.898	1306.56
462.118	1337.56
462.338	1410.56
462.558	1398.56
462.777	1484.56
462.997	1523.56
463.217	1600.56
463.437	1651.56
463.657	1565.56
463.876	1536.56
464.096	1500.56
464.316	1511.56
464.536	1468.56
464.755	1438.56
464.975	1385.56
465.195	1340.56
465.414	1288.56
465.634	1248.56
465.854	1208.56
466.073	1177.56
466.293	1150.56
466.512	1128.56
466.732	1130.56
466.951	1120.56
467.171	1097.56
467.391	1108.56
467.61	1095.56
467.829	1089.56
468.049	1090.56
468.268	1061.56
468.488	1078.56
468.707	1058.56
468.927	1082.56
469.146	1030.56
469.365	1081.56
469.585	1114.56
469.804	1092.56
470.023	1110.56
470.243	1111.56
470.462	1156.56
470.681	1125.56
470.901	1112.56
471.12	1119.56
471.339	1125.56
471.558	1096.56
471.777	1098.56
471.997	1064.56
472.216	1065.56
472.435	1038.56
472.654	1059.56
472.873	1028.56
473.092	1064.56
473.311	1050.56
473.53	1083.56
473.749	1040.56
473.968	1076.56
474.187	1056.56
474.406	1046.56
474.625	1072.56
474.844	1040.56
475.063	1034.56
475.282	1073.56
475.501	1069.56
475.72	1069.56
475.939	1101.56
476.158	1096.56
476.377	1108.56
476.596	1103.56
476.814	1116.56
477.033	1118.56
477.252	1139.56
477.471	1182.56
477.69	1200.56
477.908	1225.56
478.127	1241.56
478.346	1243.56
478.564	1264.56
478.783	1257.56
479.002	1296.56
479.22	1294.56
479.439	1294.56
479.658	1283.56
479.876	1292.56
480.095	1331.56
480.313	1346.56
480.532	1395.56
480.751	1334.56
480.969	1338.56
481.188	1339.56
481.406	1321.56
481.624	1301.56
481.843	1281.56
482.061	1262.56
482.28	1280.56
482.498	1264.56
482.717	1256.56
482.935	1258.56
483.153	1242.56
483.372	1250.56
483.59	1292.56
483.808	1324.56
484.027	1307.56
484.245	1321.56
484.463	1334.56
484.681	1355.56
484.9	1367.56
485.118	1336.56
485.336	1346.56
485.554	1373.56
485.772	1383.56
485.99	1403.56
486.209	1357.56
486.427	1392.56
486.645	1361.56
486.863	1366.56
487.081	1360.56
487.299	1346.56
487.517	1349.56
487.735	1366.56
487.953	1367.56
488.171	1346.56
488.389	1322.56
488.607	1345.56
488.825	1316.56
489.043	1337.56
489.261	1272.56
489.479	1298.56
489.696	1288.56
489.914	1312.56
490.132	1311.56
490.35	1290.56
490.568	1302.56
490.786	1299.56
491.003	1310.56
491.221	1341.56
491.439	1306.56
491.657	1308.56
491.874	1312.56
492.092	1314.56
492.31	1344.56
492.527	1322.56
492.745	1302.56
492.963	1341.56
493.18	1325.56
493.398	1322.56
493.615	1329.56
493.833	1340.56
494.05	1365.56
494.268	1316.56
494.485	1310.56
494.703	1348.56
