Data from NiCl2@0.25M.TitratingCurve.Agarose3%dH2O.NegLispCup.LampEnergy10.LIBS07252019_HRD10591_18-24-57-573.txt Node
Date: Thu Jul 25 18:24:57 EDT 2019
User: cochatt
Spectrometer: HR+D1059
Trigger mode: 1
Integration Time (sec): 1.000000E-1
Scans to average: 1
Electric dark correction enabled: true
Nonlinearity correction enabled: false
Boxcar width: 0
XAxis mode: Wavelengths
Number of Pixels in Spectrum: 2048
>>>>>Begin Spectral Data<<<<<
223.165	-17.56
223.4	-17.56
223.635	-17.56
223.869	-13.56
224.104	-22.56
224.338	-12.56
224.573	-23.56
224.808	-18.56
225.042	-11.56
225.277	-9.56
225.511	6.44
225.746	-7.56
225.98	21.44
226.215	14.44
226.449	19.44
226.683	19.44
226.918	27.44
227.152	28.44
227.387	37.44
227.621	39.44
227.856	30.44
228.09	31.44
228.324	54.44
228.559	56.44
228.793	65.44
229.027	117.44
229.262	123.44
229.496	115.44
229.73	148.44
229.964	151.44
230.199	127.44
230.433	133.44
230.667	143.44
230.901	144.44
231.136	138.44
231.37	170.44
231.604	163.44
231.838	152.44
232.072	172.44
232.306	157.44
232.541	174.44
232.775	173.44
233.009	167.44
233.243	171.44
233.477	166.44
233.711	164.44
233.945	166.44
234.179	180.44
234.413	171.44
234.647	180.44
234.881	181.44
235.115	172.44
235.349	174.44
235.583	172.44
235.817	193.44
236.051	177.44
236.285	162.44
236.519	185.44
236.753	181.44
236.987	185.44
237.221	186.44
237.455	186.44
237.689	190.44
237.922	178.44
238.156	182.44
238.39	194.44
238.624	198.44
238.858	209.44
239.091	185.44
239.325	218.44
239.559	214.44
239.793	197.44
240.027	202.44
240.26	213.44
240.494	220.44
240.728	218.44
240.961	232.44
241.195	211.44
241.429	249.44
241.662	220.44
241.896	228.44
242.13	233.44
242.363	230.44
242.597	234.44
242.83	236.44
243.064	226.44
243.298	251.44
243.531	247.44
243.765	245.44
243.998	248.44
244.232	254.44
244.465	238.44
244.699	244.44
244.932	261.44
245.166	251.44
245.399	268.44
245.633	248.44
245.866	223.44
246.099	285.44
246.333	273.44
246.566	274.44
246.8	271.44
247.033	277.44
247.266	268.44
247.5	289.44
247.733	270.44
247.966	262.44
248.2	274.44
248.433	268.44
248.666	293.44
248.899	284.44
249.133	303.44
249.366	298.44
249.599	313.44
249.832	307.44
250.066	276.44
250.299	294.44
250.532	289.44
250.765	273.44
250.998	303.44
251.231	317.44
251.465	325.44
251.698	318.44
251.931	309.44
252.164	324.44
252.397	343.44
252.63	341.44
252.863	335.44
253.096	342.44
253.329	347.44
253.562	343.44
253.795	330.44
254.028	341.44
254.261	321.44
254.494	335.44
254.727	347.44
254.96	343.44
255.193	342.44
255.426	340.44
255.659	341.44
255.892	351.44
256.124	353.44
256.357	359.44
256.59	351.44
256.823	351.44
257.056	355.44
257.289	382.44
257.521	341.44
257.754	357.44
257.987	379.44
258.22	381.44
258.452	363.44
258.685	384.44
258.918	363.44
259.151	366.44
259.383	385.44
259.616	375.44
259.849	371.44
260.081	379.44
260.314	399.44
260.547	389.44
260.779	387.44
261.012	379.44
261.244	389.44
261.477	405.44
261.71	414.44
261.942	414.44
262.175	407.44
262.407	399.44
262.64	404.44
262.872	411.44
263.105	409.44
263.337	411.44
263.57	414.44
263.802	413.44
264.035	435.44
264.267	403.44
264.499	431.44
264.732	427.44
264.964	404.44
265.197	433.44
265.429	409.44
265.661	420.44
265.894	418.44
266.126	428.44
266.358	433.44
266.591	423.44
266.823	435.44
267.055	416.44
267.287	454.44
267.52	443.44
267.752	434.44
267.984	452.44
268.216	435.44
268.448	456.44
268.681	451.44
268.913	456.44
269.145	431.44
269.377	446.44
269.609	446.44
269.841	435.44
270.073	463.44
270.306	454.44
270.538	445.44
270.77	459.44
271.002	510.44
271.234	461.44
271.466	488.44
271.698	468.44
271.93	501.44
272.162	481.44
272.394	490.44
272.626	459.44
272.858	474.44
273.09	498.44
273.322	490.44
273.553	497.44
273.785	482.44
274.017	477.44
274.249	498.44
274.481	507.44
274.713	508.44
274.945	534.44
275.176	506.44
275.408	499.44
275.64	526.44
275.872	521.44
276.104	520.44
276.335	518.44
276.567	522.44
276.799	503.44
277.031	534.44
277.262	526.44
277.494	539.44
277.726	540.44
277.957	524.44
278.189	525.44
278.421	523.44
278.652	535.44
278.884	551.44
279.115	547.44
279.347	541.44
279.579	532.44
279.81	573.44
280.042	535.44
280.273	560.44
280.505	575.44
280.736	558.44
280.968	566.44
281.199	551.44
281.431	588.44
281.662	581.44
281.894	601.44
282.125	574.44
282.356	616.44
282.588	584.44
282.819	574.44
283.051	597.44
283.282	605.44
283.513	588.44
283.745	605.44
283.976	587.44
284.207	601.44
284.439	616.44
284.67	604.44
284.901	595.44
285.132	616.44
285.364	595.44
285.595	606.44
285.826	609.44
286.057	637.44
286.288	597.44
286.52	618.44
286.751	615.44
286.982	592.44
287.213	627.44
287.444	632.44
287.675	649.44
287.906	634.44
288.138	633.44
288.369	637.44
288.6	652.44
288.831	654.44
289.062	644.44
289.293	628.44
289.524	652.44
289.755	651.44
289.986	667.44
290.217	653.44
290.448	629.44
290.679	638.44
290.91	635.44
291.141	667.44
291.371	646.44
291.602	651.44
291.833	660.44
292.064	631.44
292.295	635.44
292.526	653.44
292.757	665.44
292.987	626.44
293.218	638.44
293.449	682.44
293.68	670.44
293.91	646.44
294.141	666.44
294.372	641.44
294.603	678.44
294.833	650.44
295.064	658.44
295.295	670.44
295.525	671.44
295.756	644.44
295.987	669.44
296.217	692.44
296.448	681.44
296.679	699.44
296.909	676.44
297.14	695.44
297.37	706.44
297.601	710.44
297.831	706.44
298.062	708.44
298.292	692.44
298.523	743.44
298.753	719.44
298.984	709.44
299.214	699.44
299.445	714.44
299.675	711.44
299.905	714.44
300.136	723.44
300.366	711.44
300.597	715.44
300.827	758.44
301.057	739.44
301.288	758.44
301.518	750.44
301.748	781.44
301.979	770.44
302.209	754.44
302.439	770.44
302.669	747.44
302.9	761.44
303.13	733.44
303.36	737.44
303.59	741.44
303.82	753.44
304.051	748.44
304.281	761.44
304.511	770.44
304.741	735.44
304.971	748.44
305.201	733.44
305.431	759.44
305.661	735.44
305.891	735.44
306.121	707.44
306.352	717.44
306.582	716.44
306.812	726.44
307.042	753.44
307.272	732.44
307.502	715.44
307.731	727.44
307.961	730.44
308.191	713.44
308.421	718.44
308.651	717.44
308.881	714.44
309.111	738.44
309.341	719.44
309.571	746.44
309.8	732.44
310.03	737.44
310.26	745.44
310.49	734.44
310.72	695.44
310.949	725.44
311.179	745.44
311.409	754.44
311.639	748.44
311.868	768.44
312.098	763.44
312.328	777.44
312.557	747.44
312.787	775.44
313.017	773.44
313.246	785.44
313.476	765.44
313.706	809.44
313.935	781.44
314.165	789.44
314.394	793.44
314.624	787.44
314.853	773.44
315.083	787.44
315.312	799.44
315.542	788.44
315.771	781.44
316.001	738.44
316.23	787.44
316.46	761.44
316.689	766.44
316.919	766.44
317.148	757.44
317.377	787.44
317.607	754.44
317.836	777.44
318.065	745.44
318.295	759.44
318.524	762.44
318.753	777.44
318.983	770.44
319.212	754.44
319.441	737.44
319.67	763.44
319.9	772.44
320.129	781.44
320.358	772.44
320.587	765.44
320.816	760.44
321.046	783.44
321.275	758.44
321.504	771.44
321.733	772.44
321.962	760.44
322.191	801.44
322.42	805.44
322.649	771.44
322.878	797.44
323.108	797.44
323.337	794.44
323.566	764.44
323.795	823.44
324.024	791.44
324.253	806.44
324.482	812.44
324.71	810.44
324.939	805.44
325.168	804.44
325.397	814.44
325.626	806.44
325.855	809.44
326.084	843.44
326.313	846.44
326.542	837.44
326.77	870.44
326.999	831.44
327.228	821.44
327.457	859.44
327.686	833.44
327.914	830.44
328.143	857.44
328.372	855.44
328.6	831.44
328.829	834.44
329.058	843.44
329.287	864.44
329.515	867.44
329.744	820.44
329.972	844.44
330.201	867.44
330.43	862.44
330.658	869.44
330.887	901.44
331.115	899.44
331.344	912.44
331.572	883.44
331.801	927.44
332.03	936.44
332.258	929.44
332.486	984.44
332.715	1017.44
332.943	1053.44
333.172	1111.44
333.4	1155.44
333.629	1146.44
333.857	1191.44
334.085	1137.44
334.314	1140.44
334.542	1123.44
334.771	1114.44
334.999	1089.44
335.227	1094.44
335.455	1062.44
335.684	1050.44
335.912	1057.44
336.14	1025.44
336.369	1018.44
336.597	1023.44
336.825	1048.44
337.053	1042.44
337.281	997.44
337.51	968.44
337.738	957.44
337.966	960.44
338.194	942.44
338.422	940.44
338.65	895.44
338.878	888.44
339.106	915.44
339.334	913.44
339.562	931.44
339.79	880.44
340.018	866.44
340.246	860.44
340.474	889.44
340.702	878.44
340.93	876.44
341.158	900.44
341.386	871.44
341.614	883.44
341.842	860.44
342.07	852.44
342.298	879.44
342.526	842.44
342.754	857.44
342.981	875.44
343.209	917.44
343.437	947.44
343.665	1010.44
343.893	1063.44
344.12	1116.44
344.348	1097.44
344.576	989.44
344.804	953.44
345.031	927.44
345.259	902.44
345.487	893.44
345.714	876.44
345.942	889.44
346.17	863.44
346.397	875.44
346.625	848.44
346.853	853.44
347.08	837.44
347.308	871.44
347.535	854.44
347.763	860.44
347.99	843.44
348.218	874.44
348.445	841.44
348.673	839.44
348.9	860.44
349.128	844.44
349.355	855.44
349.583	847.44
349.81	827.44
350.037	832.44
350.265	824.44
350.492	813.44
350.72	805.44
350.947	817.44
351.174	815.44
351.402	822.44
351.629	825.44
351.856	825.44
352.083	803.44
352.311	799.44
352.538	834.44
352.765	813.44
352.992	824.44
353.22	797.44
353.447	815.44
353.674	822.44
353.901	807.44
354.128	787.44
354.355	764.44
354.583	798.44
354.81	806.44
355.037	809.44
355.264	816.44
355.491	817.44
355.718	787.44
355.945	810.44
356.172	828.44
356.399	816.44
356.626	807.44
356.853	839.44
357.08	817.44
357.307	823.44
357.534	840.44
357.761	822.44
357.988	825.44
358.215	829.44
358.441	805.44
358.668	821.44
358.895	819.44
359.122	829.44
359.349	828.44
359.576	837.44
359.802	829.44
360.029	810.44
360.256	826.44
360.483	825.44
360.709	825.44
360.936	831.44
361.163	813.44
361.39	796.44
361.616	822.44
361.843	819.44
362.07	817.44
362.296	822.44
362.523	794.44
362.749	817.44
362.976	797.44
363.203	791.44
363.429	795.44
363.656	824.44
363.882	827.44
364.109	780.44
364.335	813.44
364.562	791.44
364.788	805.44
365.015	800.44
365.241	797.44
365.468	818.44
365.694	809.44
365.92	837.44
366.147	805.44
366.373	809.44
366.599	806.44
366.826	807.44
367.052	843.44
367.278	815.44
367.505	805.44
367.731	817.44
367.957	792.44
368.184	831.44
368.41	799.44
368.636	857.44
368.862	841.44
369.089	830.44
369.315	850.44
369.541	831.44
369.767	842.44
369.993	858.44
370.219	845.44
370.445	855.44
370.672	870.44
370.898	882.44
371.124	877.44
371.35	877.44
371.576	909.44
371.802	907.44
372.028	877.44
372.254	878.44
372.48	911.44
372.706	893.44
372.932	929.44
373.158	935.44
373.384	901.44
373.61	893.44
373.835	881.44
374.061	899.44
374.287	893.44
374.513	914.44
374.739	925.44
374.965	967.44
375.191	1002.44
375.416	1005.44
375.642	966.44
375.868	937.44
376.094	924.44
376.319	919.44
376.545	903.44
376.771	894.44
376.997	886.44
377.222	884.44
377.448	892.44
377.674	889.44
377.899	890.44
378.125	885.44
378.35	887.44
378.576	895.44
378.802	850.44
379.027	876.44
379.253	901.44
379.478	875.44
379.704	860.44
379.929	877.44
380.155	843.44
380.38	868.44
380.606	873.44
380.831	859.44
381.057	904.44
381.282	861.44
381.507	856.44
381.733	866.44
381.958	875.44
382.184	916.44
382.409	925.44
382.634	910.44
382.86	932.44
383.085	946.44
383.31	968.44
383.535	974.44
383.761	1004.44
383.986	1003.44
384.211	1000.44
384.436	1042.44
384.662	1057.44
384.887	1089.44
385.112	1106.44
385.337	1131.44
385.562	1098.44
385.787	1111.44
386.013	1105.44
386.238	1098.44
386.463	1141.44
386.688	1124.44
386.913	1094.44
387.138	1117.44
387.363	1083.44
387.588	1059.44
387.813	1066.44
388.038	1069.44
388.263	1092.44
388.488	1075.44
388.713	1062.44
388.938	1077.44
389.163	1061.44
389.387	1076.44
389.612	1067.44
389.837	1023.44
390.062	1049.44
390.287	1066.44
390.512	1078.44
390.736	1102.44
390.961	1075.44
391.186	1143.44
391.411	1148.44
391.636	1164.44
391.86	1214.44
392.085	1240.44
392.31	1237.44
392.534	1202.44
392.759	1183.44
392.984	1177.44
393.208	1164.44
393.433	1148.44
393.658	1159.44
393.882	1137.44
394.107	1143.44
394.331	1177.44
394.556	1180.44
394.78	1215.44
395.005	1184.44
395.229	1137.44
395.454	1202.44
395.678	1235.44
395.903	1267.44
396.127	1201.44
396.352	1158.44
396.576	1177.44
396.801	1186.44
397.025	1141.44
397.249	1208.44
397.474	1257.44
397.698	1241.44
397.922	1231.44
398.147	1226.44
398.371	1288.44
398.595	1287.44
398.82	1358.44
399.044	1482.44
399.268	1621.44
399.492	1874.44
399.717	2115.44
399.941	2134.44
400.165	1900.44
400.389	1695.44
400.613	1566.44
400.837	1500.44
401.062	1454.44
401.286	1428.44
401.51	1381.44
401.734	1397.44
401.958	1409.44
402.182	1393.44
402.406	1468.44
402.63	1473.44
402.854	1476.44
403.078	1474.44
403.302	1551.44
403.526	1557.44
403.75	1587.44
403.974	1616.44
404.198	1658.44
404.422	1623.44
404.645	1614.44
404.869	1571.44
405.093	1575.44
405.317	1544.44
405.541	1585.44
405.765	1549.44
405.988	1540.44
406.212	1553.44
406.436	1531.44
406.66	1594.44
406.883	1594.44
407.107	1685.44
407.331	1773.44
407.555	1846.44
407.778	1819.44
408.002	1768.44
408.226	1720.44
408.449	1675.44
408.673	1583.44
408.896	1585.44
409.12	1570.44
409.344	1613.44
409.567	1559.44
409.791	1551.44
410.014	1570.44
410.238	1534.44
410.461	1469.44
410.685	1483.44
410.908	1459.44
411.132	1485.44
411.355	1409.44
411.578	1439.44
411.802	1437.44
412.025	1409.44
412.249	1477.44
412.472	1465.44
412.695	1430.44
412.919	1394.44
413.142	1391.44
413.365	1368.44
413.589	1409.44
413.812	1379.44
414.035	1337.44
414.258	1345.44
414.482	1366.44
414.705	1420.44
414.928	1393.44
415.151	1419.44
415.374	1380.44
415.597	1355.44
415.821	1359.44
416.044	1325.44
416.267	1334.44
416.49	1342.44
416.713	1338.44
416.936	1371.44
417.159	1343.44
417.382	1335.44
417.605	1330.44
417.828	1337.44
418.051	1369.44
418.274	1405.44
418.497	1378.44
418.72	1401.44
418.943	1422.44
419.166	1504.44
419.389	1599.44
419.611	1564.44
419.834	1504.44
420.057	1418.44
420.28	1379.44
420.503	1347.44
420.726	1338.44
420.948	1366.44
421.171	1331.44
421.394	1349.44
421.617	1365.44
421.839	1363.44
422.062	1345.44
422.285	1328.44
422.507	1381.44
422.73	1417.44
422.953	1405.44
423.175	1436.44
423.398	1439.44
423.621	1415.44
423.843	1438.44
424.066	1449.44
424.288	1465.44
424.511	1400.44
424.733	1398.44
424.956	1377.44
425.178	1373.44
425.401	1396.44
425.623	1341.44
425.846	1332.44
426.068	1309.44
426.291	1302.44
426.513	1251.44
426.735	1283.44
426.958	1298.44
427.18	1233.44
427.402	1246.44
427.625	1238.44
427.847	1192.44
428.069	1202.44
428.292	1222.44
428.514	1211.44
428.736	1197.44
428.958	1207.44
429.181	1151.44
429.403	1171.44
429.625	1149.44
429.847	1155.44
430.069	1160.44
430.292	1171.44
430.514	1135.44
430.736	1161.44
430.958	1173.44
431.18	1185.44
431.402	1190.44
431.624	1159.44
431.846	1206.44
432.068	1224.44
432.29	1234.44
432.512	1173.44
432.734	1199.44
432.956	1151.44
433.178	1208.44
433.4	1178.44
433.622	1211.44
433.844	1200.44
434.066	1183.44
434.287	1221.44
434.509	1267.44
434.731	1300.44
434.953	1335.44
435.175	1319.44
435.397	1334.44
435.618	1295.44
435.84	1213.44
436.062	1218.44
436.284	1172.44
436.505	1203.44
436.727	1219.44
436.949	1180.44
437.17	1185.44
437.392	1184.44
437.614	1155.44
437.835	1089.44
438.057	1161.44
438.278	1141.44
438.5	1152.44
438.721	1150.44
438.943	1163.44
439.165	1139.44
439.386	1146.44
439.608	1147.44
439.829	1153.44
440.05	1175.44
440.272	1180.44
440.493	1190.44
440.715	1187.44
440.936	1218.44
441.158	1252.44
441.379	1305.44
441.6	1366.44
441.822	1340.44
442.043	1361.44
442.264	1317.44
442.486	1289.44
442.707	1324.44
442.928	1295.44
443.149	1364.44
443.371	1329.44
443.592	1292.44
443.813	1314.44
444.034	1335.44
444.255	1400.44
444.476	1488.44
444.698	1531.44
444.919	1625.44
445.14	1684.44
445.361	1537.44
445.582	1388.44
445.803	1319.44
446.024	1268.44
446.245	1277.44
446.466	1251.44
446.687	1217.44
446.908	1169.44
447.129	1176.44
447.35	1170.44
447.571	1151.44
447.792	1140.44
448.013	1135.44
448.234	1071.44
448.455	1050.44
448.675	1087.44
448.896	1083.44
449.117	1053.44
449.338	1063.44
449.559	1051.44
449.779	1055.44
450	1048.44
450.221	1064.44
450.442	1063.44
450.662	1075.44
450.883	1122.44
451.104	1113.44
451.324	1070.44
451.545	1065.44
451.766	1082.44
451.986	1108.44
452.207	1123.44
452.428	1081.44
452.648	1077.44
452.869	1058.44
453.089	1037.44
453.31	1037.44
453.53	1061.44
453.751	1046.44
453.971	1054.44
454.192	1036.44
454.412	993.44
454.633	1009.44
454.853	981.44
455.073	1031.44
455.294	1022.44
455.514	982.44
455.734	984.44
455.955	994.44
456.175	989.44
456.395	984.44
456.616	962.44
456.836	998.44
457.056	1015.44
457.276	978.44
457.497	1058.44
457.717	1023.44
457.937	1033.44
458.157	1042.44
458.377	1044.44
458.598	1082.44
458.818	1095.44
459.038	1134.44
459.258	1179.44
459.478	1211.44
459.698	1228.44
459.918	1286.44
460.138	1332.44
460.358	1401.44
460.578	1397.44
460.798	1438.44
461.018	1410.44
461.238	1438.44
461.458	1445.44
461.678	1413.44
461.898	1459.44
462.118	1460.44
462.338	1519.44
462.558	1581.44
462.777	1626.44
462.997	1762.44
463.217	1910.44
463.437	1915.44
463.657	1779.44
463.876	1717.44
464.096	1678.44
464.316	1694.44
464.536	1697.44
464.755	1642.44
464.975	1580.44
465.195	1455.44
465.414	1409.44
465.634	1335.44
465.854	1267.44
466.073	1244.44
466.293	1201.44
466.512	1173.44
466.732	1140.44
466.951	1141.44
467.171	1163.44
467.391	1135.44
467.61	1126.44
467.829	1119.44
468.049	1082.44
468.268	1078.44
468.488	1081.44
468.707	1066.44
468.927	1078.44
469.146	1081.44
469.365	1099.44
469.585	1099.44
469.804	1124.44
470.023	1153.44
470.243	1172.44
470.462	1156.44
470.681	1189.44
470.901	1186.44
471.12	1186.44
471.339	1129.44
471.558	1128.44
471.777	1081.44
471.997	1075.44
472.216	1101.44
472.435	1072.44
472.654	1065.44
472.873	1054.44
473.092	1088.44
473.311	1055.44
473.53	1070.44
473.749	1053.44
473.968	1044.44
474.187	1021.44
474.406	1053.44
474.625	1062.44
474.844	1048.44
475.063	1055.44
475.282	1071.44
475.501	1062.44
475.72	1054.44
475.939	1056.44
476.158	1100.44
476.377	1103.44
476.596	1099.44
476.814	1114.44
477.033	1109.44
477.252	1159.44
477.471	1182.44
477.69	1213.44
477.908	1210.44
478.127	1217.44
478.346	1291.44
478.564	1301.44
478.783	1314.44
479.002	1306.44
479.22	1325.44
479.439	1340.44
479.658	1341.44
479.876	1344.44
480.095	1348.44
480.313	1433.44
480.532	1446.44
480.751	1445.44
480.969	1370.44
481.188	1338.44
481.406	1309.44
481.624	1276.44
481.843	1260.44
482.061	1227.44
482.28	1175.44
482.498	1201.44
482.717	1191.44
482.935	1191.44
483.153	1209.44
483.372	1213.44
483.59	1190.44
483.808	1221.44
484.027	1227.44
484.245	1194.44
484.463	1221.44
484.681	1227.44
484.9	1222.44
485.118	1287.44
485.336	1273.44
485.554	1265.44
485.772	1268.44
485.99	1269.44
486.209	1260.44
486.427	1297.44
486.645	1309.44
486.863	1257.44
487.081	1283.44
487.299	1257.44
487.517	1274.44
487.735	1260.44
487.953	1252.44
488.171	1288.44
488.389	1241.44
488.607	1250.44
488.825	1228.44
489.043	1223.44
489.261	1221.44
489.479	1234.44
489.696	1256.44
489.914	1253.44
490.132	1265.44
490.35	1289.44
490.568	1287.44
490.786	1261.44
491.003	1289.44
491.221	1271.44
491.439	1244.44
491.657	1236.44
491.874	1288.44
492.092	1291.44
492.31	1279.44
492.527	1282.44
492.745	1294.44
492.963	1321.44
493.18	1333.44
493.398	1322.44
493.615	1316.44
493.833	1371.44
494.05	1323.44
494.268	1359.44
494.485	1370.44
