Data from NiCl2@0.125M.TitratingCurve.Agarose3%dH2O.NegLispCup.LampEnergy10.LIBS07252019_HRD10591_18-30-05-575.txt Node
Date: Thu Jul 25 18:30:05 EDT 2019
User: cochatt
Spectrometer: HR+D1059
Trigger mode: 1
Integration Time (sec): 1.000000E-1
Scans to average: 1
Electric dark correction enabled: true
Nonlinearity correction enabled: false
Boxcar width: 0
XAxis mode: Wavelengths
Number of Pixels in Spectrum: 2048
>>>>>Begin Spectral Data<<<<<
223.165	-18.44
223.4	-18.44
223.635	-18.44
223.869	-14.44
224.104	-20.44
224.338	-9.44
224.573	-26.44
224.808	-11.44
225.042	-6.44
225.277	3.56
225.511	1.56
225.746	3.56
225.98	4.56
226.215	21.56
226.449	12.56
226.683	19.56
226.918	16.56
227.152	23.56
227.387	21.56
227.621	31.56
227.856	50.56
228.09	29.56
228.324	41.56
228.559	64.56
228.793	66.56
229.027	119.56
229.262	139.56
229.496	117.56
229.73	124.56
229.964	139.56
230.199	139.56
230.433	138.56
230.667	135.56
230.901	134.56
231.136	127.56
231.37	129.56
231.604	144.56
231.838	150.56
232.072	138.56
232.306	155.56
232.541	150.56
232.775	144.56
233.009	148.56
233.243	140.56
233.477	152.56
233.711	154.56
233.945	152.56
234.179	168.56
234.413	160.56
234.647	139.56
234.881	178.56
235.115	160.56
235.349	154.56
235.583	148.56
235.817	165.56
236.051	165.56
236.285	142.56
236.519	151.56
236.753	161.56
236.987	159.56
237.221	163.56
237.455	163.56
237.689	169.56
237.922	184.56
238.156	171.56
238.39	178.56
238.624	166.56
238.858	162.56
239.091	177.56
239.325	173.56
239.559	186.56
239.793	174.56
240.027	177.56
240.26	190.56
240.494	189.56
240.728	184.56
240.961	178.56
241.195	187.56
241.429	197.56
241.662	183.56
241.896	204.56
242.13	211.56
242.363	201.56
242.597	201.56
242.83	202.56
243.064	200.56
243.298	212.56
243.531	213.56
243.765	200.56
243.998	216.56
244.232	218.56
244.465	199.56
244.699	211.56
244.932	230.56
245.166	214.56
245.399	203.56
245.633	219.56
245.866	230.56
246.099	225.56
246.333	221.56
246.566	219.56
246.8	216.56
247.033	217.56
247.266	256.56
247.5	245.56
247.733	239.56
247.966	255.56
248.2	257.56
248.433	252.56
248.666	263.56
248.899	265.56
249.133	241.56
249.366	252.56
249.599	262.56
249.832	272.56
250.066	254.56
250.299	253.56
250.532	260.56
250.765	263.56
250.998	259.56
251.231	261.56
251.465	265.56
251.698	271.56
251.931	269.56
252.164	275.56
252.397	270.56
252.63	270.56
252.863	282.56
253.096	288.56
253.329	280.56
253.562	277.56
253.795	277.56
254.028	293.56
254.261	271.56
254.494	263.56
254.727	271.56
254.96	281.56
255.193	303.56
255.426	286.56
255.659	280.56
255.892	313.56
256.124	281.56
256.357	312.56
256.59	296.56
256.823	310.56
257.056	319.56
257.289	302.56
257.521	315.56
257.754	302.56
257.987	307.56
258.22	328.56
258.452	330.56
258.685	312.56
258.918	335.56
259.151	318.56
259.383	322.56
259.616	317.56
259.849	335.56
260.081	302.56
260.314	313.56
260.547	326.56
260.779	339.56
261.012	336.56
261.244	339.56
261.477	335.56
261.71	319.56
261.942	342.56
262.175	328.56
262.407	328.56
262.64	349.56
262.872	350.56
263.105	343.56
263.337	355.56
263.57	357.56
263.802	360.56
264.035	361.56
264.267	371.56
264.499	369.56
264.732	349.56
264.964	358.56
265.197	372.56
265.429	369.56
265.661	362.56
265.894	393.56
266.126	365.56
266.358	358.56
266.591	369.56
266.823	373.56
267.055	378.56
267.287	387.56
267.52	359.56
267.752	367.56
267.984	385.56
268.216	398.56
268.448	399.56
268.681	381.56
268.913	382.56
269.145	381.56
269.377	389.56
269.609	392.56
269.841	391.56
270.073	407.56
270.306	396.56
270.538	382.56
270.77	373.56
271.002	375.56
271.234	402.56
271.466	412.56
271.698	397.56
271.93	393.56
272.162	392.56
272.394	381.56
272.626	407.56
272.858	402.56
273.09	409.56
273.322	423.56
273.553	415.56
273.785	407.56
274.017	421.56
274.249	422.56
274.481	421.56
274.713	404.56
274.945	425.56
275.176	414.56
275.408	446.56
275.64	401.56
275.872	418.56
276.104	418.56
276.335	431.56
276.567	437.56
276.799	430.56
277.031	442.56
277.262	442.56
277.494	465.56
277.726	438.56
277.957	450.56
278.189	455.56
278.421	447.56
278.652	450.56
278.884	437.56
279.115	468.56
279.347	466.56
279.579	454.56
279.81	460.56
280.042	463.56
280.273	463.56
280.505	486.56
280.736	464.56
280.968	459.56
281.199	490.56
281.431	472.56
281.662	472.56
281.894	502.56
282.125	487.56
282.356	467.56
282.588	493.56
282.819	498.56
283.051	483.56
283.282	490.56
283.513	500.56
283.745	511.56
283.976	508.56
284.207	514.56
284.439	485.56
284.67	497.56
284.901	501.56
285.132	517.56
285.364	495.56
285.595	494.56
285.826	519.56
286.057	516.56
286.288	496.56
286.52	525.56
286.751	525.56
286.982	517.56
287.213	507.56
287.444	530.56
287.675	530.56
287.906	537.56
288.138	536.56
288.369	534.56
288.6	536.56
288.831	527.56
289.062	534.56
289.293	539.56
289.524	529.56
289.755	541.56
289.986	532.56
290.217	553.56
290.448	567.56
290.679	547.56
290.91	546.56
291.141	543.56
291.371	541.56
291.602	531.56
291.833	537.56
292.064	558.56
292.295	562.56
292.526	554.56
292.757	553.56
292.987	553.56
293.218	549.56
293.449	546.56
293.68	545.56
293.91	559.56
294.141	553.56
294.372	551.56
294.603	566.56
294.833	567.56
295.064	582.56
295.295	561.56
295.525	577.56
295.756	553.56
295.987	555.56
296.217	591.56
296.448	580.56
296.679	577.56
296.909	579.56
297.14	597.56
297.37	619.56
297.601	609.56
297.831	609.56
298.062	595.56
298.292	632.56
298.523	617.56
298.753	634.56
298.984	609.56
299.214	616.56
299.445	616.56
299.675	607.56
299.905	607.56
300.136	608.56
300.366	625.56
300.597	613.56
300.827	641.56
301.057	611.56
301.288	627.56
301.518	635.56
301.748	659.56
301.979	681.56
302.209	639.56
302.439	648.56
302.669	637.56
302.9	637.56
303.13	621.56
303.36	623.56
303.59	607.56
303.82	643.56
304.051	621.56
304.281	616.56
304.511	606.56
304.741	629.56
304.971	637.56
305.201	616.56
305.431	646.56
305.661	618.56
305.891	619.56
306.121	617.56
306.352	636.56
306.582	619.56
306.812	611.56
307.042	631.56
307.272	615.56
307.502	609.56
307.731	583.56
307.961	619.56
308.191	600.56
308.421	594.56
308.651	600.56
308.881	607.56
309.111	616.56
309.341	606.56
309.571	609.56
309.8	594.56
310.03	626.56
310.26	616.56
310.49	623.56
310.72	605.56
310.949	609.56
311.179	618.56
311.409	638.56
311.639	616.56
311.868	627.56
312.098	606.56
312.328	625.56
312.557	648.56
312.787	641.56
313.017	649.56
313.246	644.56
313.476	653.56
313.706	664.56
313.935	631.56
314.165	656.56
314.394	656.56
314.624	643.56
314.853	639.56
315.083	649.56
315.312	662.56
315.542	643.56
315.771	637.56
316.001	634.56
316.23	649.56
316.46	617.56
316.689	663.56
316.919	637.56
317.148	645.56
317.377	647.56
317.607	619.56
317.836	626.56
318.065	622.56
318.295	631.56
318.524	639.56
318.753	640.56
318.983	646.56
319.212	622.56
319.441	631.56
319.67	639.56
319.9	613.56
320.129	628.56
320.358	648.56
320.587	639.56
320.816	647.56
321.046	644.56
321.275	634.56
321.504	624.56
321.733	641.56
321.962	639.56
322.191	638.56
322.42	654.56
322.649	670.56
322.878	651.56
323.108	649.56
323.337	641.56
323.566	630.56
323.795	641.56
324.024	663.56
324.253	657.56
324.482	665.56
324.71	646.56
324.939	680.56
325.168	663.56
325.397	677.56
325.626	660.56
325.855	689.56
326.084	680.56
326.313	695.56
326.542	690.56
326.77	706.56
326.999	681.56
327.228	681.56
327.457	695.56
327.686	689.56
327.914	689.56
328.143	698.56
328.372	692.56
328.6	687.56
328.829	697.56
329.058	690.56
329.287	700.56
329.515	701.56
329.744	691.56
329.972	707.56
330.201	706.56
330.43	703.56
330.658	722.56
330.887	697.56
331.115	724.56
331.344	727.56
331.572	716.56
331.801	750.56
332.03	763.56
332.258	787.56
332.486	779.56
332.715	795.56
332.943	883.56
333.172	921.56
333.4	945.56
333.629	947.56
333.857	961.56
334.085	926.56
334.314	935.56
334.542	904.56
334.771	917.56
334.999	847.56
335.227	864.56
335.455	863.56
335.684	862.56
335.912	845.56
336.14	820.56
336.369	830.56
336.597	845.56
336.825	853.56
337.053	849.56
337.281	806.56
337.51	801.56
337.738	793.56
337.966	790.56
338.194	777.56
338.422	769.56
338.65	743.56
338.878	768.56
339.106	719.56
339.334	775.56
339.562	777.56
339.79	750.56
340.018	699.56
340.246	734.56
340.474	712.56
340.702	729.56
340.93	721.56
341.158	763.56
341.386	733.56
341.614	740.56
341.842	731.56
342.07	714.56
342.298	691.56
342.526	724.56
342.754	721.56
342.981	727.56
343.209	738.56
343.437	786.56
343.665	803.56
343.893	874.56
344.12	900.56
344.348	905.56
344.576	822.56
344.804	800.56
345.031	780.56
345.259	758.56
345.487	766.56
345.714	725.56
345.942	745.56
346.17	730.56
346.397	721.56
346.625	718.56
346.853	678.56
347.08	711.56
347.308	730.56
347.535	734.56
347.763	735.56
347.99	741.56
348.218	731.56
348.445	715.56
348.673	692.56
348.9	719.56
349.128	713.56
349.355	705.56
349.583	701.56
349.81	705.56
350.037	673.56
350.265	667.56
350.492	697.56
350.72	699.56
350.947	667.56
351.174	678.56
351.402	697.56
351.629	675.56
351.856	677.56
352.083	695.56
352.311	657.56
352.538	669.56
352.765	673.56
352.992	689.56
353.22	657.56
353.447	654.56
353.674	685.56
353.901	665.56
354.128	689.56
354.355	678.56
354.583	663.56
354.81	660.56
355.037	694.56
355.264	689.56
355.491	674.56
355.718	668.56
355.945	701.56
356.172	665.56
356.399	701.56
356.626	675.56
356.853	691.56
357.08	669.56
357.307	709.56
357.534	677.56
357.761	683.56
357.988	675.56
358.215	661.56
358.441	679.56
358.668	690.56
358.895	700.56
359.122	700.56
359.349	693.56
359.576	702.56
359.802	670.56
360.029	682.56
360.256	713.56
360.483	687.56
360.709	687.56
360.936	680.56
361.163	683.56
361.39	688.56
361.616	679.56
361.843	667.56
362.07	661.56
362.296	658.56
362.523	695.56
362.749	672.56
362.976	681.56
363.203	682.56
363.429	696.56
363.656	668.56
363.882	679.56
364.109	678.56
364.335	665.56
364.562	689.56
364.788	678.56
365.015	674.56
365.241	645.56
365.468	660.56
365.694	677.56
365.92	670.56
366.147	675.56
366.373	687.56
366.599	696.56
366.826	673.56
367.052	657.56
367.278	682.56
367.505	695.56
367.731	673.56
367.957	702.56
368.184	657.56
368.41	643.56
368.636	694.56
368.862	680.56
369.089	733.56
369.315	692.56
369.541	710.56
369.767	710.56
369.993	679.56
370.219	707.56
370.445	711.56
370.672	702.56
370.898	756.56
371.124	738.56
371.35	730.56
371.576	752.56
371.802	753.56
372.028	724.56
372.254	753.56
372.48	752.56
372.706	738.56
372.932	791.56
373.158	753.56
373.384	762.56
373.61	748.56
373.835	733.56
374.061	770.56
374.287	761.56
374.513	744.56
374.739	765.56
374.965	836.56
375.191	845.56
375.416	836.56
375.642	813.56
375.868	771.56
376.094	799.56
376.319	747.56
376.545	755.56
376.771	738.56
376.997	750.56
377.222	733.56
377.448	729.56
377.674	746.56
377.899	744.56
378.125	720.56
378.35	710.56
378.576	728.56
378.802	721.56
379.027	745.56
379.253	729.56
379.478	719.56
379.704	731.56
379.929	759.56
380.155	739.56
380.38	697.56
380.606	735.56
380.831	755.56
381.057	733.56
381.282	728.56
381.507	751.56
381.733	750.56
381.958	745.56
382.184	754.56
382.409	755.56
382.634	777.56
382.86	803.56
383.085	804.56
383.31	799.56
383.535	820.56
383.761	831.56
383.986	830.56
384.211	865.56
384.436	854.56
384.662	893.56
384.887	906.56
385.112	905.56
385.337	899.56
385.562	915.56
385.787	893.56
386.013	916.56
386.238	878.56
386.463	893.56
386.688	909.56
386.913	890.56
387.138	889.56
387.363	895.56
387.588	868.56
387.813	877.56
388.038	891.56
388.263	869.56
388.488	894.56
388.713	885.56
388.938	855.56
389.163	841.56
389.387	850.56
389.612	875.56
389.837	873.56
390.062	865.56
390.287	883.56
390.512	863.56
390.736	869.56
390.961	900.56
391.186	899.56
391.411	956.56
391.636	965.56
391.86	989.56
392.085	1007.56
392.31	1016.56
392.534	981.56
392.759	982.56
392.984	962.56
393.208	952.56
393.433	946.56
393.658	975.56
393.882	944.56
394.107	953.56
394.331	979.56
394.556	955.56
394.78	953.56
395.005	981.56
395.229	975.56
395.454	969.56
395.678	1015.56
395.903	1032.56
396.127	1005.56
396.352	946.56
396.576	956.56
396.801	951.56
397.025	959.56
397.249	998.56
397.474	978.56
397.698	1001.56
397.922	986.56
398.147	1002.56
398.371	1030.56
398.595	1061.56
398.82	1124.56
399.044	1178.56
399.268	1289.56
399.492	1509.56
399.717	1711.56
399.941	1759.56
400.165	1546.56
400.389	1380.56
400.613	1252.56
400.837	1183.56
401.062	1119.56
401.286	1129.56
401.51	1090.56
401.734	1136.56
401.958	1128.56
402.182	1133.56
402.406	1158.56
402.63	1182.56
402.854	1177.56
403.078	1209.56
403.302	1253.56
403.526	1268.56
403.75	1297.56
403.974	1311.56
404.198	1301.56
404.422	1360.56
404.645	1304.56
404.869	1289.56
405.093	1289.56
405.317	1258.56
405.541	1233.56
405.765	1210.56
405.988	1248.56
406.212	1247.56
406.436	1244.56
406.66	1261.56
406.883	1267.56
407.107	1350.56
407.331	1439.56
407.555	1500.56
407.778	1485.56
408.002	1429.56
408.226	1401.56
408.449	1365.56
408.673	1308.56
408.896	1292.56
409.12	1271.56
409.344	1269.56
409.567	1241.56
409.791	1299.56
410.014	1319.56
410.238	1285.56
410.461	1281.56
410.685	1249.56
410.908	1202.56
411.132	1186.56
411.355	1178.56
411.578	1171.56
411.802	1166.56
412.025	1150.56
412.249	1174.56
412.472	1178.56
412.695	1156.56
412.919	1110.56
413.142	1121.56
413.365	1118.56
413.589	1139.56
413.812	1117.56
414.035	1134.56
414.258	1111.56
414.482	1117.56
414.705	1133.56
414.928	1143.56
415.151	1146.56
415.374	1149.56
415.597	1124.56
415.821	1091.56
416.044	1119.56
416.267	1103.56
416.49	1094.56
416.713	1089.56
416.936	1130.56
417.159	1101.56
417.382	1100.56
417.605	1119.56
417.828	1117.56
418.051	1118.56
418.274	1123.56
418.497	1107.56
418.72	1150.56
418.943	1152.56
419.166	1233.56
419.389	1307.56
419.611	1290.56
419.834	1210.56
420.057	1193.56
420.28	1143.56
420.503	1089.56
420.726	1099.56
420.948	1098.56
421.171	1132.56
421.394	1123.56
421.617	1108.56
421.839	1128.56
422.062	1126.56
422.285	1109.56
422.507	1143.56
422.73	1143.56
422.953	1148.56
423.175	1158.56
423.398	1164.56
423.621	1154.56
423.843	1219.56
424.066	1197.56
424.288	1199.56
424.511	1188.56
424.733	1173.56
424.956	1140.56
425.178	1115.56
425.401	1127.56
425.623	1096.56
425.846	1101.56
426.068	1107.56
426.291	1091.56
426.513	1022.56
426.735	1064.56
426.958	1079.56
427.18	1025.56
427.402	1023.56
427.625	1039.56
427.847	1002.56
428.069	978.56
428.292	972.56
428.514	1008.56
428.736	1011.56
428.958	1007.56
429.181	979.56
429.403	975.56
429.625	974.56
429.847	924.56
430.069	970.56
430.292	972.56
430.514	963.56
430.736	984.56
430.958	962.56
431.18	957.56
431.402	952.56
431.624	974.56
431.846	986.56
432.068	1025.56
432.29	1048.56
432.512	967.56
432.734	1025.56
432.956	995.56
433.178	1024.56
433.4	1013.56
433.622	1041.56
433.844	1025.56
434.066	1017.56
434.287	1023.56
434.509	1066.56
434.731	1121.56
434.953	1118.56
435.175	1151.56
435.397	1137.56
435.618	1062.56
435.84	1033.56
436.062	1024.56
436.284	1018.56
436.505	973.56
436.727	1036.56
436.949	1027.56
437.17	1022.56
437.392	977.56
437.614	981.56
437.835	956.56
438.057	968.56
438.278	944.56
438.5	955.56
438.721	968.56
438.943	974.56
439.165	967.56
439.386	996.56
439.608	1009.56
439.829	1025.56
440.05	997.56
440.272	979.56
440.493	1018.56
440.715	1032.56
440.936	1038.56
441.158	1058.56
441.379	1091.56
441.6	1145.56
441.822	1153.56
442.043	1150.56
442.264	1152.56
442.486	1067.56
442.707	1117.56
442.928	1121.56
443.149	1130.56
443.371	1103.56
443.592	1161.56
443.813	1137.56
444.034	1155.56
444.255	1172.56
444.476	1222.56
444.698	1308.56
444.919	1395.56
445.14	1463.56
445.361	1358.56
445.582	1189.56
445.803	1121.56
446.024	1088.56
446.245	1063.56
446.466	1014.56
446.687	997.56
446.908	1015.56
447.129	966.56
447.35	959.56
447.571	968.56
447.792	955.56
448.013	968.56
448.234	945.56
448.455	921.56
448.675	917.56
448.896	946.56
449.117	937.56
449.338	899.56
449.559	909.56
449.779	925.56
450	908.56
450.221	906.56
450.442	923.56
450.662	957.56
450.883	971.56
451.104	966.56
451.324	966.56
451.545	946.56
451.766	969.56
451.986	960.56
452.207	953.56
452.428	948.56
452.648	946.56
452.869	912.56
453.089	953.56
453.31	916.56
453.53	913.56
453.751	936.56
453.971	921.56
454.192	910.56
454.412	877.56
454.633	888.56
454.853	914.56
455.073	869.56
455.294	899.56
455.514	903.56
455.734	894.56
455.955	839.56
456.175	864.56
456.395	864.56
456.616	882.56
456.836	872.56
457.056	873.56
457.276	855.56
457.497	853.56
457.717	890.56
457.937	870.56
458.157	889.56
458.377	871.56
458.598	893.56
458.818	933.56
459.038	953.56
459.258	993.56
459.478	1026.56
459.698	1083.56
459.918	1077.56
460.138	1138.56
460.358	1199.56
460.578	1215.56
460.798	1219.56
461.018	1216.56
461.238	1186.56
461.458	1208.56
461.678	1195.56
461.898	1217.56
462.118	1241.56
462.338	1302.56
462.558	1306.56
462.777	1373.56
462.997	1471.56
463.217	1627.56
463.437	1667.56
463.657	1517.56
463.876	1461.56
464.096	1415.56
464.316	1419.56
464.536	1408.56
464.755	1373.56
464.975	1318.56
465.195	1275.56
465.414	1184.56
465.634	1121.56
465.854	1053.56
466.073	1057.56
466.293	1040.56
466.512	1015.56
466.732	976.56
466.951	979.56
467.171	980.56
467.391	973.56
467.61	1006.56
467.829	985.56
468.049	963.56
468.268	922.56
468.488	947.56
468.707	907.56
468.927	935.56
469.146	946.56
469.365	942.56
469.585	943.56
469.804	977.56
470.023	990.56
470.243	1021.56
470.462	1021.56
470.681	1029.56
470.901	1010.56
471.12	965.56
471.339	990.56
471.558	962.56
471.777	986.56
471.997	951.56
472.216	950.56
472.435	936.56
472.654	922.56
472.873	919.56
473.092	908.56
473.311	934.56
473.53	929.56
473.749	895.56
473.968	905.56
474.187	890.56
474.406	877.56
474.625	912.56
474.844	909.56
475.063	904.56
475.282	932.56
475.501	913.56
475.72	920.56
475.939	919.56
476.158	982.56
476.377	933.56
476.596	931.56
476.814	966.56
477.033	946.56
477.252	1007.56
477.471	1016.56
477.69	1043.56
477.908	1070.56
478.127	1112.56
478.346	1101.56
478.564	1087.56
478.783	1126.56
479.002	1138.56
479.22	1147.56
479.439	1151.56
479.658	1143.56
479.876	1138.56
480.095	1166.56
480.313	1209.56
480.532	1233.56
480.751	1227.56
480.969	1187.56
481.188	1156.56
481.406	1100.56
481.624	1089.56
481.843	1061.56
482.061	1042.56
482.28	1085.56
482.498	1031.56
482.717	1023.56
482.935	1050.56
483.153	1057.56
483.372	1055.56
483.59	1064.56
483.808	1048.56
484.027	1076.56
484.245	1045.56
484.463	1061.56
484.681	1066.56
484.9	1079.56
485.118	1096.56
485.336	1083.56
485.554	1113.56
485.772	1109.56
485.99	1133.56
486.209	1130.56
486.427	1133.56
486.645	1105.56
486.863	1133.56
487.081	1134.56
487.299	1116.56
487.517	1111.56
487.735	1109.56
487.953	1118.56
488.171	1113.56
488.389	1063.56
488.607	1066.56
488.825	1101.56
489.043	1112.56
489.261	1095.56
489.479	1085.56
489.696	1118.56
489.914	1112.56
490.132	1129.56
490.35	1097.56
490.568	1096.56
490.786	1122.56
491.003	1112.56
491.221	1087.56
491.439	1073.56
491.657	1098.56
491.874	1110.56
492.092	1109.56
492.31	1134.56
492.527	1123.56
492.745	1107.56
492.963	1154.56
493.18	1145.56
493.398	1130.56
493.615	1122.56
493.833	1151.56
494.05	1123.56
494.268	1179.56
494.485	1161.56
494.703	1151.56
494.92	1166.56
495.138	1156.56
495.355	1140.56
495.573	1154.56
495.79	1155.56
496.008	1182.56
496.225	1194.56
496.442	1181.56
496.66	1197.56
496.877	1187.56
497.094	1213.56
