Data from NiCl2@0.0625M.TitratingCurve.Agarose3%dH2O.NegLispCup.LampEnergy10.LIBS07252019_HRD10591_18-35-10-578.txt Node
Date: Thu Jul 25 18:35:10 EDT 2019
User: cochatt
Spectrometer: HR+D1059
Trigger mode: 1
Integration Time (sec): 1.000000E-1
Scans to average: 1
Electric dark correction enabled: true
Nonlinearity correction enabled: false
Boxcar width: 0
XAxis mode: Wavelengths
Number of Pixels in Spectrum: 2048
>>>>>Begin Spectral Data<<<<<
223.165	-10.19
223.4	-10.19
223.635	-10.19
223.869	-5.19
224.104	-16.19
224.338	-20.19
224.573	-24.19
224.808	-6.19
225.042	-19.19
225.277	-0.19
225.511	-5.19
225.746	-5.19
225.98	7.81
226.215	12.81
226.449	7.81
226.683	22.81
226.918	32.81
227.152	27.81
227.387	30.81
227.621	42.81
227.856	51.81
228.09	42.81
228.324	62.81
228.559	62.81
228.793	73.81
229.027	135.81
229.262	154.81
229.496	157.81
229.73	153.81
229.964	156.81
230.199	199.81
230.433	172.81
230.667	172.81
230.901	177.81
231.136	164.81
231.37	194.81
231.604	189.81
231.838	187.81
232.072	194.81
232.306	181.81
232.541	189.81
232.775	191.81
233.009	178.81
233.243	188.81
233.477	186.81
233.711	201.81
233.945	188.81
234.179	198.81
234.413	187.81
234.647	188.81
234.881	185.81
235.115	195.81
235.349	206.81
235.583	213.81
235.817	204.81
236.051	209.81
236.285	211.81
236.519	225.81
236.753	208.81
236.987	214.81
237.221	198.81
237.455	234.81
237.689	218.81
237.922	219.81
238.156	235.81
238.39	217.81
238.624	230.81
238.858	231.81
239.091	223.81
239.325	229.81
239.559	245.81
239.793	239.81
240.027	260.81
240.26	252.81
240.494	264.81
240.728	249.81
240.961	270.81
241.195	263.81
241.429	267.81
241.662	237.81
241.896	266.81
242.13	264.81
242.363	276.81
242.597	271.81
242.83	300.81
243.064	286.81
243.298	296.81
243.531	278.81
243.765	302.81
243.998	311.81
244.232	330.81
244.465	277.81
244.699	316.81
244.932	325.81
245.166	321.81
245.399	311.81
245.633	293.81
245.866	312.81
246.099	306.81
246.333	324.81
246.566	301.81
246.8	325.81
247.033	310.81
247.266	323.81
247.5	338.81
247.733	336.81
247.966	344.81
248.2	354.81
248.433	340.81
248.666	353.81
248.899	343.81
249.133	365.81
249.366	357.81
249.599	353.81
249.832	364.81
250.066	351.81
250.299	359.81
250.532	363.81
250.765	376.81
250.998	370.81
251.231	362.81
251.465	375.81
251.698	399.81
251.931	395.81
252.164	391.81
252.397	398.81
252.63	405.81
252.863	389.81
253.096	389.81
253.329	397.81
253.562	418.81
253.795	401.81
254.028	403.81
254.261	395.81
254.494	412.81
254.727	417.81
254.96	393.81
255.193	414.81
255.426	419.81
255.659	428.81
255.892	430.81
256.124	427.81
256.357	420.81
256.59	427.81
256.823	473.81
257.056	444.81
257.289	457.81
257.521	452.81
257.754	447.81
257.987	459.81
258.22	438.81
258.452	460.81
258.685	463.81
258.918	478.81
259.151	456.81
259.383	462.81
259.616	471.81
259.849	459.81
260.081	478.81
260.314	458.81
260.547	475.81
260.779	479.81
261.012	484.81
261.244	479.81
261.477	506.81
261.71	505.81
261.942	496.81
262.175	504.81
262.407	501.81
262.64	512.81
262.872	513.81
263.105	503.81
263.337	527.81
263.57	496.81
263.802	525.81
264.035	521.81
264.267	528.81
264.499	526.81
264.732	540.81
264.964	530.81
265.197	527.81
265.429	543.81
265.661	533.81
265.894	529.81
266.126	553.81
266.358	537.81
266.591	545.81
266.823	532.81
267.055	568.81
267.287	541.81
267.52	558.81
267.752	576.81
267.984	546.81
268.216	566.81
268.448	558.81
268.681	542.81
268.913	559.81
269.145	560.81
269.377	579.81
269.609	615.81
269.841	568.81
270.073	580.81
270.306	582.81
270.538	592.81
270.77	588.81
271.002	593.81
271.234	592.81
271.466	613.81
271.698	585.81
271.93	594.81
272.162	621.81
272.394	613.81
272.626	605.81
272.858	600.81
273.09	607.81
273.322	616.81
273.553	622.81
273.785	646.81
274.017	627.81
274.249	628.81
274.481	613.81
274.713	634.81
274.945	633.81
275.176	625.81
275.408	644.81
275.64	652.81
275.872	639.81
276.104	630.81
276.335	634.81
276.567	659.81
276.799	654.81
277.031	663.81
277.262	662.81
277.494	643.81
277.726	663.81
277.957	688.81
278.189	684.81
278.421	683.81
278.652	674.81
278.884	707.81
279.115	677.81
279.347	685.81
279.579	698.81
279.81	701.81
280.042	692.81
280.273	696.81
280.505	695.81
280.736	691.81
280.968	720.81
281.199	725.81
281.431	712.81
281.662	717.81
281.894	722.81
282.125	728.81
282.356	734.81
282.588	726.81
282.819	726.81
283.051	736.81
283.282	727.81
283.513	728.81
283.745	730.81
283.976	745.81
284.207	764.81
284.439	748.81
284.67	753.81
284.901	739.81
285.132	759.81
285.364	772.81
285.595	765.81
285.826	759.81
286.057	763.81
286.288	754.81
286.52	786.81
286.751	765.81
286.982	777.81
287.213	772.81
287.444	774.81
287.675	797.81
287.906	790.81
288.138	809.81
288.369	796.81
288.6	779.81
288.831	769.81
289.062	798.81
289.293	815.81
289.524	802.81
289.755	789.81
289.986	798.81
290.217	787.81
290.448	778.81
290.679	834.81
290.91	824.81
291.141	791.81
291.371	795.81
291.602	805.81
291.833	800.81
292.064	821.81
292.295	818.81
292.526	842.81
292.757	828.81
292.987	784.81
293.218	818.81
293.449	813.81
293.68	824.81
293.91	815.81
294.141	824.81
294.372	824.81
294.603	795.81
294.833	799.81
295.064	841.81
295.295	852.81
295.525	815.81
295.756	828.81
295.987	809.81
296.217	822.81
296.448	860.81
296.679	831.81
296.909	848.81
297.14	855.81
297.37	864.81
297.601	845.81
297.831	859.81
298.062	859.81
298.292	869.81
298.523	878.81
298.753	894.81
298.984	874.81
299.214	877.81
299.445	890.81
299.675	858.81
299.905	870.81
300.136	866.81
300.366	875.81
300.597	915.81
300.827	902.81
301.057	901.81
301.288	941.81
301.518	923.81
301.748	916.81
301.979	922.81
302.209	909.81
302.439	940.81
302.669	922.81
302.9	907.81
303.13	930.81
303.36	928.81
303.59	912.81
303.82	910.81
304.051	921.81
304.281	928.81
304.511	922.81
304.741	912.81
304.971	907.81
305.201	897.81
305.431	941.81
305.661	934.81
305.891	924.81
306.121	903.81
306.352	927.81
306.582	902.81
306.812	931.81
307.042	927.81
307.272	930.81
307.502	912.81
307.731	920.81
307.961	894.81
308.191	900.81
308.421	880.81
308.651	925.81
308.881	903.81
309.111	911.81
309.341	916.81
309.571	917.81
309.8	928.81
310.03	923.81
310.26	914.81
310.49	931.81
310.72	908.81
310.949	927.81
311.179	938.81
311.409	925.81
311.639	912.81
311.868	941.81
312.098	957.81
312.328	962.81
312.557	962.81
312.787	965.81
313.017	947.81
313.246	964.81
313.476	959.81
313.706	975.81
313.935	972.81
314.165	966.81
314.394	975.81
314.624	1004.81
314.853	981.81
315.083	978.81
315.312	981.81
315.542	1010.81
315.771	992.81
316.001	997.81
316.23	976.81
316.46	992.81
316.689	1000.81
316.919	977.81
317.148	959.81
317.377	975.81
317.607	939.81
317.836	968.81
318.065	976.81
318.295	974.81
318.524	972.81
318.753	956.81
318.983	979.81
319.212	970.81
319.441	988.81
319.67	980.81
319.9	955.81
320.129	972.81
320.358	974.81
320.587	970.81
320.816	958.81
321.046	987.81
321.275	988.81
321.504	973.81
321.733	1004.81
321.962	975.81
322.191	977.81
322.42	999.81
322.649	1011.81
322.878	992.81
323.108	982.81
323.337	1003.81
323.566	991.81
323.795	995.81
324.024	1036.81
324.253	1015.81
324.482	1013.81
324.71	1022.81
324.939	1050.81
325.168	1048.81
325.397	1051.81
325.626	1039.81
325.855	1047.81
326.084	1066.81
326.313	1062.81
326.542	1075.81
326.77	1095.81
326.999	1059.81
327.228	1058.81
327.457	1068.81
327.686	1074.81
327.914	1086.81
328.143	1076.81
328.372	1075.81
328.6	1079.81
328.829	1045.81
329.058	1065.81
329.287	1065.81
329.515	1106.81
329.744	1060.81
329.972	1090.81
330.201	1080.81
330.43	1098.81
330.658	1112.81
330.887	1091.81
331.115	1085.81
331.344	1122.81
331.572	1144.81
331.801	1148.81
332.03	1172.81
332.258	1146.81
332.486	1206.81
332.715	1225.81
332.943	1237.81
333.172	1281.81
333.4	1302.81
333.629	1316.81
333.857	1359.81
334.085	1366.81
334.314	1350.81
334.542	1352.81
334.771	1360.81
334.999	1300.81
335.227	1306.81
335.455	1355.81
335.684	1314.81
335.912	1328.81
336.14	1286.81
336.369	1305.81
336.597	1275.81
336.825	1263.81
337.053	1259.81
337.281	1244.81
337.51	1250.81
337.738	1236.81
337.966	1194.81
338.194	1207.81
338.422	1157.81
338.65	1155.81
338.878	1123.81
339.106	1174.81
339.334	1172.81
339.562	1156.81
339.79	1172.81
340.018	1133.81
340.246	1106.81
340.474	1143.81
340.702	1135.81
340.93	1119.81
341.158	1127.81
341.386	1091.81
341.614	1169.81
341.842	1131.81
342.07	1114.81
342.298	1113.81
342.526	1101.81
342.754	1108.81
342.981	1103.81
343.209	1165.81
343.437	1151.81
343.665	1183.81
343.893	1269.81
344.12	1289.81
344.348	1302.81
344.576	1255.81
344.804	1240.81
345.031	1180.81
345.259	1160.81
345.487	1134.81
345.714	1125.81
345.942	1104.81
346.17	1115.81
346.397	1112.81
346.625	1098.81
346.853	1065.81
347.08	1081.81
347.308	1104.81
347.535	1063.81
347.763	1088.81
347.99	1096.81
348.218	1092.81
348.445	1075.81
348.673	1075.81
348.9	1077.81
349.128	1059.81
349.355	1051.81
349.583	1076.81
349.81	1055.81
350.037	1083.81
350.265	1034.81
350.492	1047.81
350.72	1030.81
350.947	1026.81
351.174	1063.81
351.402	1056.81
351.629	1062.81
351.856	1030.81
352.083	1044.81
352.311	1019.81
352.538	1040.81
352.765	1048.81
352.992	1059.81
353.22	1020.81
353.447	1028.81
353.674	1000.81
353.901	1022.81
354.128	1032.81
354.355	1050.81
354.583	1046.81
354.81	1081.81
355.037	1035.81
355.264	1021.81
355.491	1028.81
355.718	1047.81
355.945	1043.81
356.172	1040.81
356.399	1053.81
356.626	1050.81
356.853	1031.81
357.08	1044.81
357.307	1018.81
357.534	1052.81
357.761	1051.81
357.988	1016.81
358.215	1046.81
358.441	1035.81
358.668	1034.81
358.895	1064.81
359.122	1028.81
359.349	1029.81
359.576	1040.81
359.802	1020.81
360.029	1038.81
360.256	1039.81
360.483	1064.81
360.709	1013.81
360.936	1018.81
361.163	1054.81
361.39	1032.81
361.616	1034.81
361.843	1035.81
362.07	1069.81
362.296	1039.81
362.523	1023.81
362.749	1053.81
362.976	1053.81
363.203	1019.81
363.429	1032.81
363.656	1038.81
363.882	1042.81
364.109	1034.81
364.335	1050.81
364.562	1039.81
364.788	1061.81
365.015	1090.81
365.241	1004.81
365.468	1034.81
365.694	1040.81
365.92	1054.81
366.147	1042.81
366.373	1050.81
366.599	1047.81
366.826	1037.81
367.052	1046.81
367.278	1053.81
367.505	1038.81
367.731	1053.81
367.957	1078.81
368.184	1048.81
368.41	1073.81
368.636	1050.81
368.862	1076.81
369.089	1066.81
369.315	1090.81
369.541	1089.81
369.767	1064.81
369.993	1094.81
370.219	1086.81
370.445	1070.81
370.672	1105.81
370.898	1097.81
371.124	1107.81
371.35	1122.81
371.576	1118.81
371.802	1142.81
372.028	1110.81
372.254	1127.81
372.48	1128.81
372.706	1164.81
372.932	1141.81
373.158	1168.81
373.384	1150.81
373.61	1135.81
373.835	1160.81
374.061	1114.81
374.287	1146.81
374.513	1145.81
374.739	1182.81
374.965	1221.81
375.191	1253.81
375.416	1217.81
375.642	1190.81
375.868	1197.81
376.094	1189.81
376.319	1138.81
376.545	1128.81
376.771	1119.81
376.997	1143.81
377.222	1128.81
377.448	1122.81
377.674	1095.81
377.899	1114.81
378.125	1108.81
378.35	1131.81
378.576	1091.81
378.802	1090.81
379.027	1118.81
379.253	1122.81
379.478	1106.81
379.704	1132.81
379.929	1103.81
380.155	1093.81
380.38	1106.81
380.606	1084.81
380.831	1094.81
381.057	1108.81
381.282	1120.81
381.507	1118.81
381.733	1119.81
381.958	1147.81
382.184	1131.81
382.409	1154.81
382.634	1186.81
382.86	1156.81
383.085	1168.81
383.31	1196.81
383.535	1199.81
383.761	1202.81
383.986	1181.81
384.211	1235.81
384.436	1234.81
384.662	1302.81
384.887	1274.81
385.112	1278.81
385.337	1294.81
385.562	1318.81
385.787	1306.81
386.013	1327.81
386.238	1298.81
386.463	1331.81
386.688	1334.81
386.913	1305.81
387.138	1337.81
387.363	1349.81
387.588	1306.81
387.813	1317.81
388.038	1325.81
388.263	1293.81
388.488	1337.81
388.713	1343.81
388.938	1340.81
389.163	1340.81
389.387	1294.81
389.612	1288.81
389.837	1319.81
390.062	1310.81
390.287	1313.81
390.512	1314.81
390.736	1334.81
390.961	1309.81
391.186	1372.81
391.411	1412.81
391.636	1418.81
391.86	1438.81
392.085	1442.81
392.31	1475.81
392.534	1448.81
392.759	1451.81
392.984	1409.81
393.208	1384.81
393.433	1389.81
393.658	1420.81
393.882	1354.81
394.107	1388.81
394.331	1407.81
394.556	1425.81
394.78	1387.81
395.005	1408.81
395.229	1433.81
395.454	1431.81
395.678	1496.81
395.903	1481.81
396.127	1470.81
396.352	1427.81
396.576	1410.81
396.801	1415.81
397.025	1459.81
397.249	1469.81
397.474	1476.81
397.698	1486.81
397.922	1525.81
398.147	1495.81
398.371	1490.81
398.595	1537.81
398.82	1645.81
399.044	1686.81
399.268	1854.81
399.492	2059.81
399.717	2198.81
399.941	2209.81
400.165	2127.81
400.389	1965.81
400.613	1823.81
400.837	1708.81
401.062	1684.81
401.286	1648.81
401.51	1662.81
401.734	1657.81
401.958	1654.81
402.182	1683.81
402.406	1655.81
402.63	1671.81
402.854	1670.81
403.078	1698.81
403.302	1723.81
403.526	1737.81
403.75	1768.81
403.974	1794.81
404.198	1765.81
404.422	1794.81
404.645	1778.81
404.869	1752.81
405.093	1756.81
405.317	1766.81
405.541	1784.81
405.765	1785.81
405.988	1754.81
406.212	1790.81
406.436	1758.81
406.66	1824.81
406.883	1825.81
407.107	1951.81
407.331	1958.81
407.555	2048.81
407.778	2056.81
408.002	2013.81
408.226	1972.81
408.449	1940.81
408.673	1892.81
408.896	1890.81
409.12	1828.81
409.344	1855.81
409.567	1836.81
409.791	1812.81
410.014	1791.81
410.238	1771.81
410.461	1784.81
410.685	1753.81
410.908	1724.81
411.132	1750.81
411.355	1701.81
411.578	1725.81
411.802	1728.81
412.025	1735.81
412.249	1728.81
412.472	1725.81
412.695	1704.81
412.919	1678.81
413.142	1687.81
413.365	1682.81
413.589	1669.81
413.812	1661.81
414.035	1627.81
414.258	1624.81
414.482	1628.81
414.705	1632.81
414.928	1701.81
415.151	1631.81
415.374	1611.81
415.597	1620.81
415.821	1588.81
416.044	1570.81
416.267	1582.81
416.49	1598.81
416.713	1635.81
416.936	1599.81
417.159	1599.81
417.382	1566.81
417.605	1557.81
417.828	1572.81
418.051	1637.81
418.274	1621.81
418.497	1560.81
418.72	1612.81
418.943	1598.81
419.166	1742.81
419.389	1815.81
419.611	1810.81
419.834	1702.81
420.057	1631.81
420.28	1619.81
420.503	1572.81
420.726	1545.81
420.948	1570.81
421.171	1600.81
421.394	1577.81
421.617	1580.81
421.839	1553.81
422.062	1554.81
422.285	1550.81
422.507	1599.81
422.73	1583.81
422.953	1601.81
423.175	1621.81
423.398	1599.81
423.621	1588.81
423.843	1664.81
424.066	1615.81
424.288	1632.81
424.511	1572.81
424.733	1630.81
424.956	1570.81
425.178	1593.81
425.401	1590.81
425.623	1591.81
425.846	1501.81
426.068	1553.81
426.291	1528.81
426.513	1522.81
426.735	1503.81
426.958	1547.81
427.18	1472.81
427.402	1495.81
427.625	1491.81
427.847	1475.81
428.069	1460.81
428.292	1460.81
428.514	1437.81
428.736	1426.81
428.958	1413.81
429.181	1415.81
429.403	1415.81
429.625	1444.81
429.847	1399.81
430.069	1400.81
430.292	1464.81
430.514	1429.81
430.736	1459.81
430.958	1442.81
431.18	1414.81
431.402	1458.81
431.624	1434.81
431.846	1444.81
432.068	1494.81
432.29	1504.81
432.512	1449.81
432.734	1447.81
432.956	1471.81
433.178	1471.81
433.4	1452.81
433.622	1490.81
433.844	1487.81
434.066	1491.81
434.287	1494.81
434.509	1526.81
434.731	1564.81
434.953	1567.81
435.175	1619.81
435.397	1627.81
435.618	1553.81
435.84	1515.81
436.062	1481.81
436.284	1473.81
436.505	1451.81
436.727	1440.81
436.949	1486.81
437.17	1435.81
437.392	1444.81
437.614	1387.81
437.835	1379.81
438.057	1379.81
438.278	1383.81
438.5	1374.81
438.721	1388.81
438.943	1405.81
439.165	1404.81
439.386	1413.81
439.608	1391.81
439.829	1440.81
440.05	1369.81
440.272	1438.81
440.493	1414.81
440.715	1443.81
440.936	1463.81
441.158	1486.81
441.379	1534.81
441.6	1560.81
441.822	1552.81
442.043	1575.81
442.264	1558.81
442.486	1521.81
442.707	1528.81
442.928	1551.81
443.149	1546.81
443.371	1500.81
443.592	1542.81
443.813	1566.81
444.034	1574.81
444.255	1632.81
444.476	1666.81
444.698	1705.81
444.919	1765.81
445.14	1819.81
445.361	1717.81
445.582	1588.81
445.803	1527.81
446.024	1481.81
446.245	1499.81
446.466	1466.81
446.687	1402.81
446.908	1446.81
447.129	1405.81
447.35	1389.81
447.571	1381.81
447.792	1354.81
448.013	1362.81
448.234	1310.81
448.455	1302.81
448.675	1309.81
448.896	1321.81
449.117	1296.81
449.338	1296.81
449.559	1284.81
449.779	1289.81
450	1270.81
450.221	1290.81
450.442	1282.81
450.662	1288.81
450.883	1312.81
451.104	1281.81
451.324	1311.81
451.545	1302.81
451.766	1298.81
451.986	1246.81
452.207	1260.81
452.428	1298.81
452.648	1263.81
452.869	1259.81
453.089	1246.81
453.31	1243.81
453.53	1231.81
453.751	1270.81
453.971	1222.81
454.192	1242.81
454.412	1208.81
454.633	1183.81
454.853	1226.81
455.073	1242.81
455.294	1194.81
455.514	1219.81
455.734	1213.81
455.955	1212.81
456.175	1216.81
456.395	1172.81
456.616	1229.81
456.836	1229.81
457.056	1195.81
457.276	1191.81
457.497	1226.81
457.717	1246.81
457.937	1222.81
458.157	1280.81
458.377	1282.81
458.598	1293.81
458.818	1315.81
459.038	1349.81
459.258	1354.81
459.478	1393.81
459.698	1430.81
459.918	1455.81
460.138	1477.81
460.358	1597.81
460.578	1596.81
460.798	1604.81
461.018	1618.81
461.238	1608.81
461.458	1634.81
461.678	1597.81
461.898	1646.81
462.118	1648.81
462.338	1678.81
462.558	1694.81
462.777	1786.81
462.997	1901.81
463.217	2013.81
463.437	2011.81
463.657	1935.81
463.876	1850.81
464.096	1873.81
464.316	1815.81
464.536	1826.81
464.755	1817.81
464.975	1753.81
465.195	1686.81
465.414	1582.81
465.634	1528.81
465.854	1503.81
466.073	1434.81
466.293	1416.81
466.512	1364.81
466.732	1360.81
466.951	1390.81
467.171	1353.81
467.391	1349.81
467.61	1343.81
467.829	1325.81
468.049	1343.81
468.268	1337.81
468.488	1351.81
468.707	1296.81
468.927	1314.81
469.146	1280.81
469.365	1366.81
469.585	1344.81
469.804	1358.81
470.023	1360.81
470.243	1394.81
470.462	1412.81
470.681	1391.81
470.901	1384.81
471.12	1403.81
471.339	1320.81
471.558	1340.81
471.777	1353.81
471.997	1363.81
472.216	1334.81
472.435	1295.81
472.654	1282.81
472.873	1286.81
473.092	1301.81
473.311	1281.81
473.53	1289.81
473.749	1323.81
473.968	1307.81
474.187	1294.81
474.406	1288.81
474.625	1311.81
474.844	1284.81
475.063	1304.81
475.282	1320.81
475.501	1328.81
475.72	1310.81
475.939	1333.81
476.158	1360.81
476.377	1364.81
476.596	1372.81
476.814	1376.81
477.033	1397.81
477.252	1389.81
477.471	1430.81
477.69	1452.81
477.908	1507.81
478.127	1507.81
478.346	1537.81
478.564	1555.81
478.783	1569.81
479.002	1626.81
479.22	1622.81
479.439	1587.81
479.658	1615.81
479.876	1605.81
480.095	1660.81
480.313	1664.81
480.532	1707.81
480.751	1713.81
480.969	1634.81
481.188	1606.81
481.406	1618.81
481.624	1570.81
481.843	1552.81
482.061	1582.81
482.28	1552.81
482.498	1553.81
482.717	1585.81
482.935	1576.81
483.153	1574.81
483.372	1581.81
483.59	1574.81
483.808	1583.81
484.027	1635.81
484.245	1632.81
484.463	1620.81
484.681	1636.81
484.9	1686.81
485.118	1690.81
485.336	1665.81
485.554	1658.81
485.772	1702.81
485.99	1698.81
486.209	1695.81
486.427	1709.81
486.645	1684.81
486.863	1700.81
487.081	1671.81
487.299	1650.81
487.517	1665.81
487.735	1657.81
487.953	1663.81
488.171	1671.81
488.389	1651.81
488.607	1651.81
488.825	1605.81
489.043	1625.81
489.261	1594.81
489.479	1628.81
489.696	1626.81
489.914	1674.81
490.132	1606.81
490.35	1631.81
490.568	1619.81
490.786	1673.81
491.003	1630.81
491.221	1614.81
