Data from NiCl2@0.25M.TitratingCurve.Agarose3%dH2O.NegLispCup.LampEnergy10.LIBS07252019_HRD10591_18-25-27-573.txt Node
Date: Thu Jul 25 18:25:27 EDT 2019
User: cochatt
Spectrometer: HR+D1059
Trigger mode: 1
Integration Time (sec): 1.000000E-1
Scans to average: 1
Electric dark correction enabled: true
Nonlinearity correction enabled: false
Boxcar width: 0
XAxis mode: Wavelengths
Number of Pixels in Spectrum: 2048
>>>>>Begin Spectral Data<<<<<
223.165	-18.5
223.4	-18.5
223.635	-18.5
223.869	-15.5
224.104	-19.5
224.338	-12.5
224.573	-8.5
224.808	-13.5
225.042	-10.5
225.277	-5.5
225.511	-12.5
225.746	6.5
225.98	1.5
226.215	13.5
226.449	14.5
226.683	24.5
226.918	17.5
227.152	38.5
227.387	23.5
227.621	38.5
227.856	38.5
228.09	45.5
228.324	54.5
228.559	47.5
228.793	75.5
229.027	112.5
229.262	127.5
229.496	127.5
229.73	148.5
229.964	151.5
230.199	157.5
230.433	158.5
230.667	162.5
230.901	169.5
231.136	166.5
231.37	146.5
231.604	181.5
231.838	167.5
232.072	190.5
232.306	184.5
232.541	167.5
232.775	163.5
233.009	187.5
233.243	180.5
233.477	173.5
233.711	180.5
233.945	183.5
234.179	187.5
234.413	186.5
234.647	195.5
234.881	198.5
235.115	196.5
235.349	175.5
235.583	181.5
235.817	193.5
236.051	190.5
236.285	199.5
236.519	184.5
236.753	208.5
236.987	197.5
237.221	191.5
237.455	203.5
237.689	218.5
237.922	218.5
238.156	216.5
238.39	214.5
238.624	206.5
238.858	224.5
239.091	205.5
239.325	227.5
239.559	227.5
239.793	234.5
240.027	220.5
240.26	236.5
240.494	235.5
240.728	227.5
240.961	251.5
241.195	239.5
241.429	244.5
241.662	238.5
241.896	255.5
242.13	255.5
242.363	237.5
242.597	254.5
242.83	270.5
243.064	254.5
243.298	270.5
243.531	268.5
243.765	259.5
243.998	269.5
244.232	279.5
244.465	272.5
244.699	269.5
244.932	287.5
245.166	281.5
245.399	293.5
245.633	284.5
245.866	269.5
246.099	277.5
246.333	294.5
246.566	291.5
246.8	313.5
247.033	301.5
247.266	317.5
247.5	320.5
247.733	311.5
247.966	312.5
248.2	321.5
248.433	317.5
248.666	328.5
248.899	315.5
249.133	308.5
249.366	327.5
249.599	330.5
249.832	335.5
250.066	337.5
250.299	305.5
250.532	337.5
250.765	342.5
250.998	349.5
251.231	354.5
251.465	353.5
251.698	344.5
251.931	354.5
252.164	361.5
252.397	371.5
252.63	366.5
252.863	367.5
253.096	357.5
253.329	394.5
253.562	372.5
253.795	373.5
254.028	382.5
254.261	389.5
254.494	375.5
254.727	383.5
254.96	367.5
255.193	376.5
255.426	374.5
255.659	410.5
255.892	394.5
256.124	391.5
256.357	392.5
256.59	394.5
256.823	399.5
257.056	396.5
257.289	417.5
257.521	414.5
257.754	422.5
257.987	433.5
258.22	399.5
258.452	396.5
258.685	397.5
258.918	410.5
259.151	425.5
259.383	416.5
259.616	416.5
259.849	434.5
260.081	424.5
260.314	439.5
260.547	415.5
260.779	441.5
261.012	435.5
261.244	455.5
261.477	455.5
261.71	453.5
261.942	440.5
262.175	446.5
262.407	459.5
262.64	472.5
262.872	496.5
263.105	451.5
263.337	461.5
263.57	464.5
263.802	452.5
264.035	479.5
264.267	475.5
264.499	471.5
264.732	507.5
264.964	512.5
265.197	509.5
265.429	474.5
265.661	484.5
265.894	476.5
266.126	488.5
266.358	473.5
266.591	469.5
266.823	492.5
267.055	482.5
267.287	491.5
267.52	511.5
267.752	497.5
267.984	501.5
268.216	524.5
268.448	530.5
268.681	528.5
268.913	513.5
269.145	528.5
269.377	509.5
269.609	529.5
269.841	515.5
270.073	551.5
270.306	537.5
270.538	529.5
270.77	536.5
271.002	545.5
271.234	513.5
271.466	539.5
271.698	550.5
271.93	548.5
272.162	541.5
272.394	534.5
272.626	555.5
272.858	559.5
273.09	547.5
273.322	522.5
273.553	550.5
273.785	572.5
274.017	577.5
274.249	604.5
274.481	581.5
274.713	544.5
274.945	569.5
275.176	588.5
275.408	580.5
275.64	561.5
275.872	592.5
276.104	581.5
276.335	597.5
276.567	596.5
276.799	592.5
277.031	581.5
277.262	587.5
277.494	588.5
277.726	612.5
277.957	610.5
278.189	611.5
278.421	610.5
278.652	624.5
278.884	620.5
279.115	629.5
279.347	617.5
279.579	631.5
279.81	638.5
280.042	634.5
280.273	653.5
280.505	638.5
280.736	661.5
280.968	651.5
281.199	645.5
281.431	645.5
281.662	680.5
281.894	641.5
282.125	663.5
282.356	673.5
282.588	669.5
282.819	652.5
283.051	665.5
283.282	678.5
283.513	682.5
283.745	677.5
283.976	663.5
284.207	694.5
284.439	676.5
284.67	687.5
284.901	682.5
285.132	704.5
285.364	697.5
285.595	687.5
285.826	680.5
286.057	721.5
286.288	714.5
286.52	730.5
286.751	706.5
286.982	715.5
287.213	711.5
287.444	711.5
287.675	719.5
287.906	714.5
288.138	720.5
288.369	734.5
288.6	749.5
288.831	715.5
289.062	731.5
289.293	743.5
289.524	742.5
289.755	728.5
289.986	714.5
290.217	736.5
290.448	734.5
290.679	737.5
290.91	758.5
291.141	732.5
291.371	744.5
291.602	753.5
291.833	768.5
292.064	730.5
292.295	745.5
292.526	757.5
292.757	744.5
292.987	760.5
293.218	752.5
293.449	771.5
293.68	756.5
293.91	745.5
294.141	763.5
294.372	749.5
294.603	738.5
294.833	737.5
295.064	790.5
295.295	757.5
295.525	787.5
295.756	775.5
295.987	770.5
296.217	779.5
296.448	789.5
296.679	771.5
296.909	798.5
297.14	778.5
297.37	793.5
297.601	808.5
297.831	785.5
298.062	815.5
298.292	843.5
298.523	853.5
298.753	838.5
298.984	815.5
299.214	816.5
299.445	811.5
299.675	798.5
299.905	814.5
300.136	824.5
300.366	837.5
300.597	830.5
300.827	830.5
301.057	835.5
301.288	869.5
301.518	864.5
301.748	847.5
301.979	863.5
302.209	880.5
302.439	855.5
302.669	857.5
302.9	850.5
303.13	840.5
303.36	869.5
303.59	821.5
303.82	844.5
304.051	846.5
304.281	858.5
304.511	854.5
304.741	855.5
304.971	857.5
305.201	864.5
305.431	829.5
305.661	847.5
305.891	851.5
306.121	857.5
306.352	835.5
306.582	848.5
306.812	821.5
307.042	859.5
307.272	821.5
307.502	820.5
307.731	840.5
307.961	825.5
308.191	802.5
308.421	807.5
308.651	858.5
308.881	834.5
309.111	850.5
309.341	871.5
309.571	850.5
309.8	828.5
310.03	857.5
310.26	829.5
310.49	837.5
310.72	851.5
310.949	853.5
311.179	828.5
311.409	845.5
311.639	859.5
311.868	881.5
312.098	865.5
312.328	884.5
312.557	875.5
312.787	884.5
313.017	873.5
313.246	897.5
313.476	886.5
313.706	896.5
313.935	857.5
314.165	901.5
314.394	890.5
314.624	929.5
314.853	902.5
315.083	925.5
315.312	916.5
315.542	895.5
315.771	895.5
316.001	873.5
316.23	890.5
316.46	879.5
316.689	883.5
316.919	885.5
317.148	892.5
317.377	914.5
317.607	870.5
317.836	881.5
318.065	869.5
318.295	867.5
318.524	913.5
318.753	874.5
318.983	863.5
319.212	863.5
319.441	870.5
319.67	856.5
319.9	883.5
320.129	879.5
320.358	881.5
320.587	880.5
320.816	871.5
321.046	913.5
321.275	915.5
321.504	868.5
321.733	893.5
321.962	873.5
322.191	893.5
322.42	905.5
322.649	918.5
322.878	918.5
323.108	897.5
323.337	896.5
323.566	918.5
323.795	906.5
324.024	890.5
324.253	887.5
324.482	913.5
324.71	933.5
324.939	903.5
325.168	941.5
325.397	952.5
325.626	953.5
325.855	931.5
326.084	961.5
326.313	970.5
326.542	964.5
326.77	994.5
326.999	954.5
327.228	943.5
327.457	959.5
327.686	980.5
327.914	950.5
328.143	944.5
328.372	980.5
328.6	972.5
328.829	961.5
329.058	955.5
329.287	946.5
329.515	983.5
329.744	977.5
329.972	987.5
330.201	990.5
330.43	994.5
330.658	1002.5
330.887	1009.5
331.115	1000.5
331.344	1029.5
331.572	1010.5
331.801	1039.5
332.03	1052.5
332.258	1090.5
332.486	1143.5
332.715	1146.5
332.943	1167.5
333.172	1213.5
333.4	1287.5
333.629	1317.5
333.857	1346.5
334.085	1336.5
334.314	1315.5
334.542	1289.5
334.771	1279.5
334.999	1238.5
335.227	1258.5
335.455	1268.5
335.684	1234.5
335.912	1249.5
336.14	1192.5
336.369	1180.5
336.597	1206.5
336.825	1183.5
337.053	1169.5
337.281	1169.5
337.51	1118.5
337.738	1095.5
337.966	1088.5
338.194	1079.5
338.422	1065.5
338.65	1047.5
338.878	1064.5
339.106	1013.5
339.334	1059.5
339.562	1052.5
339.79	1025.5
340.018	999.5
340.246	1008.5
340.474	990.5
340.702	1010.5
340.93	1013.5
341.158	1028.5
341.386	1012.5
341.614	1067.5
341.842	1001.5
342.07	962.5
342.298	1002.5
342.526	995.5
342.754	1034.5
342.981	993.5
343.209	1041.5
343.437	1104.5
343.665	1139.5
343.893	1219.5
344.12	1280.5
344.348	1215.5
344.576	1167.5
344.804	1106.5
345.031	1065.5
345.259	1054.5
345.487	1011.5
345.714	1002.5
345.942	983.5
346.17	1000.5
346.397	997.5
346.625	977.5
346.853	1002.5
347.08	978.5
347.308	957.5
347.535	965.5
347.763	1021.5
347.99	973.5
348.218	964.5
348.445	933.5
348.673	978.5
348.9	962.5
349.128	964.5
349.355	953.5
349.583	933.5
349.81	947.5
350.037	932.5
350.265	946.5
350.492	972.5
350.72	943.5
350.947	933.5
351.174	929.5
351.402	951.5
351.629	945.5
351.856	930.5
352.083	934.5
352.311	953.5
352.538	930.5
352.765	936.5
352.992	931.5
353.22	901.5
353.447	916.5
353.674	932.5
353.901	882.5
354.128	926.5
354.355	919.5
354.583	932.5
354.81	915.5
355.037	938.5
355.264	943.5
355.491	927.5
355.718	927.5
355.945	951.5
356.172	917.5
356.399	935.5
356.626	933.5
356.853	949.5
357.08	938.5
357.307	951.5
357.534	928.5
357.761	957.5
357.988	937.5
358.215	938.5
358.441	921.5
358.668	928.5
358.895	925.5
359.122	930.5
359.349	942.5
359.576	928.5
359.802	914.5
360.029	951.5
360.256	956.5
360.483	945.5
360.709	954.5
360.936	954.5
361.163	946.5
361.39	928.5
361.616	978.5
361.843	957.5
362.07	937.5
362.296	950.5
362.523	952.5
362.749	949.5
362.976	917.5
363.203	941.5
363.429	947.5
363.656	921.5
363.882	942.5
364.109	927.5
364.335	913.5
364.562	927.5
364.788	919.5
365.015	947.5
365.241	920.5
365.468	920.5
365.694	941.5
365.92	929.5
366.147	898.5
366.373	897.5
366.599	922.5
366.826	949.5
367.052	927.5
367.278	915.5
367.505	905.5
367.731	952.5
367.957	911.5
368.184	941.5
368.41	948.5
368.636	934.5
368.862	917.5
369.089	972.5
369.315	964.5
369.541	941.5
369.767	974.5
369.993	962.5
370.219	950.5
370.445	966.5
370.672	985.5
370.898	963.5
371.124	990.5
371.35	1028.5
371.576	1015.5
371.802	1025.5
372.028	1011.5
372.254	1021.5
372.48	1021.5
372.706	1040.5
372.932	1058.5
373.158	1076.5
373.384	1014.5
373.61	1037.5
373.835	1030.5
374.061	1023.5
374.287	1046.5
374.513	1035.5
374.739	1070.5
374.965	1103.5
375.191	1123.5
375.416	1151.5
375.642	1104.5
375.868	1082.5
376.094	1055.5
376.319	1069.5
376.545	1026.5
376.771	1031.5
376.997	1039.5
377.222	1036.5
377.448	1044.5
377.674	1034.5
377.899	1033.5
378.125	1052.5
378.35	1051.5
378.576	1012.5
378.802	1013.5
379.027	996.5
379.253	1034.5
379.478	1000.5
379.704	986.5
379.929	1032.5
380.155	1015.5
380.38	1017.5
380.606	1016.5
380.831	990.5
381.057	1035.5
381.282	1012.5
381.507	1014.5
381.733	1020.5
381.958	1039.5
382.184	1056.5
382.409	1036.5
382.634	1083.5
382.86	1069.5
383.085	1074.5
383.31	1099.5
383.535	1074.5
383.761	1136.5
383.986	1160.5
384.211	1151.5
384.436	1176.5
384.662	1193.5
384.887	1225.5
385.112	1231.5
385.337	1231.5
385.562	1250.5
385.787	1218.5
386.013	1245.5
386.238	1242.5
386.463	1254.5
386.688	1235.5
386.913	1231.5
387.138	1234.5
387.363	1231.5
387.588	1252.5
387.813	1224.5
388.038	1201.5
388.263	1229.5
388.488	1280.5
388.713	1233.5
388.938	1221.5
389.163	1209.5
389.387	1221.5
389.612	1211.5
389.837	1184.5
390.062	1218.5
390.287	1185.5
390.512	1209.5
390.736	1229.5
390.961	1239.5
391.186	1241.5
391.411	1291.5
391.636	1362.5
391.86	1378.5
392.085	1411.5
392.31	1413.5
392.534	1350.5
392.759	1341.5
392.984	1339.5
393.208	1342.5
393.433	1299.5
393.658	1304.5
393.882	1344.5
394.107	1316.5
394.331	1313.5
394.556	1319.5
394.78	1323.5
395.005	1335.5
395.229	1346.5
395.454	1366.5
395.678	1419.5
395.903	1407.5
396.127	1363.5
396.352	1349.5
396.576	1330.5
396.801	1321.5
397.025	1379.5
397.249	1357.5
397.474	1397.5
397.698	1393.5
397.922	1429.5
398.147	1429.5
398.371	1461.5
398.595	1484.5
398.82	1571.5
399.044	1669.5
399.268	1844.5
399.492	2065.5
399.717	2375.5
399.941	2408.5
400.165	2165.5
400.389	1954.5
400.613	1814.5
400.837	1683.5
401.062	1612.5
401.286	1621.5
401.51	1603.5
401.734	1611.5
401.958	1573.5
402.182	1578.5
402.406	1633.5
402.63	1657.5
402.854	1658.5
403.078	1687.5
403.302	1727.5
403.526	1771.5
403.75	1779.5
403.974	1776.5
404.198	1788.5
404.422	1791.5
404.645	1765.5
404.869	1775.5
405.093	1757.5
405.317	1749.5
405.541	1746.5
405.765	1759.5
405.988	1737.5
406.212	1730.5
406.436	1685.5
406.66	1745.5
406.883	1782.5
407.107	1895.5
407.331	1984.5
407.555	2007.5
407.778	2063.5
408.002	1990.5
408.226	1967.5
408.449	1894.5
408.673	1825.5
408.896	1805.5
409.12	1709.5
409.344	1783.5
409.567	1739.5
409.791	1783.5
410.014	1764.5
410.238	1745.5
410.461	1719.5
410.685	1722.5
410.908	1659.5
411.132	1704.5
411.355	1662.5
411.578	1647.5
411.802	1622.5
412.025	1635.5
412.249	1673.5
412.472	1645.5
412.695	1597.5
412.919	1607.5
413.142	1600.5
413.365	1573.5
413.589	1603.5
413.812	1575.5
414.035	1549.5
414.258	1591.5
414.482	1565.5
414.705	1554.5
414.928	1589.5
415.151	1579.5
415.374	1603.5
415.597	1539.5
415.821	1523.5
416.044	1512.5
416.267	1492.5
416.49	1517.5
416.713	1512.5
416.936	1559.5
417.159	1556.5
417.382	1511.5
417.605	1475.5
417.828	1467.5
418.051	1500.5
418.274	1541.5
418.497	1545.5
418.72	1572.5
418.943	1585.5
419.166	1681.5
419.389	1821.5
419.611	1777.5
419.834	1657.5
420.057	1603.5
420.28	1586.5
420.503	1543.5
420.726	1512.5
420.948	1474.5
421.171	1519.5
421.394	1523.5
421.617	1506.5
421.839	1569.5
422.062	1561.5
422.285	1515.5
422.507	1571.5
422.73	1568.5
422.953	1573.5
423.175	1620.5
423.398	1622.5
423.621	1578.5
423.843	1594.5
424.066	1619.5
424.288	1593.5
424.511	1599.5
424.733	1587.5
424.956	1581.5
425.178	1553.5
425.401	1534.5
425.623	1541.5
425.846	1510.5
426.068	1503.5
426.291	1487.5
426.513	1443.5
426.735	1405.5
426.958	1442.5
427.18	1391.5
427.402	1392.5
427.625	1383.5
427.847	1389.5
428.069	1343.5
428.292	1379.5
428.514	1369.5
428.736	1368.5
428.958	1350.5
429.181	1322.5
429.403	1349.5
429.625	1303.5
429.847	1333.5
430.069	1307.5
430.292	1337.5
430.514	1277.5
430.736	1348.5
430.958	1311.5
431.18	1315.5
431.402	1329.5
431.624	1358.5
431.846	1378.5
432.068	1402.5
432.29	1405.5
432.512	1373.5
432.734	1382.5
432.956	1355.5
433.178	1341.5
433.4	1337.5
433.622	1353.5
433.844	1389.5
434.066	1373.5
434.287	1395.5
434.509	1430.5
434.731	1506.5
434.953	1507.5
435.175	1545.5
435.397	1494.5
435.618	1448.5
435.84	1404.5
436.062	1369.5
436.284	1355.5
436.505	1362.5
436.727	1366.5
436.949	1329.5
437.17	1335.5
437.392	1350.5
437.614	1310.5
437.835	1304.5
438.057	1335.5
438.278	1292.5
438.5	1287.5
438.721	1306.5
438.943	1315.5
439.165	1301.5
439.386	1315.5
439.608	1302.5
439.829	1359.5
440.05	1350.5
440.272	1336.5
440.493	1367.5
440.715	1367.5
440.936	1412.5
441.158	1411.5
441.379	1478.5
441.6	1512.5
441.822	1506.5
442.043	1555.5
442.264	1498.5
442.486	1473.5
442.707	1486.5
442.928	1471.5
443.149	1467.5
443.371	1450.5
443.592	1470.5
443.813	1498.5
444.034	1507.5
444.255	1589.5
444.476	1658.5
444.698	1743.5
444.919	1814.5
445.14	1859.5
445.361	1718.5
445.582	1555.5
445.803	1491.5
446.024	1441.5
446.245	1385.5
446.466	1423.5
446.687	1345.5
446.908	1398.5
447.129	1329.5
447.35	1305.5
447.571	1304.5
447.792	1276.5
448.013	1267.5
448.234	1215.5
448.455	1227.5
448.675	1221.5
448.896	1227.5
449.117	1194.5
449.338	1218.5
449.559	1181.5
449.779	1218.5
450	1222.5
450.221	1229.5
450.442	1213.5
450.662	1222.5
450.883	1215.5
451.104	1232.5
451.324	1222.5
451.545	1280.5
451.766	1238.5
451.986	1265.5
452.207	1215.5
452.428	1232.5
452.648	1218.5
452.869	1194.5
453.089	1206.5
453.31	1243.5
453.53	1197.5
453.751	1195.5
453.971	1165.5
454.192	1171.5
454.412	1173.5
454.633	1183.5
454.853	1153.5
455.073	1177.5
455.294	1157.5
455.514	1136.5
455.734	1145.5
455.955	1108.5
456.175	1131.5
456.395	1104.5
456.616	1133.5
456.836	1149.5
457.056	1151.5
457.276	1128.5
457.497	1183.5
457.717	1147.5
457.937	1151.5
458.157	1201.5
458.377	1194.5
458.598	1199.5
458.818	1257.5
459.038	1292.5
459.258	1332.5
459.478	1366.5
459.698	1415.5
459.918	1438.5
460.138	1499.5
460.358	1549.5
460.578	1615.5
460.798	1610.5
461.018	1615.5
461.238	1604.5
461.458	1583.5
461.678	1592.5
461.898	1655.5
462.118	1610.5
462.338	1749.5
462.558	1755.5
462.777	1877.5
462.997	1934.5
463.217	2109.5
463.437	2116.5
463.657	1981.5
463.876	1912.5
464.096	1924.5
464.316	1867.5
464.536	1872.5
464.755	1814.5
464.975	1761.5
465.195	1689.5
465.414	1574.5
465.634	1459.5
465.854	1407.5
466.073	1398.5
466.293	1346.5
466.512	1310.5
466.732	1291.5
466.951	1307.5
467.171	1271.5
467.391	1307.5
467.61	1284.5
467.829	1263.5
468.049	1239.5
468.268	1232.5
468.488	1228.5
468.707	1246.5
468.927	1237.5
469.146	1242.5
469.365	1276.5
469.585	1265.5
469.804	1286.5
470.023	1295.5
470.243	1328.5
470.462	1324.5
470.681	1325.5
470.901	1353.5
471.12	1360.5
471.339	1315.5
471.558	1313.5
471.777	1269.5
471.997	1236.5
472.216	1246.5
472.435	1222.5
472.654	1200.5
472.873	1216.5
473.092	1241.5
473.311	1218.5
473.53	1226.5
473.749	1190.5
473.968	1175.5
474.187	1201.5
474.406	1177.5
474.625	1218.5
474.844	1188.5
475.063	1211.5
475.282	1218.5
475.501	1226.5
475.72	1196.5
475.939	1213.5
476.158	1264.5
476.377	1251.5
476.596	1227.5
476.814	1280.5
477.033	1309.5
477.252	1297.5
477.471	1329.5
477.69	1351.5
477.908	1398.5
478.127	1443.5
478.346	1430.5
478.564	1475.5
478.783	1501.5
479.002	1539.5
479.22	1525.5
479.439	1516.5
479.658	1522.5
479.876	1530.5
480.095	1572.5
480.313	1610.5
480.532	1621.5
480.751	1624.5
480.969	1571.5
481.188	1506.5
481.406	1461.5
481.624	1434.5
481.843	1420.5
482.061	1413.5
482.28	1427.5
482.498	1402.5
482.717	1387.5
482.935	1432.5
483.153	1394.5
483.372	1353.5
483.59	1395.5
483.808	1404.5
484.027	1383.5
484.245	1415.5
484.463	1377.5
484.681	1446.5
484.9	1420.5
485.118	1445.5
485.336	1430.5
485.554	1414.5
485.772	1440.5
485.99	1461.5
486.209	1481.5
486.427	1471.5
486.645	1494.5
486.863	1475.5
487.081	1440.5
487.299	1439.5
487.517	1432.5
487.735	1444.5
487.953	1459.5
488.171	1451.5
488.389	1465.5
488.607	1431.5
488.825	1431.5
489.043	1432.5
489.261	1400.5
489.479	1440.5
489.696	1426.5
489.914	1431.5
490.132	1448.5
490.35	1462.5
490.568	1453.5
490.786	1475.5
491.003	1472.5
491.221	1486.5
491.439	1463.5
491.657	1460.5
491.874	1480.5
492.092	1462.5
492.31	1474.5
492.527	1528.5
492.745	1490.5
492.963	1454.5
493.18	1519.5
493.398	1483.5
493.615	1510.5
493.833	1515.5
494.05	1551.5
494.268	1558.5
494.485	1569.5
494.703	1553.5
494.92	1582.5
495.138	1547.5
495.355	1568.5
495.573	1546.5
495.79	1587.5
496.008	1559.5
496.225	1614.5
496.442	1610.5
496.66	1610.5
496.877	1654.5
497.094	1669.5
497.312	1694.5
497.529	1735.5
497.746	1801.5
497.963	1896.5
498.181	1904.5
498.398	2073.5
498.615	2170.5
498.832	2305.5
499.049	2463.5
499.267	2722.5
499.484	2961.5
499.701	3259.5
499.918	3547.5
500.135	4069.5
500.352	4482.5
500.569	4660.5
500.786	4608.5
501.003	4305.5
501.22	3947.5
501.437	3609.5
501.654	3230.5
501.871	2915.5
502.088	2617.5
502.305	2433.5
502.522	2324.5
502.739	2227.5
502.956	2088.5
503.172	2015.5
503.389	1935.5
503.606	1881.5
503.823	1788.5
504.04	1868.5
504.256	1819.5
504.473	1845.5
504.69	1879.5
504.907	1879.5
505.123	1742.5
505.34	1636.5
505.557	1581.5
505.773	1554.5
505.99	1505.5
506.207	1461.5
506.423	1451.5
506.64	1427.5
506.856	1415.5
507.073	1393.5
507.289	1410.5
507.506	1370.5
507.722	1354.5
507.939	1327.5
508.155	1330.5
508.372	1319.5
508.588	1326.5
508.805	1282.5
509.021	1282.5
509.238	1282.5
509.454	1262.5
