Data from NiCl2@0.0625M.TitratingCurve.Agarose3%dH2O.NegLispCup.LampEnergy10.LIBS07252019_HRD10591_18-33-23-577.txt Node
Date: Thu Jul 25 18:33:23 EDT 2019
User: cochatt
Spectrometer: HR+D1059
Trigger mode: 1
Integration Time (sec): 1.000000E-1
Scans to average: 1
Electric dark correction enabled: true
Nonlinearity correction enabled: false
Boxcar width: 0
XAxis mode: Wavelengths
Number of Pixels in Spectrum: 2048
>>>>>Begin Spectral Data<<<<<
223.165	-26.75
223.4	-26.75
223.635	-26.75
223.869	-14.75
224.104	-25.75
224.338	-12.75
224.573	-10.75
224.808	-14.75
225.042	-15.75
225.277	0.25
225.511	3.25
225.746	1.25
225.98	4.25
226.215	9.25
226.449	28.25
226.683	27.25
226.918	20.25
227.152	27.25
227.387	31.25
227.621	33.25
227.856	35.25
228.09	33.25
228.324	59.25
228.559	63.25
228.793	86.25
229.027	136.25
229.262	165.25
229.496	154.25
229.73	160.25
229.964	177.25
230.199	169.25
230.433	165.25
230.667	196.25
230.901	172.25
231.136	184.25
231.37	173.25
231.604	202.25
231.838	178.25
232.072	201.25
232.306	203.25
232.541	203.25
232.775	210.25
233.009	200.25
233.243	206.25
233.477	204.25
233.711	217.25
233.945	200.25
234.179	205.25
234.413	214.25
234.647	205.25
234.881	199.25
235.115	205.25
235.349	220.25
235.583	216.25
235.817	218.25
236.051	221.25
236.285	227.25
236.519	235.25
236.753	245.25
236.987	232.25
237.221	229.25
237.455	231.25
237.689	252.25
237.922	220.25
238.156	237.25
238.39	225.25
238.624	241.25
238.858	249.25
239.091	284.25
239.325	269.25
239.559	243.25
239.793	261.25
240.027	268.25
240.26	269.25
240.494	264.25
240.728	268.25
240.961	289.25
241.195	285.25
241.429	289.25
241.662	287.25
241.896	303.25
242.13	295.25
242.363	305.25
242.597	291.25
242.83	302.25
243.064	308.25
243.298	311.25
243.531	315.25
243.765	291.25
243.998	332.25
244.232	313.25
244.465	314.25
244.699	324.25
244.932	346.25
245.166	338.25
245.399	344.25
245.633	349.25
245.866	325.25
246.099	338.25
246.333	353.25
246.566	350.25
246.8	341.25
247.033	346.25
247.266	358.25
247.5	351.25
247.733	361.25
247.966	352.25
248.2	365.25
248.433	376.25
248.666	369.25
248.899	359.25
249.133	367.25
249.366	409.25
249.599	384.25
249.832	397.25
250.066	392.25
250.299	389.25
250.532	415.25
250.765	407.25
250.998	411.25
251.231	412.25
251.465	404.25
251.698	414.25
251.931	427.25
252.164	421.25
252.397	431.25
252.63	433.25
252.863	427.25
253.096	427.25
253.329	432.25
253.562	424.25
253.795	447.25
254.028	449.25
254.261	441.25
254.494	439.25
254.727	442.25
254.96	454.25
255.193	459.25
255.426	438.25
255.659	459.25
255.892	470.25
256.124	470.25
256.357	466.25
256.59	445.25
256.823	456.25
257.056	487.25
257.289	467.25
257.521	472.25
257.754	483.25
257.987	479.25
258.22	464.25
258.452	478.25
258.685	504.25
258.918	467.25
259.151	495.25
259.383	480.25
259.616	503.25
259.849	547.25
260.081	505.25
260.314	519.25
260.547	501.25
260.779	517.25
261.012	544.25
261.244	519.25
261.477	525.25
261.71	520.25
261.942	525.25
262.175	543.25
262.407	523.25
262.64	532.25
262.872	533.25
263.105	570.25
263.337	552.25
263.57	561.25
263.802	561.25
264.035	543.25
264.267	555.25
264.499	548.25
264.732	552.25
264.964	541.25
265.197	568.25
265.429	577.25
265.661	545.25
265.894	568.25
266.126	588.25
266.358	588.25
266.591	578.25
266.823	600.25
267.055	586.25
267.287	580.25
267.52	581.25
267.752	588.25
267.984	595.25
268.216	589.25
268.448	599.25
268.681	608.25
268.913	598.25
269.145	622.25
269.377	620.25
269.609	637.25
269.841	631.25
270.073	636.25
270.306	631.25
270.538	616.25
270.77	612.25
271.002	641.25
271.234	617.25
271.466	657.25
271.698	680.25
271.93	645.25
272.162	661.25
272.394	658.25
272.626	624.25
272.858	660.25
273.09	665.25
273.322	667.25
273.553	661.25
273.785	675.25
274.017	663.25
274.249	649.25
274.481	674.25
274.713	678.25
274.945	700.25
275.176	699.25
275.408	685.25
275.64	710.25
275.872	702.25
276.104	703.25
276.335	700.25
276.567	684.25
276.799	706.25
277.031	717.25
277.262	715.25
277.494	715.25
277.726	705.25
277.957	735.25
278.189	712.25
278.421	736.25
278.652	705.25
278.884	741.25
279.115	724.25
279.347	758.25
279.579	740.25
279.81	744.25
280.042	760.25
280.273	756.25
280.505	756.25
280.736	772.25
280.968	782.25
281.199	769.25
281.431	796.25
281.662	777.25
281.894	810.25
282.125	783.25
282.356	803.25
282.588	794.25
282.819	785.25
283.051	787.25
283.282	791.25
283.513	803.25
283.745	813.25
283.976	804.25
284.207	825.25
284.439	840.25
284.67	795.25
284.901	823.25
285.132	816.25
285.364	814.25
285.595	825.25
285.826	824.25
286.057	834.25
286.288	827.25
286.52	849.25
286.751	844.25
286.982	842.25
287.213	841.25
287.444	857.25
287.675	856.25
287.906	850.25
288.138	864.25
288.369	860.25
288.6	862.25
288.831	845.25
289.062	874.25
289.293	846.25
289.524	866.25
289.755	873.25
289.986	860.25
290.217	909.25
290.448	873.25
290.679	856.25
290.91	859.25
291.141	898.25
291.371	886.25
291.602	877.25
291.833	859.25
292.064	859.25
292.295	888.25
292.526	896.25
292.757	901.25
292.987	906.25
293.218	880.25
293.449	900.25
293.68	896.25
293.91	872.25
294.141	875.25
294.372	904.25
294.603	891.25
294.833	885.25
295.064	904.25
295.295	904.25
295.525	906.25
295.756	919.25
295.987	910.25
296.217	908.25
296.448	893.25
296.679	916.25
296.909	912.25
297.14	930.25
297.37	935.25
297.601	948.25
297.831	941.25
298.062	927.25
298.292	933.25
298.523	947.25
298.753	978.25
298.984	930.25
299.214	972.25
299.445	939.25
299.675	966.25
299.905	989.25
300.136	941.25
300.366	956.25
300.597	978.25
300.827	988.25
301.057	992.25
301.288	986.25
301.518	1016.25
301.748	988.25
301.979	1042.25
302.209	1008.25
302.439	1025.25
302.669	1015.25
302.9	1006.25
303.13	991.25
303.36	1015.25
303.59	990.25
303.82	1023.25
304.051	991.25
304.281	1003.25
304.511	1011.25
304.741	1007.25
304.971	1012.25
305.201	989.25
305.431	1000.25
305.661	1030.25
305.891	1006.25
306.121	989.25
306.352	976.25
306.582	992.25
306.812	971.25
307.042	1021.25
307.272	1001.25
307.502	982.25
307.731	994.25
307.961	991.25
308.191	982.25
308.421	1000.25
308.651	987.25
308.881	985.25
309.111	994.25
309.341	964.25
309.571	995.25
309.8	1018.25
310.03	993.25
310.26	1010.25
310.49	991.25
310.72	1035.25
310.949	1030.25
311.179	1031.25
311.409	996.25
311.639	1032.25
311.868	1028.25
312.098	1027.25
312.328	1039.25
312.557	1025.25
312.787	1028.25
313.017	1068.25
313.246	1058.25
313.476	1049.25
313.706	1082.25
313.935	1092.25
314.165	1089.25
314.394	1099.25
314.624	1068.25
314.853	1061.25
315.083	1061.25
315.312	1063.25
315.542	1096.25
315.771	1083.25
316.001	1057.25
316.23	1049.25
316.46	1064.25
316.689	1077.25
316.919	1039.25
317.148	1033.25
317.377	1096.25
317.607	1038.25
317.836	1043.25
318.065	1086.25
318.295	1064.25
318.524	1049.25
318.753	1045.25
318.983	1054.25
319.212	1045.25
319.441	1079.25
319.67	1055.25
319.9	1036.25
320.129	1072.25
320.358	1071.25
320.587	1067.25
320.816	1075.25
321.046	1064.25
321.275	1099.25
321.504	1074.25
321.733	1085.25
321.962	1110.25
322.191	1077.25
322.42	1060.25
322.649	1109.25
322.878	1062.25
323.108	1071.25
323.337	1079.25
323.566	1085.25
323.795	1097.25
324.024	1127.25
324.253	1085.25
324.482	1119.25
324.71	1112.25
324.939	1138.25
325.168	1121.25
325.397	1101.25
325.626	1141.25
325.855	1149.25
326.084	1177.25
326.313	1184.25
326.542	1146.25
326.77	1155.25
326.999	1156.25
327.228	1158.25
327.457	1159.25
327.686	1147.25
327.914	1174.25
328.143	1166.25
328.372	1138.25
328.6	1159.25
328.829	1171.25
329.058	1144.25
329.287	1176.25
329.515	1185.25
329.744	1174.25
329.972	1169.25
330.201	1213.25
330.43	1181.25
330.658	1188.25
330.887	1196.25
331.115	1202.25
331.344	1254.25
331.572	1218.25
331.801	1258.25
332.03	1260.25
332.258	1273.25
332.486	1300.25
332.715	1327.25
332.943	1376.25
333.172	1391.25
333.4	1407.25
333.629	1489.25
333.857	1512.25
334.085	1511.25
334.314	1461.25
334.542	1496.25
334.771	1467.25
334.999	1486.25
335.227	1460.25
335.455	1471.25
335.684	1402.25
335.912	1437.25
336.14	1430.25
336.369	1394.25
336.597	1388.25
336.825	1417.25
337.053	1399.25
337.281	1392.25
337.51	1357.25
337.738	1346.25
337.966	1338.25
338.194	1296.25
338.422	1264.25
338.65	1277.25
338.878	1273.25
339.106	1295.25
339.334	1267.25
339.562	1271.25
339.79	1253.25
340.018	1251.25
340.246	1222.25
340.474	1234.25
340.702	1239.25
340.93	1233.25
341.158	1226.25
341.386	1217.25
341.614	1250.25
341.842	1231.25
342.07	1220.25
342.298	1199.25
342.526	1180.25
342.754	1243.25
342.981	1205.25
343.209	1235.25
343.437	1295.25
343.665	1336.25
343.893	1420.25
344.12	1430.25
344.348	1434.25
344.576	1380.25
344.804	1343.25
345.031	1274.25
345.259	1279.25
345.487	1242.25
345.714	1237.25
345.942	1209.25
346.17	1223.25
346.397	1187.25
346.625	1213.25
346.853	1188.25
347.08	1162.25
347.308	1183.25
347.535	1185.25
347.763	1168.25
347.99	1167.25
348.218	1183.25
348.445	1181.25
348.673	1171.25
348.9	1182.25
349.128	1144.25
349.355	1172.25
349.583	1150.25
349.81	1164.25
350.037	1129.25
350.265	1115.25
350.492	1145.25
350.72	1120.25
350.947	1126.25
351.174	1136.25
351.402	1101.25
351.629	1156.25
351.856	1114.25
352.083	1124.25
352.311	1139.25
352.538	1130.25
352.765	1141.25
352.992	1109.25
353.22	1097.25
353.447	1122.25
353.674	1104.25
353.901	1155.25
354.128	1102.25
354.355	1149.25
354.583	1111.25
354.81	1145.25
355.037	1164.25
355.264	1135.25
355.491	1140.25
355.718	1125.25
355.945	1100.25
356.172	1135.25
356.399	1127.25
356.626	1143.25
356.853	1185.25
357.08	1174.25
357.307	1131.25
357.534	1126.25
357.761	1123.25
357.988	1145.25
358.215	1139.25
358.441	1125.25
358.668	1154.25
358.895	1127.25
359.122	1097.25
359.349	1148.25
359.576	1134.25
359.802	1133.25
360.029	1123.25
360.256	1164.25
360.483	1139.25
360.709	1133.25
360.936	1147.25
361.163	1141.25
361.39	1144.25
361.616	1154.25
361.843	1154.25
362.07	1150.25
362.296	1151.25
362.523	1142.25
362.749	1133.25
362.976	1135.25
363.203	1113.25
363.429	1122.25
363.656	1131.25
363.882	1136.25
364.109	1157.25
364.335	1118.25
364.562	1137.25
364.788	1153.25
365.015	1153.25
365.241	1132.25
365.468	1141.25
365.694	1144.25
365.92	1141.25
366.147	1135.25
366.373	1130.25
366.599	1157.25
366.826	1121.25
367.052	1117.25
367.278	1157.25
367.505	1144.25
367.731	1135.25
367.957	1155.25
368.184	1165.25
368.41	1128.25
368.636	1181.25
368.862	1175.25
369.089	1178.25
369.315	1152.25
369.541	1189.25
369.767	1186.25
369.993	1172.25
370.219	1207.25
370.445	1223.25
370.672	1220.25
370.898	1218.25
371.124	1211.25
371.35	1238.25
371.576	1237.25
371.802	1214.25
372.028	1243.25
372.254	1212.25
372.48	1239.25
372.706	1287.25
372.932	1272.25
373.158	1279.25
373.384	1231.25
373.61	1253.25
373.835	1256.25
374.061	1231.25
374.287	1250.25
374.513	1293.25
374.739	1324.25
374.965	1300.25
375.191	1342.25
375.416	1367.25
375.642	1320.25
375.868	1329.25
376.094	1293.25
376.319	1278.25
376.545	1253.25
376.771	1228.25
376.997	1228.25
377.222	1268.25
377.448	1221.25
377.674	1222.25
377.899	1211.25
378.125	1237.25
378.35	1214.25
378.576	1214.25
378.802	1226.25
379.027	1239.25
379.253	1217.25
379.478	1201.25
379.704	1210.25
379.929	1237.25
380.155	1196.25
380.38	1215.25
380.606	1216.25
380.831	1228.25
381.057	1211.25
381.282	1209.25
381.507	1242.25
381.733	1217.25
381.958	1269.25
382.184	1224.25
382.409	1287.25
382.634	1313.25
382.86	1262.25
383.085	1281.25
383.31	1303.25
383.535	1357.25
383.761	1359.25
383.986	1380.25
384.211	1382.25
384.436	1365.25
384.662	1416.25
384.887	1413.25
385.112	1413.25
385.337	1443.25
385.562	1460.25
385.787	1456.25
386.013	1465.25
386.238	1488.25
386.463	1493.25
386.688	1487.25
386.913	1471.25
387.138	1488.25
387.363	1475.25
387.588	1463.25
387.813	1460.25
388.038	1477.25
388.263	1466.25
388.488	1465.25
388.713	1472.25
388.938	1468.25
389.163	1457.25
389.387	1499.25
389.612	1402.25
389.837	1444.25
390.062	1438.25
390.287	1414.25
390.512	1419.25
390.736	1478.25
390.961	1509.25
391.186	1499.25
391.411	1575.25
391.636	1536.25
391.86	1608.25
392.085	1648.25
392.31	1623.25
392.534	1611.25
392.759	1569.25
392.984	1562.25
393.208	1574.25
393.433	1580.25
393.658	1625.25
393.882	1543.25
394.107	1538.25
394.331	1593.25
394.556	1567.25
394.78	1555.25
395.005	1585.25
395.229	1588.25
395.454	1638.25
395.678	1636.25
395.903	1632.25
396.127	1624.25
396.352	1614.25
396.576	1576.25
396.801	1568.25
397.025	1620.25
397.249	1650.25
397.474	1652.25
397.698	1636.25
397.922	1657.25
398.147	1669.25
398.371	1715.25
398.595	1742.25
398.82	1795.25
399.044	1939.25
399.268	2075.25
399.492	2288.25
399.717	2515.25
399.941	2490.25
400.165	2363.25
400.389	2191.25
400.613	2061.25
400.837	1917.25
401.062	1868.25
401.286	1836.25
401.51	1837.25
401.734	1823.25
401.958	1820.25
402.182	1851.25
402.406	1851.25
402.63	1896.25
402.854	1882.25
403.078	1891.25
403.302	1916.25
403.526	1945.25
403.75	1951.25
403.974	1976.25
404.198	2001.25
404.422	1967.25
404.645	2006.25
404.869	1999.25
405.093	1968.25
405.317	1917.25
405.541	1945.25
405.765	1951.25
405.988	1940.25
406.212	1996.25
406.436	1937.25
406.66	2059.25
406.883	2026.25
407.107	2143.25
407.331	2212.25
407.555	2335.25
407.778	2261.25
408.002	2272.25
408.226	2176.25
408.449	2155.25
408.673	2115.25
408.896	2043.25
409.12	2032.25
409.344	2072.25
409.567	2020.25
409.791	2032.25
410.014	1990.25
410.238	1986.25
410.461	2000.25
410.685	1955.25
410.908	1964.25
411.132	1931.25
411.355	1906.25
411.578	1908.25
411.802	1908.25
412.025	1858.25
412.249	1923.25
412.472	1923.25
412.695	1857.25
412.919	1834.25
413.142	1875.25
413.365	1824.25
413.589	1843.25
413.812	1818.25
414.035	1748.25
414.258	1806.25
414.482	1809.25
414.705	1839.25
414.928	1836.25
415.151	1784.25
415.374	1863.25
415.597	1782.25
415.821	1771.25
416.044	1748.25
416.267	1764.25
416.49	1727.25
416.713	1727.25
416.936	1798.25
417.159	1762.25
417.382	1695.25
417.605	1745.25
417.828	1761.25
418.051	1767.25
418.274	1768.25
418.497	1750.25
418.72	1801.25
418.943	1773.25
419.166	1879.25
419.389	2010.25
419.611	1969.25
419.834	1871.25
420.057	1853.25
420.28	1778.25
420.503	1757.25
420.726	1750.25
420.948	1740.25
421.171	1738.25
421.394	1730.25
421.617	1723.25
421.839	1736.25
422.062	1781.25
422.285	1715.25
422.507	1770.25
422.73	1791.25
422.953	1801.25
423.175	1822.25
423.398	1767.25
423.621	1756.25
423.843	1821.25
424.066	1794.25
424.288	1774.25
424.511	1782.25
424.733	1788.25
424.956	1760.25
425.178	1757.25
425.401	1739.25
425.623	1770.25
425.846	1737.25
426.068	1734.25
426.291	1723.25
426.513	1678.25
426.735	1668.25
426.958	1657.25
427.18	1647.25
427.402	1678.25
427.625	1625.25
427.847	1591.25
428.069	1627.25
428.292	1605.25
428.514	1630.25
428.736	1642.25
428.958	1602.25
429.181	1554.25
429.403	1548.25
429.625	1596.25
429.847	1582.25
430.069	1557.25
430.292	1569.25
430.514	1552.25
430.736	1590.25
430.958	1564.25
431.18	1612.25
431.402	1602.25
431.624	1590.25
431.846	1614.25
432.068	1640.25
432.29	1683.25
432.512	1592.25
432.734	1614.25
432.956	1595.25
433.178	1609.25
433.4	1633.25
433.622	1619.25
433.844	1659.25
434.066	1649.25
434.287	1691.25
434.509	1716.25
434.731	1754.25
434.953	1765.25
435.175	1802.25
435.397	1712.25
435.618	1688.25
435.84	1659.25
436.062	1603.25
436.284	1619.25
436.505	1637.25
436.727	1613.25
436.949	1600.25
437.17	1579.25
437.392	1551.25
437.614	1556.25
437.835	1515.25
438.057	1534.25
438.278	1507.25
438.5	1503.25
438.721	1513.25
438.943	1528.25
439.165	1537.25
439.386	1549.25
439.608	1579.25
439.829	1567.25
440.05	1569.25
440.272	1607.25
440.493	1629.25
440.715	1571.25
440.936	1579.25
441.158	1695.25
441.379	1698.25
441.6	1753.25
441.822	1744.25
442.043	1737.25
442.264	1720.25
442.486	1637.25
442.707	1665.25
442.928	1660.25
443.149	1703.25
443.371	1703.25
443.592	1695.25
443.813	1731.25
444.034	1756.25
444.255	1791.25
444.476	1810.25
444.698	1907.25
444.919	1985.25
445.14	2086.25
445.361	1877.25
445.582	1797.25
445.803	1695.25
446.024	1650.25
446.245	1640.25
446.466	1607.25
446.687	1570.25
446.908	1540.25
447.129	1567.25
447.35	1539.25
447.571	1516.25
447.792	1448.25
448.013	1466.25
448.234	1461.25
448.455	1438.25
448.675	1428.25
448.896	1429.25
449.117	1414.25
449.338	1411.25
449.559	1418.25
449.779	1384.25
450	1427.25
450.221	1423.25
450.442	1440.25
450.662	1429.25
450.883	1415.25
451.104	1448.25
451.324	1404.25
451.545	1456.25
451.766	1445.25
451.986	1407.25
452.207	1394.25
452.428	1412.25
452.648	1394.25
452.869	1391.25
453.089	1373.25
453.31	1419.25
453.53	1369.25
453.751	1373.25
453.971	1378.25
454.192	1367.25
454.412	1331.25
454.633	1345.25
454.853	1341.25
455.073	1343.25
455.294	1336.25
455.514	1336.25
455.734	1352.25
455.955	1314.25
456.175	1351.25
456.395	1313.25
456.616	1288.25
456.836	1303.25
457.056	1329.25
457.276	1336.25
457.497	1376.25
457.717	1363.25
457.937	1340.25
458.157	1364.25
458.377	1414.25
458.598	1397.25
458.818	1433.25
459.038	1488.25
459.258	1519.25
459.478	1576.25
459.698	1600.25
459.918	1627.25
460.138	1649.25
460.358	1750.25
460.578	1780.25
460.798	1811.25
461.018	1787.25
461.238	1790.25
461.458	1762.25
461.678	1759.25
461.898	1832.25
462.118	1833.25
462.338	1896.25
462.558	1927.25
462.777	1991.25
462.997	2119.25
463.217	2222.25
463.437	2234.25
463.657	2137.25
463.876	2063.25
464.096	2097.25
464.316	2041.25
464.536	2021.25
464.755	1953.25
464.975	1959.25
465.195	1817.25
465.414	1769.25
465.634	1671.25
465.854	1655.25
466.073	1617.25
466.293	1562.25
466.512	1519.25
466.732	1500.25
466.951	1521.25
467.171	1481.25
467.391	1497.25
467.61	1507.25
467.829	1475.25
468.049	1506.25
468.268	1426.25
468.488	1431.25
468.707	1436.25
468.927	1444.25
469.146	1444.25
469.365	1501.25
469.585	1455.25
469.804	1500.25
470.023	1484.25
470.243	1513.25
470.462	1505.25
470.681	1534.25
470.901	1576.25
471.12	1526.25
471.339	1486.25
471.558	1462.25
471.777	1480.25
471.997	1460.25
472.216	1443.25
472.435	1441.25
472.654	1413.25
472.873	1384.25
473.092	1417.25
473.311	1403.25
473.53	1459.25
473.749	1422.25
473.968	1420.25
474.187	1440.25
474.406	1409.25
474.625	1456.25
474.844	1386.25
475.063	1425.25
475.282	1451.25
475.501	1459.25
475.72	1446.25
475.939	1466.25
476.158	1506.25
476.377	1504.25
476.596	1508.25
476.814	1544.25
477.033	1524.25
477.252	1549.25
477.471	1597.25
477.69	1589.25
477.908	1664.25
478.127	1672.25
478.346	1658.25
478.564	1740.25
478.783	1736.25
479.002	1795.25
479.22	1808.25
479.439	1825.25
479.658	1773.25
479.876	1755.25
480.095	1823.25
480.313	1876.25
480.532	1899.25
480.751	1888.25
480.969	1865.25
481.188	1799.25
481.406	1752.25
481.624	1789.25
481.843	1744.25
482.061	1727.25
482.28	1756.25
482.498	1749.25
482.717	1752.25
482.935	1753.25
483.153	1739.25
483.372	1725.25
483.59	1784.25
483.808	1750.25
484.027	1768.25
484.245	1769.25
484.463	1839.25
484.681	1824.25
484.9	1847.25
485.118	1867.25
485.336	1875.25
485.554	1880.25
485.772	1963.25
485.99	1906.25
486.209	1881.25
486.427	1900.25
486.645	1881.25
486.863	1857.25
487.081	1906.25
487.299	1859.25
487.517	1852.25
487.735	1865.25
487.953	1883.25
488.171	1881.25
488.389	1803.25
488.607	1782.25
488.825	1800.25
489.043	1813.25
489.261	1800.25
489.479	1795.25
489.696	1789.25
489.914	1780.25
490.132	1823.25
490.35	1809.25
