Data from NiCl2@0.5M.TitratingCurve.Agarose3%dH2O.NegLispCup.LampEnergy10.LIBS07252019_HRD10591_18-19-22-570.txt Node
Date: Thu Jul 25 18:19:22 EDT 2019
User: cochatt
Spectrometer: HR+D1059
Trigger mode: 1
Integration Time (sec): 1.000000E-1
Scans to average: 1
Electric dark correction enabled: true
Nonlinearity correction enabled: false
Boxcar width: 0
XAxis mode: Wavelengths
Number of Pixels in Spectrum: 2048
>>>>>Begin Spectral Data<<<<<
223.165	-25
223.4	-25
223.635	-25
223.869	-25
224.104	-22
224.338	-21
224.573	-11
224.808	0
225.042	-10
225.277	-16
225.511	-10
225.746	4
225.98	7
226.215	19
226.449	13
226.683	29
226.918	34
227.152	34
227.387	43
227.621	46
227.856	50
228.09	34
228.324	49
228.559	53
228.793	73
229.027	112
229.262	110
229.496	122
229.73	105
229.964	123
230.199	131
230.433	138
230.667	131
230.901	125
231.136	123
231.37	145
231.604	143
231.838	144
232.072	161
232.306	151
232.541	150
232.775	137
233.009	145
233.243	138
233.477	144
233.711	148
233.945	137
234.179	147
234.413	143
234.647	154
234.881	158
235.115	151
235.349	150
235.583	160
235.817	137
236.051	143
236.285	158
236.519	148
236.753	144
236.987	153
237.221	156
237.455	161
237.689	168
237.922	170
238.156	168
238.39	159
238.624	171
238.858	173
239.091	167
239.325	173
239.559	156
239.793	188
240.027	200
240.26	177
240.494	191
240.728	166
240.961	185
241.195	180
241.429	177
241.662	199
241.896	199
242.13	207
242.363	198
242.597	181
242.83	189
243.064	194
243.298	202
243.531	194
243.765	197
243.998	203
244.232	204
244.465	217
244.699	216
244.932	221
245.166	212
245.399	211
245.633	206
245.866	214
246.099	211
246.333	221
246.566	230
246.8	200
247.033	217
247.266	209
247.5	227
247.733	228
247.966	223
248.2	222
248.433	221
248.666	237
248.899	212
249.133	227
249.366	231
249.599	237
249.832	239
250.066	222
250.299	230
250.532	250
250.765	234
250.998	254
251.231	236
251.465	259
251.698	265
251.931	282
252.164	266
252.397	263
252.63	261
252.863	280
253.096	272
253.329	262
253.562	270
253.795	284
254.028	285
254.261	295
254.494	270
254.727	262
254.96	265
255.193	286
255.426	267
255.659	289
255.892	275
256.124	292
256.357	292
256.59	277
256.823	293
257.056	305
257.289	281
257.521	293
257.754	296
257.987	295
258.22	302
258.452	285
258.685	307
258.918	310
259.151	300
259.383	302
259.616	291
259.849	307
260.081	312
260.314	308
260.547	311
260.779	306
261.012	319
261.244	309
261.477	325
261.71	314
261.942	325
262.175	327
262.407	324
262.64	332
262.872	325
263.105	313
263.337	348
263.57	330
263.802	352
264.035	347
264.267	332
264.499	340
264.732	340
264.964	326
265.197	341
265.429	332
265.661	342
265.894	366
266.126	352
266.358	343
266.591	348
266.823	351
267.055	324
267.287	369
267.52	355
267.752	371
267.984	358
268.216	367
268.448	353
268.681	367
268.913	363
269.145	370
269.377	373
269.609	377
269.841	365
270.073	365
270.306	380
270.538	373
270.77	377
271.002	347
271.234	373
271.466	371
271.698	362
271.93	363
272.162	378
272.394	399
272.626	381
272.858	387
273.09	413
273.322	375
273.553	396
273.785	397
274.017	374
274.249	394
274.481	387
274.713	396
274.945	389
275.176	399
275.408	409
275.64	415
275.872	403
276.104	426
276.335	410
276.567	406
276.799	427
277.031	420
277.262	437
277.494	428
277.726	403
277.957	427
278.189	431
278.421	420
278.652	414
278.884	438
279.115	444
279.347	434
279.579	431
279.81	445
280.042	462
280.273	435
280.505	449
280.736	451
280.968	466
281.199	438
281.431	446
281.662	449
281.894	477
282.125	465
282.356	468
282.588	468
282.819	451
283.051	469
283.282	470
283.513	444
283.745	490
283.976	472
284.207	463
284.439	486
284.67	474
284.901	483
285.132	466
285.364	470
285.595	476
285.826	463
286.057	479
286.288	478
286.52	502
286.751	493
286.982	508
287.213	491
287.444	498
287.675	499
287.906	477
288.138	501
288.369	491
288.6	498
288.831	498
289.062	508
289.293	495
289.524	510
289.755	513
289.986	499
290.217	509
290.448	529
290.679	526
290.91	507
291.141	545
291.371	505
291.602	506
291.833	526
292.064	547
292.295	522
292.526	526
292.757	526
292.987	522
293.218	512
293.449	515
293.68	542
293.91	526
294.141	522
294.372	520
294.603	524
294.833	550
295.064	563
295.295	550
295.525	546
295.756	507
295.987	526
296.217	539
296.448	556
296.679	545
296.909	538
297.14	542
297.37	550
297.601	563
297.831	563
298.062	564
298.292	581
298.523	547
298.753	565
298.984	569
299.214	595
299.445	570
299.675	559
299.905	587
300.136	565
300.366	584
300.597	588
300.827	580
301.057	625
301.288	611
301.518	613
301.748	609
301.979	614
302.209	617
302.439	601
302.669	586
302.9	576
303.13	572
303.36	566
303.59	609
303.82	589
304.051	618
304.281	596
304.511	615
304.741	613
304.971	597
305.201	619
305.431	595
305.661	609
305.891	595
306.121	626
306.352	604
306.582	597
306.812	594
307.042	605
307.272	601
307.502	585
307.731	596
307.961	604
308.191	610
308.421	601
308.651	635
308.881	585
309.111	583
309.341	614
309.571	574
309.8	613
310.03	632
310.26	593
310.49	608
310.72	629
310.949	615
311.179	618
311.409	602
311.639	632
311.868	620
312.098	625
312.328	635
312.557	636
312.787	630
313.017	613
313.246	628
313.476	627
313.706	640
313.935	633
314.165	649
314.394	641
314.624	661
314.853	652
315.083	625
315.312	654
315.542	630
315.771	637
316.001	645
316.23	633
316.46	638
316.689	636
316.919	643
317.148	638
317.377	638
317.607	664
317.836	643
318.065	641
318.295	635
318.524	644
318.753	633
318.983	645
319.212	642
319.441	647
319.67	638
319.9	638
320.129	648
320.358	637
320.587	661
320.816	655
321.046	643
321.275	646
321.504	675
321.733	655
321.962	640
322.191	653
322.42	673
322.649	643
322.878	687
323.108	652
323.337	668
323.566	691
323.795	688
324.024	654
324.253	675
324.482	679
324.71	667
324.939	677
325.168	663
325.397	676
325.626	685
325.855	703
326.084	701
326.313	684
326.542	670
326.77	713
326.999	707
327.228	674
327.457	694
327.686	687
327.914	685
328.143	713
328.372	707
328.6	704
328.829	685
329.058	682
329.287	699
329.515	716
329.744	688
329.972	701
330.201	715
330.43	723
330.658	720
330.887	710
331.115	743
331.344	750
331.572	739
331.801	751
332.03	771
332.258	779
332.486	792
332.715	808
332.943	802
333.172	836
333.4	844
333.629	904
333.857	939
334.085	868
334.314	862
334.542	857
334.771	865
334.999	854
335.227	853
335.455	855
335.684	838
335.912	812
336.14	825
336.369	842
336.597	842
336.825	859
337.053	830
337.281	831
337.51	795
337.738	807
337.966	791
338.194	795
338.422	786
338.65	758
338.878	767
339.106	770
339.334	774
339.562	779
339.79	737
340.018	761
340.246	745
340.474	731
340.702	719
340.93	728
341.158	725
341.386	747
341.614	794
341.842	763
342.07	754
342.298	742
342.526	747
342.754	751
342.981	710
343.209	743
343.437	773
343.665	829
343.893	829
344.12	855
344.348	840
344.576	809
344.804	806
345.031	763
345.259	740
345.487	743
345.714	740
345.942	773
346.17	762
346.397	757
346.625	721
346.853	702
347.08	703
347.308	712
347.535	703
347.763	732
347.99	723
348.218	691
348.445	681
348.673	691
348.9	720
349.128	696
349.355	685
349.583	712
349.81	739
350.037	669
350.265	695
350.492	693
350.72	693
350.947	669
351.174	690
351.402	723
351.629	701
351.856	720
352.083	697
352.311	717
352.538	709
352.765	719
352.992	677
353.22	660
353.447	676
353.674	686
353.901	661
354.128	682
354.355	655
354.583	695
354.81	680
355.037	701
355.264	667
355.491	670
355.718	681
355.945	680
356.172	668
356.399	675
356.626	697
356.853	689
357.08	708
357.307	678
357.534	656
357.761	675
357.988	681
358.215	636
358.441	683
358.668	675
358.895	690
359.122	686
359.349	678
359.576	661
359.802	676
360.029	660
360.256	673
360.483	700
360.709	677
360.936	665
361.163	665
361.39	664
361.616	684
361.843	669
362.07	697
362.296	690
362.523	640
362.749	670
362.976	670
363.203	690
363.429	671
363.656	676
363.882	663
364.109	693
364.335	646
364.562	663
364.788	652
365.015	655
365.241	647
365.468	661
365.694	667
365.92	667
366.147	651
366.373	654
366.599	673
366.826	679
367.052	651
367.278	679
367.505	655
367.731	668
367.957	671
368.184	662
368.41	697
368.636	683
368.862	670
369.089	657
369.315	694
369.541	677
369.767	678
369.993	690
370.219	662
370.445	696
370.672	708
370.898	723
371.124	697
371.35	705
371.576	729
371.802	722
372.028	722
372.254	706
372.48	695
372.706	728
372.932	732
373.158	744
373.384	736
373.61	695
373.835	706
374.061	724
374.287	749
374.513	716
374.739	710
374.965	763
375.191	777
375.416	745
375.642	757
375.868	737
376.094	723
376.319	731
376.545	726
376.771	723
376.997	701
377.222	671
377.448	717
377.674	703
377.899	707
378.125	700
378.35	703
378.576	678
378.802	702
379.027	708
379.253	702
379.478	703
379.704	696
379.929	706
380.155	695
380.38	686
380.606	686
380.831	705
381.057	713
381.282	697
381.507	712
381.733	718
381.958	703
382.184	705
382.409	719
382.634	707
382.86	731
383.085	735
383.31	758
383.535	745
383.761	751
383.986	749
384.211	773
384.436	791
384.662	783
384.887	815
385.112	790
385.337	798
385.562	803
385.787	845
386.013	827
386.238	836
386.463	831
386.688	825
386.913	839
387.138	810
387.363	813
387.588	836
387.813	813
388.038	816
388.263	835
388.488	813
388.713	827
388.938	830
389.163	799
389.387	819
389.612	801
389.837	798
390.062	803
390.287	800
390.512	817
390.736	814
390.961	841
391.186	832
391.411	857
391.636	874
391.86	905
392.085	903
392.31	902
392.534	894
392.759	884
392.984	859
393.208	878
393.433	886
393.658	867
393.882	870
394.107	873
394.331	863
394.556	865
394.78	892
395.005	895
395.229	897
395.454	895
395.678	917
395.903	918
396.127	889
396.352	900
396.576	876
396.801	888
397.025	905
397.249	895
397.474	933
397.698	926
397.922	924
398.147	916
398.371	961
398.595	971
398.82	1016
399.044	1078
399.268	1174
399.492	1293
399.717	1411
399.941	1416
400.165	1318
400.389	1182
400.613	1115
400.837	1077
401.062	1026
401.286	1013
401.51	991
401.734	1016
401.958	1033
402.182	1030
402.406	1060
402.63	1063
402.854	1095
403.078	1070
403.302	1103
403.526	1104
403.75	1114
403.974	1132
404.198	1119
404.422	1147
404.645	1141
404.869	1128
405.093	1113
405.317	1125
405.541	1131
405.765	1127
405.988	1117
406.212	1095
406.436	1104
406.66	1131
406.883	1147
407.107	1186
407.331	1249
407.555	1271
407.778	1290
408.002	1263
408.226	1245
408.449	1213
408.673	1165
408.896	1146
409.12	1171
409.344	1161
409.567	1143
409.791	1148
410.014	1105
410.238	1139
410.461	1118
410.685	1118
410.908	1112
411.132	1126
411.355	1075
411.578	1074
411.802	1089
412.025	1090
412.249	1083
412.472	1108
412.695	1057
412.919	1036
413.142	1049
413.365	1040
413.589	1069
413.812	1033
414.035	1022
414.258	1037
414.482	1063
414.705	1062
414.928	1051
415.151	1054
415.374	1042
415.597	1045
415.821	1028
416.044	1035
416.267	1025
416.49	1028
416.713	1015
416.936	1031
417.159	1024
417.382	1005
417.605	996
417.828	1022
418.051	1027
418.274	1053
418.497	1012
418.72	1057
418.943	1035
419.166	1121
419.389	1156
419.611	1134
419.834	1093
420.057	1047
420.28	1028
420.503	1023
420.726	1011
420.948	1009
421.171	1016
421.394	1012
421.617	1016
421.839	1030
422.062	1060
422.285	1025
422.507	1027
422.73	1063
422.953	1045
423.175	1070
423.398	1081
423.621	1051
423.843	1098
424.066	1077
424.288	1084
424.511	1087
424.733	1054
424.956	1064
425.178	1032
425.401	1016
425.623	1038
425.846	997
426.068	985
426.291	1011
426.513	980
426.735	991
426.958	988
427.18	965
427.402	958
427.625	965
427.847	957
428.069	976
428.292	982
428.514	958
428.736	932
428.958	970
429.181	945
429.403	935
429.625	940
429.847	931
430.069	932
430.292	955
430.514	931
430.736	934
430.958	913
431.18	965
431.402	948
431.624	956
431.846	979
432.068	991
432.29	970
432.512	958
432.734	970
432.956	942
433.178	953
433.4	968
433.622	985
433.844	1016
434.066	982
434.287	980
434.509	1031
434.731	1043
434.953	1042
435.175	1044
435.397	1035
435.618	991
435.84	1009
436.062	995
436.284	947
436.505	952
436.727	968
436.949	989
437.17	957
437.392	955
437.614	948
437.835	920
438.057	947
438.278	961
438.5	925
438.721	911
438.943	914
439.165	925
439.386	963
439.608	958
439.829	944
440.05	966
440.272	962
440.493	965
440.715	981
440.936	982
441.158	1000
441.379	1047
441.6	1061
441.822	1033
442.043	1034
442.264	1042
442.486	1031
442.707	1037
442.928	1062
443.149	1016
443.371	1053
443.592	1062
443.813	1070
444.034	1096
444.255	1085
444.476	1133
444.698	1213
444.919	1223
445.14	1289
445.361	1222
445.582	1114
445.803	1012
446.024	1035
446.245	1037
446.466	1005
446.687	999
446.908	991
447.129	964
447.35	959
447.571	949
447.792	925
448.013	905
448.234	914
448.455	909
448.675	900
448.896	879
449.117	901
449.338	907
449.559	915
449.779	886
450	883
450.221	888
450.442	904
450.662	915
450.883	911
451.104	935
451.324	930
451.545	908
451.766	923
451.986	878
452.207	889
452.428	905
452.648	891
452.869	891
453.089	856
453.31	876
453.53	874
453.751	861
453.971	866
454.192	886
454.412	853
454.633	871
454.853	855
455.073	843
455.294	894
455.514	834
455.734	845
455.955	818
456.175	860
456.395	838
456.616	873
456.836	857
457.056	863
457.276	848
457.497	869
457.717	863
457.937	886
458.157	851
458.377	859
458.598	899
458.818	929
459.038	965
459.258	945
459.478	1000
459.698	1017
459.918	1041
460.138	1064
460.358	1115
460.578	1121
460.798	1147
461.018	1134
461.238	1153
461.458	1129
461.678	1107
461.898	1142
462.118	1185
462.338	1193
462.558	1213
462.777	1255
462.997	1368
463.217	1435
463.437	1413
463.657	1311
463.876	1293
464.096	1244
464.316	1277
464.536	1245
464.755	1269
464.975	1183
465.195	1168
465.414	1110
465.634	1073
465.854	1062
466.073	1044
466.293	962
466.512	973
466.732	1002
466.951	990
467.171	951
467.391	983
467.61	956
467.829	941
468.049	949
468.268	911
468.488	930
468.707	912
468.927	910
469.146	934
469.365	919
469.585	906
469.804	970
470.023	990
470.243	959
470.462	958
470.681	968
470.901	939
471.12	970
471.339	939
471.558	984
471.777	953
471.997	942
472.216	948
472.435	945
472.654	881
472.873	892
473.092	899
473.311	901
473.53	907
473.749	942
473.968	920
474.187	928
474.406	901
474.625	943
474.844	927
475.063	921
475.282	916
475.501	897
475.72	940
475.939	942
476.158	972
476.377	944
476.596	949
476.814	954
477.033	962
477.252	984
477.471	1000
477.69	1024
477.908	1052
478.127	1036
478.346	1101
478.564	1065
478.783	1110
479.002	1124
479.22	1097
479.439	1133
479.658	1107
479.876	1114
480.095	1143
480.313	1155
480.532	1185
480.751	1158
480.969	1130
481.188	1124
481.406	1083
481.624	1077
481.843	1062
482.061	1042
482.28	1039
482.498	1043
482.717	1075
482.935	1085
483.153	1062
483.372	1098
483.59	1084
483.808	1082
484.027	1056
484.245	1067
484.463	1050
484.681	1090
484.9	1077
485.118	1073
485.336	1088
485.554	1086
485.772	1078
485.99	1058
486.209	1094
486.427	1090
486.645	1099
486.863	1083
487.081	1085
487.299	1069
487.517	1066
487.735	1108
487.953	1123
488.171	1129
488.389	1100
488.607	1111
488.825	1084
489.043	1104
489.261	1087
489.479	1097
489.696	1113
489.914	1099
490.132	1098
490.35	1121
490.568	1097
490.786	1146
491.003	1109
491.221	1126
491.439	1102
491.657	1107
491.874	1165
492.092	1141
492.31	1153
492.527	1179
492.745	1157
492.963	1175
493.18	1180
493.398	1146
493.615	1166
493.833	1163
494.05	1164
494.268	1199
494.485	1185
494.703	1218
494.92	1178
495.138	1181
495.355	1204
495.573	1188
495.79	1221
496.008	1205
496.225	1181
496.442	1211
496.66	1247
496.877	1274
497.094	1285
497.312	1307
497.529	1309
497.746	1338
497.963	1339
498.181	1414
498.398	1451
498.615	1523
498.832	1611
499.049	1739
499.267	1835
499.484	2005
499.701	2099
499.918	2350
500.135	2575
500.352	2807
500.569	2933
500.786	2938
501.003	2699
501.22	2507
501.437	2286
501.654	2053
501.871	1927
502.088	1816
502.305	1703
502.522	1620
502.739	1601
502.956	1511
503.172	1447
503.389	1376
503.606	1364
503.823	1359
504.04	1330
504.256	1311
504.473	1336
504.69	1338
504.907	1331
505.123	1268
505.34	1233
505.557	1162
505.773	1122
505.99	1139
506.207	1081
506.423	1063
506.64	1089
506.856	1065
507.073	1073
507.289	1052
507.506	1058
507.722	1027
507.939	1017
508.155	1012
508.372	1014
508.588	990
508.805	991
509.021	994
509.238	980
509.454	977
509.67	957
509.887	948
510.103	955
510.319	944
510.536	947
510.752	938
510.968	965
511.184	951
511.401	945
511.617	920
511.833	926
512.049	924
512.265	939
512.481	913
512.698	924
512.914	930
513.13	925
513.346	964
513.562	932
513.778	931
513.994	957
514.21	933
514.426	951
514.642	937
514.858	957
515.074	942
515.29	972
515.506	988
515.721	984
515.937	1002
516.153	1004
516.369	1018
516.585	1040
516.801	1088
517.016	1089
517.232	1139
517.448	1165
517.664	1210
517.879	1203
518.095	1192
518.311	1179
518.527	1153
518.742	1100
518.958	1058
519.173	1051
519.389	1013
519.605	1010
519.82	1001
520.036	963
520.251	937
520.467	938
520.682	921
520.898	916
521.113	921
521.329	907
521.544	930
521.76	926
521.975	883
522.19	903
522.406	895
522.621	889
522.836	855
523.052	868
523.267	878
523.482	859
523.698	855
523.913	860
524.128	861
524.343	859
524.559	838
524.774	899
524.989	900
525.204	854
525.419	823
525.634	854
525.849	847
526.064	822
526.28	835
526.495	850
526.71	839
526.925	811
527.14	823
527.355	829
527.57	828
527.785	826
527.999	833
528.214	828
528.429	851
528.644	825
528.859	847
529.074	855
529.289	821
529.503	817
529.718	864
529.933	825
530.148	850
530.363	842
530.577	811
530.792	815
531.007	830
531.221	841
531.436	851
531.651	847
531.865	815
532.08	847
532.295	823
532.509	833
532.724	824
532.938	802
533.153	794
533.367	784
533.582	842
533.796	807
534.011	804
534.225	827
534.44	810
534.654	797
534.868	789
535.083	811
535.297	791
535.511	798
535.726	799
535.94	777
536.154	773
536.369	769
536.583	782
536.797	774
537.011	777
537.225	782
537.44	752
537.654	779
537.868	758
538.082	744
538.296	761
538.51	775
538.724	764
538.938	758
539.153	764
539.367	764
539.581	766
539.795	754
540.009	782
540.222	723
540.436	767
540.65	735
540.864	760
541.078	757
541.292	762
541.506	772
541.72	757
541.934	757
542.147	759
542.361	753
542.575	742
542.789	740
543.002	728
543.216	740
543.43	747
543.644	728
543.857	780
544.071	747
544.285	740
544.498	733
544.712	747
544.925	729
545.139	735
545.352	757
545.566	741
545.779	768
545.993	755
546.206	784
546.42	775
546.633	749
546.847	746
547.06	753
547.274	755
547.487	742
547.7	757
547.914	762
548.127	759
548.34	794
548.554	775
548.767	779
548.98	773
549.193	783
549.407	766
549.62	789
549.833	794
550.046	762
550.259	767
550.473	771
550.686	724
550.899	757
551.112	732
551.325	744
551.538	740
551.751	729
551.964	728
552.177	757
552.39	745
552.603	767
552.816	768
553.029	805
553.242	817
553.455	795
553.667	794
553.88	800
554.093	776
554.306	787
554.519	757
554.732	757
554.944	750
555.157	705
555.37	719
555.583	689
555.795	718
556.008	661
556.221	685
556.433	681
556.646	681
556.859	648
557.071	684
557.284	662
557.496	656
