Data from NiCl2@0.25M.TitratingCurve.Agarose3%dH2O.NegLispCup.LampEnergy10.LIBS07252019_HRD10591_18-23-12-572.txt Node
Date: Thu Jul 25 18:23:12 EDT 2019
User: cochatt
Spectrometer: HR+D1059
Trigger mode: 1
Integration Time (sec): 1.000000E-1
Scans to average: 1
Electric dark correction enabled: true
Nonlinearity correction enabled: false
Boxcar width: 0
XAxis mode: Wavelengths
Number of Pixels in Spectrum: 2048
>>>>>Begin Spectral Data<<<<<
223.165	-12.12
223.4	-12.12
223.635	-12.12
223.869	-15.12
224.104	-28.12
224.338	-16.12
224.573	-15.12
224.808	-7.12
225.042	-14.12
225.277	-10.12
225.511	-10.12
225.746	12.88
225.98	8.88
226.215	12.88
226.449	21.88
226.683	13.88
226.918	27.88
227.152	29.88
227.387	32.88
227.621	37.88
227.856	49.88
228.09	45.88
228.324	43.88
228.559	58.88
228.793	64.88
229.027	93.88
229.262	91.88
229.496	94.88
229.73	108.88
229.964	104.88
230.199	115.88
230.433	125.88
230.667	113.88
230.901	127.88
231.136	117.88
231.37	109.88
231.604	135.88
231.838	131.88
232.072	134.88
232.306	141.88
232.541	126.88
232.775	113.88
233.009	128.88
233.243	133.88
233.477	133.88
233.711	145.88
233.945	136.88
234.179	130.88
234.413	124.88
234.647	130.88
234.881	141.88
235.115	141.88
235.349	134.88
235.583	113.88
235.817	131.88
236.051	136.88
236.285	146.88
236.519	125.88
236.753	127.88
236.987	135.88
237.221	148.88
237.455	124.88
237.689	128.88
237.922	141.88
238.156	149.88
238.39	133.88
238.624	135.88
238.858	147.88
239.091	142.88
239.325	145.88
239.559	151.88
239.793	153.88
240.027	148.88
240.26	145.88
240.494	148.88
240.728	162.88
240.961	142.88
241.195	150.88
241.429	136.88
241.662	146.88
241.896	145.88
242.13	147.88
242.363	148.88
242.597	160.88
242.83	160.88
243.064	165.88
243.298	154.88
243.531	156.88
243.765	163.88
243.998	185.88
244.232	173.88
244.465	180.88
244.699	180.88
244.932	177.88
245.166	199.88
245.399	179.88
245.633	184.88
245.866	190.88
246.099	171.88
246.333	181.88
246.566	194.88
246.8	186.88
247.033	185.88
247.266	196.88
247.5	183.88
247.733	196.88
247.966	201.88
248.2	203.88
248.433	176.88
248.666	201.88
248.899	203.88
249.133	194.88
249.366	203.88
249.599	204.88
249.832	189.88
250.066	193.88
250.299	205.88
250.532	209.88
250.765	209.88
250.998	208.88
251.231	214.88
251.465	212.88
251.698	220.88
251.931	196.88
252.164	219.88
252.397	202.88
252.63	217.88
252.863	240.88
253.096	219.88
253.329	236.88
253.562	232.88
253.795	211.88
254.028	230.88
254.261	229.88
254.494	239.88
254.727	248.88
254.96	229.88
255.193	228.88
255.426	235.88
255.659	226.88
255.892	214.88
256.124	226.88
256.357	220.88
256.59	233.88
256.823	251.88
257.056	253.88
257.289	229.88
257.521	253.88
257.754	246.88
257.987	234.88
258.22	251.88
258.452	242.88
258.685	259.88
258.918	258.88
259.151	259.88
259.383	245.88
259.616	239.88
259.849	236.88
260.081	251.88
260.314	253.88
260.547	260.88
260.779	265.88
261.012	253.88
261.244	278.88
261.477	268.88
261.71	259.88
261.942	263.88
262.175	269.88
262.407	257.88
262.64	261.88
262.872	265.88
263.105	273.88
263.337	285.88
263.57	283.88
263.802	285.88
264.035	261.88
264.267	276.88
264.499	267.88
264.732	277.88
264.964	277.88
265.197	291.88
265.429	276.88
265.661	280.88
265.894	294.88
266.126	295.88
266.358	288.88
266.591	264.88
266.823	276.88
267.055	283.88
267.287	296.88
267.52	314.88
267.752	290.88
267.984	292.88
268.216	297.88
268.448	291.88
268.681	299.88
268.913	307.88
269.145	307.88
269.377	290.88
269.609	311.88
269.841	315.88
270.073	303.88
270.306	313.88
270.538	306.88
270.77	295.88
271.002	311.88
271.234	319.88
271.466	313.88
271.698	315.88
271.93	325.88
272.162	329.88
272.394	315.88
272.626	328.88
272.858	329.88
273.09	339.88
273.322	327.88
273.553	321.88
273.785	330.88
274.017	320.88
274.249	327.88
274.481	337.88
274.713	316.88
274.945	348.88
275.176	328.88
275.408	336.88
275.64	328.88
275.872	322.88
276.104	338.88
276.335	343.88
276.567	345.88
276.799	348.88
277.031	338.88
277.262	334.88
277.494	364.88
277.726	330.88
277.957	349.88
278.189	359.88
278.421	347.88
278.652	351.88
278.884	355.88
279.115	336.88
279.347	355.88
279.579	356.88
279.81	367.88
280.042	365.88
280.273	383.88
280.505	359.88
280.736	355.88
280.968	375.88
281.199	366.88
281.431	360.88
281.662	345.88
281.894	372.88
282.125	381.88
282.356	391.88
282.588	374.88
282.819	372.88
283.051	372.88
283.282	376.88
283.513	385.88
283.745	376.88
283.976	412.88
284.207	392.88
284.439	372.88
284.67	397.88
284.901	388.88
285.132	387.88
285.364	383.88
285.595	379.88
285.826	368.88
286.057	396.88
286.288	387.88
286.52	418.88
286.751	400.88
286.982	399.88
287.213	418.88
287.444	395.88
287.675	386.88
287.906	416.88
288.138	403.88
288.369	411.88
288.6	416.88
288.831	409.88
289.062	400.88
289.293	387.88
289.524	421.88
289.755	417.88
289.986	415.88
290.217	402.88
290.448	425.88
290.679	418.88
290.91	394.88
291.141	422.88
291.371	428.88
291.602	423.88
291.833	421.88
292.064	405.88
292.295	436.88
292.526	424.88
292.757	422.88
292.987	415.88
293.218	403.88
293.449	420.88
293.68	426.88
293.91	431.88
294.141	428.88
294.372	431.88
294.603	420.88
294.833	429.88
295.064	431.88
295.295	408.88
295.525	445.88
295.756	444.88
295.987	443.88
296.217	434.88
296.448	433.88
296.679	447.88
296.909	469.88
297.14	449.88
297.37	451.88
297.601	451.88
297.831	445.88
298.062	444.88
298.292	451.88
298.523	462.88
298.753	451.88
298.984	473.88
299.214	470.88
299.445	472.88
299.675	461.88
299.905	479.88
300.136	475.88
300.366	466.88
300.597	455.88
300.827	465.88
301.057	501.88
301.288	476.88
301.518	457.88
301.748	501.88
301.979	499.88
302.209	511.88
302.439	510.88
302.669	468.88
302.9	474.88
303.13	486.88
303.36	476.88
303.59	490.88
303.82	472.88
304.051	491.88
304.281	475.88
304.511	480.88
304.741	482.88
304.971	504.88
305.201	482.88
305.431	479.88
305.661	471.88
305.891	479.88
306.121	453.88
306.352	471.88
306.582	489.88
306.812	481.88
307.042	482.88
307.272	467.88
307.502	477.88
307.731	473.88
307.961	483.88
308.191	467.88
308.421	476.88
308.651	461.88
308.881	469.88
309.111	455.88
309.341	454.88
309.571	484.88
309.8	465.88
310.03	503.88
310.26	487.88
310.49	491.88
310.72	514.88
310.949	474.88
311.179	477.88
311.409	490.88
311.639	481.88
311.868	476.88
312.098	494.88
312.328	495.88
312.557	501.88
312.787	498.88
313.017	504.88
313.246	529.88
313.476	513.88
313.706	513.88
313.935	513.88
314.165	511.88
314.394	520.88
314.624	524.88
314.853	505.88
315.083	522.88
315.312	529.88
315.542	512.88
315.771	529.88
316.001	504.88
316.23	512.88
316.46	519.88
316.689	515.88
316.919	515.88
317.148	519.88
317.377	521.88
317.607	501.88
317.836	521.88
318.065	513.88
318.295	488.88
318.524	496.88
318.753	505.88
318.983	508.88
319.212	528.88
319.441	520.88
319.67	538.88
319.9	515.88
320.129	504.88
320.358	532.88
320.587	521.88
320.816	499.88
321.046	512.88
321.275	516.88
321.504	534.88
321.733	513.88
321.962	515.88
322.191	529.88
322.42	509.88
322.649	513.88
322.878	516.88
323.108	536.88
323.337	538.88
323.566	515.88
323.795	562.88
324.024	531.88
324.253	542.88
324.482	533.88
324.71	547.88
324.939	538.88
325.168	527.88
325.397	533.88
325.626	551.88
325.855	555.88
326.084	546.88
326.313	554.88
326.542	556.88
326.77	577.88
326.999	549.88
327.228	553.88
327.457	571.88
327.686	549.88
327.914	564.88
328.143	578.88
328.372	552.88
328.6	561.88
328.829	568.88
329.058	564.88
329.287	562.88
329.515	580.88
329.744	571.88
329.972	557.88
330.201	591.88
330.43	583.88
330.658	569.88
330.887	586.88
331.115	571.88
331.344	607.88
331.572	612.88
331.801	600.88
332.03	625.88
332.258	626.88
332.486	633.88
332.715	663.88
332.943	693.88
333.172	693.88
333.4	708.88
333.629	738.88
333.857	751.88
334.085	722.88
334.314	738.88
334.542	709.88
334.771	709.88
334.999	698.88
335.227	691.88
335.455	693.88
335.684	696.88
335.912	707.88
336.14	677.88
336.369	668.88
336.597	682.88
336.825	693.88
337.053	691.88
337.281	664.88
337.51	642.88
337.738	641.88
337.966	624.88
338.194	637.88
338.422	601.88
338.65	634.88
338.878	592.88
339.106	633.88
339.334	639.88
339.562	637.88
339.79	604.88
340.018	601.88
340.246	588.88
340.474	618.88
340.702	589.88
340.93	601.88
341.158	586.88
341.386	608.88
341.614	627.88
341.842	611.88
342.07	589.88
342.298	608.88
342.526	618.88
342.754	607.88
342.981	572.88
343.209	620.88
343.437	642.88
343.665	661.88
343.893	704.88
344.12	712.88
344.348	684.88
344.576	664.88
344.804	627.88
345.031	621.88
345.259	604.88
345.487	613.88
345.714	619.88
345.942	597.88
346.17	584.88
346.397	594.88
346.625	604.88
346.853	589.88
347.08	585.88
347.308	580.88
347.535	589.88
347.763	571.88
347.99	556.88
348.218	576.88
348.445	587.88
348.673	565.88
348.9	587.88
349.128	586.88
349.355	600.88
349.583	595.88
349.81	579.88
350.037	597.88
350.265	563.88
350.492	567.88
350.72	551.88
350.947	573.88
351.174	577.88
351.402	556.88
351.629	572.88
351.856	579.88
352.083	549.88
352.311	570.88
352.538	548.88
352.765	575.88
352.992	547.88
353.22	536.88
353.447	545.88
353.674	544.88
353.901	562.88
354.128	559.88
354.355	563.88
354.583	567.88
354.81	570.88
355.037	574.88
355.264	563.88
355.491	545.88
355.718	571.88
355.945	565.88
356.172	566.88
356.399	558.88
356.626	575.88
356.853	587.88
357.08	551.88
357.307	576.88
357.534	575.88
357.761	571.88
357.988	556.88
358.215	546.88
358.441	563.88
358.668	568.88
358.895	548.88
359.122	556.88
359.349	585.88
359.576	561.88
359.802	565.88
360.029	552.88
360.256	549.88
360.483	562.88
360.709	553.88
360.936	567.88
361.163	563.88
361.39	563.88
361.616	581.88
361.843	561.88
362.07	568.88
362.296	575.88
362.523	559.88
362.749	566.88
362.976	574.88
363.203	571.88
363.429	565.88
363.656	568.88
363.882	573.88
364.109	579.88
364.335	553.88
364.562	555.88
364.788	556.88
365.015	547.88
365.241	577.88
365.468	569.88
365.694	548.88
365.92	556.88
366.147	563.88
366.373	550.88
366.599	580.88
366.826	563.88
367.052	563.88
367.278	591.88
367.505	563.88
367.731	597.88
367.957	581.88
368.184	557.88
368.41	564.88
368.636	551.88
368.862	585.88
369.089	583.88
369.315	581.88
369.541	581.88
369.767	574.88
369.993	569.88
370.219	599.88
370.445	593.88
370.672	589.88
370.898	593.88
371.124	593.88
371.35	599.88
371.576	616.88
371.802	600.88
372.028	637.88
372.254	577.88
372.48	634.88
372.706	615.88
372.932	618.88
373.158	632.88
373.384	625.88
373.61	630.88
373.835	631.88
374.061	601.88
374.287	624.88
374.513	628.88
374.739	625.88
374.965	686.88
375.191	677.88
375.416	671.88
375.642	650.88
375.868	637.88
376.094	627.88
376.319	597.88
376.545	620.88
376.771	593.88
376.997	603.88
377.222	597.88
377.448	587.88
377.674	608.88
377.899	597.88
378.125	603.88
378.35	602.88
378.576	605.88
378.802	609.88
379.027	591.88
379.253	581.88
379.478	624.88
379.704	609.88
379.929	595.88
380.155	599.88
380.38	618.88
380.606	604.88
380.831	605.88
381.057	629.88
381.282	598.88
381.507	604.88
381.733	612.88
381.958	619.88
382.184	610.88
382.409	638.88
382.634	635.88
382.86	630.88
383.085	637.88
383.31	663.88
383.535	665.88
383.761	658.88
383.986	677.88
384.211	657.88
384.436	676.88
384.662	705.88
384.887	708.88
385.112	699.88
385.337	700.88
385.562	739.88
385.787	743.88
386.013	720.88
386.238	717.88
386.463	719.88
386.688	719.88
386.913	736.88
387.138	736.88
387.363	720.88
387.588	705.88
387.813	730.88
388.038	707.88
388.263	729.88
388.488	723.88
388.713	713.88
388.938	715.88
389.163	703.88
389.387	735.88
389.612	694.88
389.837	703.88
390.062	683.88
390.287	701.88
390.512	682.88
390.736	725.88
390.961	723.88
391.186	740.88
391.411	769.88
391.636	799.88
391.86	820.88
392.085	816.88
392.31	817.88
392.534	762.88
392.759	790.88
392.984	795.88
393.208	751.88
393.433	787.88
393.658	795.88
393.882	784.88
394.107	760.88
394.331	763.88
394.556	781.88
394.78	772.88
395.005	781.88
395.229	759.88
395.454	782.88
395.678	800.88
395.903	815.88
396.127	806.88
396.352	791.88
396.576	781.88
396.801	785.88
397.025	795.88
397.249	812.88
397.474	788.88
397.698	822.88
397.922	807.88
398.147	809.88
398.371	822.88
398.595	857.88
398.82	892.88
399.044	933.88
399.268	1063.88
399.492	1172.88
399.717	1292.88
399.941	1303.88
400.165	1150.88
400.389	1055.88
400.613	995.88
400.837	951.88
401.062	955.88
401.286	919.88
401.51	902.88
401.734	896.88
401.958	888.88
402.182	913.88
402.406	893.88
402.63	940.88
402.854	943.88
403.078	975.88
403.302	969.88
403.526	988.88
403.75	1000.88
403.974	1028.88
404.198	1011.88
404.422	1025.88
404.645	1015.88
404.869	988.88
405.093	987.88
405.317	981.88
405.541	998.88
405.765	964.88
405.988	962.88
406.212	986.88
406.436	967.88
406.66	985.88
406.883	1016.88
407.107	1095.88
407.331	1099.88
407.555	1111.88
407.778	1116.88
408.002	1107.88
408.226	1056.88
408.449	1049.88
408.673	1037.88
408.896	1021.88
409.12	993.88
409.344	997.88
409.567	1014.88
409.791	998.88
410.014	986.88
410.238	967.88
410.461	969.88
410.685	970.88
410.908	951.88
411.132	929.88
411.355	907.88
411.578	949.88
411.802	939.88
412.025	924.88
412.249	952.88
412.472	964.88
412.695	936.88
412.919	924.88
413.142	905.88
413.365	927.88
413.589	932.88
413.812	867.88
414.035	883.88
414.258	901.88
414.482	918.88
414.705	908.88
414.928	908.88
415.151	881.88
415.374	889.88
415.597	885.88
415.821	904.88
416.044	881.88
416.267	893.88
416.49	860.88
416.713	885.88
416.936	888.88
417.159	872.88
417.382	859.88
417.605	898.88
417.828	907.88
418.051	899.88
418.274	885.88
418.497	903.88
418.72	889.88
418.943	901.88
419.166	945.88
419.389	983.88
419.611	980.88
419.834	947.88
420.057	929.88
420.28	932.88
420.503	879.88
420.726	885.88
420.948	869.88
421.171	867.88
421.394	881.88
421.617	853.88
421.839	867.88
422.062	859.88
422.285	870.88
422.507	903.88
422.73	867.88
422.953	906.88
423.175	907.88
423.398	920.88
423.621	917.88
423.843	907.88
424.066	934.88
424.288	919.88
424.511	919.88
424.733	905.88
424.956	902.88
425.178	891.88
425.401	902.88
425.623	893.88
425.846	872.88
426.068	836.88
426.291	842.88
426.513	842.88
426.735	835.88
426.958	803.88
427.18	805.88
427.402	822.88
427.625	804.88
427.847	795.88
428.069	786.88
428.292	804.88
428.514	799.88
428.736	794.88
428.958	799.88
429.181	802.88
429.403	801.88
429.625	789.88
429.847	796.88
430.069	779.88
430.292	789.88
430.514	778.88
430.736	765.88
430.958	797.88
431.18	777.88
431.402	802.88
431.624	792.88
431.846	808.88
432.068	808.88
432.29	824.88
432.512	795.88
432.734	799.88
432.956	772.88
433.178	785.88
433.4	803.88
433.622	813.88
433.844	821.88
434.066	799.88
434.287	815.88
434.509	838.88
434.731	872.88
434.953	892.88
435.175	871.88
435.397	891.88
435.618	827.88
435.84	789.88
436.062	811.88
436.284	806.88
436.505	787.88
436.727	805.88
436.949	811.88
437.17	790.88
437.392	800.88
437.614	777.88
437.835	762.88
438.057	752.88
438.278	771.88
438.5	752.88
438.721	803.88
438.943	773.88
439.165	776.88
439.386	756.88
439.608	803.88
439.829	804.88
440.05	768.88
440.272	760.88
440.493	786.88
440.715	819.88
440.936	822.88
441.158	825.88
441.379	847.88
441.6	916.88
441.822	859.88
442.043	869.88
442.264	850.88
442.486	859.88
442.707	866.88
442.928	858.88
443.149	883.88
443.371	858.88
443.592	884.88
443.813	898.88
444.034	883.88
444.255	924.88
444.476	949.88
444.698	998.88
444.919	1037.88
445.14	1086.88
445.361	977.88
445.582	906.88
445.803	865.88
446.024	835.88
446.245	810.88
446.466	825.88
446.687	792.88
446.908	790.88
447.129	761.88
447.35	794.88
447.571	776.88
447.792	778.88
448.013	757.88
448.234	759.88
448.455	728.88
448.675	732.88
448.896	743.88
449.117	742.88
449.338	714.88
449.559	731.88
449.779	716.88
450	722.88
450.221	723.88
450.442	729.88
450.662	732.88
450.883	710.88
451.104	726.88
451.324	728.88
451.545	740.88
451.766	737.88
451.986	723.88
452.207	722.88
452.428	733.88
452.648	724.88
452.869	710.88
453.089	718.88
453.31	717.88
453.53	721.88
453.751	714.88
453.971	684.88
454.192	732.88
454.412	710.88
454.633	708.88
454.853	698.88
455.073	702.88
455.294	680.88
455.514	727.88
455.734	700.88
455.955	697.88
456.175	690.88
456.395	681.88
456.616	665.88
456.836	684.88
457.056	695.88
457.276	680.88
457.497	699.88
457.717	693.88
457.937	722.88
458.157	714.88
458.377	701.88
458.598	731.88
458.818	778.88
459.038	773.88
459.258	777.88
459.478	823.88
459.698	834.88
459.918	844.88
460.138	874.88
460.358	916.88
460.578	905.88
460.798	955.88
461.018	951.88
461.238	962.88
461.458	917.88
461.678	927.88
461.898	925.88
462.118	949.88
462.338	972.88
462.558	1016.88
462.777	1064.88
462.997	1129.88
463.217	1208.88
463.437	1207.88
463.657	1112.88
463.876	1027.88
464.096	1082.88
464.316	1051.88
464.536	1030.88
464.755	1014.88
464.975	997.88
465.195	949.88
465.414	913.88
465.634	857.88
465.854	823.88
466.073	850.88
466.293	818.88
466.512	796.88
466.732	767.88
466.951	787.88
467.171	759.88
467.391	769.88
467.61	786.88
467.829	760.88
468.049	769.88
468.268	749.88
468.488	760.88
468.707	733.88
468.927	740.88
469.146	734.88
469.365	737.88
469.585	771.88
469.804	764.88
470.023	785.88
470.243	767.88
470.462	763.88
470.681	795.88
470.901	803.88
471.12	783.88
471.339	777.88
471.558	774.88
471.777	793.88
471.997	714.88
472.216	746.88
472.435	722.88
472.654	733.88
472.873	740.88
473.092	747.88
473.311	725.88
473.53	715.88
473.749	731.88
473.968	726.88
474.187	724.88
474.406	723.88
474.625	723.88
474.844	722.88
475.063	727.88
475.282	751.88
475.501	731.88
475.72	735.88
475.939	763.88
476.158	763.88
476.377	755.88
476.596	759.88
476.814	765.88
477.033	780.88
477.252	794.88
477.471	802.88
477.69	804.88
477.908	832.88
478.127	853.88
478.346	854.88
478.564	881.88
478.783	879.88
479.002	891.88
479.22	911.88
479.439	891.88
479.658	915.88
479.876	913.88
480.095	901.88
480.313	946.88
480.532	964.88
480.751	944.88
480.969	917.88
481.188	891.88
481.406	852.88
481.624	867.88
481.843	855.88
482.061	843.88
482.28	850.88
482.498	835.88
482.717	852.88
482.935	836.88
483.153	838.88
483.372	848.88
483.59	851.88
483.808	876.88
484.027	845.88
484.245	865.88
484.463	831.88
484.681	869.88
484.9	859.88
485.118	894.88
485.336	847.88
485.554	855.88
485.772	864.88
485.99	881.88
486.209	891.88
486.427	873.88
486.645	907.88
486.863	884.88
487.081	886.88
487.299	866.88
487.517	872.88
487.735	882.88
487.953	858.88
488.171	889.88
488.389	882.88
488.607	874.88
488.825	886.88
489.043	866.88
489.261	879.88
489.479	865.88
489.696	848.88
489.914	903.88
490.132	899.88
490.35	883.88
490.568	884.88
490.786	898.88
491.003	903.88
491.221	894.88
491.439	904.88
491.657	908.88
491.874	907.88
492.092	893.88
492.31	903.88
492.527	907.88
492.745	932.88
492.963	921.88
493.18	931.88
493.398	930.88
493.615	916.88
493.833	904.88
494.05	950.88
494.268	961.88
494.485	953.88
494.703	961.88
494.92	961.88
495.138	946.88
495.355	950.88
495.573	945.88
495.79	989.88
496.008	994.88
496.225	991.88
496.442	990.88
496.66	991.88
496.877	1027.88
497.094	1029.88
497.312	1038.88
497.529	1050.88
497.746	1065.88
497.963	1107.88
498.181	1133.88
498.398	1203.88
498.615	1269.88
498.832	1311.88
499.049	1415.88
499.267	1547.88
499.484	1651.88
499.701	1789.88
499.918	1938.88
500.135	2171.88
500.352	2439.88
500.569	2555.88
500.786	2495.88
