Data from NiCl2@0.25M.TitratingCurve.Agarose3%dH2O.NegLispCup.LampEnergy10.LIBS07252019_HRD10591_18-24-29-572.txt Node
Date: Thu Jul 25 18:24:29 EDT 2019
User: cochatt
Spectrometer: HR+D1059
Trigger mode: 1
Integration Time (sec): 1.000000E-1
Scans to average: 1
Electric dark correction enabled: true
Nonlinearity correction enabled: false
Boxcar width: 0
XAxis mode: Wavelengths
Number of Pixels in Spectrum: 2048
>>>>>Begin Spectral Data<<<<<
223.165	-6.25
223.4	-6.25
223.635	-6.25
223.869	-25.25
224.104	-25.25
224.338	-13.25
224.573	-14.25
224.808	-9.25
225.042	-20.25
225.277	-3.25
225.511	3.75
225.746	3.75
225.98	16.75
226.215	3.75
226.449	10.75
226.683	24.75
226.918	27.75
227.152	25.75
227.387	45.75
227.621	30.75
227.856	39.75
228.09	51.75
228.324	50.75
228.559	49.75
228.793	69.75
229.027	84.75
229.262	123.75
229.496	104.75
229.73	113.75
229.964	118.75
230.199	116.75
230.433	139.75
230.667	133.75
230.901	127.75
231.136	136.75
231.37	119.75
231.604	148.75
231.838	139.75
232.072	145.75
232.306	143.75
232.541	134.75
232.775	147.75
233.009	154.75
233.243	151.75
233.477	149.75
233.711	143.75
233.945	149.75
234.179	142.75
234.413	147.75
234.647	146.75
234.881	157.75
235.115	144.75
235.349	139.75
235.583	153.75
235.817	156.75
236.051	152.75
236.285	154.75
236.519	124.75
236.753	166.75
236.987	153.75
237.221	149.75
237.455	143.75
237.689	152.75
237.922	159.75
238.156	154.75
238.39	160.75
238.624	150.75
238.858	159.75
239.091	156.75
239.325	180.75
239.559	167.75
239.793	178.75
240.027	185.75
240.26	180.75
240.494	180.75
240.728	180.75
240.961	167.75
241.195	175.75
241.429	180.75
241.662	159.75
241.896	175.75
242.13	177.75
242.363	173.75
242.597	202.75
242.83	179.75
243.064	182.75
243.298	186.75
243.531	201.75
243.765	210.75
243.998	207.75
244.232	205.75
244.465	195.75
244.699	185.75
244.932	211.75
245.166	204.75
245.399	201.75
245.633	200.75
245.866	189.75
246.099	197.75
246.333	217.75
246.566	191.75
246.8	212.75
247.033	217.75
247.266	203.75
247.5	219.75
247.733	209.75
247.966	210.75
248.2	211.75
248.433	225.75
248.666	222.75
248.899	222.75
249.133	229.75
249.366	207.75
249.599	210.75
249.832	237.75
250.066	262.75
250.299	242.75
250.532	233.75
250.765	232.75
250.998	216.75
251.231	250.75
251.465	241.75
251.698	253.75
251.931	247.75
252.164	265.75
252.397	229.75
252.63	249.75
252.863	244.75
253.096	259.75
253.329	256.75
253.562	257.75
253.795	249.75
254.028	264.75
254.261	261.75
254.494	257.75
254.727	268.75
254.96	275.75
255.193	258.75
255.426	253.75
255.659	271.75
255.892	257.75
256.124	260.75
256.357	266.75
256.59	277.75
256.823	271.75
257.056	288.75
257.289	272.75
257.521	290.75
257.754	291.75
257.987	285.75
258.22	294.75
258.452	292.75
258.685	285.75
258.918	295.75
259.151	283.75
259.383	293.75
259.616	317.75
259.849	310.75
260.081	306.75
260.314	303.75
260.547	288.75
260.779	307.75
261.012	289.75
261.244	296.75
261.477	311.75
261.71	293.75
261.942	305.75
262.175	308.75
262.407	301.75
262.64	303.75
262.872	304.75
263.105	324.75
263.337	326.75
263.57	326.75
263.802	313.75
264.035	320.75
264.267	321.75
264.499	329.75
264.732	320.75
264.964	324.75
265.197	307.75
265.429	319.75
265.661	334.75
265.894	337.75
266.126	343.75
266.358	330.75
266.591	335.75
266.823	320.75
267.055	341.75
267.287	333.75
267.52	335.75
267.752	360.75
267.984	343.75
268.216	335.75
268.448	353.75
268.681	355.75
268.913	353.75
269.145	337.75
269.377	355.75
269.609	367.75
269.841	334.75
270.073	336.75
270.306	353.75
270.538	352.75
270.77	356.75
271.002	345.75
271.234	347.75
271.466	372.75
271.698	349.75
271.93	376.75
272.162	360.75
272.394	379.75
272.626	367.75
272.858	365.75
273.09	360.75
273.322	369.75
273.553	361.75
273.785	381.75
274.017	393.75
274.249	382.75
274.481	394.75
274.713	386.75
274.945	381.75
275.176	378.75
275.408	383.75
275.64	395.75
275.872	390.75
276.104	381.75
276.335	407.75
276.567	388.75
276.799	376.75
277.031	374.75
277.262	399.75
277.494	415.75
277.726	411.75
277.957	400.75
278.189	410.75
278.421	396.75
278.652	400.75
278.884	406.75
279.115	406.75
279.347	405.75
279.579	420.75
279.81	429.75
280.042	419.75
280.273	426.75
280.505	444.75
280.736	424.75
280.968	433.75
281.199	429.75
281.431	444.75
281.662	443.75
281.894	438.75
282.125	441.75
282.356	442.75
282.588	430.75
282.819	438.75
283.051	442.75
283.282	445.75
283.513	450.75
283.745	463.75
283.976	447.75
284.207	440.75
284.439	456.75
284.67	448.75
284.901	471.75
285.132	455.75
285.364	450.75
285.595	463.75
285.826	466.75
286.057	449.75
286.288	456.75
286.52	488.75
286.751	464.75
286.982	469.75
287.213	464.75
287.444	464.75
287.675	471.75
287.906	466.75
288.138	503.75
288.369	491.75
288.6	484.75
288.831	488.75
289.062	490.75
289.293	484.75
289.524	481.75
289.755	482.75
289.986	494.75
290.217	481.75
290.448	481.75
290.679	489.75
290.91	474.75
291.141	496.75
291.371	490.75
291.602	505.75
291.833	498.75
292.064	496.75
292.295	496.75
292.526	492.75
292.757	494.75
292.987	514.75
293.218	501.75
293.449	503.75
293.68	494.75
293.91	507.75
294.141	510.75
294.372	489.75
294.603	507.75
294.833	513.75
295.064	511.75
295.295	497.75
295.525	494.75
295.756	497.75
295.987	512.75
296.217	515.75
296.448	519.75
296.679	529.75
296.909	519.75
297.14	523.75
297.37	527.75
297.601	509.75
297.831	549.75
298.062	503.75
298.292	540.75
298.523	536.75
298.753	541.75
298.984	509.75
299.214	542.75
299.445	530.75
299.675	521.75
299.905	544.75
300.136	543.75
300.366	546.75
300.597	537.75
300.827	583.75
301.057	576.75
301.288	570.75
301.518	566.75
301.748	573.75
301.979	581.75
302.209	562.75
302.439	560.75
302.669	562.75
302.9	566.75
303.13	553.75
303.36	553.75
303.59	551.75
303.82	561.75
304.051	571.75
304.281	567.75
304.511	575.75
304.741	571.75
304.971	568.75
305.201	567.75
305.431	562.75
305.661	549.75
305.891	551.75
306.121	552.75
306.352	570.75
306.582	572.75
306.812	546.75
307.042	525.75
307.272	554.75
307.502	561.75
307.731	540.75
307.961	567.75
308.191	549.75
308.421	538.75
308.651	562.75
308.881	547.75
309.111	554.75
309.341	544.75
309.571	552.75
309.8	553.75
310.03	552.75
310.26	589.75
310.49	567.75
310.72	559.75
310.949	559.75
311.179	548.75
311.409	578.75
311.639	553.75
311.868	582.75
312.098	572.75
312.328	573.75
312.557	586.75
312.787	580.75
313.017	569.75
313.246	587.75
313.476	587.75
313.706	594.75
313.935	613.75
314.165	597.75
314.394	616.75
314.624	624.75
314.853	600.75
315.083	614.75
315.312	582.75
315.542	597.75
315.771	610.75
316.001	594.75
316.23	597.75
316.46	597.75
316.689	567.75
316.919	598.75
317.148	585.75
317.377	586.75
317.607	587.75
317.836	578.75
318.065	577.75
318.295	577.75
318.524	593.75
318.753	606.75
318.983	592.75
319.212	606.75
319.441	586.75
319.67	598.75
319.9	574.75
320.129	602.75
320.358	591.75
320.587	581.75
320.816	600.75
321.046	604.75
321.275	586.75
321.504	592.75
321.733	577.75
321.962	568.75
322.191	582.75
322.42	591.75
322.649	595.75
322.878	598.75
323.108	578.75
323.337	608.75
323.566	602.75
323.795	617.75
324.024	593.75
324.253	602.75
324.482	591.75
324.71	608.75
324.939	609.75
325.168	625.75
325.397	618.75
325.626	630.75
325.855	629.75
326.084	623.75
326.313	666.75
326.542	646.75
326.77	635.75
326.999	645.75
327.228	638.75
327.457	639.75
327.686	655.75
327.914	656.75
328.143	652.75
328.372	635.75
328.6	641.75
328.829	643.75
329.058	641.75
329.287	646.75
329.515	656.75
329.744	649.75
329.972	648.75
330.201	671.75
330.43	678.75
330.658	670.75
330.887	672.75
331.115	660.75
331.344	689.75
331.572	701.75
331.801	693.75
332.03	711.75
332.258	737.75
332.486	763.75
332.715	778.75
332.943	774.75
333.172	827.75
333.4	854.75
333.629	887.75
333.857	889.75
334.085	853.75
334.314	836.75
334.542	815.75
334.771	863.75
334.999	816.75
335.227	829.75
335.455	796.75
335.684	799.75
335.912	786.75
336.14	784.75
336.369	761.75
336.597	788.75
336.825	779.75
337.053	737.75
337.281	765.75
337.51	746.75
337.738	706.75
337.966	721.75
338.194	722.75
338.422	717.75
338.65	697.75
338.878	703.75
339.106	693.75
339.334	718.75
339.562	694.75
339.79	668.75
340.018	673.75
340.246	669.75
340.474	671.75
340.702	677.75
340.93	673.75
341.158	669.75
341.386	675.75
341.614	677.75
341.842	670.75
342.07	657.75
342.298	664.75
342.526	676.75
342.754	648.75
342.981	711.75
343.209	709.75
343.437	704.75
343.665	769.75
343.893	838.75
344.12	855.75
344.348	781.75
344.576	748.75
344.804	727.75
345.031	711.75
345.259	686.75
345.487	667.75
345.714	655.75
345.942	669.75
346.17	680.75
346.397	660.75
346.625	641.75
346.853	657.75
347.08	649.75
347.308	631.75
347.535	646.75
347.763	659.75
347.99	655.75
348.218	650.75
348.445	635.75
348.673	630.75
348.9	622.75
349.128	636.75
349.355	658.75
349.583	645.75
349.81	625.75
350.037	639.75
350.265	616.75
350.492	609.75
350.72	621.75
350.947	621.75
351.174	630.75
351.402	632.75
351.629	641.75
351.856	639.75
352.083	620.75
352.311	610.75
352.538	599.75
352.765	617.75
352.992	639.75
353.22	619.75
353.447	633.75
353.674	616.75
353.901	619.75
354.128	626.75
354.355	613.75
354.583	625.75
354.81	626.75
355.037	623.75
355.264	647.75
355.491	644.75
355.718	623.75
355.945	618.75
356.172	618.75
356.399	630.75
356.626	646.75
356.853	643.75
357.08	647.75
357.307	630.75
357.534	636.75
357.761	651.75
357.988	609.75
358.215	631.75
358.441	632.75
358.668	623.75
358.895	623.75
359.122	635.75
359.349	656.75
359.576	641.75
359.802	629.75
360.029	641.75
360.256	621.75
360.483	610.75
360.709	629.75
360.936	652.75
361.163	643.75
361.39	634.75
361.616	645.75
361.843	615.75
362.07	626.75
362.296	613.75
362.523	616.75
362.749	622.75
362.976	607.75
363.203	631.75
363.429	639.75
363.656	639.75
363.882	651.75
364.109	646.75
364.335	640.75
364.562	621.75
364.788	638.75
365.015	633.75
365.241	629.75
365.468	635.75
365.694	605.75
365.92	641.75
366.147	633.75
366.373	642.75
366.599	639.75
366.826	647.75
367.052	624.75
367.278	638.75
367.505	634.75
367.731	652.75
367.957	635.75
368.184	643.75
368.41	629.75
368.636	640.75
368.862	652.75
369.089	632.75
369.315	649.75
369.541	669.75
369.767	645.75
369.993	649.75
370.219	650.75
370.445	660.75
370.672	669.75
370.898	665.75
371.124	705.75
371.35	678.75
371.576	685.75
371.802	691.75
372.028	672.75
372.254	667.75
372.48	708.75
372.706	688.75
372.932	715.75
373.158	704.75
373.384	713.75
373.61	677.75
373.835	705.75
374.061	707.75
374.287	704.75
374.513	681.75
374.739	739.75
374.965	742.75
375.191	762.75
375.416	767.75
375.642	740.75
375.868	721.75
376.094	719.75
376.319	728.75
376.545	694.75
376.771	687.75
376.997	678.75
377.222	682.75
377.448	674.75
377.674	710.75
377.899	675.75
378.125	679.75
378.35	667.75
378.576	670.75
378.802	676.75
379.027	677.75
379.253	677.75
379.478	650.75
379.704	679.75
379.929	683.75
380.155	658.75
380.38	683.75
380.606	666.75
380.831	679.75
381.057	691.75
381.282	673.75
381.507	689.75
381.733	706.75
381.958	683.75
382.184	707.75
382.409	713.75
382.634	724.75
382.86	722.75
383.085	730.75
383.31	754.75
383.535	733.75
383.761	759.75
383.986	776.75
384.211	800.75
384.436	793.75
384.662	791.75
384.887	827.75
385.112	799.75
385.337	821.75
385.562	835.75
385.787	824.75
386.013	839.75
386.238	815.75
386.463	867.75
386.688	830.75
386.913	791.75
387.138	811.75
387.363	825.75
387.588	825.75
387.813	792.75
388.038	806.75
388.263	789.75
388.488	809.75
388.713	835.75
388.938	814.75
389.163	816.75
389.387	802.75
389.612	775.75
389.837	778.75
390.062	771.75
390.287	819.75
390.512	795.75
390.736	822.75
390.961	819.75
391.186	837.75
391.411	867.75
391.636	889.75
391.86	923.75
392.085	929.75
392.31	911.75
392.534	916.75
392.759	904.75
392.984	883.75
393.208	900.75
393.433	862.75
393.658	868.75
393.882	874.75
394.107	895.75
394.331	895.75
394.556	866.75
394.78	900.75
395.005	889.75
395.229	880.75
395.454	915.75
395.678	913.75
395.903	897.75
396.127	913.75
396.352	901.75
396.576	875.75
396.801	882.75
397.025	877.75
397.249	902.75
397.474	899.75
397.698	919.75
397.922	935.75
398.147	912.75
398.371	943.75
398.595	981.75
398.82	1018.75
399.044	1089.75
399.268	1212.75
399.492	1399.75
399.717	1649.75
399.941	1619.75
400.165	1411.75
400.389	1238.75
400.613	1169.75
400.837	1061.75
401.062	1049.75
401.286	1056.75
401.51	1042.75
401.734	1057.75
401.958	1027.75
402.182	1052.75
402.406	1048.75
402.63	1109.75
402.854	1113.75
403.078	1118.75
403.302	1140.75
403.526	1200.75
403.75	1205.75
403.974	1241.75
404.198	1223.75
404.422	1190.75
404.645	1215.75
404.869	1209.75
405.093	1175.75
405.317	1161.75
405.541	1146.75
405.765	1147.75
405.988	1140.75
406.212	1130.75
406.436	1167.75
406.66	1171.75
406.883	1190.75
407.107	1279.75
407.331	1338.75
407.555	1363.75
407.778	1355.75
408.002	1318.75
408.226	1261.75
408.449	1242.75
408.673	1167.75
408.896	1174.75
409.12	1173.75
409.344	1195.75
409.567	1183.75
409.791	1200.75
410.014	1188.75
410.238	1164.75
410.461	1144.75
410.685	1109.75
410.908	1105.75
411.132	1094.75
411.355	1081.75
411.578	1079.75
411.802	1062.75
412.025	1090.75
412.249	1091.75
412.472	1089.75
412.695	1040.75
412.919	1048.75
413.142	1063.75
413.365	1038.75
413.589	1086.75
413.812	1053.75
414.035	1017.75
414.258	1021.75
414.482	1047.75
414.705	1071.75
414.928	1081.75
415.151	1057.75
415.374	1055.75
415.597	1031.75
415.821	1054.75
416.044	1008.75
416.267	1012.75
416.49	979.75
416.713	1007.75
416.936	1010.75
417.159	1011.75
417.382	1007.75
417.605	1023.75
417.828	1038.75
418.051	1055.75
418.274	1048.75
418.497	1032.75
418.72	1052.75
418.943	1073.75
419.166	1123.75
419.389	1150.75
419.611	1159.75
419.834	1117.75
420.057	1059.75
420.28	1048.75
420.503	997.75
420.726	1035.75
420.948	983.75
421.171	995.75
421.394	1001.75
421.617	994.75
421.839	1051.75
422.062	1043.75
422.285	1048.75
422.507	1055.75
422.73	1058.75
422.953	1053.75
423.175	1083.75
423.398	1069.75
423.621	1103.75
423.843	1133.75
424.066	1123.75
424.288	1109.75
424.511	1069.75
424.733	1059.75
424.956	1077.75
425.178	1032.75
425.401	1019.75
425.623	1045.75
425.846	1001.75
426.068	966.75
426.291	987.75
426.513	971.75
426.735	953.75
426.958	955.75
427.18	930.75
427.402	923.75
427.625	943.75
427.847	907.75
428.069	913.75
428.292	911.75
428.514	916.75
428.736	905.75
428.958	925.75
429.181	886.75
429.403	843.75
429.625	899.75
429.847	883.75
430.069	898.75
430.292	921.75
430.514	868.75
430.736	862.75
430.958	905.75
431.18	893.75
431.402	905.75
431.624	893.75
431.846	930.75
432.068	907.75
432.29	912.75
432.512	896.75
432.734	897.75
432.956	887.75
433.178	900.75
433.4	882.75
433.622	901.75
433.844	914.75
434.066	895.75
434.287	954.75
434.509	961.75
434.731	985.75
434.953	1024.75
435.175	1026.75
435.397	1012.75
435.618	962.75
435.84	921.75
436.062	909.75
436.284	901.75
436.505	897.75
436.727	894.75
436.949	905.75
437.17	895.75
437.392	886.75
437.614	880.75
437.835	838.75
438.057	865.75
438.278	853.75
438.5	865.75
438.721	869.75
438.943	862.75
439.165	857.75
439.386	885.75
439.608	874.75
439.829	896.75
440.05	899.75
440.272	879.75
440.493	907.75
440.715	918.75
440.936	945.75
441.158	942.75
441.379	936.75
441.6	1021.75
441.822	1021.75
442.043	1019.75
442.264	997.75
442.486	970.75
442.707	995.75
442.928	988.75
443.149	1021.75
443.371	981.75
443.592	1001.75
443.813	993.75
444.034	1016.75
444.255	1063.75
444.476	1089.75
444.698	1197.75
444.919	1239.75
445.14	1302.75
445.361	1197.75
445.582	1045.75
445.803	985.75
446.024	967.75
446.245	905.75
446.466	920.75
446.687	873.75
446.908	886.75
447.129	885.75
447.35	865.75
447.571	893.75
447.792	861.75
448.013	865.75
448.234	837.75
448.455	821.75
448.675	802.75
448.896	839.75
449.117	793.75
449.338	826.75
449.559	820.75
449.779	804.75
450	839.75
450.221	834.75
450.442	822.75
450.662	864.75
450.883	863.75
451.104	833.75
451.324	837.75
451.545	874.75
451.766	847.75
451.986	807.75
452.207	848.75
452.428	819.75
452.648	850.75
452.869	795.75
453.089	822.75
453.31	804.75
453.53	812.75
453.751	798.75
453.971	793.75
454.192	780.75
454.412	802.75
454.633	787.75
454.853	804.75
455.073	765.75
455.294	791.75
455.514	763.75
455.734	767.75
455.955	740.75
456.175	768.75
456.395	749.75
456.616	734.75
456.836	790.75
457.056	761.75
457.276	776.75
457.497	756.75
457.717	783.75
457.937	765.75
458.157	773.75
458.377	794.75
458.598	825.75
458.818	826.75
459.038	848.75
459.258	902.75
459.478	925.75
459.698	909.75
459.918	958.75
460.138	1005.75
460.358	1080.75
460.578	1077.75
460.798	1087.75
461.018	1090.75
461.238	1074.75
461.458	1053.75
461.678	1073.75
461.898	1073.75
462.118	1081.75
462.338	1149.75
462.558	1171.75
462.777	1258.75
462.997	1337.75
463.217	1450.75
463.437	1449.75
463.657	1335.75
463.876	1236.75
464.096	1238.75
464.316	1266.75
464.536	1271.75
464.755	1188.75
464.975	1155.75
465.195	1127.75
465.414	1006.75
465.634	989.75
465.854	974.75
466.073	931.75
466.293	900.75
466.512	882.75
466.732	877.75
466.951	890.75
467.171	839.75
467.391	873.75
467.61	888.75
467.829	849.75
468.049	834.75
468.268	837.75
468.488	815.75
468.707	823.75
468.927	846.75
469.146	844.75
469.365	873.75
469.585	852.75
469.804	848.75
470.023	875.75
470.243	906.75
470.462	907.75
470.681	898.75
470.901	886.75
471.12	865.75
471.339	881.75
471.558	852.75
471.777	854.75
471.997	833.75
472.216	833.75
472.435	839.75
472.654	827.75
472.873	809.75
473.092	818.75
473.311	807.75
473.53	794.75
473.749	794.75
473.968	802.75
474.187	791.75
474.406	806.75
474.625	800.75
474.844	797.75
475.063	821.75
475.282	800.75
475.501	833.75
475.72	808.75
475.939	797.75
476.158	836.75
476.377	863.75
476.596	851.75
476.814	862.75
477.033	853.75
477.252	863.75
477.471	902.75
477.69	906.75
477.908	931.75
478.127	957.75
478.346	994.75
478.564	975.75
478.783	994.75
479.002	1017.75
479.22	1005.75
479.439	1032.75
479.658	1000.75
479.876	1015.75
480.095	1041.75
480.313	1064.75
480.532	1059.75
480.751	1066.75
480.969	1033.75
481.188	1023.75
481.406	978.75
481.624	969.75
481.843	943.75
482.061	933.75
482.28	934.75
482.498	925.75
482.717	938.75
482.935	927.75
483.153	910.75
483.372	899.75
483.59	919.75
483.808	935.75
484.027	920.75
484.245	923.75
484.463	953.75
484.681	961.75
484.9	965.75
485.118	962.75
485.336	970.75
485.554	966.75
485.772	950.75
485.99	928.75
486.209	979.75
486.427	942.75
486.645	969.75
486.863	931.75
487.081	977.75
487.299	978.75
487.517	945.75
487.735	954.75
487.953	975.75
488.171	969.75
488.389	978.75
488.607	950.75
488.825	959.75
489.043	968.75
489.261	956.75
489.479	957.75
489.696	975.75
489.914	969.75
490.132	982.75
490.35	968.75
490.568	988.75
490.786	978.75
491.003	985.75
491.221	963.75
491.439	991.75
491.657	985.75
491.874	984.75
492.092	990.75
492.31	984.75
492.527	1019.75
492.745	1005.75
492.963	1012.75
493.18	1019.75
493.398	994.75
493.615	1051.75
493.833	999.75
494.05	1030.75
494.268	1041.75
494.485	1060.75
494.703	1043.75
494.92	1015.75
495.138	1036.75
495.355	1054.75
495.573	1058.75
495.79	1063.75
496.008	1042.75
496.225	1048.75
496.442	1064.75
496.66	1094.75
496.877	1081.75
497.094	1098.75
497.312	1128.75
497.529	1154.75
497.746	1163.75
497.963	1251.75
498.181	1279.75
498.398	1329.75
498.615	1375.75
498.832	1471.75
499.049	1621.75
