Data from NiCl2@0.5M.TitratingCurve.Agarose3%dH2O.NegLispCup.LampEnergy10.LIBS07252019_HRD10591_18-21-17-572.txt Node
Date: Thu Jul 25 18:21:17 EDT 2019
User: cochatt
Spectrometer: HR+D1059
Trigger mode: 1
Integration Time (sec): 1.000000E-1
Scans to average: 1
Electric dark correction enabled: true
Nonlinearity correction enabled: false
Boxcar width: 0
XAxis mode: Wavelengths
Number of Pixels in Spectrum: 2048
>>>>>Begin Spectral Data<<<<<
223.165	-6.44
223.4	-6.44
223.635	-6.44
223.869	-14.44
224.104	-17.44
224.338	-12.44
224.573	-7.44
224.808	-12.44
225.042	-16.44
225.277	2.56
225.511	-6.44
225.746	-11.44
225.98	5.56
226.215	8.56
226.449	14.56
226.683	28.56
226.918	20.56
227.152	24.56
227.387	24.56
227.621	34.56
227.856	52.56
228.09	37.56
228.324	52.56
228.559	46.56
228.793	73.56
229.027	95.56
229.262	99.56
229.496	98.56
229.73	108.56
229.964	127.56
230.199	121.56
230.433	106.56
230.667	102.56
230.901	105.56
231.136	130.56
231.37	125.56
231.604	129.56
231.838	128.56
232.072	133.56
232.306	136.56
232.541	135.56
232.775	140.56
233.009	124.56
233.243	130.56
233.477	147.56
233.711	133.56
233.945	147.56
234.179	136.56
234.413	140.56
234.647	147.56
234.881	138.56
235.115	141.56
235.349	141.56
235.583	118.56
235.817	135.56
236.051	129.56
236.285	136.56
236.519	139.56
236.753	127.56
236.987	144.56
237.221	145.56
237.455	161.56
237.689	146.56
237.922	127.56
238.156	151.56
238.39	160.56
238.624	138.56
238.858	161.56
239.091	142.56
239.325	145.56
239.559	150.56
239.793	149.56
240.027	154.56
240.26	153.56
240.494	150.56
240.728	170.56
240.961	173.56
241.195	174.56
241.429	170.56
241.662	169.56
241.896	177.56
242.13	165.56
242.363	156.56
242.597	165.56
242.83	165.56
243.064	181.56
243.298	181.56
243.531	160.56
243.765	173.56
243.998	190.56
244.232	181.56
244.465	166.56
244.699	188.56
244.932	185.56
245.166	197.56
245.399	170.56
245.633	169.56
245.866	187.56
246.099	167.56
246.333	191.56
246.566	187.56
246.8	195.56
247.033	182.56
247.266	192.56
247.5	189.56
247.733	188.56
247.966	196.56
248.2	210.56
248.433	193.56
248.666	167.56
248.899	196.56
249.133	206.56
249.366	203.56
249.599	209.56
249.832	192.56
250.066	206.56
250.299	199.56
250.532	201.56
250.765	210.56
250.998	196.56
251.231	207.56
251.465	213.56
251.698	223.56
251.931	204.56
252.164	213.56
252.397	230.56
252.63	232.56
252.863	220.56
253.096	229.56
253.329	235.56
253.562	221.56
253.795	221.56
254.028	227.56
254.261	236.56
254.494	238.56
254.727	239.56
254.96	242.56
255.193	238.56
255.426	251.56
255.659	248.56
255.892	238.56
256.124	221.56
256.357	218.56
256.59	237.56
256.823	241.56
257.056	260.56
257.289	256.56
257.521	243.56
257.754	237.56
257.987	250.56
258.22	246.56
258.452	258.56
258.685	251.56
258.918	261.56
259.151	252.56
259.383	261.56
259.616	264.56
259.849	249.56
260.081	253.56
260.314	254.56
260.547	261.56
260.779	251.56
261.012	267.56
261.244	272.56
261.477	257.56
261.71	257.56
261.942	263.56
262.175	264.56
262.407	279.56
262.64	262.56
262.872	277.56
263.105	270.56
263.337	278.56
263.57	268.56
263.802	285.56
264.035	277.56
264.267	277.56
264.499	289.56
264.732	289.56
264.964	278.56
265.197	281.56
265.429	275.56
265.661	300.56
265.894	285.56
266.126	298.56
266.358	293.56
266.591	301.56
266.823	294.56
267.055	302.56
267.287	314.56
267.52	302.56
267.752	297.56
267.984	318.56
268.216	307.56
268.448	300.56
268.681	310.56
268.913	301.56
269.145	297.56
269.377	311.56
269.609	316.56
269.841	303.56
270.073	305.56
270.306	302.56
270.538	313.56
270.77	322.56
271.002	313.56
271.234	317.56
271.466	298.56
271.698	302.56
271.93	345.56
272.162	323.56
272.394	317.56
272.626	329.56
272.858	343.56
273.09	321.56
273.322	335.56
273.553	347.56
273.785	334.56
274.017	321.56
274.249	344.56
274.481	316.56
274.713	312.56
274.945	335.56
275.176	335.56
275.408	342.56
275.64	340.56
275.872	348.56
276.104	344.56
276.335	355.56
276.567	347.56
276.799	345.56
277.031	357.56
277.262	355.56
277.494	357.56
277.726	361.56
277.957	348.56
278.189	366.56
278.421	381.56
278.652	354.56
278.884	369.56
279.115	373.56
279.347	349.56
279.579	377.56
279.81	371.56
280.042	375.56
280.273	367.56
280.505	377.56
280.736	353.56
280.968	364.56
281.199	373.56
281.431	395.56
281.662	391.56
281.894	400.56
282.125	377.56
282.356	404.56
282.588	380.56
282.819	365.56
283.051	392.56
283.282	385.56
283.513	380.56
283.745	395.56
283.976	397.56
284.207	401.56
284.439	392.56
284.67	389.56
284.901	395.56
285.132	394.56
285.364	414.56
285.595	391.56
285.826	397.56
286.057	429.56
286.288	388.56
286.52	409.56
286.751	396.56
286.982	425.56
287.213	394.56
287.444	417.56
287.675	408.56
287.906	407.56
288.138	417.56
288.369	403.56
288.6	404.56
288.831	446.56
289.062	440.56
289.293	443.56
289.524	433.56
289.755	443.56
289.986	408.56
290.217	417.56
290.448	439.56
290.679	445.56
290.91	444.56
291.141	425.56
291.371	454.56
291.602	440.56
291.833	437.56
292.064	433.56
292.295	459.56
292.526	452.56
292.757	433.56
292.987	434.56
293.218	404.56
293.449	439.56
293.68	461.56
293.91	435.56
294.141	436.56
294.372	440.56
294.603	431.56
294.833	443.56
295.064	448.56
295.295	430.56
295.525	425.56
295.756	441.56
295.987	409.56
296.217	440.56
296.448	460.56
296.679	437.56
296.909	451.56
297.14	446.56
297.37	467.56
297.601	456.56
297.831	459.56
298.062	472.56
298.292	469.56
298.523	471.56
298.753	461.56
298.984	458.56
299.214	470.56
299.445	475.56
299.675	454.56
299.905	484.56
300.136	487.56
300.366	500.56
300.597	496.56
300.827	486.56
301.057	503.56
301.288	514.56
301.518	481.56
301.748	498.56
301.979	496.56
302.209	493.56
302.439	502.56
302.669	492.56
302.9	499.56
303.13	501.56
303.36	511.56
303.59	493.56
303.82	486.56
304.051	494.56
304.281	498.56
304.511	503.56
304.741	522.56
304.971	505.56
305.201	494.56
305.431	528.56
305.661	499.56
305.891	501.56
306.121	513.56
306.352	485.56
306.582	464.56
306.812	479.56
307.042	498.56
307.272	492.56
307.502	495.56
307.731	487.56
307.961	511.56
308.191	502.56
308.421	505.56
308.651	488.56
308.881	489.56
309.111	504.56
309.341	484.56
309.571	490.56
309.8	515.56
310.03	492.56
310.26	515.56
310.49	505.56
310.72	482.56
310.949	487.56
311.179	512.56
311.409	522.56
311.639	530.56
311.868	492.56
312.098	527.56
312.328	531.56
312.557	517.56
312.787	519.56
313.017	506.56
313.246	540.56
313.476	524.56
313.706	518.56
313.935	514.56
314.165	518.56
314.394	527.56
314.624	540.56
314.853	570.56
315.083	532.56
315.312	540.56
315.542	534.56
315.771	534.56
316.001	524.56
316.23	529.56
316.46	521.56
316.689	516.56
316.919	542.56
317.148	529.56
317.377	536.56
317.607	524.56
317.836	528.56
318.065	517.56
318.295	535.56
318.524	517.56
318.753	516.56
318.983	542.56
319.212	518.56
319.441	504.56
319.67	498.56
319.9	517.56
320.129	553.56
320.358	507.56
320.587	538.56
320.816	530.56
321.046	525.56
321.275	537.56
321.504	522.56
321.733	529.56
321.962	531.56
322.191	554.56
322.42	536.56
322.649	538.56
322.878	547.56
323.108	521.56
323.337	543.56
323.566	561.56
323.795	556.56
324.024	550.56
324.253	567.56
324.482	544.56
324.71	545.56
324.939	555.56
325.168	580.56
325.397	575.56
325.626	559.56
325.855	582.56
326.084	576.56
326.313	586.56
326.542	591.56
326.77	587.56
326.999	565.56
327.228	565.56
327.457	573.56
327.686	561.56
327.914	584.56
328.143	600.56
328.372	609.56
328.6	574.56
328.829	596.56
329.058	577.56
329.287	600.56
329.515	568.56
329.744	583.56
329.972	616.56
330.201	583.56
330.43	587.56
330.658	610.56
330.887	588.56
331.115	599.56
331.344	592.56
331.572	629.56
331.801	621.56
332.03	622.56
332.258	631.56
332.486	667.56
332.715	672.56
332.943	695.56
333.172	708.56
333.4	752.56
333.629	747.56
333.857	772.56
334.085	748.56
334.314	744.56
334.542	724.56
334.771	723.56
334.999	729.56
335.227	694.56
335.455	691.56
335.684	706.56
335.912	705.56
336.14	689.56
336.369	683.56
336.597	696.56
336.825	701.56
337.053	671.56
337.281	673.56
337.51	685.56
337.738	682.56
337.966	644.56
338.194	652.56
338.422	634.56
338.65	644.56
338.878	625.56
339.106	643.56
339.334	633.56
339.562	635.56
339.79	619.56
340.018	595.56
340.246	605.56
340.474	591.56
340.702	622.56
340.93	620.56
341.158	630.56
341.386	590.56
341.614	640.56
341.842	605.56
342.07	588.56
342.298	613.56
342.526	608.56
342.754	616.56
342.981	623.56
343.209	650.56
343.437	638.56
343.665	687.56
343.893	720.56
344.12	759.56
344.348	703.56
344.576	677.56
344.804	658.56
345.031	648.56
345.259	620.56
345.487	606.56
345.714	623.56
345.942	626.56
346.17	613.56
346.397	606.56
346.625	608.56
346.853	565.56
347.08	582.56
347.308	601.56
347.535	618.56
347.763	602.56
347.99	611.56
348.218	559.56
348.445	596.56
348.673	578.56
348.9	584.56
349.128	565.56
349.355	585.56
349.583	605.56
349.81	584.56
350.037	558.56
350.265	558.56
350.492	591.56
350.72	568.56
350.947	560.56
351.174	552.56
351.402	574.56
351.629	590.56
351.856	572.56
352.083	562.56
352.311	562.56
352.538	597.56
352.765	556.56
352.992	559.56
353.22	550.56
353.447	577.56
353.674	567.56
353.901	556.56
354.128	569.56
354.355	546.56
354.583	556.56
354.81	548.56
355.037	589.56
355.264	561.56
355.491	544.56
355.718	596.56
355.945	551.56
356.172	555.56
356.399	569.56
356.626	556.56
356.853	613.56
357.08	554.56
357.307	569.56
357.534	576.56
357.761	597.56
357.988	572.56
358.215	572.56
358.441	557.56
358.668	554.56
358.895	562.56
359.122	551.56
359.349	550.56
359.576	561.56
359.802	570.56
360.029	566.56
360.256	573.56
360.483	546.56
360.709	553.56
360.936	557.56
361.163	544.56
361.39	572.56
361.616	552.56
361.843	573.56
362.07	574.56
362.296	563.56
362.523	557.56
362.749	561.56
362.976	554.56
363.203	556.56
363.429	540.56
363.656	585.56
363.882	577.56
364.109	561.56
364.335	557.56
364.562	548.56
364.788	547.56
365.015	575.56
365.241	569.56
365.468	563.56
365.694	540.56
365.92	575.56
366.147	542.56
366.373	547.56
366.599	557.56
366.826	550.56
367.052	547.56
367.278	536.56
367.505	556.56
367.731	593.56
367.957	559.56
368.184	573.56
368.41	557.56
368.636	560.56
368.862	583.56
369.089	573.56
369.315	572.56
369.541	591.56
369.767	589.56
369.993	557.56
370.219	587.56
370.445	596.56
370.672	595.56
370.898	579.56
371.124	600.56
371.35	599.56
371.576	607.56
371.802	595.56
372.028	576.56
372.254	580.56
372.48	609.56
372.706	622.56
372.932	613.56
373.158	606.56
373.384	603.56
373.61	596.56
373.835	605.56
374.061	616.56
374.287	626.56
374.513	629.56
374.739	616.56
374.965	647.56
375.191	649.56
375.416	667.56
375.642	638.56
375.868	620.56
376.094	610.56
376.319	607.56
376.545	624.56
376.771	603.56
376.997	584.56
377.222	601.56
377.448	610.56
377.674	599.56
377.899	621.56
378.125	597.56
378.35	590.56
378.576	577.56
378.802	578.56
379.027	601.56
379.253	603.56
379.478	611.56
379.704	581.56
379.929	582.56
380.155	576.56
380.38	580.56
380.606	570.56
380.831	600.56
381.057	606.56
381.282	571.56
381.507	606.56
381.733	621.56
381.958	586.56
382.184	583.56
382.409	610.56
382.634	625.56
382.86	610.56
383.085	655.56
383.31	638.56
383.535	630.56
383.761	663.56
383.986	660.56
384.211	671.56
384.436	678.56
384.662	677.56
384.887	694.56
385.112	689.56
385.337	697.56
385.562	705.56
385.787	706.56
386.013	702.56
386.238	739.56
386.463	702.56
386.688	722.56
386.913	694.56
387.138	702.56
387.363	718.56
387.588	702.56
387.813	704.56
388.038	676.56
388.263	699.56
388.488	717.56
388.713	730.56
388.938	722.56
389.163	698.56
389.387	710.56
389.612	699.56
389.837	681.56
390.062	721.56
390.287	690.56
390.512	688.56
390.736	745.56
390.961	746.56
391.186	744.56
391.411	763.56
391.636	769.56
391.86	775.56
392.085	789.56
392.31	770.56
392.534	796.56
392.759	772.56
392.984	740.56
393.208	745.56
393.433	745.56
393.658	755.56
393.882	790.56
394.107	762.56
394.331	753.56
394.556	746.56
394.78	766.56
395.005	765.56
395.229	733.56
395.454	777.56
395.678	796.56
395.903	791.56
396.127	805.56
396.352	773.56
396.576	738.56
396.801	734.56
397.025	755.56
397.249	756.56
397.474	763.56
397.698	798.56
397.922	784.56
398.147	781.56
398.371	833.56
398.595	853.56
398.82	888.56
399.044	927.56
399.268	1013.56
399.492	1134.56
399.717	1277.56
399.941	1255.56
400.165	1134.56
400.389	1052.56
400.613	992.56
400.837	946.56
401.062	941.56
401.286	899.56
401.51	883.56
401.734	882.56
401.958	924.56
402.182	882.56
402.406	910.56
402.63	916.56
402.854	958.56
403.078	953.56
403.302	940.56
403.526	948.56
403.75	987.56
403.974	1023.56
404.198	1012.56
404.422	964.56
404.645	1021.56
404.869	981.56
405.093	970.56
405.317	971.56
405.541	965.56
405.765	978.56
405.988	961.56
406.212	994.56
406.436	961.56
406.66	1020.56
406.883	1009.56
407.107	1084.56
407.331	1106.56
407.555	1117.56
407.778	1135.56
408.002	1094.56
408.226	1086.56
408.449	1027.56
408.673	1021.56
408.896	1004.56
409.12	1038.56
409.344	985.56
409.567	999.56
409.791	997.56
410.014	972.56
410.238	965.56
410.461	983.56
410.685	946.56
410.908	956.56
411.132	926.56
411.355	923.56
411.578	910.56
411.802	920.56
412.025	954.56
412.249	914.56
412.472	912.56
412.695	924.56
412.919	907.56
413.142	912.56
413.365	889.56
413.589	887.56
413.812	888.56
414.035	889.56
414.258	864.56
414.482	897.56
414.705	886.56
414.928	892.56
415.151	875.56
415.374	901.56
415.597	908.56
415.821	876.56
416.044	890.56
416.267	865.56
416.49	866.56
416.713	854.56
416.936	871.56
417.159	890.56
417.382	881.56
417.605	884.56
417.828	849.56
418.051	902.56
418.274	877.56
418.497	884.56
418.72	901.56
418.943	909.56
419.166	929.56
419.389	985.56
419.611	987.56
419.834	957.56
420.057	903.56
420.28	884.56
420.503	871.56
420.726	895.56
420.948	868.56
421.171	879.56
421.394	884.56
421.617	891.56
421.839	860.56
422.062	876.56
422.285	878.56
422.507	894.56
422.73	909.56
422.953	910.56
423.175	898.56
423.398	916.56
423.621	909.56
423.843	941.56
424.066	942.56
424.288	935.56
424.511	910.56
424.733	926.56
424.956	911.56
425.178	902.56
425.401	885.56
425.623	921.56
425.846	874.56
426.068	846.56
426.291	850.56
426.513	849.56
426.735	818.56
426.958	849.56
427.18	813.56
427.402	826.56
427.625	829.56
427.847	805.56
428.069	835.56
428.292	830.56
428.514	782.56
428.736	822.56
428.958	775.56
429.181	776.56
429.403	809.56
429.625	778.56
429.847	768.56
430.069	773.56
430.292	770.56
430.514	771.56
430.736	783.56
430.958	791.56
431.18	805.56
431.402	820.56
431.624	817.56
431.846	793.56
432.068	805.56
432.29	784.56
432.512	825.56
432.734	817.56
432.956	778.56
433.178	812.56
433.4	844.56
433.622	801.56
433.844	830.56
434.066	841.56
434.287	855.56
434.509	867.56
434.731	857.56
434.953	879.56
435.175	898.56
435.397	892.56
435.618	841.56
435.84	818.56
436.062	829.56
436.284	818.56
436.505	819.56
436.727	820.56
436.949	809.56
437.17	770.56
437.392	803.56
437.614	797.56
437.835	751.56
438.057	763.56
438.278	772.56
438.5	762.56
438.721	773.56
438.943	760.56
439.165	751.56
439.386	796.56
439.608	806.56
439.829	817.56
440.05	834.56
440.272	801.56
440.493	819.56
440.715	838.56
440.936	837.56
441.158	858.56
441.379	857.56
441.6	875.56
441.822	915.56
442.043	909.56
442.264	892.56
442.486	872.56
442.707	877.56
442.928	878.56
443.149	911.56
443.371	881.56
443.592	875.56
443.813	915.56
444.034	925.56
444.255	957.56
444.476	994.56
444.698	1006.56
444.919	1052.56
445.14	1121.56
445.361	1042.56
445.582	934.56
445.803	889.56
446.024	875.56
446.245	846.56
446.466	845.56
446.687	837.56
446.908	836.56
447.129	790.56
447.35	787.56
447.571	782.56
447.792	757.56
448.013	771.56
448.234	762.56
448.455	779.56
448.675	776.56
448.896	742.56
449.117	771.56
449.338	759.56
449.559	744.56
449.779	724.56
450	754.56
450.221	732.56
450.442	764.56
450.662	757.56
450.883	762.56
451.104	771.56
451.324	780.56
451.545	763.56
451.766	771.56
451.986	723.56
452.207	761.56
452.428	772.56
452.648	746.56
452.869	709.56
453.089	724.56
453.31	729.56
453.53	739.56
453.751	743.56
453.971	709.56
454.192	727.56
454.412	713.56
454.633	703.56
454.853	710.56
455.073	687.56
455.294	691.56
455.514	707.56
455.734	716.56
455.955	693.56
456.175	698.56
456.395	668.56
456.616	701.56
456.836	698.56
457.056	705.56
457.276	702.56
457.497	709.56
457.717	721.56
457.937	712.56
458.157	694.56
458.377	719.56
458.598	741.56
458.818	784.56
459.038	759.56
459.258	828.56
459.478	837.56
459.698	867.56
459.918	877.56
460.138	902.56
460.358	937.56
460.578	938.56
460.798	949.56
461.018	969.56
461.238	958.56
461.458	937.56
461.678	957.56
461.898	982.56
462.118	964.56
462.338	1025.56
462.558	1045.56
462.777	1099.56
462.997	1157.56
463.217	1220.56
463.437	1229.56
463.657	1157.56
463.876	1114.56
464.096	1081.56
464.316	1096.56
464.536	1088.56
464.755	1042.56
464.975	1030.56
465.195	967.56
465.414	930.56
465.634	901.56
465.854	870.56
466.073	846.56
466.293	823.56
466.512	831.56
466.732	791.56
466.951	779.56
467.171	809.56
467.391	770.56
467.61	773.56
467.829	795.56
468.049	780.56
468.268	751.56
468.488	756.56
468.707	750.56
468.927	757.56
469.146	775.56
469.365	788.56
469.585	765.56
469.804	824.56
470.023	788.56
470.243	795.56
470.462	819.56
470.681	797.56
470.901	805.56
471.12	764.56
471.339	827.56
471.558	789.56
471.777	775.56
471.997	783.56
472.216	762.56
472.435	750.56
472.654	739.56
472.873	739.56
473.092	771.56
473.311	747.56
473.53	769.56
473.749	721.56
473.968	767.56
474.187	707.56
474.406	749.56
474.625	746.56
474.844	767.56
475.063	761.56
475.282	758.56
475.501	774.56
475.72	782.56
475.939	780.56
476.158	762.56
476.377	798.56
476.596	795.56
476.814	793.56
477.033	776.56
477.252	812.56
477.471	839.56
477.69	854.56
477.908	842.56
478.127	887.56
478.346	891.56
478.564	900.56
478.783	930.56
479.002	921.56
479.22	895.56
479.439	925.56
479.658	928.56
479.876	917.56
480.095	957.56
480.313	983.56
480.532	961.56
480.751	972.56
480.969	945.56
481.188	947.56
481.406	898.56
481.624	880.56
481.843	876.56
482.061	871.56
482.28	857.56
482.498	854.56
482.717	840.56
482.935	861.56
483.153	847.56
483.372	887.56
483.59	867.56
483.808	848.56
484.027	848.56
484.245	859.56
484.463	861.56
484.681	859.56
484.9	882.56
485.118	887.56
485.336	889.56
485.554	893.56
485.772	895.56
485.99	898.56
486.209	916.56
486.427	903.56
486.645	891.56
486.863	890.56
487.081	923.56
487.299	892.56
487.517	912.56
487.735	888.56
487.953	899.56
488.171	911.56
488.389	917.56
488.607	899.56
488.825	907.56
489.043	884.56
489.261	894.56
489.479	891.56
489.696	902.56
489.914	898.56
490.132	884.56
490.35	925.56
490.568	907.56
490.786	903.56
491.003	920.56
491.221	936.56
491.439	912.56
491.657	907.56
491.874	890.56
492.092	931.56
492.31	932.56
492.527	934.56
492.745	947.56
492.963	914.56
493.18	951.56
493.398	958.56
493.615	959.56
493.833	969.56
494.05	954.56
494.268	954.56
494.485	963.56
494.703	985.56
494.92	981.56
495.138	968.56
495.355	955.56
495.573	994.56
495.79	990.56
496.008	1004.56
496.225	969.56
496.442	987.56
496.66	987.56
496.877	1016.56
497.094	997.56
497.312	1046.56
497.529	1069.56
497.746	1102.56
497.963	1103.56
498.181	1173.56
498.398	1237.56
498.615	1281.56
498.832	1327.56
499.049	1462.56
499.267	1549.56
499.484	1717.56
499.701	1836.56
499.918	2039.56
500.135	2264.56
500.352	2594.56
500.569	2627.56
500.786	2636.56
501.003	2418.56
