Data from NiCl2@0.25M.TitratingCurve.Agarose3%dH2O.NegLispCup.LampEnergy10.LIBS07252019_HRD10591_18-23-36-573.txt Node
Date: Thu Jul 25 18:23:36 EDT 2019
User: cochatt
Spectrometer: HR+D1059
Trigger mode: 1
Integration Time (sec): 1.000000E-1
Scans to average: 1
Electric dark correction enabled: true
Nonlinearity correction enabled: false
Boxcar width: 0
XAxis mode: Wavelengths
Number of Pixels in Spectrum: 2048
>>>>>Begin Spectral Data<<<<<
223.165	-14.88
223.4	-14.88
223.635	-14.88
223.869	-19.88
224.104	-5.88
224.338	-18.88
224.573	-7.88
224.808	-29.88
225.042	-9.88
225.277	-7.88
225.511	-2.88
225.746	2.12
225.98	-0.88
226.215	13.12
226.449	21.12
226.683	19.12
226.918	36.12
227.152	27.12
227.387	36.12
227.621	49.12
227.856	48.12
228.09	34.12
228.324	53.12
228.559	62.12
228.793	71.12
229.027	120.12
229.262	108.12
229.496	110.12
229.73	130.12
229.964	139.12
230.199	117.12
230.433	137.12
230.667	142.12
230.901	151.12
231.136	138.12
231.37	141.12
231.604	136.12
231.838	147.12
232.072	140.12
232.306	152.12
232.541	154.12
232.775	151.12
233.009	156.12
233.243	155.12
233.477	154.12
233.711	140.12
233.945	164.12
234.179	153.12
234.413	145.12
234.647	154.12
234.881	152.12
235.115	177.12
235.349	170.12
235.583	171.12
235.817	154.12
236.051	172.12
236.285	167.12
236.519	147.12
236.753	156.12
236.987	184.12
237.221	143.12
237.455	157.12
237.689	182.12
237.922	180.12
238.156	169.12
238.39	166.12
238.624	179.12
238.858	163.12
239.091	189.12
239.325	182.12
239.559	181.12
239.793	189.12
240.027	184.12
240.26	199.12
240.494	201.12
240.728	203.12
240.961	193.12
241.195	197.12
241.429	202.12
241.662	191.12
241.896	217.12
242.13	199.12
242.363	217.12
242.597	224.12
242.83	212.12
243.064	204.12
243.298	202.12
243.531	226.12
243.765	227.12
243.998	220.12
244.232	208.12
244.465	238.12
244.699	226.12
244.932	240.12
245.166	221.12
245.399	203.12
245.633	220.12
245.866	239.12
246.099	230.12
246.333	219.12
246.566	233.12
246.8	225.12
247.033	210.12
247.266	234.12
247.5	252.12
247.733	231.12
247.966	230.12
248.2	259.12
248.433	238.12
248.666	239.12
248.899	258.12
249.133	243.12
249.366	265.12
249.599	258.12
249.832	248.12
250.066	262.12
250.299	279.12
250.532	262.12
250.765	264.12
250.998	298.12
251.231	272.12
251.465	293.12
251.698	263.12
251.931	275.12
252.164	277.12
252.397	285.12
252.63	275.12
252.863	270.12
253.096	270.12
253.329	288.12
253.562	302.12
253.795	287.12
254.028	283.12
254.261	279.12
254.494	306.12
254.727	306.12
254.96	291.12
255.193	275.12
255.426	280.12
255.659	314.12
255.892	310.12
256.124	318.12
256.357	307.12
256.59	300.12
256.823	283.12
257.056	304.12
257.289	293.12
257.521	325.12
257.754	305.12
257.987	308.12
258.22	324.12
258.452	305.12
258.685	323.12
258.918	317.12
259.151	334.12
259.383	336.12
259.616	327.12
259.849	320.12
260.081	310.12
260.314	325.12
260.547	319.12
260.779	321.12
261.012	341.12
261.244	333.12
261.477	323.12
261.71	344.12
261.942	339.12
262.175	327.12
262.407	328.12
262.64	343.12
262.872	338.12
263.105	339.12
263.337	348.12
263.57	373.12
263.802	356.12
264.035	362.12
264.267	358.12
264.499	343.12
264.732	341.12
264.964	371.12
265.197	374.12
265.429	363.12
265.661	360.12
265.894	357.12
266.126	392.12
266.358	365.12
266.591	356.12
266.823	375.12
267.055	359.12
267.287	383.12
267.52	380.12
267.752	390.12
267.984	380.12
268.216	372.12
268.448	384.12
268.681	407.12
268.913	376.12
269.145	387.12
269.377	398.12
269.609	397.12
269.841	396.12
270.073	401.12
270.306	399.12
270.538	383.12
270.77	412.12
271.002	377.12
271.234	409.12
271.466	404.12
271.698	391.12
271.93	400.12
272.162	418.12
272.394	393.12
272.626	397.12
272.858	416.12
273.09	415.12
273.322	419.12
273.553	422.12
273.785	433.12
274.017	426.12
274.249	429.12
274.481	436.12
274.713	412.12
274.945	425.12
275.176	411.12
275.408	428.12
275.64	429.12
275.872	452.12
276.104	446.12
276.335	434.12
276.567	432.12
276.799	442.12
277.031	438.12
277.262	443.12
277.494	438.12
277.726	446.12
277.957	454.12
278.189	461.12
278.421	432.12
278.652	449.12
278.884	460.12
279.115	449.12
279.347	452.12
279.579	459.12
279.81	445.12
280.042	466.12
280.273	480.12
280.505	467.12
280.736	468.12
280.968	498.12
281.199	482.12
281.431	477.12
281.662	479.12
281.894	481.12
282.125	491.12
282.356	494.12
282.588	484.12
282.819	474.12
283.051	492.12
283.282	500.12
283.513	503.12
283.745	501.12
283.976	492.12
284.207	504.12
284.439	527.12
284.67	495.12
284.901	497.12
285.132	519.12
285.364	514.12
285.595	515.12
285.826	526.12
286.057	525.12
286.288	528.12
286.52	519.12
286.751	519.12
286.982	538.12
287.213	526.12
287.444	532.12
287.675	549.12
287.906	527.12
288.138	537.12
288.369	544.12
288.6	541.12
288.831	530.12
289.062	546.12
289.293	555.12
289.524	532.12
289.755	542.12
289.986	548.12
290.217	559.12
290.448	540.12
290.679	544.12
290.91	562.12
291.141	532.12
291.371	555.12
291.602	556.12
291.833	528.12
292.064	559.12
292.295	569.12
292.526	566.12
292.757	535.12
292.987	564.12
293.218	540.12
293.449	555.12
293.68	568.12
293.91	559.12
294.141	573.12
294.372	570.12
294.603	546.12
294.833	574.12
295.064	557.12
295.295	544.12
295.525	567.12
295.756	569.12
295.987	564.12
296.217	575.12
296.448	572.12
296.679	584.12
296.909	575.12
297.14	580.12
297.37	598.12
297.601	575.12
297.831	607.12
298.062	589.12
298.292	591.12
298.523	626.12
298.753	639.12
298.984	587.12
299.214	612.12
299.445	597.12
299.675	616.12
299.905	611.12
300.136	602.12
300.366	614.12
300.597	622.12
300.827	643.12
301.057	633.12
301.288	634.12
301.518	640.12
301.748	638.12
301.979	656.12
302.209	646.12
302.439	631.12
302.669	623.12
302.9	634.12
303.13	628.12
303.36	651.12
303.59	636.12
303.82	621.12
304.051	636.12
304.281	626.12
304.511	630.12
304.741	636.12
304.971	654.12
305.201	633.12
305.431	626.12
305.661	615.12
305.891	608.12
306.121	609.12
306.352	615.12
306.582	602.12
306.812	620.12
307.042	612.12
307.272	622.12
307.502	599.12
307.731	621.12
307.961	614.12
308.191	607.12
308.421	608.12
308.651	623.12
308.881	615.12
309.111	607.12
309.341	620.12
309.571	621.12
309.8	622.12
310.03	607.12
310.26	610.12
310.49	615.12
310.72	630.12
310.949	623.12
311.179	610.12
311.409	606.12
311.639	623.12
311.868	618.12
312.098	634.12
312.328	651.12
312.557	651.12
312.787	647.12
313.017	644.12
313.246	648.12
313.476	649.12
313.706	674.12
313.935	676.12
314.165	680.12
314.394	690.12
314.624	664.12
314.853	653.12
315.083	663.12
315.312	659.12
315.542	655.12
315.771	651.12
316.001	664.12
316.23	659.12
316.46	665.12
316.689	660.12
316.919	643.12
317.148	654.12
317.377	644.12
317.607	653.12
317.836	640.12
318.065	631.12
318.295	640.12
318.524	652.12
318.753	644.12
318.983	623.12
319.212	618.12
319.441	651.12
319.67	666.12
319.9	651.12
320.129	640.12
320.358	654.12
320.587	646.12
320.816	631.12
321.046	650.12
321.275	633.12
321.504	682.12
321.733	660.12
321.962	650.12
322.191	646.12
322.42	635.12
322.649	676.12
322.878	680.12
323.108	656.12
323.337	668.12
323.566	654.12
323.795	676.12
324.024	668.12
324.253	665.12
324.482	691.12
324.71	695.12
324.939	703.12
325.168	680.12
325.397	694.12
325.626	689.12
325.855	710.12
326.084	689.12
326.313	698.12
326.542	694.12
326.77	719.12
326.999	729.12
327.228	739.12
327.457	695.12
327.686	715.12
327.914	688.12
328.143	733.12
328.372	726.12
328.6	718.12
328.829	702.12
329.058	716.12
329.287	716.12
329.515	715.12
329.744	716.12
329.972	746.12
330.201	685.12
330.43	726.12
330.658	704.12
330.887	723.12
331.115	743.12
331.344	739.12
331.572	748.12
331.801	761.12
332.03	782.12
332.258	782.12
332.486	839.12
332.715	848.12
332.943	871.12
333.172	904.12
333.4	944.12
333.629	1004.12
333.857	994.12
334.085	959.12
334.314	955.12
334.542	937.12
334.771	925.12
334.999	900.12
335.227	898.12
335.455	891.12
335.684	872.12
335.912	900.12
336.14	867.12
336.369	872.12
336.597	879.12
336.825	842.12
337.053	867.12
337.281	840.12
337.51	825.12
337.738	804.12
337.966	818.12
338.194	800.12
338.422	764.12
338.65	781.12
338.878	765.12
339.106	796.12
339.334	783.12
339.562	791.12
339.79	743.12
340.018	740.12
340.246	739.12
340.474	734.12
340.702	716.12
340.93	743.12
341.158	749.12
341.386	744.12
341.614	770.12
341.842	793.12
342.07	749.12
342.298	713.12
342.526	721.12
342.754	739.12
342.981	738.12
343.209	759.12
343.437	808.12
343.665	867.12
343.893	919.12
344.12	922.12
344.348	876.12
344.576	834.12
344.804	831.12
345.031	758.12
345.259	773.12
345.487	767.12
345.714	759.12
345.942	741.12
346.17	754.12
346.397	744.12
346.625	732.12
346.853	719.12
347.08	700.12
347.308	718.12
347.535	729.12
347.763	717.12
347.99	707.12
348.218	700.12
348.445	723.12
348.673	711.12
348.9	687.12
349.128	717.12
349.355	727.12
349.583	720.12
349.81	687.12
350.037	696.12
350.265	680.12
350.492	703.12
350.72	670.12
350.947	703.12
351.174	697.12
351.402	717.12
351.629	708.12
351.856	680.12
352.083	687.12
352.311	683.12
352.538	670.12
352.765	687.12
352.992	668.12
353.22	700.12
353.447	690.12
353.674	676.12
353.901	672.12
354.128	668.12
354.355	699.12
354.583	695.12
354.81	679.12
355.037	698.12
355.264	686.12
355.491	662.12
355.718	706.12
355.945	701.12
356.172	707.12
356.399	674.12
356.626	711.12
356.853	692.12
357.08	708.12
357.307	700.12
357.534	713.12
357.761	696.12
357.988	708.12
358.215	702.12
358.441	696.12
358.668	672.12
358.895	686.12
359.122	685.12
359.349	686.12
359.576	684.12
359.802	693.12
360.029	690.12
360.256	705.12
360.483	688.12
360.709	698.12
360.936	679.12
361.163	679.12
361.39	687.12
361.616	686.12
361.843	675.12
362.07	709.12
362.296	680.12
362.523	696.12
362.749	706.12
362.976	701.12
363.203	676.12
363.429	708.12
363.656	707.12
363.882	705.12
364.109	676.12
364.335	672.12
364.562	697.12
364.788	670.12
365.015	670.12
365.241	688.12
365.468	698.12
365.694	706.12
365.92	682.12
366.147	702.12
366.373	677.12
366.599	695.12
366.826	666.12
367.052	694.12
367.278	703.12
367.505	700.12
367.731	687.12
367.957	679.12
368.184	704.12
368.41	730.12
368.636	692.12
368.862	735.12
369.089	708.12
369.315	735.12
369.541	723.12
369.767	715.12
369.993	720.12
370.219	723.12
370.445	730.12
370.672	729.12
370.898	727.12
371.124	743.12
371.35	739.12
371.576	762.12
371.802	775.12
372.028	764.12
372.254	732.12
372.48	741.12
372.706	769.12
372.932	776.12
373.158	784.12
373.384	774.12
373.61	746.12
373.835	736.12
374.061	757.12
374.287	754.12
374.513	771.12
374.739	795.12
374.965	820.12
375.191	825.12
375.416	801.12
375.642	799.12
375.868	791.12
376.094	784.12
376.319	786.12
376.545	789.12
376.771	752.12
376.997	743.12
377.222	741.12
377.448	754.12
377.674	756.12
377.899	755.12
378.125	744.12
378.35	746.12
378.576	758.12
378.802	746.12
379.027	742.12
379.253	730.12
379.478	728.12
379.704	755.12
379.929	751.12
380.155	756.12
380.38	725.12
380.606	749.12
380.831	736.12
381.057	755.12
381.282	756.12
381.507	735.12
381.733	770.12
381.958	726.12
382.184	751.12
382.409	779.12
382.634	768.12
382.86	752.12
383.085	821.12
383.31	804.12
383.535	812.12
383.761	830.12
383.986	839.12
384.211	856.12
384.436	857.12
384.662	880.12
384.887	896.12
385.112	890.12
385.337	904.12
385.562	895.12
385.787	900.12
386.013	917.12
386.238	912.12
386.463	902.12
386.688	922.12
386.913	872.12
387.138	904.12
387.363	892.12
387.588	882.12
387.813	892.12
388.038	893.12
388.263	898.12
388.488	879.12
388.713	875.12
388.938	855.12
389.163	883.12
389.387	873.12
389.612	868.12
389.837	889.12
390.062	890.12
390.287	873.12
390.512	877.12
390.736	879.12
390.961	921.12
391.186	902.12
391.411	927.12
391.636	967.12
391.86	992.12
392.085	1036.12
392.31	1013.12
392.534	980.12
392.759	968.12
392.984	984.12
393.208	929.12
393.433	958.12
393.658	955.12
393.882	975.12
394.107	964.12
394.331	973.12
394.556	986.12
394.78	985.12
395.005	955.12
395.229	958.12
395.454	986.12
395.678	1028.12
395.903	1013.12
396.127	1020.12
396.352	979.12
396.576	962.12
396.801	961.12
397.025	974.12
397.249	968.12
397.474	1007.12
397.698	991.12
397.922	1025.12
398.147	993.12
398.371	1029.12
398.595	1061.12
398.82	1107.12
399.044	1194.12
399.268	1318.12
399.492	1538.12
399.717	1708.12
399.941	1725.12
400.165	1545.12
400.389	1368.12
400.613	1260.12
400.837	1196.12
401.062	1167.12
401.286	1155.12
401.51	1126.12
401.734	1147.12
401.958	1145.12
402.182	1165.12
402.406	1179.12
402.63	1179.12
402.854	1205.12
403.078	1207.12
403.302	1247.12
403.526	1289.12
403.75	1300.12
403.974	1321.12
404.198	1330.12
404.422	1317.12
404.645	1319.12
404.869	1301.12
405.093	1286.12
405.317	1266.12
405.541	1282.12
405.765	1254.12
405.988	1218.12
406.212	1243.12
406.436	1236.12
406.66	1244.12
406.883	1288.12
407.107	1368.12
407.331	1415.12
407.555	1444.12
407.778	1476.12
408.002	1434.12
408.226	1375.12
408.449	1371.12
408.673	1301.12
408.896	1298.12
409.12	1268.12
409.344	1275.12
409.567	1281.12
409.791	1269.12
410.014	1283.12
410.238	1251.12
410.461	1241.12
410.685	1232.12
410.908	1224.12
411.132	1191.12
411.355	1140.12
411.578	1179.12
411.802	1170.12
412.025	1169.12
412.249	1207.12
412.472	1194.12
412.695	1157.12
412.919	1148.12
413.142	1121.12
413.365	1145.12
413.589	1157.12
413.812	1100.12
414.035	1121.12
414.258	1116.12
414.482	1119.12
414.705	1133.12
414.928	1146.12
415.151	1146.12
415.374	1139.12
415.597	1112.12
415.821	1111.12
416.044	1096.12
416.267	1109.12
416.49	1075.12
416.713	1068.12
416.936	1122.12
417.159	1087.12
417.382	1090.12
417.605	1100.12
417.828	1112.12
418.051	1116.12
418.274	1117.12
418.497	1143.12
418.72	1160.12
418.943	1138.12
419.166	1227.12
419.389	1295.12
419.611	1298.12
419.834	1196.12
420.057	1153.12
420.28	1126.12
420.503	1092.12
420.726	1116.12
420.948	1115.12
421.171	1112.12
421.394	1101.12
421.617	1130.12
421.839	1129.12
422.062	1114.12
422.285	1108.12
422.507	1114.12
422.73	1127.12
422.953	1148.12
423.175	1124.12
423.398	1180.12
423.621	1172.12
423.843	1214.12
424.066	1172.12
424.288	1197.12
424.511	1173.12
424.733	1170.12
424.956	1124.12
425.178	1124.12
425.401	1130.12
425.623	1115.12
425.846	1091.12
426.068	1073.12
426.291	1054.12
426.513	1053.12
426.735	1030.12
426.958	1014.12
427.18	1047.12
427.402	1045.12
427.625	1002.12
427.847	990.12
428.069	991.12
428.292	982.12
428.514	998.12
428.736	970.12
428.958	978.12
429.181	981.12
429.403	948.12
429.625	948.12
429.847	933.12
430.069	930.12
430.292	967.12
430.514	962.12
430.736	955.12
430.958	970.12
431.18	977.12
431.402	977.12
431.624	1016.12
431.846	955.12
432.068	984.12
432.29	990.12
432.512	964.12
432.734	973.12
432.956	986.12
433.178	1004.12
433.4	985.12
433.622	994.12
433.844	1007.12
434.066	989.12
434.287	996.12
434.509	1051.12
434.731	1069.12
434.953	1105.12
435.175	1120.12
435.397	1095.12
435.618	1034.12
435.84	1012.12
436.062	967.12
436.284	975.12
436.505	967.12
436.727	988.12
436.949	963.12
437.17	963.12
437.392	954.12
437.614	963.12
437.835	940.12
438.057	984.12
438.278	937.12
438.5	965.12
438.721	948.12
438.943	982.12
439.165	955.12
439.386	962.12
439.608	985.12
439.829	963.12
440.05	979.12
440.272	1001.12
440.493	987.12
440.715	974.12
440.936	1024.12
441.158	1012.12
441.379	1047.12
441.6	1123.12
441.822	1130.12
442.043	1112.12
442.264	1098.12
442.486	1074.12
442.707	1069.12
442.928	1081.12
443.149	1106.12
443.371	1087.12
443.592	1134.12
443.813	1132.12
444.034	1147.12
444.255	1141.12
444.476	1219.12
444.698	1270.12
444.919	1332.12
445.14	1393.12
445.361	1231.12
445.582	1133.12
445.803	1062.12
446.024	1027.12
446.245	1022.12
446.466	1041.12
446.687	985.12
446.908	999.12
447.129	967.12
447.35	931.12
447.571	962.12
447.792	932.12
448.013	916.12
448.234	898.12
448.455	925.12
448.675	926.12
448.896	926.12
449.117	884.12
449.338	890.12
449.559	903.12
449.779	906.12
450	911.12
450.221	895.12
450.442	918.12
450.662	910.12
450.883	929.12
451.104	931.12
451.324	910.12
451.545	923.12
451.766	916.12
451.986	892.12
452.207	906.12
452.428	906.12
452.648	898.12
452.869	876.12
453.089	882.12
453.31	892.12
453.53	854.12
453.751	879.12
453.971	873.12
454.192	863.12
454.412	879.12
454.633	841.12
454.853	862.12
455.073	825.12
455.294	852.12
455.514	809.12
455.734	849.12
455.955	823.12
456.175	845.12
456.395	832.12
456.616	797.12
456.836	821.12
457.056	838.12
457.276	833.12
457.497	858.12
457.717	826.12
457.937	831.12
458.157	839.12
458.377	862.12
458.598	875.12
458.818	892.12
459.038	944.12
459.258	986.12
459.478	1018.12
459.698	1015.12
459.918	1070.12
460.138	1117.12
460.358	1132.12
460.578	1162.12
460.798	1180.12
461.018	1180.12
461.238	1170.12
461.458	1162.12
461.678	1123.12
461.898	1161.12
462.118	1173.12
462.338	1228.12
462.558	1300.12
462.777	1369.12
462.997	1437.12
463.217	1563.12
463.437	1591.12
463.657	1439.12
463.876	1365.12
464.096	1379.12
464.316	1374.12
464.536	1358.12
464.755	1317.12
464.975	1264.12
465.195	1172.12
465.414	1109.12
465.634	1058.12
465.854	1009.12
466.073	1029.12
466.293	975.12
466.512	969.12
466.732	949.12
466.951	942.12
467.171	922.12
467.391	940.12
467.61	946.12
467.829	919.12
468.049	923.12
468.268	899.12
468.488	894.12
468.707	890.12
468.927	894.12
469.146	877.12
469.365	926.12
469.585	925.12
469.804	953.12
470.023	950.12
470.243	986.12
470.462	963.12
470.681	982.12
470.901	982.12
471.12	936.12
471.339	940.12
471.558	934.12
471.777	923.12
471.997	914.12
472.216	907.12
472.435	889.12
472.654	888.12
472.873	887.12
473.092	882.12
473.311	880.12
473.53	888.12
473.749	889.12
473.968	868.12
474.187	876.12
474.406	850.12
474.625	882.12
474.844	879.12
475.063	879.12
475.282	891.12
475.501	888.12
475.72	908.12
475.939	890.12
476.158	897.12
476.377	930.12
476.596	928.12
476.814	927.12
477.033	950.12
477.252	935.12
477.471	1004.12
477.69	979.12
477.908	1004.12
478.127	1053.12
478.346	1046.12
478.564	1076.12
478.783	1069.12
479.002	1103.12
479.22	1102.12
479.439	1110.12
479.658	1094.12
479.876	1067.12
480.095	1123.12
480.313	1154.12
480.532	1200.12
480.751	1177.12
480.969	1141.12
481.188	1087.12
481.406	1066.12
481.624	1035.12
481.843	1016.12
482.061	1015.12
482.28	987.12
482.498	988.12
482.717	983.12
482.935	1002.12
483.153	986.12
483.372	998.12
483.59	1023.12
483.808	1016.12
484.027	996.12
484.245	988.12
484.463	1032.12
484.681	1040.12
484.9	1023.12
485.118	1050.12
485.336	1046.12
485.554	1048.12
485.772	1052.12
485.99	1038.12
486.209	1076.12
486.427	1063.12
486.645	1058.12
486.863	1066.12
487.081	1064.12
487.299	1008.12
487.517	1010.12
487.735	1038.12
487.953	1037.12
488.171	1066.12
488.389	1023.12
488.607	1024.12
488.825	1036.12
489.043	1033.12
489.261	1035.12
489.479	1059.12
489.696	1035.12
489.914	1037.12
490.132	1069.12
490.35	1062.12
490.568	1058.12
490.786	1064.12
491.003	1064.12
491.221	1067.12
491.439	1049.12
491.657	1057.12
491.874	1070.12
492.092	1088.12
492.31	1094.12
492.527	1099.12
492.745	1072.12
492.963	1093.12
493.18	1097.12
493.398	1074.12
493.615	1080.12
493.833	1098.12
494.05	1115.12
494.268	1109.12
494.485	1129.12
494.703	1118.12
494.92	1123.12
495.138	1094.12
495.355	1112.12
495.573	1134.12
495.79	1134.12
496.008	1165.12
496.225	1162.12
496.442	1168.12
496.66	1157.12
496.877	1187.12
497.094	1187.12
497.312	1206.12
497.529	1228.12
