Data from NiCl2@0.5M.TitratingCurve.Agarose3%dH2O.NegLispCup.LampEnergy10.LIBS07252019_HRD10591_18-20-46-571.txt Node
Date: Thu Jul 25 18:20:46 EDT 2019
User: cochatt
Spectrometer: HR+D1059
Trigger mode: 1
Integration Time (sec): 1.000000E-1
Scans to average: 1
Electric dark correction enabled: true
Nonlinearity correction enabled: false
Boxcar width: 0
XAxis mode: Wavelengths
Number of Pixels in Spectrum: 2048
>>>>>Begin Spectral Data<<<<<
223.165	-12.88
223.4	-12.88
223.635	-12.88
223.869	-17.88
224.104	-24.88
224.338	-19.88
224.573	-26.88
224.808	-16.88
225.042	-19.88
225.277	-7.88
225.511	12.12
225.746	7.12
225.98	-7.88
226.215	16.12
226.449	16.12
226.683	31.12
226.918	31.12
227.152	41.12
227.387	39.12
227.621	56.12
227.856	37.12
228.09	35.12
228.324	59.12
228.559	61.12
228.793	64.12
229.027	97.12
229.262	102.12
229.496	115.12
229.73	120.12
229.964	128.12
230.199	123.12
230.433	125.12
230.667	128.12
230.901	134.12
231.136	125.12
231.37	125.12
231.604	143.12
231.838	133.12
232.072	139.12
232.306	123.12
232.541	131.12
232.775	144.12
233.009	149.12
233.243	146.12
233.477	135.12
233.711	141.12
233.945	156.12
234.179	126.12
234.413	145.12
234.647	143.12
234.881	129.12
235.115	146.12
235.349	149.12
235.583	137.12
235.817	135.12
236.051	138.12
236.285	130.12
236.519	125.12
236.753	132.12
236.987	147.12
237.221	141.12
237.455	159.12
237.689	141.12
237.922	141.12
238.156	155.12
238.39	157.12
238.624	132.12
238.858	146.12
239.091	149.12
239.325	156.12
239.559	148.12
239.793	152.12
240.027	179.12
240.26	154.12
240.494	153.12
240.728	153.12
240.961	158.12
241.195	165.12
241.429	169.12
241.662	173.12
241.896	165.12
242.13	173.12
242.363	176.12
242.597	170.12
242.83	161.12
243.064	169.12
243.298	171.12
243.531	162.12
243.765	179.12
243.998	176.12
244.232	177.12
244.465	175.12
244.699	167.12
244.932	180.12
245.166	177.12
245.399	203.12
245.633	183.12
245.866	184.12
246.099	184.12
246.333	198.12
246.566	192.12
246.8	189.12
247.033	197.12
247.266	191.12
247.5	188.12
247.733	205.12
247.966	189.12
248.2	204.12
248.433	195.12
248.666	187.12
248.899	220.12
249.133	205.12
249.366	210.12
249.599	226.12
249.832	219.12
250.066	230.12
250.299	209.12
250.532	215.12
250.765	219.12
250.998	220.12
251.231	224.12
251.465	221.12
251.698	238.12
251.931	222.12
252.164	239.12
252.397	228.12
252.63	216.12
252.863	245.12
253.096	245.12
253.329	220.12
253.562	221.12
253.795	239.12
254.028	232.12
254.261	236.12
254.494	232.12
254.727	216.12
254.96	233.12
255.193	230.12
255.426	240.12
255.659	238.12
255.892	233.12
256.124	239.12
256.357	239.12
256.59	246.12
256.823	244.12
257.056	231.12
257.289	257.12
257.521	261.12
257.754	247.12
257.987	250.12
258.22	238.12
258.452	243.12
258.685	268.12
258.918	271.12
259.151	246.12
259.383	270.12
259.616	260.12
259.849	257.12
260.081	275.12
260.314	252.12
260.547	260.12
260.779	271.12
261.012	273.12
261.244	277.12
261.477	267.12
261.71	267.12
261.942	269.12
262.175	264.12
262.407	283.12
262.64	278.12
262.872	277.12
263.105	269.12
263.337	278.12
263.57	293.12
263.802	273.12
264.035	298.12
264.267	286.12
264.499	303.12
264.732	291.12
264.964	311.12
265.197	283.12
265.429	291.12
265.661	301.12
265.894	297.12
266.126	307.12
266.358	304.12
266.591	288.12
266.823	293.12
267.055	305.12
267.287	303.12
267.52	297.12
267.752	293.12
267.984	307.12
268.216	309.12
268.448	310.12
268.681	304.12
268.913	305.12
269.145	297.12
269.377	309.12
269.609	321.12
269.841	301.12
270.073	303.12
270.306	313.12
270.538	314.12
270.77	327.12
271.002	307.12
271.234	318.12
271.466	323.12
271.698	323.12
271.93	326.12
272.162	316.12
272.394	327.12
272.626	351.12
272.858	326.12
273.09	330.12
273.322	340.12
273.553	331.12
273.785	326.12
274.017	342.12
274.249	342.12
274.481	331.12
274.713	318.12
274.945	358.12
275.176	339.12
275.408	354.12
275.64	331.12
275.872	357.12
276.104	330.12
276.335	364.12
276.567	366.12
276.799	343.12
277.031	352.12
277.262	340.12
277.494	352.12
277.726	358.12
277.957	347.12
278.189	368.12
278.421	355.12
278.652	363.12
278.884	373.12
279.115	364.12
279.347	368.12
279.579	365.12
279.81	371.12
280.042	361.12
280.273	365.12
280.505	385.12
280.736	364.12
280.968	399.12
281.199	377.12
281.431	385.12
281.662	371.12
281.894	374.12
282.125	401.12
282.356	391.12
282.588	395.12
282.819	391.12
283.051	398.12
283.282	373.12
283.513	401.12
283.745	384.12
283.976	391.12
284.207	412.12
284.439	416.12
284.67	391.12
284.901	401.12
285.132	401.12
285.364	403.12
285.595	401.12
285.826	406.12
286.057	405.12
286.288	408.12
286.52	411.12
286.751	416.12
286.982	427.12
287.213	414.12
287.444	408.12
287.675	417.12
287.906	407.12
288.138	417.12
288.369	432.12
288.6	412.12
288.831	425.12
289.062	419.12
289.293	427.12
289.524	436.12
289.755	418.12
289.986	431.12
290.217	415.12
290.448	420.12
290.679	416.12
290.91	443.12
291.141	419.12
291.371	401.12
291.602	407.12
291.833	414.12
292.064	445.12
292.295	416.12
292.526	424.12
292.757	432.12
292.987	432.12
293.218	439.12
293.449	430.12
293.68	452.12
293.91	409.12
294.141	440.12
294.372	420.12
294.603	462.12
294.833	463.12
295.064	441.12
295.295	433.12
295.525	443.12
295.756	452.12
295.987	430.12
296.217	452.12
296.448	471.12
296.679	465.12
296.909	455.12
297.14	453.12
297.37	477.12
297.601	479.12
297.831	460.12
298.062	463.12
298.292	485.12
298.523	497.12
298.753	478.12
298.984	495.12
299.214	459.12
299.445	463.12
299.675	481.12
299.905	479.12
300.136	473.12
300.366	475.12
300.597	483.12
300.827	501.12
301.057	487.12
301.288	515.12
301.518	482.12
301.748	476.12
301.979	510.12
302.209	488.12
302.439	513.12
302.669	488.12
302.9	485.12
303.13	491.12
303.36	513.12
303.59	499.12
303.82	496.12
304.051	506.12
304.281	484.12
304.511	520.12
304.741	503.12
304.971	522.12
305.201	520.12
305.431	502.12
305.661	491.12
305.891	489.12
306.121	493.12
306.352	485.12
306.582	485.12
306.812	511.12
307.042	483.12
307.272	490.12
307.502	486.12
307.731	507.12
307.961	499.12
308.191	480.12
308.421	489.12
308.651	495.12
308.881	484.12
309.111	479.12
309.341	495.12
309.571	490.12
309.8	503.12
310.03	507.12
310.26	508.12
310.49	509.12
310.72	514.12
310.949	503.12
311.179	487.12
311.409	503.12
311.639	490.12
311.868	535.12
312.098	492.12
312.328	504.12
312.557	504.12
312.787	512.12
313.017	516.12
313.246	543.12
313.476	518.12
313.706	536.12
313.935	550.12
314.165	538.12
314.394	537.12
314.624	543.12
314.853	531.12
315.083	530.12
315.312	540.12
315.542	532.12
315.771	527.12
316.001	513.12
316.23	539.12
316.46	505.12
316.689	528.12
316.919	532.12
317.148	554.12
317.377	533.12
317.607	521.12
317.836	513.12
318.065	538.12
318.295	520.12
318.524	515.12
318.753	519.12
318.983	517.12
319.212	541.12
319.441	536.12
319.67	497.12
319.9	545.12
320.129	537.12
320.358	541.12
320.587	523.12
320.816	537.12
321.046	522.12
321.275	573.12
321.504	543.12
321.733	521.12
321.962	546.12
322.191	541.12
322.42	545.12
322.649	543.12
322.878	542.12
323.108	510.12
323.337	538.12
323.566	560.12
323.795	557.12
324.024	556.12
324.253	571.12
324.482	552.12
324.71	549.12
324.939	555.12
325.168	548.12
325.397	553.12
325.626	571.12
325.855	579.12
326.084	581.12
326.313	599.12
326.542	584.12
326.77	584.12
326.999	551.12
327.228	559.12
327.457	573.12
327.686	572.12
327.914	599.12
328.143	571.12
328.372	597.12
328.6	566.12
328.829	561.12
329.058	582.12
329.287	593.12
329.515	583.12
329.744	579.12
329.972	587.12
330.201	576.12
330.43	590.12
330.658	617.12
330.887	587.12
331.115	595.12
331.344	592.12
331.572	603.12
331.801	613.12
332.03	622.12
332.258	624.12
332.486	630.12
332.715	659.12
332.943	667.12
333.172	681.12
333.4	689.12
333.629	701.12
333.857	734.12
334.085	721.12
334.314	727.12
334.542	708.12
334.771	715.12
334.999	697.12
335.227	684.12
335.455	731.12
335.684	707.12
335.912	699.12
336.14	691.12
336.369	682.12
336.597	703.12
336.825	672.12
337.053	701.12
337.281	697.12
337.51	656.12
337.738	658.12
337.966	641.12
338.194	653.12
338.422	653.12
338.65	638.12
338.878	633.12
339.106	636.12
339.334	640.12
339.562	650.12
339.79	593.12
340.018	589.12
340.246	606.12
340.474	597.12
340.702	589.12
340.93	613.12
341.158	597.12
341.386	619.12
341.614	651.12
341.842	651.12
342.07	614.12
342.298	615.12
342.526	597.12
342.754	612.12
342.981	593.12
343.209	608.12
343.437	655.12
343.665	657.12
343.893	691.12
344.12	708.12
344.348	679.12
344.576	675.12
344.804	661.12
345.031	653.12
345.259	636.12
345.487	620.12
345.714	616.12
345.942	621.12
346.17	628.12
346.397	608.12
346.625	603.12
346.853	575.12
347.08	562.12
347.308	615.12
347.535	618.12
347.763	620.12
347.99	600.12
348.218	573.12
348.445	574.12
348.673	587.12
348.9	563.12
349.128	606.12
349.355	579.12
349.583	595.12
349.81	579.12
350.037	553.12
350.265	571.12
350.492	577.12
350.72	564.12
350.947	571.12
351.174	588.12
351.402	594.12
351.629	591.12
351.856	570.12
352.083	593.12
352.311	583.12
352.538	585.12
352.765	583.12
352.992	549.12
353.22	548.12
353.447	541.12
353.674	547.12
353.901	548.12
354.128	554.12
354.355	543.12
354.583	557.12
354.81	557.12
355.037	553.12
355.264	563.12
355.491	576.12
355.718	561.12
355.945	540.12
356.172	557.12
356.399	570.12
356.626	552.12
356.853	568.12
357.08	572.12
357.307	549.12
357.534	566.12
357.761	556.12
357.988	530.12
358.215	525.12
358.441	539.12
358.668	571.12
358.895	551.12
359.122	545.12
359.349	566.12
359.576	541.12
359.802	567.12
360.029	561.12
360.256	552.12
360.483	570.12
360.709	559.12
360.936	577.12
361.163	552.12
361.39	566.12
361.616	563.12
361.843	552.12
362.07	588.12
362.296	552.12
362.523	569.12
362.749	565.12
362.976	568.12
363.203	564.12
363.429	552.12
363.656	557.12
363.882	549.12
364.109	543.12
364.335	543.12
364.562	529.12
364.788	543.12
365.015	548.12
365.241	534.12
365.468	540.12
365.694	541.12
365.92	554.12
366.147	525.12
366.373	539.12
366.599	531.12
366.826	560.12
367.052	543.12
367.278	546.12
367.505	541.12
367.731	539.12
367.957	551.12
368.184	557.12
368.41	572.12
368.636	560.12
368.862	526.12
369.089	546.12
369.315	580.12
369.541	556.12
369.767	558.12
369.993	557.12
370.219	563.12
370.445	586.12
370.672	570.12
370.898	585.12
371.124	602.12
371.35	591.12
371.576	585.12
371.802	585.12
372.028	582.12
372.254	583.12
372.48	606.12
372.706	613.12
372.932	600.12
373.158	605.12
373.384	597.12
373.61	581.12
373.835	598.12
374.061	591.12
374.287	591.12
374.513	596.12
374.739	631.12
374.965	613.12
375.191	643.12
375.416	639.12
375.642	612.12
375.868	616.12
376.094	574.12
376.319	599.12
376.545	577.12
376.771	542.12
376.997	577.12
377.222	568.12
377.448	578.12
377.674	592.12
377.899	575.12
378.125	578.12
378.35	559.12
378.576	552.12
378.802	561.12
379.027	599.12
379.253	579.12
379.478	583.12
379.704	573.12
379.929	599.12
380.155	565.12
380.38	576.12
380.606	578.12
380.831	575.12
381.057	568.12
381.282	545.12
381.507	580.12
381.733	577.12
381.958	591.12
382.184	598.12
382.409	579.12
382.634	606.12
382.86	599.12
383.085	615.12
383.31	618.12
383.535	608.12
383.761	608.12
383.986	612.12
384.211	630.12
384.436	629.12
384.662	659.12
384.887	653.12
385.112	673.12
385.337	672.12
385.562	668.12
385.787	681.12
386.013	726.12
386.238	657.12
386.463	702.12
386.688	693.12
386.913	683.12
387.138	664.12
387.363	665.12
387.588	637.12
387.813	667.12
388.038	660.12
388.263	663.12
388.488	680.12
388.713	662.12
388.938	662.12
389.163	665.12
389.387	646.12
389.612	651.12
389.837	683.12
390.062	677.12
390.287	666.12
390.512	652.12
390.736	672.12
390.961	696.12
391.186	695.12
391.411	701.12
391.636	699.12
391.86	737.12
392.085	759.12
392.31	729.12
392.534	719.12
392.759	715.12
392.984	727.12
393.208	705.12
393.433	688.12
393.658	713.12
393.882	726.12
394.107	689.12
394.331	703.12
394.556	717.12
394.78	713.12
395.005	736.12
395.229	721.12
395.454	742.12
395.678	744.12
395.903	745.12
396.127	764.12
396.352	714.12
396.576	696.12
396.801	708.12
397.025	731.12
397.249	742.12
397.474	753.12
397.698	729.12
397.922	736.12
398.147	742.12
398.371	763.12
398.595	777.12
398.82	839.12
399.044	873.12
399.268	942.12
399.492	1007.12
399.717	1139.12
399.941	1136.12
400.165	1045.12
400.389	944.12
400.613	926.12
400.837	856.12
401.062	830.12
401.286	824.12
401.51	819.12
401.734	815.12
401.958	835.12
402.182	845.12
402.406	824.12
402.63	865.12
402.854	876.12
403.078	853.12
403.302	873.12
403.526	885.12
403.75	901.12
403.974	905.12
404.198	911.12
404.422	909.12
404.645	904.12
404.869	924.12
405.093	905.12
405.317	874.12
405.541	915.12
405.765	886.12
405.988	888.12
406.212	899.12
406.436	876.12
406.66	921.12
406.883	911.12
407.107	967.12
407.331	990.12
407.555	1068.12
407.778	1028.12
408.002	1030.12
408.226	961.12
408.449	976.12
408.673	951.12
408.896	936.12
409.12	956.12
409.344	926.12
409.567	931.12
409.791	935.12
410.014	929.12
410.238	938.12
410.461	928.12
410.685	894.12
410.908	887.12
411.132	895.12
411.355	859.12
411.578	860.12
411.802	867.12
412.025	878.12
412.249	868.12
412.472	860.12
412.695	861.12
412.919	843.12
413.142	841.12
413.365	832.12
413.589	844.12
413.812	834.12
414.035	820.12
414.258	848.12
414.482	839.12
414.705	845.12
414.928	868.12
415.151	843.12
415.374	857.12
415.597	842.12
415.821	843.12
416.044	833.12
416.267	821.12
416.49	809.12
416.713	822.12
416.936	835.12
417.159	826.12
417.382	835.12
417.605	823.12
417.828	828.12
418.051	841.12
418.274	827.12
418.497	805.12
418.72	851.12
418.943	852.12
419.166	885.12
419.389	931.12
419.611	910.12
419.834	887.12
420.057	879.12
420.28	832.12
420.503	827.12
420.726	825.12
420.948	827.12
421.171	832.12
421.394	823.12
421.617	821.12
421.839	829.12
422.062	825.12
422.285	821.12
422.507	830.12
422.73	846.12
422.953	855.12
423.175	844.12
423.398	887.12
423.621	868.12
423.843	879.12
424.066	873.12
424.288	872.12
424.511	841.12
424.733	855.12
424.956	857.12
425.178	840.12
425.401	856.12
425.623	848.12
425.846	797.12
426.068	821.12
426.291	792.12
426.513	799.12
426.735	793.12
426.958	785.12
427.18	757.12
427.402	807.12
427.625	791.12
427.847	781.12
428.069	764.12
428.292	795.12
428.514	767.12
428.736	769.12
428.958	796.12
429.181	743.12
429.403	741.12
429.625	759.12
429.847	738.12
430.069	746.12
430.292	761.12
430.514	747.12
430.736	755.12
430.958	768.12
431.18	742.12
431.402	777.12
431.624	759.12
431.846	785.12
432.068	792.12
432.29	767.12
432.512	777.12
432.734	808.12
432.956	771.12
433.178	786.12
433.4	778.12
433.622	794.12
433.844	796.12
434.066	789.12
434.287	799.12
434.509	806.12
434.731	853.12
434.953	853.12
435.175	855.12
435.397	847.12
435.618	806.12
435.84	781.12
436.062	809.12
436.284	756.12
436.505	800.12
436.727	774.12
436.949	791.12
437.17	784.12
437.392	795.12
437.614	760.12
437.835	756.12
438.057	732.12
438.278	749.12
438.5	737.12
438.721	755.12
438.943	784.12
439.165	752.12
439.386	763.12
439.608	767.12
439.829	763.12
440.05	785.12
440.272	781.12
440.493	762.12
440.715	828.12
440.936	793.12
441.158	819.12
441.379	825.12
441.6	854.12
441.822	855.12
442.043	863.12
442.264	849.12
442.486	826.12
442.707	865.12
442.928	863.12
443.149	853.12
443.371	845.12
443.592	854.12
443.813	858.12
444.034	856.12
444.255	885.12
444.476	937.12
444.698	972.12
444.919	986.12
445.14	1058.12
445.361	951.12
445.582	907.12
445.803	843.12
446.024	828.12
446.245	850.12
446.466	812.12
446.687	820.12
446.908	807.12
447.129	775.12
447.35	751.12
447.571	792.12
447.792	736.12
448.013	738.12
448.234	736.12
448.455	729.12
448.675	741.12
448.896	732.12
449.117	721.12
449.338	714.12
449.559	699.12
449.779	731.12
450	734.12
450.221	709.12
450.442	761.12
450.662	715.12
450.883	737.12
451.104	755.12
451.324	752.12
451.545	746.12
451.766	759.12
451.986	752.12
452.207	713.12
452.428	728.12
452.648	699.12
452.869	725.12
453.089	699.12
453.31	721.12
453.53	712.12
453.751	716.12
453.971	693.12
454.192	699.12
454.412	691.12
454.633	692.12
454.853	707.12
455.073	670.12
455.294	699.12
455.514	703.12
455.734	695.12
455.955	701.12
456.175	701.12
456.395	677.12
456.616	662.12
456.836	679.12
457.056	692.12
457.276	679.12
457.497	698.12
457.717	706.12
457.937	691.12
458.157	684.12
458.377	716.12
458.598	727.12
458.818	726.12
459.038	730.12
459.258	756.12
459.478	783.12
459.698	806.12
459.918	817.12
460.138	845.12
460.358	864.12
460.578	876.12
460.798	911.12
461.018	895.12
461.238	903.12
461.458	920.12
461.678	898.12
461.898	917.12
462.118	910.12
462.338	942.12
462.558	976.12
462.777	1023.12
462.997	1102.12
463.217	1145.12
463.437	1134.12
463.657	1088.12
463.876	1033.12
464.096	1064.12
464.316	1057.12
464.536	1022.12
464.755	997.12
464.975	967.12
465.195	934.12
465.414	907.12
465.634	835.12
465.854	819.12
466.073	804.12
466.293	780.12
466.512	761.12
466.732	780.12
466.951	778.12
467.171	782.12
467.391	751.12
467.61	753.12
467.829	775.12
468.049	742.12
468.268	735.12
468.488	729.12
468.707	717.12
468.927	755.12
469.146	772.12
469.365	742.12
469.585	774.12
469.804	777.12
470.023	774.12
470.243	767.12
470.462	778.12
470.681	803.12
470.901	804.12
471.12	791.12
471.339	758.12
471.558	780.12
471.777	759.12
471.997	746.12
472.216	769.12
472.435	699.12
472.654	722.12
472.873	715.12
473.092	705.12
473.311	721.12
473.53	730.12
473.749	725.12
473.968	714.12
474.187	732.12
474.406	714.12
474.625	732.12
474.844	719.12
475.063	718.12
475.282	719.12
475.501	751.12
475.72	732.12
475.939	768.12
476.158	753.12
476.377	751.12
476.596	760.12
476.814	805.12
477.033	775.12
477.252	794.12
477.471	807.12
477.69	839.12
477.908	831.12
478.127	847.12
478.346	824.12
478.564	865.12
478.783	876.12
479.002	919.12
479.22	913.12
479.439	905.12
479.658	891.12
479.876	899.12
480.095	908.12
480.313	934.12
480.532	941.12
480.751	919.12
480.969	923.12
481.188	877.12
481.406	846.12
481.624	852.12
481.843	867.12
482.061	842.12
482.28	860.12
482.498	822.12
482.717	839.12
482.935	841.12
483.153	848.12
483.372	827.12
483.59	878.12
483.808	865.12
484.027	850.12
484.245	858.12
484.463	861.12
484.681	869.12
484.9	854.12
485.118	896.12
485.336	875.12
485.554	868.12
485.772	893.12
485.99	884.12
486.209	870.12
486.427	874.12
486.645	908.12
486.863	869.12
487.081	874.12
487.299	871.12
487.517	903.12
487.735	885.12
487.953	879.12
488.171	882.12
488.389	897.12
488.607	878.12
488.825	853.12
489.043	881.12
489.261	859.12
489.479	865.12
489.696	871.12
489.914	862.12
490.132	872.12
490.35	880.12
490.568	883.12
490.786	897.12
491.003	899.12
491.221	877.12
491.439	905.12
491.657	909.12
491.874	937.12
492.092	908.12
492.31	899.12
492.527	927.12
492.745	898.12
492.963	903.12
493.18	920.12
493.398	937.12
493.615	934.12
493.833	932.12
494.05	922.12
494.268	912.12
494.485	926.12
494.703	911.12
494.92	929.12
495.138	951.12
495.355	941.12
495.573	930.12
495.79	944.12
496.008	969.12
496.225	966.12
496.442	982.12
496.66	968.12
496.877	1011.12
497.094	972.12
497.312	1031.12
497.529	1031.12
497.746	1064.12
497.963	1098.12
498.181	1102.12
498.398	1137.12
498.615	1220.12
498.832	1276.12
499.049	1356.12
499.267	1427.12
499.484	1584.12
499.701	1701.12
499.918	1804.12
500.135	2080.12
500.352	2296.12
500.569	2353.12
500.786	2341.12
501.003	2136.12
