Data from NiCl2@0.125M.TitratingCurve.Agarose3%dH2O.NegLispCup.LampEnergy10.LIBS07252019_HRD10591_18-27-58-582.txt Node
Date: Thu Jul 25 18:27:58 EDT 2019
User: cochatt
Spectrometer: HR+D1059
Trigger mode: 1
Integration Time (sec): 1.000000E-1
Scans to average: 1
Electric dark correction enabled: true
Nonlinearity correction enabled: false
Boxcar width: 0
XAxis mode: Wavelengths
Number of Pixels in Spectrum: 2048
>>>>>Begin Spectral Data<<<<<
223.165	-8.19
223.4	-8.19
223.635	-8.19
223.869	-25.19
224.104	-14.19
224.338	-17.19
224.573	-24.19
224.808	-1.19
225.042	0.81
225.277	-1.19
225.511	-3.19
225.746	-5.19
225.98	8.81
226.215	6.81
226.449	14.81
226.683	21.81
226.918	22.81
227.152	23.81
227.387	26.81
227.621	56.81
227.856	52.81
228.09	54.81
228.324	48.81
228.559	51.81
228.793	74.81
229.027	117.81
229.262	117.81
229.496	127.81
229.73	133.81
229.964	149.81
230.199	138.81
230.433	129.81
230.667	135.81
230.901	140.81
231.136	144.81
231.37	155.81
231.604	152.81
231.838	163.81
232.072	158.81
232.306	149.81
232.541	158.81
232.775	161.81
233.009	166.81
233.243	158.81
233.477	161.81
233.711	159.81
233.945	161.81
234.179	160.81
234.413	171.81
234.647	159.81
234.881	144.81
235.115	162.81
235.349	168.81
235.583	169.81
235.817	150.81
236.051	169.81
236.285	165.81
236.519	173.81
236.753	184.81
236.987	168.81
237.221	181.81
237.455	184.81
237.689	192.81
237.922	183.81
238.156	192.81
238.39	193.81
238.624	180.81
238.858	188.81
239.091	172.81
239.325	204.81
239.559	171.81
239.793	192.81
240.027	215.81
240.26	203.81
240.494	206.81
240.728	198.81
240.961	213.81
241.195	195.81
241.429	206.81
241.662	215.81
241.896	201.81
242.13	211.81
242.363	209.81
242.597	217.81
242.83	226.81
243.064	233.81
243.298	225.81
243.531	219.81
243.765	244.81
243.998	243.81
244.232	223.81
244.465	245.81
244.699	231.81
244.932	239.81
245.166	240.81
245.399	264.81
245.633	249.81
245.866	248.81
246.099	271.81
246.333	246.81
246.566	263.81
246.8	264.81
247.033	257.81
247.266	261.81
247.5	249.81
247.733	255.81
247.966	259.81
248.2	255.81
248.433	261.81
248.666	279.81
248.899	264.81
249.133	289.81
249.366	299.81
249.599	283.81
249.832	270.81
250.066	286.81
250.299	298.81
250.532	279.81
250.765	287.81
250.998	300.81
251.231	288.81
251.465	292.81
251.698	288.81
251.931	298.81
252.164	301.81
252.397	291.81
252.63	313.81
252.863	322.81
253.096	302.81
253.329	304.81
253.562	310.81
253.795	320.81
254.028	329.81
254.261	330.81
254.494	330.81
254.727	323.81
254.96	306.81
255.193	318.81
255.426	315.81
255.659	331.81
255.892	337.81
256.124	342.81
256.357	327.81
256.59	326.81
256.823	342.81
257.056	333.81
257.289	352.81
257.521	333.81
257.754	346.81
257.987	331.81
258.22	364.81
258.452	347.81
258.685	342.81
258.918	353.81
259.151	359.81
259.383	355.81
259.616	351.81
259.849	374.81
260.081	379.81
260.314	349.81
260.547	380.81
260.779	347.81
261.012	347.81
261.244	342.81
261.477	367.81
261.71	377.81
261.942	373.81
262.175	377.81
262.407	364.81
262.64	373.81
262.872	401.81
263.105	395.81
263.337	392.81
263.57	385.81
263.802	380.81
264.035	405.81
264.267	392.81
264.499	381.81
264.732	380.81
264.964	405.81
265.197	403.81
265.429	397.81
265.661	409.81
265.894	404.81
266.126	393.81
266.358	402.81
266.591	407.81
266.823	399.81
267.055	411.81
267.287	430.81
267.52	411.81
267.752	414.81
267.984	428.81
268.216	417.81
268.448	418.81
268.681	441.81
268.913	440.81
269.145	424.81
269.377	431.81
269.609	423.81
269.841	427.81
270.073	432.81
270.306	429.81
270.538	439.81
270.77	437.81
271.002	442.81
271.234	416.81
271.466	415.81
271.698	454.81
271.93	441.81
272.162	470.81
272.394	443.81
272.626	447.81
272.858	456.81
273.09	464.81
273.322	476.81
273.553	463.81
273.785	445.81
274.017	451.81
274.249	455.81
274.481	473.81
274.713	483.81
274.945	473.81
275.176	474.81
275.408	476.81
275.64	456.81
275.872	476.81
276.104	464.81
276.335	477.81
276.567	490.81
276.799	472.81
277.031	485.81
277.262	489.81
277.494	491.81
277.726	497.81
277.957	510.81
278.189	499.81
278.421	483.81
278.652	489.81
278.884	534.81
279.115	503.81
279.347	496.81
279.579	519.81
279.81	519.81
280.042	524.81
280.273	521.81
280.505	510.81
280.736	523.81
280.968	524.81
281.199	526.81
281.431	525.81
281.662	522.81
281.894	519.81
282.125	526.81
282.356	552.81
282.588	545.81
282.819	535.81
283.051	545.81
283.282	523.81
283.513	554.81
283.745	565.81
283.976	541.81
284.207	559.81
284.439	549.81
284.67	566.81
284.901	557.81
285.132	577.81
285.364	570.81
285.595	568.81
285.826	573.81
286.057	561.81
286.288	600.81
286.52	584.81
286.751	589.81
286.982	573.81
287.213	569.81
287.444	581.81
287.675	591.81
287.906	586.81
288.138	592.81
288.369	595.81
288.6	611.81
288.831	578.81
289.062	603.81
289.293	600.81
289.524	606.81
289.755	604.81
289.986	608.81
290.217	592.81
290.448	610.81
290.679	609.81
290.91	576.81
291.141	599.81
291.371	603.81
291.602	609.81
291.833	600.81
292.064	604.81
292.295	607.81
292.526	621.81
292.757	622.81
292.987	591.81
293.218	613.81
293.449	635.81
293.68	599.81
293.91	631.81
294.141	609.81
294.372	620.81
294.603	613.81
294.833	597.81
295.064	629.81
295.295	601.81
295.525	623.81
295.756	618.81
295.987	621.81
296.217	624.81
296.448	624.81
296.679	636.81
296.909	629.81
297.14	620.81
297.37	661.81
297.601	643.81
297.831	644.81
298.062	646.81
298.292	638.81
298.523	676.81
298.753	687.81
298.984	675.81
299.214	657.81
299.445	666.81
299.675	664.81
299.905	660.81
300.136	667.81
300.366	685.81
300.597	685.81
300.827	708.81
301.057	719.81
301.288	688.81
301.518	672.81
301.748	707.81
301.979	706.81
302.209	701.81
302.439	687.81
302.669	701.81
302.9	681.81
303.13	700.81
303.36	691.81
303.59	704.81
303.82	678.81
304.051	734.81
304.281	706.81
304.511	691.81
304.741	704.81
304.971	699.81
305.201	670.81
305.431	695.81
305.661	688.81
305.891	672.81
306.121	685.81
306.352	691.81
306.582	656.81
306.812	669.81
307.042	676.81
307.272	668.81
307.502	677.81
307.731	670.81
307.961	667.81
308.191	663.81
308.421	676.81
308.651	653.81
308.881	664.81
309.111	685.81
309.341	672.81
309.571	663.81
309.8	684.81
310.03	687.81
310.26	703.81
310.49	688.81
310.72	701.81
310.949	673.81
311.179	701.81
311.409	681.81
311.639	680.81
311.868	700.81
312.098	689.81
312.328	724.81
312.557	723.81
312.787	709.81
313.017	717.81
313.246	726.81
313.476	723.81
313.706	730.81
313.935	729.81
314.165	749.81
314.394	747.81
314.624	719.81
314.853	737.81
315.083	709.81
315.312	721.81
315.542	706.81
315.771	720.81
316.001	734.81
316.23	705.81
316.46	704.81
316.689	707.81
316.919	721.81
317.148	691.81
317.377	726.81
317.607	723.81
317.836	696.81
318.065	700.81
318.295	712.81
318.524	713.81
318.753	715.81
318.983	736.81
319.212	723.81
319.441	696.81
319.67	701.81
319.9	685.81
320.129	724.81
320.358	702.81
320.587	684.81
320.816	709.81
321.046	712.81
321.275	701.81
321.504	743.81
321.733	741.81
321.962	739.81
322.191	730.81
322.42	712.81
322.649	720.81
322.878	733.81
323.108	709.81
323.337	721.81
323.566	733.81
323.795	758.81
324.024	750.81
324.253	727.81
324.482	727.81
324.71	735.81
324.939	748.81
325.168	739.81
325.397	758.81
325.626	781.81
325.855	792.81
326.084	790.81
326.313	790.81
326.542	803.81
326.77	800.81
326.999	793.81
327.228	799.81
327.457	793.81
327.686	764.81
327.914	758.81
328.143	780.81
328.372	814.81
328.6	783.81
328.829	799.81
329.058	797.81
329.287	787.81
329.515	808.81
329.744	780.81
329.972	806.81
330.201	775.81
330.43	805.81
330.658	803.81
330.887	784.81
331.115	839.81
331.344	821.81
331.572	843.81
331.801	860.81
332.03	866.81
332.258	887.81
332.486	889.81
332.715	952.81
332.943	991.81
333.172	1029.81
333.4	1074.81
333.629	1096.81
333.857	1111.81
334.085	1076.81
334.314	1040.81
334.542	1040.81
334.771	987.81
334.999	971.81
335.227	1003.81
335.455	998.81
335.684	959.81
335.912	972.81
336.14	943.81
336.369	977.81
336.597	957.81
336.825	976.81
337.053	932.81
337.281	928.81
337.51	923.81
337.738	908.81
337.966	885.81
338.194	861.81
338.422	855.81
338.65	860.81
338.878	885.81
339.106	872.81
339.334	869.81
339.562	845.81
339.79	811.81
340.018	827.81
340.246	823.81
340.474	827.81
340.702	816.81
340.93	809.81
341.158	827.81
341.386	811.81
341.614	809.81
341.842	820.81
342.07	811.81
342.298	829.81
342.526	824.81
342.754	828.81
342.981	828.81
343.209	848.81
343.437	864.81
343.665	909.81
343.893	1011.81
344.12	1023.81
344.348	1006.81
344.576	937.81
344.804	896.81
345.031	838.81
345.259	872.81
345.487	843.81
345.714	824.81
345.942	833.81
346.17	827.81
346.397	810.81
346.625	808.81
346.853	783.81
347.08	791.81
347.308	812.81
347.535	807.81
347.763	810.81
347.99	822.81
348.218	821.81
348.445	797.81
348.673	807.81
348.9	760.81
349.128	777.81
349.355	764.81
349.583	783.81
349.81	791.81
350.037	764.81
350.265	767.81
350.492	776.81
350.72	771.81
350.947	768.81
351.174	779.81
351.402	759.81
351.629	735.81
351.856	785.81
352.083	779.81
352.311	748.81
352.538	769.81
352.765	760.81
352.992	785.81
353.22	758.81
353.447	735.81
353.674	770.81
353.901	773.81
354.128	742.81
354.355	743.81
354.583	757.81
354.81	783.81
355.037	775.81
355.264	767.81
355.491	768.81
355.718	772.81
355.945	780.81
356.172	756.81
356.399	783.81
356.626	791.81
356.853	784.81
357.08	782.81
357.307	779.81
357.534	748.81
357.761	773.81
357.988	781.81
358.215	775.81
358.441	761.81
358.668	765.81
358.895	776.81
359.122	759.81
359.349	783.81
359.576	759.81
359.802	736.81
360.029	759.81
360.256	775.81
360.483	773.81
360.709	768.81
360.936	775.81
361.163	765.81
361.39	779.81
361.616	801.81
361.843	770.81
362.07	803.81
362.296	784.81
362.523	781.81
362.749	762.81
362.976	763.81
363.203	755.81
363.429	751.81
363.656	783.81
363.882	741.81
364.109	754.81
364.335	748.81
364.562	779.81
364.788	719.81
365.015	761.81
365.241	763.81
365.468	758.81
365.694	772.81
365.92	779.81
366.147	761.81
366.373	761.81
366.599	770.81
366.826	757.81
367.052	784.81
367.278	759.81
367.505	778.81
367.731	765.81
367.957	771.81
368.184	776.81
368.41	772.81
368.636	786.81
368.862	808.81
369.089	773.81
369.315	783.81
369.541	824.81
369.767	809.81
369.993	769.81
370.219	778.81
370.445	791.81
370.672	820.81
370.898	813.81
371.124	834.81
371.35	843.81
371.576	858.81
371.802	871.81
372.028	839.81
372.254	835.81
372.48	839.81
372.706	859.81
372.932	886.81
373.158	883.81
373.384	845.81
373.61	842.81
373.835	872.81
374.061	832.81
374.287	837.81
374.513	866.81
374.739	892.81
374.965	914.81
375.191	959.81
375.416	916.81
375.642	876.81
375.868	883.81
376.094	855.81
376.319	847.81
376.545	832.81
376.771	848.81
376.997	854.81
377.222	859.81
377.448	844.81
377.674	835.81
377.899	828.81
378.125	808.81
378.35	823.81
378.576	833.81
378.802	831.81
379.027	823.81
379.253	839.81
379.478	834.81
379.704	848.81
379.929	810.81
380.155	831.81
380.38	853.81
380.606	825.81
380.831	837.81
381.057	867.81
381.282	848.81
381.507	861.81
381.733	867.81
381.958	884.81
382.184	864.81
382.409	885.81
382.634	903.81
382.86	869.81
383.085	905.81
383.31	888.81
383.535	910.81
383.761	944.81
383.986	967.81
384.211	960.81
384.436	960.81
384.662	972.81
384.887	1017.81
385.112	1020.81
385.337	1021.81
385.562	1011.81
385.787	992.81
386.013	1013.81
386.238	1010.81
386.463	1032.81
386.688	1018.81
386.913	1006.81
387.138	1031.81
387.363	1013.81
387.588	985.81
387.813	1000.81
388.038	991.81
388.263	996.81
388.488	1014.81
388.713	1002.81
388.938	976.81
389.163	987.81
389.387	976.81
389.612	955.81
389.837	995.81
390.062	989.81
390.287	1015.81
390.512	1002.81
390.736	1003.81
390.961	1012.81
391.186	1045.81
391.411	1086.81
391.636	1097.81
391.86	1133.81
392.085	1164.81
392.31	1160.81
392.534	1117.81
392.759	1098.81
392.984	1084.81
393.208	1086.81
393.433	1087.81
393.658	1067.81
393.882	1050.81
394.107	1093.81
394.331	1082.81
394.556	1115.81
394.78	1101.81
395.005	1103.81
395.229	1104.81
395.454	1120.81
395.678	1152.81
395.903	1129.81
396.127	1120.81
396.352	1113.81
396.576	1084.81
396.801	1066.81
397.025	1081.81
397.249	1093.81
397.474	1159.81
397.698	1150.81
397.922	1111.81
398.147	1145.81
398.371	1175.81
398.595	1227.81
398.82	1275.81
399.044	1324.81
399.268	1519.81
399.492	1754.81
399.717	2001.81
399.941	1997.81
400.165	1686.81
400.389	1559.81
400.613	1420.81
400.837	1358.81
401.062	1341.81
401.286	1302.81
401.51	1292.81
401.734	1294.81
401.958	1302.81
402.182	1307.81
402.406	1334.81
402.63	1367.81
402.854	1356.81
403.078	1389.81
403.302	1410.81
403.526	1439.81
403.75	1446.81
403.974	1487.81
404.198	1528.81
404.422	1527.81
404.645	1497.81
404.869	1501.81
405.093	1494.81
405.317	1408.81
405.541	1407.81
405.765	1415.81
405.988	1405.81
406.212	1416.81
406.436	1401.81
406.66	1469.81
406.883	1481.81
407.107	1570.81
407.331	1646.81
407.555	1691.81
407.778	1657.81
408.002	1648.81
408.226	1579.81
408.449	1520.81
408.673	1465.81
408.896	1460.81
409.12	1445.81
409.344	1434.81
409.567	1449.81
409.791	1460.81
410.014	1421.81
410.238	1425.81
410.461	1437.81
410.685	1448.81
410.908	1417.81
411.132	1363.81
411.355	1349.81
411.578	1322.81
411.802	1337.81
412.025	1313.81
412.249	1358.81
412.472	1368.81
412.695	1291.81
412.919	1259.81
413.142	1304.81
413.365	1307.81
413.589	1317.81
413.812	1284.81
414.035	1268.81
414.258	1278.81
414.482	1283.81
414.705	1306.81
414.928	1292.81
415.151	1303.81
415.374	1262.81
415.597	1264.81
415.821	1259.81
416.044	1295.81
416.267	1216.81
416.49	1235.81
416.713	1199.81
416.936	1275.81
417.159	1272.81
417.382	1256.81
417.605	1249.81
417.828	1269.81
418.051	1318.81
418.274	1279.81
418.497	1250.81
418.72	1290.81
418.943	1335.81
419.166	1391.81
419.389	1479.81
419.611	1429.81
419.834	1393.81
420.057	1341.81
420.28	1295.81
420.503	1252.81
420.726	1246.81
420.948	1257.81
421.171	1236.81
421.394	1240.81
421.617	1263.81
421.839	1273.81
422.062	1271.81
422.285	1241.81
422.507	1304.81
422.73	1287.81
422.953	1341.81
423.175	1315.81
423.398	1321.81
423.621	1371.81
423.843	1371.81
424.066	1332.81
424.288	1315.81
424.511	1345.81
424.733	1310.81
424.956	1302.81
425.178	1308.81
425.401	1270.81
425.623	1250.81
425.846	1220.81
426.068	1240.81
426.291	1219.81
426.513	1182.81
426.735	1208.81
426.958	1191.81
427.18	1146.81
427.402	1161.81
427.625	1157.81
427.847	1128.81
428.069	1131.81
428.292	1157.81
428.514	1120.81
428.736	1119.81
428.958	1118.81
429.181	1092.81
429.403	1067.81
429.625	1107.81
429.847	1098.81
430.069	1115.81
430.292	1102.81
430.514	1121.81
430.736	1121.81
430.958	1141.81
431.18	1077.81
431.402	1093.81
431.624	1099.81
431.846	1103.81
432.068	1143.81
432.29	1169.81
432.512	1143.81
432.734	1107.81
432.956	1131.81
433.178	1156.81
433.4	1115.81
433.622	1089.81
433.844	1147.81
434.066	1172.81
434.287	1155.81
434.509	1182.81
434.731	1237.81
434.953	1264.81
435.175	1254.81
435.397	1248.81
435.618	1182.81
435.84	1150.81
436.062	1107.81
436.284	1117.81
436.505	1121.81
436.727	1155.81
436.949	1155.81
437.17	1141.81
437.392	1110.81
437.614	1095.81
437.835	1053.81
438.057	1089.81
438.278	1040.81
438.5	1076.81
438.721	1075.81
438.943	1081.81
439.165	1107.81
439.386	1112.81
439.608	1138.81
439.829	1124.81
440.05	1141.81
440.272	1106.81
440.493	1135.81
440.715	1216.81
440.936	1144.81
441.158	1172.81
441.379	1207.81
441.6	1262.81
441.822	1270.81
442.043	1283.81
442.264	1246.81
442.486	1212.81
442.707	1248.81
442.928	1239.81
443.149	1262.81
443.371	1255.81
443.592	1227.81
443.813	1260.81
444.034	1303.81
444.255	1337.81
444.476	1366.81
444.698	1468.81
444.919	1561.81
445.14	1627.81
445.361	1451.81
445.582	1310.81
445.803	1251.81
446.024	1209.81
446.245	1157.81
446.466	1184.81
446.687	1149.81
446.908	1151.81
447.129	1120.81
447.35	1123.81
447.571	1079.81
447.792	1059.81
448.013	1077.81
448.234	1054.81
448.455	1058.81
448.675	1011.81
448.896	1043.81
449.117	1020.81
449.338	1014.81
449.559	1016.81
449.779	1012.81
450	1027.81
450.221	1039.81
450.442	1035.81
450.662	1037.81
450.883	1044.81
451.104	1041.81
451.324	1056.81
451.545	1052.81
451.766	1053.81
451.986	1038.81
452.207	1048.81
452.428	1025.81
452.648	1001.81
452.869	967.81
453.089	979.81
453.31	1010.81
453.53	1027.81
453.751	976.81
453.971	994.81
454.192	995.81
454.412	972.81
454.633	971.81
454.853	973.81
455.073	973.81
455.294	972.81
455.514	959.81
455.734	941.81
455.955	944.81
456.175	930.81
456.395	973.81
456.616	968.81
456.836	923.81
457.056	936.81
457.276	923.81
457.497	977.81
457.717	945.81
457.937	957.81
458.157	985.81
458.377	997.81
458.598	1021.81
458.818	1042.81
459.038	1055.81
459.258	1104.81
459.478	1132.81
459.698	1156.81
459.918	1187.81
460.138	1232.81
460.358	1291.81
460.578	1347.81
460.798	1371.81
461.018	1363.81
461.238	1342.81
461.458	1343.81
461.678	1312.81
461.898	1336.81
462.118	1364.81
462.338	1426.81
462.558	1437.81
462.777	1507.81
462.997	1624.81
463.217	1831.81
463.437	1809.81
463.657	1676.81
463.876	1568.81
464.096	1556.81
464.316	1567.81
464.536	1553.81
464.755	1523.81
464.975	1445.81
465.195	1375.81
465.414	1297.81
465.634	1223.81
465.854	1196.81
466.073	1159.81
466.293	1153.81
466.512	1102.81
466.732	1099.81
466.951	1063.81
467.171	1091.81
467.391	1083.81
467.61	1076.81
467.829	1049.81
468.049	1075.81
468.268	1037.81
468.488	1023.81
468.707	1025.81
468.927	1006.81
469.146	1040.81
469.365	1045.81
469.585	1033.81
469.804	1081.81
470.023	1084.81
470.243	1117.81
470.462	1137.81
470.681	1141.81
470.901	1116.81
471.12	1113.81
471.339	1075.81
471.558	1063.81
471.777	1053.81
471.997	1041.81
472.216	1016.81
472.435	1029.81
472.654	1015.81
472.873	991.81
473.092	986.81
473.311	1004.81
473.53	1037.81
473.749	1001.81
473.968	992.81
474.187	979.81
474.406	1019.81
474.625	1031.81
474.844	989.81
475.063	969.81
475.282	985.81
475.501	990.81
475.72	1042.81
475.939	1052.81
476.158	1028.81
476.377	1051.81
476.596	1040.81
476.814	1064.81
477.033	1062.81
477.252	1087.81
477.471	1093.81
477.69	1125.81
477.908	1158.81
478.127	1190.81
478.346	1190.81
478.564	1222.81
478.783	1254.81
479.002	1269.81
479.22	1269.81
479.439	1288.81
479.658	1260.81
479.876	1217.81
480.095	1235.81
480.313	1329.81
480.532	1353.81
480.751	1361.81
480.969	1300.81
481.188	1231.81
481.406	1226.81
481.624	1156.81
481.843	1153.81
482.061	1120.81
482.28	1144.81
482.498	1121.81
482.717	1117.81
482.935	1125.81
483.153	1135.81
483.372	1119.81
483.59	1134.81
483.808	1140.81
484.027	1134.81
484.245	1153.81
484.463	1157.81
484.681	1180.81
484.9	1182.81
485.118	1192.81
485.336	1207.81
485.554	1168.81
485.772	1181.81
485.99	1175.81
486.209	1192.81
486.427	1177.81
486.645	1163.81
486.863	1175.81
487.081	1192.81
487.299	1217.81
487.517	1212.81
487.735	1199.81
487.953	1192.81
488.171	1203.81
488.389	1177.81
488.607	1161.81
488.825	1154.81
489.043	1165.81
489.261	1172.81
489.479	1174.81
489.696	1174.81
489.914	1167.81
490.132	1194.81
490.35	1192.81
490.568	1221.81
490.786	1216.81
491.003	1207.81
491.221	1192.81
491.439	1203.81
491.657	1221.81
491.874	1211.81
492.092	1199.81
492.31	1230.81
492.527	1229.81
492.745	1235.81
492.963	1231.81
493.18	1261.81
493.398	1251.81
493.615	1240.81
493.833	1267.81
494.05	1296.81
494.268	1287.81
494.485	1313.81
494.703	1264.81
494.92	1234.81
495.138	1237.81
495.355	1276.81
