Data from NiCl2@0.25M.TitratingCurve.Agarose3%dH2O.NegLispCup.LampEnergy10.LIBS07252019_HRD10591_18-24-59-573.txt Node
Date: Thu Jul 25 18:24:59 EDT 2019
User: cochatt
Spectrometer: HR+D1059
Trigger mode: 1
Integration Time (sec): 1.000000E-1
Scans to average: 1
Electric dark correction enabled: true
Nonlinearity correction enabled: false
Boxcar width: 0
XAxis mode: Wavelengths
Number of Pixels in Spectrum: 2048
>>>>>Begin Spectral Data<<<<<
223.165	-11
223.4	-11
223.635	-11
223.869	-18
224.104	-16
224.338	-1
224.573	-17
224.808	-13
225.042	-2
225.277	-17
225.511	-4
225.746	4
225.98	7
226.215	14
226.449	10
226.683	18
226.918	24
227.152	22
227.387	45
227.621	32
227.856	50
228.09	44
228.324	47
228.559	43
228.793	70
229.027	104
229.262	113
229.496	114
229.73	128
229.964	126
230.199	131
230.433	127
230.667	130
230.901	133
231.136	134
231.37	144
231.604	118
231.838	137
232.072	147
232.306	149
232.541	151
232.775	153
233.009	147
233.243	151
233.477	164
233.711	164
233.945	153
234.179	145
234.413	165
234.647	144
234.881	156
235.115	150
235.349	161
235.583	156
235.817	154
236.051	164
236.285	168
236.519	156
236.753	161
236.987	160
237.221	159
237.455	149
237.689	151
237.922	170
238.156	165
238.39	174
238.624	161
238.858	144
239.091	169
239.325	172
239.559	168
239.793	178
240.027	182
240.26	182
240.494	179
240.728	176
240.961	177
241.195	187
241.429	198
241.662	185
241.896	169
242.13	192
242.363	193
242.597	205
242.83	194
243.064	188
243.298	195
243.531	197
243.765	215
243.998	205
244.232	191
244.465	214
244.699	219
244.932	217
245.166	213
245.399	219
245.633	215
245.866	215
246.099	212
246.333	230
246.566	209
246.8	229
247.033	228
247.266	223
247.5	234
247.733	250
247.966	245
248.2	240
248.433	250
248.666	250
248.899	232
249.133	245
249.366	238
249.599	258
249.832	245
250.066	261
250.299	259
250.532	263
250.765	278
250.998	267
251.231	265
251.465	285
251.698	266
251.931	278
252.164	267
252.397	273
252.63	264
252.863	276
253.096	290
253.329	290
253.562	275
253.795	289
254.028	274
254.261	275
254.494	277
254.727	278
254.96	281
255.193	282
255.426	261
255.659	286
255.892	288
256.124	293
256.357	302
256.59	290
256.823	318
257.056	316
257.289	301
257.521	306
257.754	301
257.987	315
258.22	319
258.452	324
258.685	323
258.918	314
259.151	315
259.383	304
259.616	313
259.849	316
260.081	330
260.314	328
260.547	329
260.779	329
261.012	324
261.244	328
261.477	339
261.71	334
261.942	353
262.175	351
262.407	329
262.64	349
262.872	334
263.105	339
263.337	334
263.57	321
263.802	360
264.035	342
264.267	345
264.499	353
264.732	355
264.964	365
265.197	357
265.429	345
265.661	365
265.894	361
266.126	368
266.358	338
266.591	376
266.823	382
267.055	366
267.287	381
267.52	389
267.752	373
267.984	372
268.216	375
268.448	379
268.681	387
268.913	371
269.145	390
269.377	390
269.609	394
269.841	395
270.073	386
270.306	382
270.538	383
270.77	388
271.002	406
271.234	378
271.466	389
271.698	397
271.93	383
272.162	390
272.394	409
272.626	386
272.858	383
273.09	424
273.322	403
273.553	401
273.785	415
274.017	421
274.249	398
274.481	409
274.713	408
274.945	432
275.176	461
275.408	412
275.64	432
275.872	439
276.104	452
276.335	411
276.567	416
276.799	430
277.031	440
277.262	431
277.494	450
277.726	447
277.957	443
278.189	435
278.421	432
278.652	432
278.884	455
279.115	437
279.347	446
279.579	455
279.81	463
280.042	442
280.273	462
280.505	462
280.736	463
280.968	469
281.199	446
281.431	454
281.662	494
281.894	482
282.125	492
282.356	478
282.588	465
282.819	478
283.051	481
283.282	483
283.513	483
283.745	497
283.976	498
284.207	485
284.439	486
284.67	489
284.901	502
285.132	492
285.364	500
285.595	503
285.826	508
286.057	494
286.288	506
286.52	507
286.751	517
286.982	519
287.213	528
287.444	513
287.675	502
287.906	546
288.138	532
288.369	525
288.6	538
288.831	532
289.062	535
289.293	537
289.524	539
289.755	532
289.986	523
290.217	522
290.448	546
290.679	533
290.91	533
291.141	528
291.371	542
291.602	529
291.833	530
292.064	551
292.295	529
292.526	565
292.757	542
292.987	524
293.218	546
293.449	565
293.68	540
293.91	514
294.141	550
294.372	529
294.603	559
294.833	559
295.064	534
295.295	542
295.525	556
295.756	548
295.987	554
296.217	546
296.448	563
296.679	552
296.909	580
297.14	567
297.37	558
297.601	578
297.831	564
298.062	600
298.292	595
298.523	580
298.753	593
298.984	586
299.214	560
299.445	597
299.675	584
299.905	566
300.136	598
300.366	601
300.597	603
300.827	597
301.057	617
301.288	605
301.518	617
301.748	629
301.979	644
302.209	636
302.439	623
302.669	617
302.9	604
303.13	601
303.36	608
303.59	615
303.82	625
304.051	621
304.281	614
304.511	617
304.741	622
304.971	605
305.201	621
305.431	620
305.661	616
305.891	609
306.121	608
306.352	594
306.582	584
306.812	604
307.042	626
307.272	596
307.502	592
307.731	610
307.961	630
308.191	592
308.421	599
308.651	613
308.881	602
309.111	606
309.341	590
309.571	591
309.8	587
310.03	581
310.26	593
310.49	590
310.72	596
310.949	593
311.179	615
311.409	615
311.639	626
311.868	611
312.098	628
312.328	632
312.557	616
312.787	625
313.017	636
313.246	644
313.476	632
313.706	645
313.935	646
314.165	665
314.394	646
314.624	629
314.853	662
315.083	632
315.312	655
315.542	640
315.771	647
316.001	637
316.23	643
316.46	646
316.689	614
316.919	640
317.148	649
317.377	651
317.607	648
317.836	634
318.065	634
318.295	630
318.524	625
318.753	632
318.983	636
319.212	606
319.441	643
319.67	651
319.9	644
320.129	625
320.358	640
320.587	653
320.816	622
321.046	634
321.275	627
321.504	633
321.733	648
321.962	629
322.191	639
322.42	640
322.649	639
322.878	643
323.108	626
323.337	648
323.566	664
323.795	678
324.024	662
324.253	672
324.482	643
324.71	671
324.939	658
325.168	690
325.397	666
325.626	690
325.855	672
326.084	697
326.313	697
326.542	701
326.77	697
326.999	698
327.228	698
327.457	696
327.686	703
327.914	702
328.143	708
328.372	692
328.6	695
328.829	687
329.058	714
329.287	741
329.515	719
329.744	684
329.972	717
330.201	728
330.43	702
330.658	702
330.887	738
331.115	750
331.344	735
331.572	751
331.801	749
332.03	780
332.258	769
332.486	806
332.715	819
332.943	863
333.172	884
333.4	934
333.629	958
333.857	941
334.085	930
334.314	925
334.542	893
334.771	912
334.999	896
335.227	889
335.455	884
335.684	849
335.912	872
336.14	846
336.369	868
336.597	851
336.825	858
337.053	832
337.281	814
337.51	793
337.738	797
337.966	798
338.194	773
338.422	768
338.65	774
338.878	732
339.106	759
339.334	752
339.562	741
339.79	751
340.018	738
340.246	732
340.474	726
340.702	731
340.93	712
341.158	755
341.386	734
341.614	727
341.842	754
342.07	744
342.298	729
342.526	738
342.754	741
342.981	725
343.209	713
343.437	775
343.665	854
343.893	897
344.12	919
344.348	862
344.576	840
344.804	802
345.031	766
345.259	766
345.487	736
345.714	724
345.942	733
346.17	720
346.397	720
346.625	696
346.853	704
347.08	719
347.308	720
347.535	726
347.763	726
347.99	715
348.218	742
348.445	711
348.673	713
348.9	719
349.128	691
349.355	694
349.583	694
349.81	688
350.037	680
350.265	696
350.492	690
350.72	684
350.947	686
351.174	703
351.402	667
351.629	688
351.856	670
352.083	674
352.311	668
352.538	673
352.765	693
352.992	696
353.22	700
353.447	682
353.674	688
353.901	683
354.128	670
354.355	658
354.583	679
354.81	655
355.037	702
355.264	656
355.491	681
355.718	677
355.945	676
356.172	679
356.399	687
356.626	668
356.853	681
357.08	686
357.307	682
357.534	701
357.761	696
357.988	681
358.215	685
358.441	687
358.668	682
358.895	695
359.122	698
359.349	655
359.576	678
359.802	675
360.029	673
360.256	689
360.483	677
360.709	660
360.936	685
361.163	704
361.39	684
361.616	680
361.843	686
362.07	695
362.296	706
362.523	698
362.749	677
362.976	676
363.203	671
363.429	686
363.656	673
363.882	670
364.109	686
364.335	673
364.562	680
364.788	679
365.015	664
365.241	708
365.468	688
365.694	687
365.92	679
366.147	670
366.373	678
366.599	690
366.826	680
367.052	686
367.278	694
367.505	681
367.731	686
367.957	686
368.184	698
368.41	706
368.636	701
368.862	713
369.089	696
369.315	700
369.541	698
369.767	697
369.993	713
370.219	706
370.445	704
370.672	716
370.898	715
371.124	749
371.35	738
371.576	727
371.802	752
372.028	726
372.254	737
372.48	748
372.706	764
372.932	802
373.158	770
373.384	770
373.61	728
373.835	752
374.061	759
374.287	751
374.513	759
374.739	763
374.965	818
375.191	819
375.416	801
375.642	807
375.868	800
376.094	782
376.319	767
376.545	748
376.771	722
376.997	746
377.222	751
377.448	740
377.674	728
377.899	728
378.125	732
378.35	723
378.576	732
378.802	712
379.027	718
379.253	753
379.478	712
379.704	752
379.929	710
380.155	734
380.38	738
380.606	746
380.831	730
381.057	726
381.282	705
381.507	754
381.733	737
381.958	735
382.184	737
382.409	775
382.634	770
382.86	774
383.085	808
383.31	819
383.535	835
383.761	832
383.986	836
384.211	844
384.436	880
384.662	882
384.887	922
385.112	889
385.337	890
385.562	884
385.787	898
386.013	897
386.238	936
386.463	910
386.688	925
386.913	895
387.138	888
387.363	886
387.588	905
387.813	895
388.038	882
388.263	893
388.488	900
388.713	902
388.938	885
389.163	870
389.387	876
389.612	870
389.837	871
390.062	864
390.287	882
390.512	878
390.736	876
390.961	915
391.186	912
391.411	936
391.636	1001
391.86	1000
392.085	996
392.31	1012
392.534	982
392.759	962
392.984	937
393.208	947
393.433	954
393.658	952
393.882	956
394.107	949
394.331	986
394.556	962
394.78	975
395.005	952
395.229	978
395.454	1001
395.678	1047
395.903	1011
396.127	986
396.352	969
396.576	950
396.801	937
397.025	952
397.249	960
397.474	1007
397.698	1033
397.922	1021
398.147	992
398.371	1028
398.595	1047
398.82	1125
399.044	1207
399.268	1306
399.492	1535
399.717	1748
399.941	1716
400.165	1534
400.389	1369
400.613	1247
400.837	1197
401.062	1186
401.286	1125
401.51	1131
401.734	1135
401.958	1129
402.182	1133
402.406	1158
402.63	1170
402.854	1198
403.078	1223
403.302	1256
403.526	1258
403.75	1305
403.974	1336
404.198	1339
404.422	1327
404.645	1296
404.869	1317
405.093	1305
405.317	1236
405.541	1248
405.765	1238
405.988	1232
406.212	1214
406.436	1236
406.66	1265
406.883	1280
407.107	1372
407.331	1413
407.555	1445
407.778	1483
408.002	1400
408.226	1346
408.449	1355
408.673	1296
408.896	1269
409.12	1258
409.344	1279
409.567	1262
409.791	1254
410.014	1275
410.238	1273
410.461	1234
410.685	1241
410.908	1210
411.132	1206
411.355	1156
411.578	1173
411.802	1180
412.025	1170
412.249	1178
412.472	1172
412.695	1152
412.919	1139
413.142	1153
413.365	1123
413.589	1138
413.812	1129
414.035	1101
414.258	1140
414.482	1141
414.705	1140
414.928	1113
415.151	1125
415.374	1161
415.597	1126
415.821	1089
416.044	1090
416.267	1104
416.49	1124
416.713	1061
416.936	1092
417.159	1126
417.382	1081
417.605	1088
417.828	1102
418.051	1112
418.274	1105
418.497	1136
418.72	1132
418.943	1135
419.166	1203
419.389	1305
419.611	1244
419.834	1219
420.057	1180
420.28	1120
420.503	1105
420.726	1071
420.948	1058
421.171	1096
421.394	1108
421.617	1090
421.839	1109
422.062	1135
422.285	1095
422.507	1130
422.73	1145
422.953	1137
423.175	1169
423.398	1157
423.621	1167
423.843	1203
424.066	1162
424.288	1181
424.511	1150
424.733	1160
424.956	1136
425.178	1138
425.401	1106
425.623	1093
425.846	1074
426.068	1070
426.291	1044
426.513	1030
426.735	1019
426.958	1015
427.18	1019
427.402	1021
427.625	998
427.847	978
428.069	988
428.292	996
428.514	1002
428.736	989
428.958	979
429.181	947
429.403	946
429.625	947
429.847	962
430.069	924
430.292	955
430.514	945
430.736	957
430.958	956
431.18	941
431.402	952
431.624	977
431.846	1006
432.068	997
432.29	1008
432.512	967
432.734	989
432.956	959
433.178	983
433.4	952
433.622	965
433.844	997
434.066	1008
434.287	996
434.509	1052
434.731	1075
434.953	1097
435.175	1124
435.397	1103
435.618	1072
435.84	1007
436.062	1004
436.284	986
436.505	943
436.727	992
436.949	976
437.17	970
437.392	956
437.614	928
437.835	931
438.057	929
438.278	957
438.5	934
438.721	902
438.943	921
439.165	946
439.386	954
439.608	957
439.829	967
440.05	959
440.272	982
440.493	956
440.715	996
440.936	996
441.158	1028
441.379	1043
441.6	1094
441.822	1108
442.043	1114
442.264	1086
442.486	1056
442.707	1098
442.928	1064
443.149	1091
443.371	1086
443.592	1076
443.813	1093
444.034	1110
444.255	1142
444.476	1202
444.698	1251
444.919	1322
445.14	1393
445.361	1236
445.582	1158
445.803	1072
446.024	1032
446.245	1013
446.466	1023
446.687	972
446.908	967
447.129	922
447.35	960
447.571	911
447.792	906
448.013	928
448.234	921
448.455	918
448.675	879
448.896	885
449.117	895
449.338	892
449.559	910
449.779	878
450	863
450.221	876
450.442	912
450.662	910
450.883	956
451.104	922
451.324	926
451.545	924
451.766	896
451.986	887
452.207	904
452.428	893
452.648	865
452.869	891
453.089	874
453.31	876
453.53	878
453.751	900
453.971	899
454.192	864
454.412	862
454.633	853
454.853	868
455.073	839
455.294	839
455.514	858
455.734	840
455.955	820
456.175	825
456.395	821
456.616	826
456.836	853
457.056	828
457.276	848
457.497	869
457.717	855
457.937	872
458.157	850
458.377	877
458.598	872
458.818	936
459.038	928
459.258	949
459.478	1007
459.698	1005
459.918	1073
460.138	1116
460.358	1132
460.578	1145
460.798	1196
461.018	1190
461.238	1176
461.458	1142
461.678	1140
461.898	1173
462.118	1173
462.338	1236
462.558	1279
462.777	1340
462.997	1433
463.217	1560
463.437	1582
463.657	1432
463.876	1354
464.096	1359
464.316	1346
464.536	1379
464.755	1308
464.975	1277
465.195	1181
465.414	1140
465.634	1072
465.854	1016
466.073	1017
466.293	990
466.512	954
466.732	950
466.951	964
467.171	946
467.391	920
467.61	920
467.829	933
468.049	905
468.268	889
468.488	913
468.707	946
468.927	923
469.146	885
469.365	934
469.585	901
469.804	942
470.023	940
470.243	943
470.462	944
470.681	964
470.901	988
471.12	950
471.339	946
471.558	943
471.777	914
471.997	899
472.216	884
472.435	930
472.654	894
472.873	876
473.092	899
473.311	903
473.53	909
473.749	888
473.968	863
474.187	878
474.406	863
474.625	868
474.844	894
475.063	871
475.282	879
475.501	869
475.72	896
475.939	893
476.158	898
476.377	893
476.596	912
476.814	934
477.033	930
477.252	958
477.471	976
477.69	1002
477.908	1010
478.127	1043
478.346	1057
478.564	1072
478.783	1079
479.002	1125
479.22	1156
479.439	1124
479.658	1071
479.876	1106
480.095	1122
480.313	1144
480.532	1198
480.751	1196
480.969	1123
481.188	1072
481.406	1048
481.624	1047
481.843	1021
482.061	994
482.28	991
482.498	1000
482.717	974
482.935	991
483.153	1016
483.372	1016
483.59	1016
483.808	997
484.027	1021
484.245	989
484.463	1006
484.681	1060
484.9	1045
485.118	1041
485.336	1055
485.554	1056
485.772	1065
485.99	1044
486.209	1061
486.427	1060
486.645	1072
486.863	1064
487.081	1058
487.299	1057
487.517	1057
487.735	1064
487.953	1061
488.171	1051
488.389	1029
488.607	1060
488.825	1005
489.043	1024
489.261	1038
489.479	1031
489.696	1078
489.914	1055
490.132	1041
490.35	1063
490.568	1056
490.786	1048
491.003	1068
491.221	1049
491.439	1104
491.657	1079
491.874	1055
492.092	1088
492.31	1109
492.527	1097
492.745	1077
492.963	1101
493.18	1087
493.398	1113
493.615	1097
493.833	1128
494.05	1126
494.268	1148
494.485	1129
494.703	1112
494.92	1115
495.138	1150
495.355	1149
495.573	1124
495.79	1117
496.008	1151
496.225	1109
496.442	1165
496.66	1164
496.877	1187
497.094	1213
497.312	1244
497.529	1251
497.746	1289
497.963	1328
498.181	1390
498.398	1470
498.615	1487
498.832	1616
499.049	1792
499.267	1897
499.484	2127
499.701	2328
499.918	2572
500.135	2990
500.352	3380
500.569	3559
500.786	3502
501.003	3222
501.22	2895
501.437	2553
501.654	2261
501.871	2032
502.088	1866
502.305	1732
502.522	1646
502.739	1594
502.956	1480
503.172	1426
503.389	1370
503.606	1346
503.823	1305
504.04	1318
504.256	1327
504.473	1377
504.69	1338
504.907	1363
505.123	1268
505.34	1188
505.557	1140
505.773	1136
505.99	1101
506.207	1087
506.423	1034
506.64	1044
506.856	1028
507.073	1031
507.289	1025
507.506	1016
507.722	984
507.939	979
508.155	978
508.372	987
508.588	936
508.805	972
509.021	983
509.238	956
509.454	920
509.67	918
509.887	898
510.103	932
510.319	910
510.536	903
510.752	895
510.968	896
511.184	891
511.401	908
511.617	889
511.833	900
512.049	910
512.265	919
512.481	896
512.698	896
512.914	917
513.13	933
513.346	912
513.562	921
513.778	895
513.994	921
514.21	957
514.426	951
514.642	922
514.858	926
515.074	951
515.29	918
515.506	954
515.721	970
515.937	982
516.153	1014
516.369	1023
516.585	1011
516.801	1082
517.016	1131
517.232	1189
517.448	1253
517.664	1264
517.879	1290
518.095	1300
518.311	1270
518.527	1227
518.742	1154
518.958	1108
519.173	1084
519.389	1029
519.605	992
519.82	967
520.036	1001
520.251	944
520.467	917
520.682	928
520.898	929
521.113	900
521.329	914
521.544	889
521.76	877
521.975	888
522.19	888
522.406	856
522.621	877
522.836	865
523.052	861
523.267	846
523.482	833
523.698	852
523.913	846
524.128	836
524.343	840
524.559	854
524.774	845
524.989	831
525.204	832
525.419	826
525.634	832
525.849	838
526.064	840
526.28	822
526.495	804
526.71	829
526.925	826
527.14	821
527.355	826
527.57	805
527.785	819
527.999	806
528.214	812
528.429	834
528.644	853
528.859	823
529.074	828
529.289	840
529.503	849
529.718	814
529.933	824
530.148	819
530.363	809
530.577	818
530.792	796
531.007	803
531.221	831
531.436	823
531.651	815
531.865	812
532.08	845
532.295	833
532.509	817
532.724	817
532.938	840
533.153	826
533.367	801
533.582	798
533.796	802
534.011	796
534.225	833
534.44	790
534.654	775
534.868	798
535.083	801
535.297	814
535.511	808
535.726	780
535.94	780
536.154	799
536.369	752
536.583	757
536.797	760
537.011	753
537.225	789
537.44	766
537.654	748
537.868	754
538.082	735
538.296	717
538.51	733
538.724	731
538.938	756
539.153	735
539.367	765
539.581	721
539.795	742
540.009	733
540.222	722
540.436	729
540.65	744
540.864	732
541.078	733
541.292	752
541.506	749
541.72	726
541.934	761
542.147	746
542.361	728
542.575	744
542.789	744
543.002	728
543.216	732
543.43	716
543.644	716
543.857	724
544.071	714
544.285	745
544.498	733
544.712	741
544.925	743
545.139	761
545.352	718
545.566	754
545.779	731
545.993	757
546.206	786
546.42	766
546.633	728
546.847	743
547.06	745
547.274	744
547.487	757
547.7	765
547.914	740
548.127	745
548.34	768
548.554	752
548.767	750
548.98	757
549.193	776
549.407	741
549.62	766
549.833	777
550.046	791
550.259	732
550.473	753
550.686	751
550.899	710
551.112	737
551.325	722
551.538	719
551.751	743
551.964	727
552.177	719
552.39	748
552.603	764
552.816	808
553.029	819
553.242	830
553.455	837
553.667	808
553.88	816
554.093	781
554.306	800
554.519	748
554.732	761
554.944	764
555.157	706
555.37	712
555.583	712
555.795	704
556.008	686
556.221	634
556.433	678
556.646	662
556.859	670
557.071	646
557.284	653
