Data from NiCl2@0.0625M.TitratingCurve.Agarose3%dH2O.NegLispCup.LampEnergy10.LIBS07252019_HRD10591_18-34-00-576.txt Node
Date: Thu Jul 25 18:34:00 EDT 2019
User: cochatt
Spectrometer: HR+D1059
Trigger mode: 1
Integration Time (sec): 1.000000E-1
Scans to average: 1
Electric dark correction enabled: true
Nonlinearity correction enabled: false
Boxcar width: 0
XAxis mode: Wavelengths
Number of Pixels in Spectrum: 2048
>>>>>Begin Spectral Data<<<<<
223.165	-13.62
223.4	-13.62
223.635	-13.62
223.869	-9.62
224.104	-20.62
224.338	-26.62
224.573	-0.62
224.808	-8.62
225.042	-2.62
225.277	-10.62
225.511	-16.62
225.746	4.38
225.98	12.38
226.215	18.38
226.449	4.38
226.683	21.38
226.918	17.38
227.152	31.38
227.387	41.38
227.621	43.38
227.856	51.38
228.09	34.38
228.324	50.38
228.559	60.38
228.793	90.38
229.027	136.38
229.262	148.38
229.496	152.38
229.73	150.38
229.964	193.38
230.199	164.38
230.433	171.38
230.667	190.38
230.901	181.38
231.136	187.38
231.37	178.38
231.604	172.38
231.838	186.38
232.072	180.38
232.306	199.38
232.541	206.38
232.775	198.38
233.009	199.38
233.243	210.38
233.477	210.38
233.711	212.38
233.945	217.38
234.179	204.38
234.413	211.38
234.647	210.38
234.881	209.38
235.115	193.38
235.349	202.38
235.583	199.38
235.817	203.38
236.051	212.38
236.285	206.38
236.519	223.38
236.753	220.38
236.987	205.38
237.221	225.38
237.455	220.38
237.689	242.38
237.922	215.38
238.156	228.38
238.39	241.38
238.624	259.38
238.858	255.38
239.091	273.38
239.325	246.38
239.559	231.38
239.793	245.38
240.027	243.38
240.26	244.38
240.494	279.38
240.728	268.38
240.961	254.38
241.195	265.38
241.429	264.38
241.662	290.38
241.896	295.38
242.13	292.38
242.363	277.38
242.597	273.38
242.83	290.38
243.064	294.38
243.298	301.38
243.531	310.38
243.765	323.38
243.998	306.38
244.232	304.38
244.465	296.38
244.699	307.38
244.932	333.38
245.166	337.38
245.399	330.38
245.633	330.38
245.866	324.38
246.099	344.38
246.333	330.38
246.566	336.38
246.8	344.38
247.033	357.38
247.266	349.38
247.5	356.38
247.733	359.38
247.966	366.38
248.2	384.38
248.433	375.38
248.666	362.38
248.899	345.38
249.133	361.38
249.366	378.38
249.599	372.38
249.832	375.38
250.066	386.38
250.299	388.38
250.532	382.38
250.765	391.38
250.998	400.38
251.231	400.38
251.465	385.38
251.698	407.38
251.931	412.38
252.164	411.38
252.397	413.38
252.63	406.38
252.863	427.38
253.096	446.38
253.329	427.38
253.562	431.38
253.795	419.38
254.028	436.38
254.261	449.38
254.494	435.38
254.727	453.38
254.96	444.38
255.193	439.38
255.426	411.38
255.659	449.38
255.892	446.38
256.124	437.38
256.357	444.38
256.59	470.38
256.823	452.38
257.056	470.38
257.289	482.38
257.521	474.38
257.754	470.38
257.987	473.38
258.22	494.38
258.452	498.38
258.685	491.38
258.918	496.38
259.151	496.38
259.383	505.38
259.616	490.38
259.849	520.38
260.081	506.38
260.314	503.38
260.547	499.38
260.779	506.38
261.012	489.38
261.244	518.38
261.477	523.38
261.71	523.38
261.942	537.38
262.175	531.38
262.407	541.38
262.64	525.38
262.872	518.38
263.105	556.38
263.337	545.38
263.57	534.38
263.802	541.38
264.035	522.38
264.267	571.38
264.499	550.38
264.732	539.38
264.964	529.38
265.197	579.38
265.429	570.38
265.661	574.38
265.894	587.38
266.126	582.38
266.358	579.38
266.591	576.38
266.823	575.38
267.055	552.38
267.287	585.38
267.52	589.38
267.752	580.38
267.984	578.38
268.216	597.38
268.448	606.38
268.681	598.38
268.913	591.38
269.145	617.38
269.377	608.38
269.609	606.38
269.841	631.38
270.073	610.38
270.306	614.38
270.538	623.38
270.77	606.38
271.002	631.38
271.234	609.38
271.466	632.38
271.698	642.38
271.93	647.38
272.162	660.38
272.394	609.38
272.626	642.38
272.858	628.38
273.09	641.38
273.322	645.38
273.553	643.38
273.785	656.38
274.017	678.38
274.249	663.38
274.481	662.38
274.713	688.38
274.945	682.38
275.176	688.38
275.408	688.38
275.64	678.38
275.872	682.38
276.104	704.38
276.335	695.38
276.567	708.38
276.799	707.38
277.031	712.38
277.262	710.38
277.494	689.38
277.726	690.38
277.957	698.38
278.189	726.38
278.421	716.38
278.652	742.38
278.884	719.38
279.115	716.38
279.347	727.38
279.579	740.38
279.81	732.38
280.042	750.38
280.273	748.38
280.505	739.38
280.736	744.38
280.968	729.38
281.199	718.38
281.431	785.38
281.662	772.38
281.894	772.38
282.125	765.38
282.356	738.38
282.588	762.38
282.819	776.38
283.051	793.38
283.282	764.38
283.513	786.38
283.745	780.38
283.976	780.38
284.207	786.38
284.439	793.38
284.67	799.38
284.901	843.38
285.132	789.38
285.364	806.38
285.595	822.38
285.826	799.38
286.057	820.38
286.288	816.38
286.52	843.38
286.751	826.38
286.982	824.38
287.213	831.38
287.444	822.38
287.675	839.38
287.906	842.38
288.138	829.38
288.369	831.38
288.6	832.38
288.831	827.38
289.062	841.38
289.293	855.38
289.524	869.38
289.755	871.38
289.986	836.38
290.217	843.38
290.448	870.38
290.679	863.38
290.91	850.38
291.141	884.38
291.371	854.38
291.602	886.38
291.833	870.38
292.064	851.38
292.295	851.38
292.526	873.38
292.757	867.38
292.987	856.38
293.218	888.38
293.449	874.38
293.68	854.38
293.91	886.38
294.141	867.38
294.372	874.38
294.603	899.38
294.833	867.38
295.064	856.38
295.295	896.38
295.525	862.38
295.756	883.38
295.987	874.38
296.217	904.38
296.448	906.38
296.679	891.38
296.909	874.38
297.14	912.38
297.37	920.38
297.601	922.38
297.831	927.38
298.062	900.38
298.292	949.38
298.523	964.38
298.753	975.38
298.984	951.38
299.214	949.38
299.445	966.38
299.675	911.38
299.905	932.38
300.136	946.38
300.366	948.38
300.597	925.38
300.827	947.38
301.057	983.38
301.288	975.38
301.518	978.38
301.748	996.38
301.979	982.38
302.209	1012.38
302.439	1022.38
302.669	1007.38
302.9	998.38
303.13	953.38
303.36	997.38
303.59	987.38
303.82	981.38
304.051	994.38
304.281	987.38
304.511	987.38
304.741	973.38
304.971	999.38
305.201	985.38
305.431	968.38
305.661	987.38
305.891	1002.38
306.121	974.38
306.352	990.38
306.582	986.38
306.812	979.38
307.042	995.38
307.272	974.38
307.502	997.38
307.731	953.38
307.961	975.38
308.191	938.38
308.421	992.38
308.651	966.38
308.881	967.38
309.111	983.38
309.341	984.38
309.571	973.38
309.8	961.38
310.03	995.38
310.26	993.38
310.49	983.38
310.72	986.38
310.949	956.38
311.179	997.38
311.409	1023.38
311.639	997.38
311.868	1027.38
312.098	999.38
312.328	1021.38
312.557	1043.38
312.787	1035.38
313.017	1058.38
313.246	1024.38
313.476	1026.38
313.706	1035.38
313.935	1044.38
314.165	1049.38
314.394	1054.38
314.624	1074.38
314.853	1083.38
315.083	1087.38
315.312	1012.38
315.542	1070.38
315.771	1079.38
316.001	1032.38
316.23	1064.38
316.46	1040.38
316.689	1038.38
316.919	1063.38
317.148	1041.38
317.377	1054.38
317.607	1072.38
317.836	1050.38
318.065	1050.38
318.295	1048.38
318.524	1056.38
318.753	1030.38
318.983	1060.38
319.212	1059.38
319.441	1051.38
319.67	1067.38
319.9	1034.38
320.129	1044.38
320.358	1052.38
320.587	1064.38
320.816	1062.38
321.046	1067.38
321.275	1056.38
321.504	1052.38
321.733	1052.38
321.962	1079.38
322.191	1054.38
322.42	1073.38
322.649	1063.38
322.878	1059.38
323.108	1042.38
323.337	1087.38
323.566	1060.38
323.795	1100.38
324.024	1094.38
324.253	1078.38
324.482	1066.38
324.71	1094.38
324.939	1087.38
325.168	1117.38
325.397	1106.38
325.626	1090.38
325.855	1122.38
326.084	1144.38
326.313	1120.38
326.542	1142.38
326.77	1151.38
326.999	1139.38
327.228	1146.38
327.457	1170.38
327.686	1126.38
327.914	1144.38
328.143	1114.38
328.372	1138.38
328.6	1143.38
328.829	1156.38
329.058	1156.38
329.287	1140.38
329.515	1157.38
329.744	1186.38
329.972	1165.38
330.201	1192.38
330.43	1171.38
330.658	1158.38
330.887	1178.38
331.115	1155.38
331.344	1210.38
331.572	1212.38
331.801	1216.38
332.03	1215.38
332.258	1243.38
332.486	1315.38
332.715	1297.38
332.943	1343.38
333.172	1396.38
333.4	1383.38
333.629	1444.38
333.857	1468.38
334.085	1448.38
334.314	1486.38
334.542	1403.38
334.771	1465.38
334.999	1430.38
335.227	1412.38
335.455	1397.38
335.684	1406.38
335.912	1388.38
336.14	1371.38
336.369	1375.38
336.597	1385.38
336.825	1369.38
337.053	1360.38
337.281	1366.38
337.51	1340.38
337.738	1316.38
337.966	1281.38
338.194	1278.38
338.422	1243.38
338.65	1266.38
338.878	1264.38
339.106	1264.38
339.334	1278.38
339.562	1242.38
339.79	1200.38
340.018	1236.38
340.246	1235.38
340.474	1203.38
340.702	1232.38
340.93	1224.38
341.158	1216.38
341.386	1241.38
341.614	1225.38
341.842	1228.38
342.07	1187.38
342.298	1198.38
342.526	1177.38
342.754	1164.38
342.981	1185.38
343.209	1241.38
343.437	1246.38
343.665	1334.38
343.893	1376.38
344.12	1429.38
344.348	1372.38
344.576	1346.38
344.804	1310.38
345.031	1247.38
345.259	1236.38
345.487	1230.38
345.714	1189.38
345.942	1203.38
346.17	1174.38
346.397	1188.38
346.625	1142.38
346.853	1155.38
347.08	1158.38
347.308	1146.38
347.535	1181.38
347.763	1138.38
347.99	1142.38
348.218	1136.38
348.445	1150.38
348.673	1163.38
348.9	1156.38
349.128	1151.38
349.355	1141.38
349.583	1140.38
349.81	1127.38
350.037	1142.38
350.265	1162.38
350.492	1120.38
350.72	1115.38
350.947	1100.38
351.174	1129.38
351.402	1122.38
351.629	1106.38
351.856	1091.38
352.083	1116.38
352.311	1112.38
352.538	1120.38
352.765	1124.38
352.992	1103.38
353.22	1103.38
353.447	1056.38
353.674	1101.38
353.901	1094.38
354.128	1111.38
354.355	1104.38
354.583	1098.38
354.81	1103.38
355.037	1108.38
355.264	1106.38
355.491	1125.38
355.718	1118.38
355.945	1119.38
356.172	1110.38
356.399	1118.38
356.626	1117.38
356.853	1133.38
357.08	1137.38
357.307	1109.38
357.534	1113.38
357.761	1112.38
357.988	1122.38
358.215	1119.38
358.441	1112.38
358.668	1117.38
358.895	1108.38
359.122	1094.38
359.349	1145.38
359.576	1136.38
359.802	1117.38
360.029	1112.38
360.256	1142.38
360.483	1100.38
360.709	1122.38
360.936	1145.38
361.163	1086.38
361.39	1134.38
361.616	1108.38
361.843	1089.38
362.07	1128.38
362.296	1113.38
362.523	1123.38
362.749	1149.38
362.976	1116.38
363.203	1128.38
363.429	1074.38
363.656	1145.38
363.882	1097.38
364.109	1098.38
364.335	1100.38
364.562	1096.38
364.788	1105.38
365.015	1123.38
365.241	1111.38
365.468	1101.38
365.694	1118.38
365.92	1127.38
366.147	1124.38
366.373	1114.38
366.599	1132.38
366.826	1116.38
367.052	1081.38
367.278	1120.38
367.505	1118.38
367.731	1132.38
367.957	1112.38
368.184	1110.38
368.41	1155.38
368.636	1158.38
368.862	1154.38
369.089	1152.38
369.315	1164.38
369.541	1151.38
369.767	1204.38
369.993	1168.38
370.219	1174.38
370.445	1155.38
370.672	1174.38
370.898	1165.38
371.124	1192.38
371.35	1225.38
371.576	1222.38
371.802	1225.38
372.028	1193.38
372.254	1211.38
372.48	1231.38
372.706	1248.38
372.932	1246.38
373.158	1250.38
373.384	1252.38
373.61	1278.38
373.835	1207.38
374.061	1233.38
374.287	1248.38
374.513	1224.38
374.739	1267.38
374.965	1287.38
375.191	1331.38
375.416	1306.38
375.642	1278.38
375.868	1284.38
376.094	1262.38
376.319	1234.38
376.545	1243.38
376.771	1243.38
376.997	1259.38
377.222	1211.38
377.448	1198.38
377.674	1207.38
377.899	1204.38
378.125	1189.38
378.35	1172.38
378.576	1196.38
378.802	1196.38
379.027	1195.38
379.253	1216.38
379.478	1173.38
379.704	1205.38
379.929	1189.38
380.155	1165.38
380.38	1177.38
380.606	1217.38
380.831	1203.38
381.057	1190.38
381.282	1189.38
381.507	1221.38
381.733	1192.38
381.958	1200.38
382.184	1223.38
382.409	1265.38
382.634	1257.38
382.86	1281.38
383.085	1249.38
383.31	1298.38
383.535	1297.38
383.761	1285.38
383.986	1329.38
384.211	1360.38
384.436	1374.38
384.662	1377.38
384.887	1394.38
385.112	1387.38
385.337	1395.38
385.562	1426.38
385.787	1428.38
386.013	1439.38
386.238	1450.38
386.463	1467.38
386.688	1474.38
386.913	1427.38
387.138	1440.38
387.363	1436.38
387.588	1418.38
387.813	1465.38
388.038	1399.38
388.263	1457.38
388.488	1431.38
388.713	1443.38
388.938	1435.38
389.163	1411.38
389.387	1450.38
389.612	1431.38
389.837	1404.38
390.062	1413.38
390.287	1401.38
390.512	1426.38
390.736	1438.38
390.961	1454.38
391.186	1467.38
391.411	1514.38
391.636	1549.38
391.86	1561.38
392.085	1610.38
392.31	1620.38
392.534	1595.38
392.759	1559.38
392.984	1527.38
393.208	1520.38
393.433	1521.38
393.658	1548.38
393.882	1530.38
394.107	1507.38
394.331	1536.38
394.556	1552.38
394.78	1511.38
395.005	1541.38
395.229	1566.38
395.454	1555.38
395.678	1533.38
395.903	1593.38
396.127	1597.38
396.352	1536.38
396.576	1541.38
396.801	1527.38
397.025	1571.38
397.249	1623.38
397.474	1610.38
397.698	1588.38
397.922	1604.38
398.147	1613.38
398.371	1688.38
398.595	1740.38
398.82	1768.38
399.044	1865.38
399.268	2006.38
399.492	2192.38
399.717	2380.38
399.941	2430.38
400.165	2232.38
400.389	2147.38
400.613	1999.38
400.837	1880.38
401.062	1851.38
401.286	1827.38
401.51	1780.38
401.734	1750.38
401.958	1806.38
402.182	1784.38
402.406	1814.38
402.63	1800.38
402.854	1868.38
403.078	1849.38
403.302	1916.38
403.526	1856.38
403.75	1898.38
403.974	1928.38
404.198	1915.38
404.422	1952.38
404.645	1954.38
404.869	1927.38
405.093	1919.38
405.317	1900.38
405.541	1928.38
405.765	1928.38
405.988	1911.38
406.212	1927.38
406.436	1972.38
406.66	1966.38
406.883	1996.38
407.107	2115.38
407.331	2170.38
407.555	2256.38
407.778	2174.38
408.002	2174.38
408.226	2153.38
408.449	2145.38
408.673	2056.38
408.896	2025.38
409.12	1976.38
409.344	2040.38
409.567	1968.38
409.791	1972.38
410.014	1949.38
410.238	1946.38
410.461	1970.38
410.685	1922.38
410.908	1867.38
411.132	1912.38
411.355	1844.38
411.578	1881.38
411.802	1835.38
412.025	1857.38
412.249	1890.38
412.472	1874.38
412.695	1818.38
412.919	1811.38
413.142	1777.38
413.365	1761.38
413.589	1815.38
413.812	1808.38
414.035	1715.38
414.258	1768.38
414.482	1764.38
414.705	1803.38
414.928	1806.38
415.151	1765.38
415.374	1777.38
415.597	1768.38
415.821	1740.38
416.044	1740.38
416.267	1695.38
416.49	1711.38
416.713	1737.38
416.936	1710.38
417.159	1720.38
417.382	1673.38
417.605	1704.38
417.828	1695.38
418.051	1719.38
418.274	1703.38
418.497	1721.38
418.72	1713.38
418.943	1726.38
419.166	1835.38
419.389	1987.38
419.611	1912.38
419.834	1867.38
420.057	1822.38
420.28	1753.38
420.503	1728.38
420.726	1732.38
420.948	1670.38
421.171	1669.38
421.394	1705.38
421.617	1707.38
421.839	1724.38
422.062	1689.38
422.285	1680.38
422.507	1754.38
422.73	1748.38
422.953	1743.38
423.175	1734.38
423.398	1742.38
423.621	1714.38
423.843	1789.38
424.066	1762.38
424.288	1769.38
424.511	1749.38
424.733	1755.38
424.956	1739.38
425.178	1714.38
425.401	1687.38
425.623	1716.38
425.846	1666.38
426.068	1673.38
426.291	1659.38
426.513	1603.38
426.735	1642.38
426.958	1650.38
427.18	1601.38
427.402	1595.38
427.625	1663.38
427.847	1597.38
428.069	1570.38
428.292	1594.38
428.514	1564.38
428.736	1548.38
428.958	1566.38
429.181	1530.38
429.403	1547.38
429.625	1526.38
429.847	1508.38
430.069	1498.38
430.292	1559.38
430.514	1546.38
430.736	1581.38
430.958	1551.38
431.18	1551.38
431.402	1547.38
431.624	1590.38
431.846	1610.38
432.068	1575.38
432.29	1598.38
432.512	1572.38
432.734	1600.38
432.956	1590.38
433.178	1574.38
433.4	1599.38
433.622	1625.38
433.844	1625.38
434.066	1607.38
434.287	1632.38
434.509	1665.38
434.731	1724.38
434.953	1759.38
435.175	1752.38
435.397	1729.38
435.618	1629.38
435.84	1633.38
436.062	1568.38
436.284	1594.38
436.505	1575.38
436.727	1570.38
436.949	1586.38
437.17	1578.38
437.392	1507.38
437.614	1499.38
437.835	1480.38
438.057	1498.38
438.278	1482.38
438.5	1456.38
438.721	1473.38
438.943	1525.38
439.165	1492.38
439.386	1515.38
439.608	1550.38
439.829	1514.38
440.05	1523.38
440.272	1550.38
440.493	1510.38
440.715	1544.38
440.936	1582.38
441.158	1582.38
441.379	1634.38
441.6	1650.38
441.822	1712.38
442.043	1710.38
442.264	1672.38
442.486	1656.38
442.707	1669.38
442.928	1649.38
443.149	1667.38
443.371	1621.38
443.592	1624.38
443.813	1703.38
444.034	1718.38
444.255	1744.38
444.476	1779.38
444.698	1826.38
444.919	1926.38
445.14	2028.38
445.361	1855.38
445.582	1753.38
445.803	1618.38
446.024	1619.38
446.245	1582.38
446.466	1610.38
446.687	1543.38
446.908	1551.38
447.129	1522.38
447.35	1500.38
447.571	1476.38
447.792	1446.38
448.013	1458.38
448.234	1440.38
448.455	1417.38
448.675	1390.38
448.896	1416.38
449.117	1410.38
449.338	1397.38
449.559	1406.38
449.779	1370.38
450	1376.38
450.221	1399.38
450.442	1394.38
450.662	1390.38
450.883	1424.38
451.104	1389.38
451.324	1399.38
451.545	1359.38
451.766	1395.38
451.986	1347.38
452.207	1346.38
452.428	1379.38
452.648	1365.38
452.869	1320.38
453.089	1361.38
453.31	1400.38
453.53	1365.38
453.751	1306.38
453.971	1352.38
454.192	1355.38
454.412	1300.38
454.633	1346.38
454.853	1314.38
455.073	1296.38
455.294	1335.38
455.514	1301.38
455.734	1300.38
455.955	1255.38
456.175	1302.38
456.395	1282.38
456.616	1333.38
456.836	1337.38
457.056	1288.38
457.276	1319.38
457.497	1332.38
457.717	1309.38
457.937	1324.38
458.157	1308.38
458.377	1338.38
458.598	1395.38
458.818	1440.38
459.038	1423.38
459.258	1472.38
459.478	1525.38
459.698	1600.38
459.918	1616.38
460.138	1614.38
460.358	1745.38
460.578	1733.38
460.798	1755.38
461.018	1761.38
461.238	1777.38
461.458	1758.38
461.678	1740.38
461.898	1768.38
462.118	1762.38
462.338	1847.38
462.558	1872.38
462.777	1943.38
462.997	2102.38
463.217	2188.38
463.437	2198.38
463.657	2089.38
463.876	2035.38
464.096	2035.38
464.316	2020.38
464.536	1972.38
464.755	1954.38
464.975	1902.38
465.195	1830.38
465.414	1710.38
465.634	1667.38
465.854	1613.38
466.073	1534.38
466.293	1557.38
466.512	1498.38
466.732	1514.38
466.951	1485.38
467.171	1419.38
467.391	1468.38
467.61	1464.38
467.829	1462.38
468.049	1456.38
468.268	1406.38
468.488	1416.38
468.707	1379.38
468.927	1404.38
469.146	1414.38
469.365	1426.38
469.585	1409.38
469.804	1468.38
470.023	1444.38
470.243	1481.38
470.462	1514.38
470.681	1508.38
470.901	1515.38
471.12	1498.38
471.339	1447.38
471.558	1473.38
471.777	1481.38
471.997	1452.38
472.216	1402.38
472.435	1400.38
472.654	1407.38
472.873	1371.38
473.092	1400.38
473.311	1412.38
473.53	1410.38
473.749	1388.38
473.968	1426.38
474.187	1428.38
474.406	1403.38
474.625	1424.38
474.844	1439.38
475.063	1400.38
475.282	1433.38
475.501	1410.38
475.72	1464.38
475.939	1460.38
476.158	1488.38
476.377	1475.38
476.596	1461.38
476.814	1482.38
477.033	1478.38
477.252	1530.38
477.471	1529.38
477.69	1542.38
477.908	1610.38
478.127	1627.38
478.346	1661.38
478.564	1705.38
478.783	1710.38
479.002	1759.38
479.22	1781.38
479.439	1755.38
479.658	1723.38
479.876	1793.38
480.095	1788.38
480.313	1854.38
480.532	1856.38
480.751	1853.38
480.969	1787.38
481.188	1781.38
481.406	1764.38
481.624	1692.38
481.843	1717.38
482.061	1694.38
482.28	1707.38
482.498	1720.38
482.717	1694.38
482.935	1704.38
483.153	1766.38
483.372	1743.38
483.59	1756.38
483.808	1786.38
484.027	1781.38
484.245	1787.38
484.463	1828.38
484.681	1790.38
484.9	1817.38
485.118	1832.38
485.336	1842.38
485.554	1922.38
485.772	1884.38
485.99	1908.38
486.209	1910.38
486.427	1925.38
486.645	1931.38
486.863	1895.38
487.081	1854.38
487.299	1855.38
487.517	1871.38
487.735	1864.38
487.953	1866.38
488.171	1827.38
488.389	1843.38
488.607	1812.38
488.825	1806.38
489.043	1803.38
489.261	1758.38
489.479	1750.38
489.696	1740.38
489.914	1766.38
490.132	1776.38
490.35	1758.38
490.568	1745.38
