Data from NiCl2@0.0625M.TitratingCurve.Agarose3%dH2O.NegLispCup.LampEnergy10.LIBS07252019_HRD10591_18-35-41-577.txt Node
Date: Thu Jul 25 18:35:41 EDT 2019
User: cochatt
Spectrometer: HR+D1059
Trigger mode: 1
Integration Time (sec): 1.000000E-1
Scans to average: 1
Electric dark correction enabled: true
Nonlinearity correction enabled: false
Boxcar width: 0
XAxis mode: Wavelengths
Number of Pixels in Spectrum: 2048
>>>>>Begin Spectral Data<<<<<
223.165	-17.62
223.4	-17.62
223.635	-17.62
223.869	-10.62
224.104	-26.62
224.338	-21.62
224.573	-19.62
224.808	-14.62
225.042	0.38
225.277	-12.62
225.511	8.38
225.746	12.38
225.98	8.38
226.215	12.38
226.449	7.38
226.683	21.38
226.918	20.38
227.152	32.38
227.387	38.38
227.621	30.38
227.856	38.38
228.09	51.38
228.324	38.38
228.559	55.38
228.793	76.38
229.027	114.38
229.262	129.38
229.496	127.38
229.73	125.38
229.964	140.38
230.199	158.38
230.433	148.38
230.667	152.38
230.901	160.38
231.136	151.38
231.37	162.38
231.604	155.38
231.838	164.38
232.072	153.38
232.306	167.38
232.541	163.38
232.775	174.38
233.009	161.38
233.243	165.38
233.477	157.38
233.711	171.38
233.945	173.38
234.179	171.38
234.413	169.38
234.647	158.38
234.881	166.38
235.115	166.38
235.349	168.38
235.583	173.38
235.817	168.38
236.051	164.38
236.285	184.38
236.519	189.38
236.753	184.38
236.987	171.38
237.221	185.38
237.455	196.38
237.689	194.38
237.922	194.38
238.156	200.38
238.39	172.38
238.624	188.38
238.858	203.38
239.091	196.38
239.325	204.38
239.559	202.38
239.793	199.38
240.027	217.38
240.26	210.38
240.494	212.38
240.728	186.38
240.961	195.38
241.195	221.38
241.429	230.38
241.662	223.38
241.896	224.38
242.13	225.38
242.363	224.38
242.597	233.38
242.83	247.38
243.064	242.38
243.298	257.38
243.531	236.38
243.765	240.38
243.998	236.38
244.232	242.38
244.465	233.38
244.699	266.38
244.932	242.38
245.166	260.38
245.399	256.38
245.633	262.38
245.866	253.38
246.099	247.38
246.333	270.38
246.566	256.38
246.8	262.38
247.033	289.38
247.266	267.38
247.5	267.38
247.733	277.38
247.966	280.38
248.2	258.38
248.433	286.38
248.666	268.38
248.899	293.38
249.133	280.38
249.366	282.38
249.599	304.38
249.832	283.38
250.066	297.38
250.299	293.38
250.532	265.38
250.765	293.38
250.998	298.38
251.231	303.38
251.465	304.38
251.698	304.38
251.931	328.38
252.164	325.38
252.397	301.38
252.63	320.38
252.863	328.38
253.096	317.38
253.329	332.38
253.562	324.38
253.795	330.38
254.028	346.38
254.261	321.38
254.494	323.38
254.727	335.38
254.96	334.38
255.193	342.38
255.426	340.38
255.659	345.38
255.892	356.38
256.124	368.38
256.357	344.38
256.59	342.38
256.823	357.38
257.056	365.38
257.289	353.38
257.521	352.38
257.754	356.38
257.987	357.38
258.22	378.38
258.452	368.38
258.685	379.38
258.918	371.38
259.151	360.38
259.383	362.38
259.616	356.38
259.849	369.38
260.081	361.38
260.314	375.38
260.547	383.38
260.779	377.38
261.012	375.38
261.244	376.38
261.477	401.38
261.71	383.38
261.942	389.38
262.175	412.38
262.407	377.38
262.64	390.38
262.872	392.38
263.105	402.38
263.337	404.38
263.57	408.38
263.802	402.38
264.035	413.38
264.267	424.38
264.499	408.38
264.732	407.38
264.964	422.38
265.197	418.38
265.429	409.38
265.661	432.38
265.894	429.38
266.126	436.38
266.358	421.38
266.591	436.38
266.823	433.38
267.055	428.38
267.287	428.38
267.52	429.38
267.752	429.38
267.984	442.38
268.216	457.38
268.448	438.38
268.681	419.38
268.913	429.38
269.145	444.38
269.377	460.38
269.609	455.38
269.841	456.38
270.073	446.38
270.306	469.38
270.538	445.38
270.77	463.38
271.002	454.38
271.234	487.38
271.466	497.38
271.698	448.38
271.93	471.38
272.162	465.38
272.394	478.38
272.626	470.38
272.858	474.38
273.09	468.38
273.322	487.38
273.553	490.38
273.785	481.38
274.017	499.38
274.249	508.38
274.481	501.38
274.713	467.38
274.945	475.38
275.176	502.38
275.408	487.38
275.64	500.38
275.872	500.38
276.104	508.38
276.335	507.38
276.567	500.38
276.799	512.38
277.031	528.38
277.262	525.38
277.494	520.38
277.726	532.38
277.957	544.38
278.189	504.38
278.421	527.38
278.652	532.38
278.884	536.38
279.115	538.38
279.347	521.38
279.579	556.38
279.81	535.38
280.042	546.38
280.273	542.38
280.505	548.38
280.736	541.38
280.968	540.38
281.199	568.38
281.431	541.38
281.662	558.38
281.894	580.38
282.125	546.38
282.356	588.38
282.588	561.38
282.819	580.38
283.051	572.38
283.282	568.38
283.513	575.38
283.745	592.38
283.976	578.38
284.207	589.38
284.439	586.38
284.67	584.38
284.901	602.38
285.132	600.38
285.364	597.38
285.595	604.38
285.826	588.38
286.057	625.38
286.288	604.38
286.52	599.38
286.751	619.38
286.982	623.38
287.213	604.38
287.444	608.38
287.675	610.38
287.906	614.38
288.138	606.38
288.369	608.38
288.6	604.38
288.831	613.38
289.062	623.38
289.293	635.38
289.524	621.38
289.755	615.38
289.986	622.38
290.217	623.38
290.448	618.38
290.679	637.38
290.91	640.38
291.141	634.38
291.371	628.38
291.602	636.38
291.833	620.38
292.064	653.38
292.295	636.38
292.526	653.38
292.757	661.38
292.987	633.38
293.218	622.38
293.449	643.38
293.68	636.38
293.91	632.38
294.141	626.38
294.372	631.38
294.603	654.38
294.833	648.38
295.064	626.38
295.295	641.38
295.525	657.38
295.756	663.38
295.987	656.38
296.217	641.38
296.448	652.38
296.679	660.38
296.909	651.38
297.14	667.38
297.37	670.38
297.601	658.38
297.831	698.38
298.062	670.38
298.292	651.38
298.523	709.38
298.753	706.38
298.984	684.38
299.214	708.38
299.445	664.38
299.675	689.38
299.905	681.38
300.136	691.38
300.366	671.38
300.597	685.38
300.827	707.38
301.057	716.38
301.288	706.38
301.518	706.38
301.748	713.38
301.979	690.38
302.209	725.38
302.439	729.38
302.669	726.38
302.9	729.38
303.13	713.38
303.36	722.38
303.59	704.38
303.82	725.38
304.051	737.38
304.281	739.38
304.511	715.38
304.741	698.38
304.971	714.38
305.201	721.38
305.431	720.38
305.661	710.38
305.891	722.38
306.121	716.38
306.352	708.38
306.582	712.38
306.812	704.38
307.042	719.38
307.272	729.38
307.502	709.38
307.731	710.38
307.961	702.38
308.191	712.38
308.421	707.38
308.651	703.38
308.881	716.38
309.111	718.38
309.341	709.38
309.571	703.38
309.8	705.38
310.03	752.38
310.26	734.38
310.49	720.38
310.72	719.38
310.949	758.38
311.179	741.38
311.409	735.38
311.639	733.38
311.868	737.38
312.098	729.38
312.328	751.38
312.557	753.38
312.787	732.38
313.017	736.38
313.246	764.38
313.476	752.38
313.706	770.38
313.935	740.38
314.165	758.38
314.394	754.38
314.624	775.38
314.853	766.38
315.083	774.38
315.312	755.38
315.542	754.38
315.771	738.38
316.001	772.38
316.23	779.38
316.46	762.38
316.689	742.38
316.919	766.38
317.148	748.38
317.377	742.38
317.607	727.38
317.836	728.38
318.065	766.38
318.295	730.38
318.524	742.38
318.753	756.38
318.983	773.38
319.212	775.38
319.441	725.38
319.67	750.38
319.9	750.38
320.129	739.38
320.358	755.38
320.587	776.38
320.816	770.38
321.046	762.38
321.275	789.38
321.504	756.38
321.733	792.38
321.962	776.38
322.191	772.38
322.42	766.38
322.649	779.38
322.878	801.38
323.108	772.38
323.337	790.38
323.566	780.38
323.795	784.38
324.024	771.38
324.253	805.38
324.482	794.38
324.71	778.38
324.939	822.38
325.168	788.38
325.397	796.38
325.626	789.38
325.855	802.38
326.084	824.38
326.313	823.38
326.542	834.38
326.77	835.38
326.999	802.38
327.228	790.38
327.457	825.38
327.686	823.38
327.914	802.38
328.143	840.38
328.372	846.38
328.6	802.38
328.829	818.38
329.058	848.38
329.287	870.38
329.515	836.38
329.744	830.38
329.972	834.38
330.201	840.38
330.43	837.38
330.658	880.38
330.887	877.38
331.115	873.38
331.344	877.38
331.572	886.38
331.801	888.38
332.03	893.38
332.258	924.38
332.486	904.38
332.715	917.38
332.943	959.38
333.172	960.38
333.4	1015.38
333.629	1012.38
333.857	1057.38
334.085	1048.38
334.314	1054.38
334.542	1059.38
334.771	1058.38
334.999	1039.38
335.227	1024.38
335.455	1039.38
335.684	1022.38
335.912	1003.38
336.14	999.38
336.369	988.38
336.597	1001.38
336.825	967.38
337.053	987.38
337.281	949.38
337.51	951.38
337.738	963.38
337.966	933.38
338.194	935.38
338.422	927.38
338.65	896.38
338.878	892.38
339.106	917.38
339.334	892.38
339.562	914.38
339.79	883.38
340.018	881.38
340.246	856.38
340.474	908.38
340.702	868.38
340.93	889.38
341.158	896.38
341.386	869.38
341.614	908.38
341.842	854.38
342.07	872.38
342.298	860.38
342.526	874.38
342.754	883.38
342.981	850.38
343.209	900.38
343.437	910.38
343.665	931.38
343.893	993.38
344.12	1008.38
344.348	979.38
344.576	932.38
344.804	946.38
345.031	904.38
345.259	884.38
345.487	867.38
345.714	880.38
345.942	874.38
346.17	857.38
346.397	861.38
346.625	822.38
346.853	856.38
347.08	839.38
347.308	838.38
347.535	829.38
347.763	864.38
347.99	825.38
348.218	843.38
348.445	822.38
348.673	810.38
348.9	845.38
349.128	848.38
349.355	804.38
349.583	818.38
349.81	829.38
350.037	810.38
350.265	797.38
350.492	782.38
350.72	782.38
350.947	785.38
351.174	786.38
351.402	828.38
351.629	788.38
351.856	805.38
352.083	768.38
352.311	830.38
352.538	802.38
352.765	791.38
352.992	783.38
353.22	790.38
353.447	793.38
353.674	783.38
353.901	773.38
354.128	795.38
354.355	803.38
354.583	784.38
354.81	792.38
355.037	819.38
355.264	807.38
355.491	801.38
355.718	788.38
355.945	774.38
356.172	781.38
356.399	797.38
356.626	793.38
356.853	801.38
357.08	778.38
357.307	783.38
357.534	799.38
357.761	796.38
357.988	797.38
358.215	798.38
358.441	812.38
358.668	806.38
358.895	813.38
359.122	821.38
359.349	796.38
359.576	813.38
359.802	816.38
360.029	786.38
360.256	801.38
360.483	817.38
360.709	834.38
360.936	799.38
361.163	797.38
361.39	798.38
361.616	795.38
361.843	801.38
362.07	820.38
362.296	795.38
362.523	800.38
362.749	803.38
362.976	790.38
363.203	817.38
363.429	794.38
363.656	817.38
363.882	813.38
364.109	786.38
364.335	813.38
364.562	803.38
364.788	814.38
365.015	794.38
365.241	816.38
365.468	797.38
365.694	800.38
365.92	816.38
366.147	790.38
366.373	787.38
366.599	803.38
366.826	799.38
367.052	792.38
367.278	802.38
367.505	813.38
367.731	796.38
367.957	816.38
368.184	800.38
368.41	798.38
368.636	804.38
368.862	843.38
369.089	806.38
369.315	833.38
369.541	826.38
369.767	812.38
369.993	862.38
370.219	852.38
370.445	822.38
370.672	837.38
370.898	852.38
371.124	877.38
371.35	844.38
371.576	867.38
371.802	875.38
372.028	869.38
372.254	870.38
372.48	886.38
372.706	896.38
372.932	895.38
373.158	885.38
373.384	885.38
373.61	868.38
373.835	850.38
374.061	882.38
374.287	896.38
374.513	882.38
374.739	902.38
374.965	935.38
375.191	958.38
375.416	933.38
375.642	927.38
375.868	900.38
376.094	908.38
376.319	906.38
376.545	890.38
376.771	868.38
376.997	871.38
377.222	887.38
377.448	867.38
377.674	858.38
377.899	864.38
378.125	836.38
378.35	871.38
378.576	860.38
378.802	837.38
379.027	866.38
379.253	865.38
379.478	845.38
379.704	873.38
379.929	849.38
380.155	851.38
380.38	864.38
380.606	872.38
380.831	860.38
381.057	855.38
381.282	861.38
381.507	854.38
381.733	883.38
381.958	864.38
382.184	870.38
382.409	883.38
382.634	886.38
382.86	879.38
383.085	889.38
383.31	903.38
383.535	928.38
383.761	920.38
383.986	932.38
384.211	934.38
384.436	965.38
384.662	978.38
384.887	985.38
385.112	976.38
385.337	980.38
385.562	988.38
385.787	1011.38
386.013	1004.38
386.238	1003.38
386.463	992.38
386.688	1007.38
386.913	1037.38
387.138	1029.38
387.363	1022.38
387.588	1020.38
387.813	1049.38
388.038	1024.38
388.263	997.38
388.488	1029.38
388.713	1024.38
388.938	1021.38
389.163	1017.38
389.387	1010.38
389.612	1002.38
389.837	1012.38
390.062	1010.38
390.287	1033.38
390.512	1016.38
390.736	1024.38
390.961	1018.38
391.186	1043.38
391.411	1057.38
391.636	1101.38
391.86	1121.38
392.085	1133.38
392.31	1123.38
392.534	1102.38
392.759	1086.38
392.984	1109.38
393.208	1100.38
393.433	1073.38
393.658	1061.38
393.882	1088.38
394.107	1070.38
394.331	1082.38
394.556	1070.38
394.78	1088.38
395.005	1078.38
395.229	1083.38
395.454	1125.38
395.678	1148.38
395.903	1152.38
396.127	1129.38
396.352	1093.38
396.576	1086.38
396.801	1084.38
397.025	1138.38
397.249	1136.38
397.474	1147.38
397.698	1115.38
397.922	1136.38
398.147	1166.38
398.371	1185.38
398.595	1224.38
398.82	1276.38
399.044	1369.38
399.268	1402.38
399.492	1520.38
399.717	1709.38
399.941	1712.38
400.165	1624.38
400.389	1486.38
400.613	1415.38
400.837	1312.38
401.062	1316.38
401.286	1291.38
401.51	1284.38
401.734	1246.38
401.958	1275.38
402.182	1262.38
402.406	1280.38
402.63	1297.38
402.854	1314.38
403.078	1319.38
403.302	1328.38
403.526	1351.38
403.75	1377.38
403.974	1380.38
404.198	1355.38
404.422	1402.38
404.645	1362.38
404.869	1363.38
405.093	1342.38
405.317	1358.38
405.541	1350.38
405.765	1397.38
405.988	1358.38
406.212	1368.38
406.436	1334.38
406.66	1412.38
406.883	1419.38
407.107	1469.38
407.331	1494.38
407.555	1587.38
407.778	1561.38
408.002	1543.38
408.226	1525.38
408.449	1494.38
408.673	1444.38
408.896	1413.38
409.12	1395.38
409.344	1426.38
409.567	1390.38
409.791	1406.38
410.014	1410.38
410.238	1358.38
410.461	1393.38
410.685	1348.38
410.908	1320.38
411.132	1315.38
411.355	1308.38
411.578	1302.38
411.802	1335.38
412.025	1357.38
412.249	1325.38
412.472	1337.38
412.695	1267.38
412.919	1269.38
413.142	1302.38
413.365	1275.38
413.589	1291.38
413.812	1265.38
414.035	1235.38
414.258	1254.38
414.482	1261.38
414.705	1279.38
414.928	1269.38
415.151	1271.38
415.374	1272.38
415.597	1256.38
415.821	1231.38
416.044	1218.38
416.267	1246.38
416.49	1226.38
416.713	1247.38
416.936	1231.38
417.159	1211.38
417.382	1222.38
417.605	1175.38
417.828	1174.38
418.051	1220.38
418.274	1240.38
418.497	1193.38
418.72	1226.38
418.943	1229.38
419.166	1305.38
419.389	1403.38
419.611	1361.38
419.834	1338.38
420.057	1296.38
420.28	1254.38
420.503	1223.38
420.726	1213.38
420.948	1215.38
421.171	1214.38
421.394	1224.38
421.617	1220.38
421.839	1210.38
422.062	1227.38
422.285	1216.38
422.507	1220.38
422.73	1182.38
422.953	1243.38
423.175	1257.38
423.398	1257.38
423.621	1234.38
423.843	1253.38
424.066	1260.38
424.288	1261.38
424.511	1241.38
424.733	1233.38
424.956	1214.38
425.178	1231.38
425.401	1213.38
425.623	1226.38
425.846	1225.38
426.068	1166.38
426.291	1188.38
426.513	1178.38
426.735	1194.38
426.958	1189.38
427.18	1125.38
427.402	1145.38
427.625	1156.38
427.847	1114.38
428.069	1138.38
428.292	1128.38
428.514	1084.38
428.736	1102.38
428.958	1120.38
429.181	1106.38
429.403	1126.38
429.625	1098.38
429.847	1101.38
430.069	1096.38
430.292	1108.38
430.514	1091.38
430.736	1120.38
430.958	1106.38
431.18	1111.38
431.402	1107.38
431.624	1106.38
431.846	1109.38
432.068	1124.38
432.29	1139.38
432.512	1104.38
432.734	1099.38
432.956	1131.38
433.178	1150.38
433.4	1152.38
433.622	1137.38
433.844	1168.38
434.066	1150.38
434.287	1152.38
434.509	1172.38
434.731	1221.38
434.953	1200.38
435.175	1213.38
435.397	1230.38
435.618	1180.38
435.84	1189.38
436.062	1138.38
436.284	1130.38
436.505	1102.38
436.727	1103.38
436.949	1140.38
437.17	1134.38
437.392	1100.38
437.614	1092.38
437.835	1058.38
438.057	1104.38
438.278	1038.38
438.5	1061.38
438.721	1046.38
438.943	1107.38
439.165	1071.38
439.386	1062.38
439.608	1117.38
439.829	1112.38
440.05	1124.38
440.272	1092.38
440.493	1116.38
440.715	1125.38
440.936	1152.38
441.158	1144.38
441.379	1168.38
441.6	1227.38
441.822	1213.38
442.043	1204.38
442.264	1186.38
442.486	1165.38
442.707	1155.38
442.928	1202.38
443.149	1179.38
443.371	1175.38
443.592	1162.38
443.813	1220.38
444.034	1219.38
444.255	1269.38
444.476	1296.38
444.698	1332.38
444.919	1388.38
445.14	1474.38
445.361	1358.38
445.582	1264.38
445.803	1203.38
446.024	1166.38
446.245	1177.38
446.466	1125.38
446.687	1109.38
446.908	1142.38
447.129	1077.38
447.35	1072.38
447.571	1048.38
447.792	1057.38
448.013	1043.38
448.234	1042.38
448.455	1033.38
448.675	984.38
448.896	1018.38
449.117	992.38
449.338	1014.38
449.559	997.38
449.779	1021.38
450	1013.38
450.221	1015.38
450.442	1028.38
450.662	984.38
450.883	1000.38
451.104	1026.38
451.324	1027.38
451.545	1002.38
451.766	994.38
451.986	990.38
452.207	1002.38
452.428	987.38
452.648	982.38
452.869	978.38
453.089	981.38
453.31	981.38
453.53	980.38
453.751	952.38
453.971	977.38
454.192	960.38
454.412	950.38
454.633	943.38
454.853	957.38
455.073	946.38
455.294	950.38
455.514	957.38
455.734	939.38
455.955	933.38
456.175	941.38
456.395	931.38
456.616	940.38
456.836	954.38
457.056	965.38
457.276	939.38
457.497	952.38
457.717	958.38
457.937	970.38
458.157	971.38
458.377	962.38
458.598	974.38
458.818	998.38
459.038	1072.38
459.258	1080.38
459.478	1086.38
459.698	1144.38
459.918	1130.38
460.138	1200.38
460.358	1220.38
460.578	1234.38
460.798	1248.38
461.018	1285.38
461.238	1248.38
461.458	1255.38
461.678	1214.38
461.898	1254.38
462.118	1241.38
462.338	1340.38
462.558	1370.38
462.777	1407.38
462.997	1464.38
463.217	1537.38
463.437	1556.38
463.657	1489.38
463.876	1437.38
464.096	1425.38
464.316	1381.38
464.536	1450.38
464.755	1421.38
464.975	1367.38
465.195	1288.38
465.414	1218.38
465.634	1188.38
465.854	1142.38
466.073	1142.38
466.293	1145.38
466.512	1077.38
466.732	1088.38
466.951	1064.38
467.171	1056.38
467.391	1047.38
467.61	1036.38
467.829	1044.38
468.049	1056.38
468.268	1013.38
468.488	1042.38
468.707	995.38
468.927	1046.38
469.146	1032.38
469.365	1021.38
469.585	1022.38
469.804	1064.38
470.023	1082.38
470.243	1081.38
470.462	1099.38
470.681	1060.38
470.901	1089.38
471.12	1068.38
471.339	1033.38
471.558	1040.38
471.777	1035.38
471.997	1048.38
472.216	1008.38
472.435	1015.38
472.654	975.38
472.873	988.38
473.092	968.38
473.311	1017.38
473.53	999.38
473.749	979.38
473.968	1011.38
474.187	1011.38
474.406	975.38
474.625	1000.38
474.844	987.38
475.063	987.38
475.282	1017.38
475.501	1028.38
475.72	1045.38
475.939	1032.38
476.158	1037.38
476.377	1074.38
476.596	1034.38
476.814	1073.38
477.033	1086.38
477.252	1098.38
477.471	1133.38
477.69	1130.38
477.908	1128.38
478.127	1148.38
478.346	1173.38
478.564	1170.38
478.783	1196.38
479.002	1225.38
479.22	1225.38
479.439	1229.38
479.658	1233.38
479.876	1287.38
480.095	1264.38
480.313	1344.38
480.532	1323.38
480.751	1338.38
480.969	1250.38
481.188	1238.38
481.406	1233.38
481.624	1222.38
481.843	1200.38
482.061	1200.38
482.28	1197.38
482.498	1201.38
482.717	1165.38
482.935	1202.38
483.153	1197.38
483.372	1188.38
483.59	1206.38
483.808	1226.38
484.027	1226.38
484.245	1219.38
484.463	1258.38
484.681	1272.38
484.9	1252.38
485.118	1266.38
485.336	1292.38
485.554	1253.38
485.772	1285.38
485.99	1287.38
486.209	1265.38
486.427	1264.38
486.645	1280.38
486.863	1294.38
487.081	1260.38
487.299	1254.38
487.517	1252.38
487.735	1257.38
487.953	1256.38
488.171	1299.38
488.389	1259.38
488.607	1262.38
488.825	1241.38
489.043	1255.38
489.261	1220.38
489.479	1238.38
489.696	1221.38
489.914	1233.38
490.132	1232.38
490.35	1228.38
490.568	1231.38
490.786	1266.38
491.003	1284.38
491.221	1290.38
491.439	1251.38
491.657	1226.38
491.874	1264.38
492.092	1242.38
492.31	1239.38
492.527	1251.38
492.745	1235.38
492.963	1281.38
493.18	1257.38
493.398	1273.38
493.615	1256.38
493.833	1242.38
494.05	1293.38
494.268	1281.38
494.485	1282.38
494.703	1309.38
494.92	1301.38
495.138	1264.38
495.355	1307.38
