Data from NiCl2@0.125M.TitratingCurve.Agarose3%dH2O.NegLispCup.LampEnergy10.LIBS07252019_HRD10591_18-27-14-574.txt Node
Date: Thu Jul 25 18:27:14 EDT 2019
User: cochatt
Spectrometer: HR+D1059
Trigger mode: 1
Integration Time (sec): 1.000000E-1
Scans to average: 1
Electric dark correction enabled: true
Nonlinearity correction enabled: false
Boxcar width: 0
XAxis mode: Wavelengths
Number of Pixels in Spectrum: 2048
>>>>>Begin Spectral Data<<<<<
223.165	-21.31
223.4	-21.31
223.635	-21.31
223.869	-3.31
224.104	-13.31
224.338	-24.31
224.573	-17.31
224.808	-1.31
225.042	-8.31
225.277	-23.31
225.511	-10.31
225.746	12.69
225.98	1.69
226.215	23.69
226.449	11.69
226.683	27.69
226.918	10.69
227.152	34.69
227.387	38.69
227.621	31.69
227.856	44.69
228.09	23.69
228.324	52.69
228.559	52.69
228.793	78.69
229.027	132.69
229.262	134.69
229.496	146.69
229.73	123.69
229.964	168.69
230.199	160.69
230.433	161.69
230.667	171.69
230.901	169.69
231.136	152.69
231.37	171.69
231.604	163.69
231.838	172.69
232.072	184.69
232.306	188.69
232.541	168.69
232.775	174.69
233.009	169.69
233.243	182.69
233.477	180.69
233.711	184.69
233.945	168.69
234.179	169.69
234.413	178.69
234.647	191.69
234.881	198.69
235.115	196.69
235.349	188.69
235.583	171.69
235.817	183.69
236.051	186.69
236.285	178.69
236.519	191.69
236.753	174.69
236.987	196.69
237.221	184.69
237.455	182.69
237.689	203.69
237.922	210.69
238.156	210.69
238.39	215.69
238.624	196.69
238.858	222.69
239.091	206.69
239.325	216.69
239.559	214.69
239.793	224.69
240.027	225.69
240.26	215.69
240.494	223.69
240.728	227.69
240.961	220.69
241.195	233.69
241.429	225.69
241.662	238.69
241.896	225.69
242.13	239.69
242.363	219.69
242.597	254.69
242.83	242.69
243.064	243.69
243.298	251.69
243.531	247.69
243.765	258.69
243.998	264.69
244.232	268.69
244.465	251.69
244.699	264.69
244.932	255.69
245.166	269.69
245.399	263.69
245.633	246.69
245.866	283.69
246.099	290.69
246.333	291.69
246.566	283.69
246.8	286.69
247.033	299.69
247.266	280.69
247.5	297.69
247.733	301.69
247.966	296.69
248.2	326.69
248.433	302.69
248.666	320.69
248.899	293.69
249.133	302.69
249.366	292.69
249.599	314.69
249.832	314.69
250.066	324.69
250.299	322.69
250.532	335.69
250.765	319.69
250.998	330.69
251.231	349.69
251.465	324.69
251.698	338.69
251.931	339.69
252.164	331.69
252.397	353.69
252.63	350.69
252.863	344.69
253.096	357.69
253.329	351.69
253.562	357.69
253.795	352.69
254.028	358.69
254.261	392.69
254.494	374.69
254.727	355.69
254.96	366.69
255.193	349.69
255.426	354.69
255.659	378.69
255.892	384.69
256.124	379.69
256.357	380.69
256.59	381.69
256.823	390.69
257.056	376.69
257.289	394.69
257.521	379.69
257.754	390.69
257.987	384.69
258.22	406.69
258.452	410.69
258.685	406.69
258.918	392.69
259.151	379.69
259.383	402.69
259.616	401.69
259.849	414.69
260.081	414.69
260.314	403.69
260.547	418.69
260.779	412.69
261.012	411.69
261.244	423.69
261.477	424.69
261.71	426.69
261.942	419.69
262.175	432.69
262.407	406.69
262.64	426.69
262.872	440.69
263.105	453.69
263.337	419.69
263.57	434.69
263.802	464.69
264.035	447.69
264.267	467.69
264.499	465.69
264.732	452.69
264.964	446.69
265.197	435.69
265.429	448.69
265.661	458.69
265.894	459.69
266.126	452.69
266.358	467.69
266.591	446.69
266.823	475.69
267.055	465.69
267.287	477.69
267.52	478.69
267.752	479.69
267.984	490.69
268.216	487.69
268.448	484.69
268.681	492.69
268.913	479.69
269.145	501.69
269.377	502.69
269.609	504.69
269.841	498.69
270.073	490.69
270.306	486.69
270.538	504.69
270.77	511.69
271.002	495.69
271.234	530.69
271.466	512.69
271.698	519.69
271.93	530.69
272.162	525.69
272.394	531.69
272.626	532.69
272.858	538.69
273.09	551.69
273.322	525.69
273.553	513.69
273.785	530.69
274.017	523.69
274.249	520.69
274.481	549.69
274.713	544.69
274.945	553.69
275.176	555.69
275.408	549.69
275.64	551.69
275.872	562.69
276.104	572.69
276.335	556.69
276.567	568.69
276.799	568.69
277.031	567.69
277.262	578.69
277.494	566.69
277.726	589.69
277.957	603.69
278.189	567.69
278.421	595.69
278.652	600.69
278.884	596.69
279.115	570.69
279.347	606.69
279.579	601.69
279.81	604.69
280.042	598.69
280.273	626.69
280.505	598.69
280.736	601.69
280.968	609.69
281.199	607.69
281.431	613.69
281.662	626.69
281.894	606.69
282.125	598.69
282.356	641.69
282.588	614.69
282.819	648.69
283.051	650.69
283.282	642.69
283.513	631.69
283.745	646.69
283.976	617.69
284.207	628.69
284.439	651.69
284.67	648.69
284.901	655.69
285.132	645.69
285.364	658.69
285.595	651.69
285.826	660.69
286.057	653.69
286.288	639.69
286.52	653.69
286.751	660.69
286.982	663.69
287.213	669.69
287.444	664.69
287.675	666.69
287.906	672.69
288.138	686.69
288.369	692.69
288.6	707.69
288.831	679.69
289.062	692.69
289.293	704.69
289.524	682.69
289.755	713.69
289.986	652.69
290.217	726.69
290.448	706.69
290.679	696.69
290.91	715.69
291.141	722.69
291.371	735.69
291.602	702.69
291.833	709.69
292.064	734.69
292.295	724.69
292.526	690.69
292.757	714.69
292.987	706.69
293.218	720.69
293.449	721.69
293.68	706.69
293.91	710.69
294.141	722.69
294.372	704.69
294.603	711.69
294.833	716.69
295.064	733.69
295.295	719.69
295.525	718.69
295.756	719.69
295.987	734.69
296.217	747.69
296.448	718.69
296.679	737.69
296.909	742.69
297.14	756.69
297.37	754.69
297.601	759.69
297.831	755.69
298.062	757.69
298.292	766.69
298.523	779.69
298.753	775.69
298.984	763.69
299.214	768.69
299.445	784.69
299.675	754.69
299.905	741.69
300.136	772.69
300.366	752.69
300.597	754.69
300.827	773.69
301.057	775.69
301.288	787.69
301.518	799.69
301.748	794.69
301.979	818.69
302.209	824.69
302.439	810.69
302.669	787.69
302.9	822.69
303.13	789.69
303.36	768.69
303.59	819.69
303.82	804.69
304.051	798.69
304.281	817.69
304.511	811.69
304.741	796.69
304.971	816.69
305.201	798.69
305.431	811.69
305.661	805.69
305.891	780.69
306.121	772.69
306.352	802.69
306.582	787.69
306.812	786.69
307.042	785.69
307.272	796.69
307.502	797.69
307.731	795.69
307.961	794.69
308.191	777.69
308.421	786.69
308.651	796.69
308.881	785.69
309.111	778.69
309.341	773.69
309.571	796.69
309.8	785.69
310.03	803.69
310.26	788.69
310.49	827.69
310.72	804.69
310.949	814.69
311.179	811.69
311.409	815.69
311.639	811.69
311.868	827.69
312.098	810.69
312.328	823.69
312.557	832.69
312.787	815.69
313.017	810.69
313.246	842.69
313.476	858.69
313.706	866.69
313.935	838.69
314.165	856.69
314.394	839.69
314.624	868.69
314.853	884.69
315.083	838.69
315.312	872.69
315.542	848.69
315.771	838.69
316.001	858.69
316.23	870.69
316.46	845.69
316.689	834.69
316.919	868.69
317.148	871.69
317.377	873.69
317.607	851.69
317.836	850.69
318.065	818.69
318.295	843.69
318.524	858.69
318.753	814.69
318.983	836.69
319.212	846.69
319.441	848.69
319.67	851.69
319.9	852.69
320.129	840.69
320.358	849.69
320.587	857.69
320.816	849.69
321.046	857.69
321.275	838.69
321.504	838.69
321.733	875.69
321.962	858.69
322.191	854.69
322.42	868.69
322.649	865.69
322.878	860.69
323.108	853.69
323.337	883.69
323.566	871.69
323.795	898.69
324.024	843.69
324.253	882.69
324.482	895.69
324.71	884.69
324.939	878.69
325.168	916.69
325.397	889.69
325.626	911.69
325.855	920.69
326.084	908.69
326.313	935.69
326.542	937.69
326.77	922.69
326.999	915.69
327.228	936.69
327.457	906.69
327.686	908.69
327.914	924.69
328.143	926.69
328.372	926.69
328.6	920.69
328.829	909.69
329.058	893.69
329.287	929.69
329.515	980.69
329.744	928.69
329.972	939.69
330.201	949.69
330.43	928.69
330.658	947.69
330.887	943.69
331.115	980.69
331.344	961.69
331.572	982.69
331.801	989.69
332.03	995.69
332.258	1041.69
332.486	1046.69
332.715	1072.69
332.943	1091.69
333.172	1111.69
333.4	1154.69
333.629	1182.69
333.857	1191.69
334.085	1208.69
334.314	1198.69
334.542	1174.69
334.771	1189.69
334.999	1158.69
335.227	1161.69
335.455	1159.69
335.684	1141.69
335.912	1152.69
336.14	1146.69
336.369	1123.69
336.597	1119.69
336.825	1118.69
337.053	1104.69
337.281	1065.69
337.51	1067.69
337.738	1064.69
337.966	1031.69
338.194	1031.69
338.422	1033.69
338.65	1030.69
338.878	1012.69
339.106	996.69
339.334	1036.69
339.562	1020.69
339.79	994.69
340.018	992.69
340.246	984.69
340.474	984.69
340.702	972.69
340.93	984.69
341.158	1017.69
341.386	986.69
341.614	988.69
341.842	977.69
342.07	957.69
342.298	954.69
342.526	989.69
342.754	973.69
342.981	978.69
343.209	998.69
343.437	1059.69
343.665	1096.69
343.893	1132.69
344.12	1159.69
344.348	1160.69
344.576	1131.69
344.804	1092.69
345.031	1065.69
345.259	1039.69
345.487	1003.69
345.714	1011.69
345.942	960.69
346.17	971.69
346.397	980.69
346.625	933.69
346.853	936.69
347.08	944.69
347.308	988.69
347.535	927.69
347.763	954.69
347.99	934.69
348.218	940.69
348.445	946.69
348.673	931.69
348.9	940.69
349.128	937.69
349.355	932.69
349.583	920.69
349.81	917.69
350.037	929.69
350.265	897.69
350.492	913.69
350.72	893.69
350.947	926.69
351.174	903.69
351.402	888.69
351.629	925.69
351.856	926.69
352.083	918.69
352.311	954.69
352.538	912.69
352.765	930.69
352.992	906.69
353.22	896.69
353.447	905.69
353.674	900.69
353.901	894.69
354.128	907.69
354.355	881.69
354.583	908.69
354.81	913.69
355.037	886.69
355.264	912.69
355.491	907.69
355.718	912.69
355.945	924.69
356.172	913.69
356.399	902.69
356.626	887.69
356.853	914.69
357.08	906.69
357.307	923.69
357.534	921.69
357.761	914.69
357.988	906.69
358.215	906.69
358.441	907.69
358.668	891.69
358.895	935.69
359.122	903.69
359.349	931.69
359.576	945.69
359.802	932.69
360.029	907.69
360.256	929.69
360.483	921.69
360.709	886.69
360.936	936.69
361.163	890.69
361.39	916.69
361.616	937.69
361.843	899.69
362.07	933.69
362.296	932.69
362.523	909.69
362.749	918.69
362.976	937.69
363.203	922.69
363.429	899.69
363.656	880.69
363.882	907.69
364.109	905.69
364.335	898.69
364.562	934.69
364.788	905.69
365.015	910.69
365.241	904.69
365.468	909.69
365.694	921.69
365.92	929.69
366.147	902.69
366.373	908.69
366.599	922.69
366.826	911.69
367.052	907.69
367.278	904.69
367.505	915.69
367.731	914.69
367.957	951.69
368.184	925.69
368.41	921.69
368.636	904.69
368.862	930.69
369.089	916.69
369.315	921.69
369.541	936.69
369.767	942.69
369.993	937.69
370.219	956.69
370.445	998.69
370.672	977.69
370.898	972.69
371.124	987.69
371.35	1018.69
371.576	1029.69
371.802	991.69
372.028	1002.69
372.254	979.69
372.48	965.69
372.706	1027.69
372.932	1048.69
373.158	1026.69
373.384	1022.69
373.61	1012.69
373.835	1003.69
374.061	982.69
374.287	996.69
374.513	1030.69
374.739	1065.69
374.965	1083.69
375.191	1088.69
375.416	1091.69
375.642	1063.69
375.868	1032.69
376.094	1008.69
376.319	1024.69
376.545	1027.69
376.771	1025.69
376.997	1015.69
377.222	980.69
377.448	986.69
377.674	995.69
377.899	978.69
378.125	972.69
378.35	966.69
378.576	1003.69
378.802	987.69
379.027	966.69
379.253	985.69
379.478	961.69
379.704	953.69
379.929	954.69
380.155	965.69
380.38	976.69
380.606	979.69
380.831	976.69
381.057	994.69
381.282	974.69
381.507	988.69
381.733	1004.69
381.958	986.69
382.184	1029.69
382.409	1008.69
382.634	1049.69
382.86	1005.69
383.085	1037.69
383.31	1058.69
383.535	1046.69
383.761	1073.69
383.986	1084.69
384.211	1104.69
384.436	1131.69
384.662	1125.69
384.887	1160.69
385.112	1126.69
385.337	1155.69
385.562	1158.69
385.787	1182.69
386.013	1203.69
386.238	1177.69
386.463	1194.69
386.688	1201.69
386.913	1173.69
387.138	1176.69
387.363	1168.69
387.588	1164.69
387.813	1189.69
388.038	1196.69
388.263	1178.69
388.488	1200.69
388.713	1192.69
388.938	1165.69
389.163	1156.69
389.387	1186.69
389.612	1159.69
389.837	1176.69
390.062	1162.69
390.287	1197.69
390.512	1168.69
390.736	1190.69
390.961	1192.69
391.186	1222.69
391.411	1242.69
391.636	1269.69
391.86	1298.69
392.085	1307.69
392.31	1318.69
392.534	1314.69
392.759	1261.69
392.984	1255.69
393.208	1272.69
393.433	1259.69
393.658	1322.69
393.882	1244.69
394.107	1241.69
394.331	1238.69
394.556	1293.69
394.78	1251.69
395.005	1281.69
395.229	1272.69
395.454	1307.69
395.678	1327.69
395.903	1335.69
396.127	1302.69
396.352	1285.69
396.576	1276.69
396.801	1267.69
397.025	1311.69
397.249	1378.69
397.474	1368.69
397.698	1382.69
397.922	1392.69
398.147	1379.69
398.371	1415.69
398.595	1443.69
398.82	1448.69
399.044	1560.69
399.268	1665.69
399.492	1861.69
399.717	2036.69
399.941	2081.69
400.165	1906.69
400.389	1816.69
400.613	1694.69
400.837	1592.69
401.062	1603.69
401.286	1518.69
401.51	1510.69
401.734	1460.69
401.958	1485.69
402.182	1493.69
402.406	1513.69
402.63	1544.69
402.854	1574.69
403.078	1579.69
403.302	1560.69
403.526	1631.69
403.75	1629.69
403.974	1632.69
404.198	1609.69
404.422	1629.69
404.645	1607.69
404.869	1607.69
405.093	1606.69
405.317	1614.69
405.541	1614.69
405.765	1609.69
405.988	1603.69
406.212	1595.69
406.436	1617.69
406.66	1629.69
406.883	1674.69
407.107	1720.69
407.331	1745.69
407.555	1840.69
407.778	1840.69
408.002	1771.69
408.226	1790.69
408.449	1720.69
408.673	1711.69
408.896	1673.69
409.12	1633.69
409.344	1626.69
409.567	1600.69
409.791	1643.69
410.014	1637.69
410.238	1630.69
410.461	1626.69
410.685	1611.69
410.908	1541.69
411.132	1563.69
411.355	1490.69
411.578	1520.69
411.802	1553.69
412.025	1540.69
412.249	1577.69
412.472	1547.69
412.695	1483.69
412.919	1495.69
413.142	1467.69
413.365	1500.69
413.589	1501.69
413.812	1458.69
414.035	1449.69
414.258	1450.69
414.482	1455.69
414.705	1494.69
414.928	1484.69
415.151	1483.69
415.374	1487.69
415.597	1467.69
415.821	1426.69
416.044	1442.69
416.267	1436.69
416.49	1460.69
416.713	1444.69
416.936	1458.69
417.159	1424.69
417.382	1420.69
417.605	1395.69
417.828	1417.69
418.051	1458.69
418.274	1420.69
418.497	1424.69
418.72	1468.69
418.943	1459.69
419.166	1559.69
419.389	1614.69
419.611	1633.69
419.834	1551.69
420.057	1476.69
420.28	1448.69
420.503	1422.69
420.726	1406.69
420.948	1417.69
421.171	1424.69
421.394	1414.69
421.617	1440.69
421.839	1466.69
422.062	1468.69
422.285	1424.69
422.507	1464.69
422.73	1479.69
422.953	1444.69
423.175	1470.69
423.398	1454.69
423.621	1450.69
423.843	1495.69
424.066	1471.69
424.288	1492.69
424.511	1476.69
424.733	1474.69
424.956	1429.69
425.178	1441.69
425.401	1429.69
425.623	1464.69
425.846	1379.69
426.068	1410.69
426.291	1398.69
426.513	1380.69
426.735	1358.69
426.958	1393.69
427.18	1323.69
427.402	1368.69
427.625	1384.69
427.847	1315.69
428.069	1315.69
428.292	1305.69
428.514	1302.69
428.736	1308.69
428.958	1316.69
429.181	1286.69
429.403	1304.69
429.625	1300.69
429.847	1287.69
430.069	1292.69
430.292	1323.69
430.514	1272.69
430.736	1310.69
430.958	1299.69
431.18	1324.69
431.402	1292.69
431.624	1283.69
431.846	1307.69
432.068	1311.69
432.29	1335.69
432.512	1245.69
432.734	1285.69
432.956	1303.69
433.178	1316.69
433.4	1306.69
433.622	1322.69
433.844	1322.69
434.066	1343.69
434.287	1328.69
434.509	1362.69
434.731	1394.69
434.953	1418.69
435.175	1446.69
435.397	1448.69
435.618	1356.69
435.84	1350.69
436.062	1292.69
436.284	1318.69
436.505	1309.69
436.727	1294.69
436.949	1298.69
437.17	1315.69
437.392	1319.69
437.614	1294.69
437.835	1244.69
438.057	1238.69
438.278	1233.69
438.5	1239.69
438.721	1259.69
438.943	1248.69
439.165	1260.69
439.386	1268.69
439.608	1317.69
439.829	1313.69
440.05	1288.69
440.272	1322.69
440.493	1281.69
440.715	1334.69
440.936	1379.69
441.158	1375.69
441.379	1383.69
441.6	1401.69
441.822	1416.69
442.043	1481.69
442.264	1424.69
442.486	1381.69
442.707	1420.69
442.928	1391.69
443.149	1430.69
443.371	1416.69
443.592	1403.69
443.813	1441.69
444.034	1430.69
444.255	1443.69
444.476	1524.69
444.698	1577.69
444.919	1603.69
445.14	1686.69
445.361	1565.69
445.582	1502.69
445.803	1456.69
446.024	1388.69
446.245	1395.69
446.466	1362.69
446.687	1312.69
446.908	1363.69
447.129	1320.69
447.35	1283.69
447.571	1234.69
447.792	1260.69
448.013	1216.69
448.234	1224.69
448.455	1200.69
448.675	1242.69
448.896	1187.69
449.117	1171.69
449.338	1210.69
449.559	1174.69
449.779	1143.69
450	1178.69
450.221	1216.69
450.442	1180.69
450.662	1208.69
450.883	1204.69
451.104	1211.69
451.324	1203.69
451.545	1178.69
451.766	1175.69
451.986	1153.69
452.207	1164.69
452.428	1168.69
452.648	1158.69
452.869	1117.69
453.089	1139.69
453.31	1162.69
453.53	1140.69
453.751	1119.69
453.971	1136.69
454.192	1168.69
454.412	1132.69
454.633	1129.69
454.853	1149.69
455.073	1159.69
455.294	1112.69
455.514	1120.69
455.734	1106.69
455.955	1090.69
456.175	1068.69
456.395	1099.69
456.616	1119.69
456.836	1105.69
457.056	1100.69
457.276	1116.69
457.497	1115.69
457.717	1106.69
457.937	1120.69
458.157	1114.69
458.377	1155.69
458.598	1184.69
458.818	1212.69
459.038	1235.69
459.258	1272.69
459.478	1255.69
459.698	1350.69
459.918	1354.69
460.138	1403.69
460.358	1462.69
460.578	1490.69
460.798	1540.69
461.018	1516.69
461.238	1470.69
461.458	1467.69
461.678	1454.69
461.898	1510.69
462.118	1541.69
462.338	1599.69
462.558	1610.69
462.777	1703.69
462.997	1772.69
463.217	1856.69
463.437	1866.69
463.657	1791.69
463.876	1733.69
464.096	1678.69
464.316	1668.69
464.536	1675.69
464.755	1641.69
464.975	1623.69
465.195	1506.69
465.414	1478.69
465.634	1391.69
465.854	1366.69
466.073	1290.69
466.293	1296.69
466.512	1298.69
466.732	1264.69
466.951	1252.69
467.171	1250.69
467.391	1274.69
467.61	1243.69
467.829	1220.69
468.049	1246.69
468.268	1225.69
468.488	1194.69
468.707	1186.69
468.927	1222.69
469.146	1210.69
469.365	1195.69
469.585	1268.69
469.804	1269.69
470.023	1306.69
470.243	1246.69
470.462	1265.69
470.681	1275.69
470.901	1287.69
471.12	1259.69
471.339	1230.69
471.558	1259.69
471.777	1226.69
471.997	1206.69
472.216	1220.69
472.435	1230.69
472.654	1192.69
472.873	1179.69
473.092	1199.69
473.311	1188.69
473.53	1178.69
473.749	1192.69
473.968	1182.69
474.187	1169.69
474.406	1192.69
474.625	1200.69
474.844	1182.69
475.063	1189.69
475.282	1226.69
475.501	1225.69
475.72	1230.69
475.939	1243.69
476.158	1243.69
476.377	1220.69
476.596	1240.69
476.814	1286.69
477.033	1278.69
477.252	1291.69
477.471	1347.69
477.69	1357.69
477.908	1381.69
478.127	1357.69
478.346	1404.69
478.564	1416.69
478.783	1426.69
479.002	1481.69
479.22	1497.69
479.439	1522.69
479.658	1489.69
479.876	1513.69
480.095	1507.69
480.313	1565.69
480.532	1537.69
480.751	1556.69
480.969	1527.69
481.188	1463.69
481.406	1446.69
481.624	1430.69
481.843	1402.69
482.061	1414.69
482.28	1423.69
482.498	1402.69
482.717	1402.69
482.935	1427.69
483.153	1432.69
483.372	1402.69
483.59	1414.69
483.808	1422.69
484.027	1402.69
484.245	1424.69
484.463	1412.69
484.681	1460.69
484.9	1434.69
485.118	1449.69
485.336	1438.69
485.554	1464.69
485.772	1471.69
485.99	1454.69
486.209	1453.69
486.427	1453.69
486.645	1478.69
486.863	1456.69
487.081	1450.69
487.299	1466.69
487.517	1480.69
487.735	1433.69
487.953	1447.69
488.171	1503.69
488.389	1483.69
488.607	1439.69
488.825	1435.69
489.043	1458.69
489.261	1449.69
489.479	1414.69
489.696	1424.69
489.914	1448.69
490.132	1464.69
490.35	1445.69
490.568	1481.69
490.786	1476.69
491.003	1467.69
491.221	1496.69
491.439	1497.69
491.657	1426.69
491.874	1504.69
492.092	1519.69
492.31	1475.69
492.527	1466.69
492.745	1512.69
492.963	1457.69
493.18	1506.69
493.398	1508.69
493.615	1499.69
493.833	1503.69
