Data from NiCl2@0.5M.TitratingCurve.Agarose3%dH2O.NegLispCup.LampEnergy10.LIBS07252019_HRD10591_18-18-56-570.txt Node
Date: Thu Jul 25 18:18:56 EDT 2019
User: cochatt
Spectrometer: HR+D1059
Trigger mode: 1
Integration Time (sec): 1.000000E-1
Scans to average: 1
Electric dark correction enabled: true
Nonlinearity correction enabled: false
Boxcar width: 0
XAxis mode: Wavelengths
Number of Pixels in Spectrum: 2048
>>>>>Begin Spectral Data<<<<<
223.165	-18.31
223.4	-18.31
223.635	-18.31
223.869	-24.31
224.104	-30.31
224.338	-13.31
224.573	-11.31
224.808	-0.31
225.042	-12.31
225.277	-7.31
225.511	-3.31
225.746	0.69
225.98	-2.31
226.215	7.69
226.449	20.69
226.683	28.69
226.918	29.69
227.152	35.69
227.387	35.69
227.621	42.69
227.856	52.69
228.09	45.69
228.324	52.69
228.559	57.69
228.793	69.69
229.027	101.69
229.262	116.69
229.496	132.69
229.73	118.69
229.964	127.69
230.199	140.69
230.433	124.69
230.667	137.69
230.901	143.69
231.136	148.69
231.37	142.69
231.604	146.69
231.838	144.69
232.072	160.69
232.306	156.69
232.541	156.69
232.775	148.69
233.009	153.69
233.243	140.69
233.477	149.69
233.711	148.69
233.945	147.69
234.179	142.69
234.413	160.69
234.647	148.69
234.881	145.69
235.115	147.69
235.349	147.69
235.583	147.69
235.817	144.69
236.051	150.69
236.285	169.69
236.519	162.69
236.753	159.69
236.987	149.69
237.221	180.69
237.455	160.69
237.689	163.69
237.922	181.69
238.156	158.69
238.39	170.69
238.624	160.69
238.858	165.69
239.091	177.69
239.325	184.69
239.559	201.69
239.793	188.69
240.027	189.69
240.26	189.69
240.494	178.69
240.728	180.69
240.961	199.69
241.195	185.69
241.429	194.69
241.662	194.69
241.896	200.69
242.13	189.69
242.363	207.69
242.597	179.69
242.83	203.69
243.064	211.69
243.298	214.69
243.531	207.69
243.765	201.69
243.998	206.69
244.232	211.69
244.465	198.69
244.699	201.69
244.932	220.69
245.166	227.69
245.399	234.69
245.633	223.69
245.866	220.69
246.099	221.69
246.333	219.69
246.566	236.69
246.8	233.69
247.033	214.69
247.266	217.69
247.5	213.69
247.733	247.69
247.966	245.69
248.2	232.69
248.433	231.69
248.666	224.69
248.899	234.69
249.133	263.69
249.366	225.69
249.599	240.69
249.832	248.69
250.066	257.69
250.299	243.69
250.532	254.69
250.765	248.69
250.998	256.69
251.231	258.69
251.465	260.69
251.698	270.69
251.931	248.69
252.164	268.69
252.397	267.69
252.63	275.69
252.863	267.69
253.096	245.69
253.329	267.69
253.562	290.69
253.795	277.69
254.028	282.69
254.261	282.69
254.494	271.69
254.727	310.69
254.96	293.69
255.193	272.69
255.426	281.69
255.659	286.69
255.892	294.69
256.124	291.69
256.357	291.69
256.59	292.69
256.823	295.69
257.056	292.69
257.289	289.69
257.521	304.69
257.754	318.69
257.987	305.69
258.22	298.69
258.452	294.69
258.685	299.69
258.918	305.69
259.151	318.69
259.383	307.69
259.616	300.69
259.849	325.69
260.081	324.69
260.314	318.69
260.547	334.69
260.779	304.69
261.012	302.69
261.244	331.69
261.477	322.69
261.71	308.69
261.942	337.69
262.175	321.69
262.407	339.69
262.64	325.69
262.872	322.69
263.105	332.69
263.337	345.69
263.57	334.69
263.802	363.69
264.035	355.69
264.267	355.69
264.499	338.69
264.732	342.69
264.964	369.69
265.197	333.69
265.429	335.69
265.661	366.69
265.894	373.69
266.126	365.69
266.358	378.69
266.591	356.69
266.823	354.69
267.055	355.69
267.287	351.69
267.52	365.69
267.752	365.69
267.984	356.69
268.216	365.69
268.448	380.69
268.681	380.69
268.913	381.69
269.145	382.69
269.377	376.69
269.609	381.69
269.841	379.69
270.073	394.69
270.306	383.69
270.538	380.69
270.77	385.69
271.002	396.69
271.234	381.69
271.466	381.69
271.698	395.69
271.93	375.69
272.162	393.69
272.394	384.69
272.626	405.69
272.858	388.69
273.09	394.69
273.322	409.69
273.553	405.69
273.785	423.69
274.017	403.69
274.249	417.69
274.481	430.69
274.713	393.69
274.945	425.69
275.176	395.69
275.408	407.69
275.64	410.69
275.872	427.69
276.104	416.69
276.335	406.69
276.567	433.69
276.799	428.69
277.031	442.69
277.262	446.69
277.494	436.69
277.726	428.69
277.957	438.69
278.189	426.69
278.421	434.69
278.652	436.69
278.884	465.69
279.115	434.69
279.347	439.69
279.579	423.69
279.81	445.69
280.042	443.69
280.273	450.69
280.505	461.69
280.736	444.69
280.968	462.69
281.199	472.69
281.431	468.69
281.662	477.69
281.894	465.69
282.125	467.69
282.356	467.69
282.588	470.69
282.819	486.69
283.051	476.69
283.282	495.69
283.513	492.69
283.745	479.69
283.976	479.69
284.207	491.69
284.439	493.69
284.67	491.69
284.901	488.69
285.132	487.69
285.364	507.69
285.595	493.69
285.826	501.69
286.057	490.69
286.288	500.69
286.52	520.69
286.751	483.69
286.982	517.69
287.213	517.69
287.444	499.69
287.675	499.69
287.906	524.69
288.138	538.69
288.369	510.69
288.6	526.69
288.831	500.69
289.062	543.69
289.293	547.69
289.524	526.69
289.755	520.69
289.986	542.69
290.217	527.69
290.448	526.69
290.679	544.69
290.91	548.69
291.141	529.69
291.371	525.69
291.602	541.69
291.833	522.69
292.064	537.69
292.295	534.69
292.526	527.69
292.757	531.69
292.987	521.69
293.218	519.69
293.449	555.69
293.68	519.69
293.91	544.69
294.141	541.69
294.372	510.69
294.603	560.69
294.833	555.69
295.064	540.69
295.295	526.69
295.525	530.69
295.756	535.69
295.987	526.69
296.217	554.69
296.448	583.69
296.679	580.69
296.909	566.69
297.14	588.69
297.37	574.69
297.601	555.69
297.831	558.69
298.062	587.69
298.292	586.69
298.523	586.69
298.753	581.69
298.984	567.69
299.214	566.69
299.445	577.69
299.675	570.69
299.905	597.69
300.136	592.69
300.366	626.69
300.597	598.69
300.827	613.69
301.057	599.69
301.288	624.69
301.518	621.69
301.748	616.69
301.979	613.69
302.209	604.69
302.439	615.69
302.669	633.69
302.9	602.69
303.13	602.69
303.36	606.69
303.59	629.69
303.82	637.69
304.051	618.69
304.281	612.69
304.511	606.69
304.741	626.69
304.971	632.69
305.201	602.69
305.431	620.69
305.661	634.69
305.891	637.69
306.121	633.69
306.352	602.69
306.582	615.69
306.812	611.69
307.042	609.69
307.272	602.69
307.502	634.69
307.731	629.69
307.961	597.69
308.191	594.69
308.421	618.69
308.651	614.69
308.881	625.69
309.111	616.69
309.341	590.69
309.571	594.69
309.8	626.69
310.03	634.69
310.26	635.69
310.49	642.69
310.72	629.69
310.949	630.69
311.179	638.69
311.409	620.69
311.639	644.69
311.868	618.69
312.098	628.69
312.328	618.69
312.557	657.69
312.787	638.69
313.017	650.69
313.246	658.69
313.476	666.69
313.706	662.69
313.935	673.69
314.165	656.69
314.394	630.69
314.624	651.69
314.853	646.69
315.083	647.69
315.312	651.69
315.542	668.69
315.771	643.69
316.001	645.69
316.23	635.69
316.46	643.69
316.689	668.69
316.919	650.69
317.148	669.69
317.377	648.69
317.607	646.69
317.836	637.69
318.065	665.69
318.295	649.69
318.524	641.69
318.753	645.69
318.983	651.69
319.212	652.69
319.441	642.69
319.67	645.69
319.9	626.69
320.129	644.69
320.358	648.69
320.587	647.69
320.816	668.69
321.046	666.69
321.275	636.69
321.504	651.69
321.733	642.69
321.962	644.69
322.191	676.69
322.42	663.69
322.649	639.69
322.878	672.69
323.108	692.69
323.337	667.69
323.566	672.69
323.795	686.69
324.024	684.69
324.253	676.69
324.482	696.69
324.71	679.69
324.939	685.69
325.168	684.69
325.397	672.69
325.626	689.69
325.855	692.69
326.084	718.69
326.313	685.69
326.542	706.69
326.77	718.69
326.999	708.69
327.228	707.69
327.457	696.69
327.686	709.69
327.914	722.69
328.143	685.69
328.372	698.69
328.6	706.69
328.829	717.69
329.058	714.69
329.287	718.69
329.515	715.69
329.744	705.69
329.972	728.69
330.201	730.69
330.43	753.69
330.658	746.69
330.887	732.69
331.115	732.69
331.344	761.69
331.572	757.69
331.801	760.69
332.03	764.69
332.258	764.69
332.486	784.69
332.715	826.69
332.943	839.69
333.172	868.69
333.4	880.69
333.629	869.69
333.857	916.69
334.085	925.69
334.314	870.69
334.542	858.69
334.771	864.69
334.999	857.69
335.227	890.69
335.455	863.69
335.684	852.69
335.912	888.69
336.14	844.69
336.369	853.69
336.597	848.69
336.825	829.69
337.053	860.69
337.281	844.69
337.51	824.69
337.738	813.69
337.966	793.69
338.194	807.69
338.422	792.69
338.65	766.69
338.878	786.69
339.106	755.69
339.334	816.69
339.562	780.69
339.79	776.69
340.018	747.69
340.246	754.69
340.474	730.69
340.702	736.69
340.93	745.69
341.158	771.69
341.386	769.69
341.614	763.69
341.842	742.69
342.07	737.69
342.298	732.69
342.526	777.69
342.754	752.69
342.981	726.69
343.209	772.69
343.437	789.69
343.665	868.69
343.893	850.69
344.12	892.69
344.348	866.69
344.576	824.69
344.804	816.69
345.031	797.69
345.259	780.69
345.487	746.69
345.714	768.69
345.942	763.69
346.17	793.69
346.397	792.69
346.625	713.69
346.853	709.69
347.08	716.69
347.308	718.69
347.535	725.69
347.763	714.69
347.99	735.69
348.218	729.69
348.445	738.69
348.673	724.69
348.9	722.69
349.128	729.69
349.355	714.69
349.583	720.69
349.81	697.69
350.037	683.69
350.265	677.69
350.492	691.69
350.72	676.69
350.947	697.69
351.174	723.69
351.402	712.69
351.629	734.69
351.856	710.69
352.083	717.69
352.311	697.69
352.538	728.69
352.765	737.69
352.992	698.69
353.22	677.69
353.447	670.69
353.674	680.69
353.901	668.69
354.128	668.69
354.355	636.69
354.583	655.69
354.81	651.69
355.037	681.69
355.264	686.69
355.491	695.69
355.718	678.69
355.945	703.69
356.172	681.69
356.399	693.69
356.626	686.69
356.853	694.69
357.08	702.69
357.307	708.69
357.534	686.69
357.761	684.69
357.988	700.69
358.215	677.69
358.441	667.69
358.668	682.69
358.895	690.69
359.122	665.69
359.349	692.69
359.576	670.69
359.802	681.69
360.029	667.69
360.256	707.69
360.483	710.69
360.709	684.69
360.936	689.69
361.163	700.69
361.39	704.69
361.616	692.69
361.843	698.69
362.07	733.69
362.296	704.69
362.523	676.69
362.749	667.69
362.976	676.69
363.203	672.69
363.429	692.69
363.656	675.69
363.882	659.69
364.109	685.69
364.335	672.69
364.562	668.69
364.788	682.69
365.015	647.69
365.241	669.69
365.468	673.69
365.694	689.69
365.92	666.69
366.147	670.69
366.373	668.69
366.599	672.69
366.826	682.69
367.052	698.69
367.278	669.69
367.505	680.69
367.731	685.69
367.957	689.69
368.184	683.69
368.41	682.69
368.636	696.69
368.862	682.69
369.089	688.69
369.315	688.69
369.541	681.69
369.767	692.69
369.993	688.69
370.219	701.69
370.445	704.69
370.672	732.69
370.898	708.69
371.124	718.69
371.35	717.69
371.576	714.69
371.802	709.69
372.028	736.69
372.254	713.69
372.48	728.69
372.706	741.69
372.932	738.69
373.158	728.69
373.384	738.69
373.61	733.69
373.835	721.69
374.061	734.69
374.287	738.69
374.513	731.69
374.739	774.69
374.965	792.69
375.191	769.69
375.416	790.69
375.642	776.69
375.868	764.69
376.094	736.69
376.319	741.69
376.545	726.69
376.771	722.69
376.997	709.69
377.222	716.69
377.448	752.69
377.674	718.69
377.899	718.69
378.125	707.69
378.35	702.69
378.576	715.69
378.802	711.69
379.027	713.69
379.253	700.69
379.478	696.69
379.704	704.69
379.929	706.69
380.155	707.69
380.38	712.69
380.606	720.69
380.831	696.69
381.057	724.69
381.282	707.69
381.507	712.69
381.733	724.69
381.958	710.69
382.184	732.69
382.409	720.69
382.634	756.69
382.86	732.69
383.085	741.69
383.31	745.69
383.535	775.69
383.761	754.69
383.986	778.69
384.211	788.69
384.436	818.69
384.662	805.69
384.887	823.69
385.112	813.69
385.337	822.69
385.562	846.69
385.787	852.69
386.013	852.69
386.238	854.69
386.463	842.69
386.688	860.69
386.913	812.69
387.138	835.69
387.363	823.69
387.588	843.69
387.813	846.69
388.038	823.69
388.263	798.69
388.488	839.69
388.713	834.69
388.938	822.69
389.163	814.69
389.387	828.69
389.612	832.69
389.837	830.69
390.062	829.69
390.287	830.69
390.512	849.69
390.736	842.69
390.961	880.69
391.186	874.69
391.411	875.69
391.636	907.69
391.86	903.69
392.085	941.69
392.31	941.69
392.534	908.69
392.759	909.69
392.984	914.69
393.208	880.69
393.433	909.69
393.658	899.69
393.882	908.69
394.107	897.69
394.331	899.69
394.556	881.69
394.78	880.69
395.005	926.69
395.229	906.69
395.454	915.69
395.678	938.69
395.903	941.69
396.127	931.69
396.352	905.69
396.576	902.69
396.801	912.69
397.025	925.69
397.249	912.69
397.474	955.69
397.698	958.69
397.922	978.69
398.147	957.69
398.371	950.69
398.595	989.69
398.82	1048.69
399.044	1094.69
399.268	1190.69
399.492	1335.69
399.717	1460.69
399.941	1468.69
400.165	1326.69
400.389	1236.69
400.613	1166.69
400.837	1129.69
401.062	1072.69
401.286	1030.69
401.51	1054.69
401.734	1056.69
401.958	1097.69
402.182	1084.69
402.406	1074.69
402.63	1078.69
402.854	1112.69
403.078	1103.69
403.302	1138.69
403.526	1154.69
403.75	1131.69
403.974	1178.69
404.198	1156.69
404.422	1164.69
404.645	1149.69
404.869	1130.69
405.093	1170.69
405.317	1131.69
405.541	1116.69
405.765	1139.69
405.988	1117.69
406.212	1175.69
406.436	1152.69
406.66	1188.69
406.883	1180.69
407.107	1274.69
407.331	1288.69
407.555	1349.69
407.778	1314.69
408.002	1290.69
408.226	1257.69
408.449	1235.69
408.673	1230.69
408.896	1188.69
409.12	1204.69
409.344	1200.69
409.567	1193.69
409.791	1190.69
410.014	1164.69
410.238	1173.69
410.461	1144.69
410.685	1136.69
410.908	1141.69
411.132	1109.69
411.355	1093.69
411.578	1118.69
411.802	1095.69
412.025	1089.69
412.249	1121.69
412.472	1105.69
412.695	1083.69
412.919	1058.69
413.142	1078.69
413.365	1080.69
413.589	1065.69
413.812	1061.69
414.035	1068.69
414.258	1070.69
414.482	1104.69
414.705	1041.69
414.928	1066.69
415.151	1074.69
415.374	1068.69
415.597	1044.69
415.821	1024.69
416.044	1048.69
416.267	1058.69
416.49	1042.69
416.713	1034.69
416.936	1023.69
417.159	1052.69
417.382	1040.69
417.605	1046.69
417.828	1053.69
418.051	1059.69
418.274	1034.69
418.497	1075.69
418.72	1076.69
418.943	1033.69
419.166	1123.69
419.389	1227.69
419.611	1178.69
419.834	1106.69
420.057	1106.69
420.28	1079.69
420.503	1031.69
420.726	1038.69
420.948	1022.69
421.171	1027.69
421.394	1024.69
421.617	1061.69
421.839	1073.69
422.062	1049.69
422.285	1034.69
422.507	1060.69
422.73	1070.69
422.953	1075.69
423.175	1097.69
423.398	1090.69
423.621	1049.69
423.843	1068.69
424.066	1074.69
424.288	1108.69
424.511	1086.69
424.733	1096.69
424.956	1064.69
425.178	1033.69
425.401	1058.69
425.623	1044.69
425.846	1021.69
426.068	1049.69
426.291	996.69
426.513	1020.69
426.735	1001.69
426.958	980.69
427.18	997.69
427.402	984.69
427.625	982.69
427.847	972.69
428.069	974.69
428.292	972.69
428.514	961.69
428.736	980.69
428.958	949.69
429.181	949.69
429.403	951.69
429.625	968.69
429.847	948.69
430.069	970.69
430.292	956.69
430.514	914.69
430.736	949.69
430.958	981.69
431.18	934.69
431.402	924.69
431.624	948.69
431.846	954.69
432.068	942.69
432.29	991.69
432.512	960.69
432.734	952.69
432.956	984.69
433.178	974.69
433.4	982.69
433.622	988.69
433.844	985.69
434.066	1002.69
434.287	976.69
434.509	995.69
434.731	1029.69
434.953	1093.69
435.175	1102.69
435.397	1093.69
435.618	1037.69
435.84	992.69
436.062	992.69
436.284	976.69
436.505	989.69
436.727	985.69
436.949	994.69
437.17	988.69
437.392	990.69
437.614	972.69
437.835	923.69
438.057	968.69
438.278	898.69
438.5	949.69
438.721	956.69
438.943	929.69
439.165	930.69
439.386	961.69
439.608	967.69
439.829	974.69
440.05	974.69
440.272	965.69
440.493	1022.69
440.715	1024.69
440.936	986.69
441.158	1050.69
441.379	1090.69
441.6	1108.69
441.822	1068.69
442.043	1071.69
442.264	1072.69
442.486	1048.69
442.707	1046.69
442.928	1047.69
443.149	1073.69
443.371	1069.69
443.592	1094.69
443.813	1084.69
444.034	1080.69
444.255	1092.69
444.476	1176.69
444.698	1191.69
444.919	1245.69
445.14	1324.69
445.361	1196.69
445.582	1142.69
445.803	1074.69
446.024	1071.69
446.245	1036.69
446.466	1030.69
446.687	1022.69
446.908	1012.69
447.129	978.69
447.35	947.69
447.571	938.69
447.792	939.69
448.013	957.69
448.234	927.69
448.455	930.69
448.675	962.69
448.896	924.69
449.117	901.69
449.338	921.69
449.559	887.69
449.779	923.69
450	913.69
450.221	927.69
450.442	908.69
450.662	934.69
450.883	930.69
451.104	938.69
451.324	930.69
451.545	934.69
451.766	916.69
451.986	888.69
452.207	888.69
452.428	895.69
452.648	898.69
452.869	857.69
453.089	869.69
453.31	880.69
453.53	842.69
453.751	869.69
453.971	885.69
454.192	871.69
454.412	878.69
454.633	872.69
454.853	858.69
455.073	870.69
455.294	869.69
455.514	840.69
455.734	854.69
455.955	869.69
456.175	874.69
456.395	838.69
456.616	848.69
456.836	852.69
457.056	845.69
457.276	838.69
457.497	867.69
457.717	867.69
457.937	873.69
458.157	868.69
458.377	866.69
458.598	916.69
458.818	914.69
459.038	928.69
459.258	971.69
459.478	1003.69
459.698	1020.69
459.918	1067.69
460.138	1082.69
460.358	1116.69
460.578	1141.69
460.798	1148.69
461.018	1170.69
461.238	1131.69
461.458	1118.69
461.678	1127.69
461.898	1166.69
462.118	1150.69
462.338	1230.69
462.558	1259.69
462.777	1309.69
462.997	1385.69
463.217	1430.69
463.437	1456.69
463.657	1401.69
463.876	1312.69
464.096	1326.69
464.316	1328.69
464.536	1282.69
464.755	1239.69
464.975	1218.69
465.195	1187.69
465.414	1124.69
465.634	1066.69
465.854	1037.69
466.073	1030.69
466.293	1024.69
466.512	978.69
466.732	978.69
466.951	955.69
467.171	968.69
467.391	959.69
467.61	968.69
467.829	972.69
468.049	928.69
468.268	944.69
468.488	923.69
468.707	926.69
468.927	930.69
469.146	921.69
469.365	923.69
469.585	918.69
469.804	986.69
470.023	1012.69
470.243	1038.69
470.462	1019.69
470.681	955.69
470.901	997.69
471.12	1002.69
471.339	979.69
471.558	937.69
471.777	951.69
471.997	930.69
472.216	914.69
472.435	907.69
472.654	887.69
472.873	923.69
473.092	910.69
473.311	890.69
473.53	920.69
473.749	905.69
473.968	924.69
474.187	911.69
474.406	909.69
474.625	921.69
474.844	901.69
475.063	917.69
475.282	929.69
475.501	935.69
475.72	925.69
475.939	924.69
476.158	953.69
476.377	937.69
476.596	941.69
476.814	953.69
477.033	957.69
477.252	980.69
477.471	996.69
477.69	1009.69
477.908	1058.69
478.127	1067.69
478.346	1076.69
478.564	1072.69
478.783	1090.69
479.002	1141.69
479.22	1140.69
479.439	1129.69
479.658	1120.69
479.876	1116.69
480.095	1143.69
480.313	1159.69
480.532	1158.69
480.751	1183.69
480.969	1130.69
481.188	1104.69
481.406	1066.69
481.624	1033.69
481.843	1051.69
482.061	1053.69
482.28	1058.69
482.498	1049.69
482.717	1051.69
482.935	1066.69
483.153	1062.69
483.372	1112.69
483.59	1083.69
483.808	1062.69
484.027	1042.69
484.245	1060.69
484.463	1072.69
484.681	1083.69
484.9	1090.69
485.118	1103.69
485.336	1084.69
485.554	1101.69
485.772	1100.69
485.99	1084.69
486.209	1106.69
486.427	1110.69
486.645	1092.69
486.863	1108.69
487.081	1122.69
487.299	1103.69
487.517	1102.69
487.735	1101.69
487.953	1140.69
488.171	1128.69
488.389	1107.69
488.607	1081.69
488.825	1087.69
489.043	1087.69
489.261	1107.69
489.479	1125.69
489.696	1096.69
489.914	1096.69
490.132	1138.69
490.35	1136.69
490.568	1092.69
490.786	1102.69
491.003	1112.69
491.221	1121.69
491.439	1109.69
491.657	1151.69
491.874	1166.69
492.092	1166.69
492.31	1175.69
492.527	1156.69
492.745	1160.69
492.963	1171.69
493.18	1165.69
493.398	1144.69
493.615	1150.69
493.833	1163.69
494.05	1197.69
494.268	1179.69
494.485	1198.69
494.703	1166.69
494.92	1194.69
495.138	1156.69
495.355	1211.69
495.573	1224.69
495.79	1205.69
496.008	1205.69
496.225	1188.69
496.442	1225.69
496.66	1229.69
496.877	1251.69
497.094	1305.69
497.312	1290.69
497.529	1294.69
497.746	1345.69
