Data from NiCl2@0.5M.TitratingCurve.Agarose3%dH2O.NegLispCup.LampEnergy10.LIBS07252019_HRD10591_18-20-23-571.txt Node
Date: Thu Jul 25 18:20:23 EDT 2019
User: cochatt
Spectrometer: HR+D1059
Trigger mode: 1
Integration Time (sec): 1.000000E-1
Scans to average: 1
Electric dark correction enabled: true
Nonlinearity correction enabled: false
Boxcar width: 0
XAxis mode: Wavelengths
Number of Pixels in Spectrum: 2048
>>>>>Begin Spectral Data<<<<<
223.165	-18.31
223.4	-18.31
223.635	-18.31
223.869	-27.31
224.104	-1.31
224.338	-12.31
224.573	-21.31
224.808	-22.31
225.042	-1.31
225.277	-8.31
225.511	-4.31
225.746	0.69
225.98	2.69
226.215	17.69
226.449	15.69
226.683	22.69
226.918	26.69
227.152	30.69
227.387	42.69
227.621	35.69
227.856	34.69
228.09	39.69
228.324	63.69
228.559	55.69
228.793	61.69
229.027	111.69
229.262	93.69
229.496	118.69
229.73	117.69
229.964	119.69
230.199	127.69
230.433	114.69
230.667	133.69
230.901	126.69
231.136	126.69
231.37	132.69
231.604	134.69
231.838	134.69
232.072	139.69
232.306	150.69
232.541	152.69
232.775	147.69
233.009	135.69
233.243	156.69
233.477	135.69
233.711	138.69
233.945	136.69
234.179	167.69
234.413	140.69
234.647	143.69
234.881	139.69
235.115	141.69
235.349	139.69
235.583	142.69
235.817	148.69
236.051	169.69
236.285	154.69
236.519	154.69
236.753	147.69
236.987	134.69
237.221	159.69
237.455	148.69
237.689	159.69
237.922	154.69
238.156	155.69
238.39	150.69
238.624	164.69
238.858	151.69
239.091	165.69
239.325	159.69
239.559	160.69
239.793	172.69
240.027	163.69
240.26	157.69
240.494	183.69
240.728	176.69
240.961	176.69
241.195	167.69
241.429	186.69
241.662	174.69
241.896	175.69
242.13	200.69
242.363	178.69
242.597	182.69
242.83	182.69
243.064	184.69
243.298	183.69
243.531	186.69
243.765	181.69
243.998	197.69
244.232	192.69
244.465	213.69
244.699	181.69
244.932	188.69
245.166	194.69
245.399	203.69
245.633	213.69
245.866	204.69
246.099	193.69
246.333	199.69
246.566	213.69
246.8	211.69
247.033	211.69
247.266	212.69
247.5	209.69
247.733	207.69
247.966	227.69
248.2	235.69
248.433	221.69
248.666	238.69
248.899	221.69
249.133	217.69
249.366	215.69
249.599	226.69
249.832	231.69
250.066	231.69
250.299	230.69
250.532	242.69
250.765	235.69
250.998	245.69
251.231	239.69
251.465	236.69
251.698	237.69
251.931	248.69
252.164	229.69
252.397	227.69
252.63	254.69
252.863	242.69
253.096	244.69
253.329	261.69
253.562	258.69
253.795	245.69
254.028	253.69
254.261	260.69
254.494	268.69
254.727	273.69
254.96	258.69
255.193	266.69
255.426	263.69
255.659	254.69
255.892	261.69
256.124	278.69
256.357	275.69
256.59	253.69
256.823	265.69
257.056	252.69
257.289	259.69
257.521	282.69
257.754	280.69
257.987	275.69
258.22	279.69
258.452	272.69
258.685	272.69
258.918	275.69
259.151	282.69
259.383	310.69
259.616	290.69
259.849	287.69
260.081	284.69
260.314	304.69
260.547	293.69
260.779	279.69
261.012	300.69
261.244	280.69
261.477	294.69
261.71	322.69
261.942	311.69
262.175	302.69
262.407	310.69
262.64	294.69
262.872	306.69
263.105	307.69
263.337	306.69
263.57	321.69
263.802	326.69
264.035	304.69
264.267	322.69
264.499	314.69
264.732	319.69
264.964	324.69
265.197	327.69
265.429	324.69
265.661	324.69
265.894	325.69
266.126	324.69
266.358	331.69
266.591	342.69
266.823	350.69
267.055	323.69
267.287	332.69
267.52	341.69
267.752	324.69
267.984	338.69
268.216	344.69
268.448	335.69
268.681	347.69
268.913	346.69
269.145	345.69
269.377	335.69
269.609	346.69
269.841	340.69
270.073	342.69
270.306	346.69
270.538	360.69
270.77	356.69
271.002	381.69
271.234	365.69
271.466	356.69
271.698	358.69
271.93	372.69
272.162	357.69
272.394	372.69
272.626	370.69
272.858	371.69
273.09	362.69
273.322	369.69
273.553	382.69
273.785	371.69
274.017	373.69
274.249	376.69
274.481	382.69
274.713	363.69
274.945	398.69
275.176	366.69
275.408	382.69
275.64	380.69
275.872	380.69
276.104	401.69
276.335	394.69
276.567	382.69
276.799	369.69
277.031	394.69
277.262	392.69
277.494	397.69
277.726	411.69
277.957	387.69
278.189	380.69
278.421	396.69
278.652	397.69
278.884	408.69
279.115	408.69
279.347	406.69
279.579	418.69
279.81	413.69
280.042	390.69
280.273	419.69
280.505	423.69
280.736	406.69
280.968	405.69
281.199	432.69
281.431	447.69
281.662	436.69
281.894	426.69
282.125	424.69
282.356	415.69
282.588	410.69
282.819	423.69
283.051	430.69
283.282	429.69
283.513	445.69
283.745	436.69
283.976	464.69
284.207	449.69
284.439	427.69
284.67	463.69
284.901	453.69
285.132	459.69
285.364	463.69
285.595	467.69
285.826	454.69
286.057	459.69
286.288	444.69
286.52	444.69
286.751	459.69
286.982	448.69
287.213	466.69
287.444	454.69
287.675	451.69
287.906	476.69
288.138	460.69
288.369	475.69
288.6	471.69
288.831	463.69
289.062	481.69
289.293	490.69
289.524	462.69
289.755	481.69
289.986	483.69
290.217	487.69
290.448	492.69
290.679	473.69
290.91	470.69
291.141	470.69
291.371	495.69
291.602	471.69
291.833	492.69
292.064	470.69
292.295	495.69
292.526	501.69
292.757	472.69
292.987	489.69
293.218	495.69
293.449	485.69
293.68	502.69
293.91	486.69
294.141	508.69
294.372	494.69
294.603	493.69
294.833	505.69
295.064	489.69
295.295	508.69
295.525	488.69
295.756	506.69
295.987	520.69
296.217	518.69
296.448	514.69
296.679	516.69
296.909	515.69
297.14	520.69
297.37	526.69
297.601	520.69
297.831	517.69
298.062	532.69
298.292	531.69
298.523	545.69
298.753	525.69
298.984	526.69
299.214	553.69
299.445	544.69
299.675	528.69
299.905	538.69
300.136	541.69
300.366	545.69
300.597	565.69
300.827	546.69
301.057	562.69
301.288	565.69
301.518	579.69
301.748	554.69
301.979	579.69
302.209	576.69
302.439	552.69
302.669	568.69
302.9	572.69
303.13	529.69
303.36	568.69
303.59	570.69
303.82	591.69
304.051	564.69
304.281	567.69
304.511	557.69
304.741	563.69
304.971	559.69
305.201	555.69
305.431	568.69
305.661	591.69
305.891	557.69
306.121	552.69
306.352	548.69
306.582	558.69
306.812	555.69
307.042	571.69
307.272	570.69
307.502	556.69
307.731	566.69
307.961	564.69
308.191	570.69
308.421	553.69
308.651	548.69
308.881	562.69
309.111	547.69
309.341	552.69
309.571	551.69
309.8	560.69
310.03	562.69
310.26	570.69
310.49	583.69
310.72	573.69
310.949	574.69
311.179	579.69
311.409	584.69
311.639	594.69
311.868	598.69
312.098	594.69
312.328	591.69
312.557	592.69
312.787	586.69
313.017	570.69
313.246	591.69
313.476	591.69
313.706	602.69
313.935	608.69
314.165	607.69
314.394	618.69
314.624	614.69
314.853	590.69
315.083	584.69
315.312	592.69
315.542	610.69
315.771	591.69
316.001	598.69
316.23	601.69
316.46	574.69
316.689	604.69
316.919	595.69
317.148	594.69
317.377	606.69
317.607	590.69
317.836	587.69
318.065	581.69
318.295	582.69
318.524	584.69
318.753	595.69
318.983	604.69
319.212	603.69
319.441	603.69
319.67	608.69
319.9	620.69
320.129	616.69
320.358	604.69
320.587	613.69
320.816	591.69
321.046	616.69
321.275	603.69
321.504	605.69
321.733	606.69
321.962	609.69
322.191	615.69
322.42	612.69
322.649	599.69
322.878	634.69
323.108	598.69
323.337	603.69
323.566	615.69
323.795	621.69
324.024	616.69
324.253	633.69
324.482	622.69
324.71	631.69
324.939	630.69
325.168	630.69
325.397	608.69
325.626	622.69
325.855	651.69
326.084	642.69
326.313	654.69
326.542	650.69
326.77	669.69
326.999	648.69
327.228	636.69
327.457	639.69
327.686	676.69
327.914	658.69
328.143	648.69
328.372	639.69
328.6	646.69
328.829	640.69
329.058	638.69
329.287	651.69
329.515	654.69
329.744	659.69
329.972	661.69
330.201	642.69
330.43	679.69
330.658	655.69
330.887	672.69
331.115	672.69
331.344	668.69
331.572	676.69
331.801	724.69
332.03	703.69
332.258	730.69
332.486	728.69
332.715	738.69
332.943	783.69
333.172	809.69
333.4	811.69
333.629	840.69
333.857	859.69
334.085	836.69
334.314	816.69
334.542	840.69
334.771	859.69
334.999	797.69
335.227	807.69
335.455	820.69
335.684	800.69
335.912	795.69
336.14	790.69
336.369	789.69
336.597	800.69
336.825	769.69
337.053	807.69
337.281	768.69
337.51	743.69
337.738	745.69
337.966	751.69
338.194	728.69
338.422	740.69
338.65	703.69
338.878	720.69
339.106	717.69
339.334	730.69
339.562	707.69
339.79	690.69
340.018	687.69
340.246	690.69
340.474	676.69
340.702	697.69
340.93	674.69
341.158	690.69
341.386	718.69
341.614	729.69
341.842	720.69
342.07	680.69
342.298	683.69
342.526	712.69
342.754	680.69
342.981	686.69
343.209	701.69
343.437	729.69
343.665	748.69
343.893	799.69
344.12	790.69
344.348	768.69
344.576	741.69
344.804	744.69
345.031	755.69
345.259	712.69
345.487	710.69
345.714	684.69
345.942	703.69
346.17	730.69
346.397	703.69
346.625	682.69
346.853	647.69
347.08	677.69
347.308	678.69
347.535	690.69
347.763	660.69
347.99	656.69
348.218	660.69
348.445	664.69
348.673	667.69
348.9	639.69
349.128	646.69
349.355	671.69
349.583	646.69
349.81	646.69
350.037	649.69
350.265	652.69
350.492	644.69
350.72	626.69
350.947	650.69
351.174	645.69
351.402	664.69
351.629	664.69
351.856	670.69
352.083	615.69
352.311	658.69
352.538	653.69
352.765	687.69
352.992	641.69
353.22	637.69
353.447	634.69
353.674	615.69
353.901	620.69
354.128	641.69
354.355	632.69
354.583	653.69
354.81	636.69
355.037	631.69
355.264	638.69
355.491	639.69
355.718	630.69
355.945	635.69
356.172	627.69
356.399	641.69
356.626	650.69
356.853	663.69
357.08	622.69
357.307	626.69
357.534	650.69
357.761	628.69
357.988	628.69
358.215	638.69
358.441	632.69
358.668	645.69
358.895	623.69
359.122	614.69
359.349	615.69
359.576	639.69
359.802	622.69
360.029	660.69
360.256	639.69
360.483	651.69
360.709	635.69
360.936	630.69
361.163	636.69
361.39	646.69
361.616	648.69
361.843	649.69
362.07	656.69
362.296	655.69
362.523	643.69
362.749	623.69
362.976	618.69
363.203	620.69
363.429	628.69
363.656	654.69
363.882	626.69
364.109	633.69
364.335	620.69
364.562	628.69
364.788	630.69
365.015	620.69
365.241	632.69
365.468	628.69
365.694	617.69
365.92	613.69
366.147	611.69
366.373	610.69
366.599	642.69
366.826	619.69
367.052	629.69
367.278	622.69
367.505	631.69
367.731	626.69
367.957	640.69
368.184	646.69
368.41	631.69
368.636	634.69
368.862	648.69
369.089	635.69
369.315	644.69
369.541	640.69
369.767	650.69
369.993	642.69
370.219	646.69
370.445	671.69
370.672	660.69
370.898	655.69
371.124	645.69
371.35	636.69
371.576	654.69
371.802	672.69
372.028	673.69
372.254	680.69
372.48	674.69
372.706	675.69
372.932	694.69
373.158	706.69
373.384	680.69
373.61	661.69
373.835	660.69
374.061	654.69
374.287	698.69
374.513	670.69
374.739	701.69
374.965	739.69
375.191	739.69
375.416	717.69
375.642	728.69
375.868	725.69
376.094	700.69
376.319	671.69
376.545	682.69
376.771	662.69
376.997	662.69
377.222	633.69
377.448	653.69
377.674	653.69
377.899	650.69
378.125	638.69
378.35	659.69
378.576	644.69
378.802	642.69
379.027	680.69
379.253	649.69
379.478	656.69
379.704	647.69
379.929	663.69
380.155	639.69
380.38	648.69
380.606	662.69
380.831	651.69
381.057	662.69
381.282	644.69
381.507	646.69
381.733	656.69
381.958	624.69
382.184	650.69
382.409	670.69
382.634	680.69
382.86	684.69
383.085	666.69
383.31	682.69
383.535	707.69
383.761	722.69
383.986	752.69
384.211	753.69
384.436	738.69
384.662	750.69
384.887	770.69
385.112	796.69
385.337	780.69
385.562	778.69
385.787	763.69
386.013	805.69
386.238	775.69
386.463	757.69
386.688	782.69
386.913	771.69
387.138	747.69
387.363	781.69
387.588	759.69
387.813	744.69
388.038	754.69
388.263	764.69
388.488	768.69
388.713	768.69
388.938	766.69
389.163	756.69
389.387	755.69
389.612	762.69
389.837	762.69
390.062	772.69
390.287	771.69
390.512	779.69
390.736	783.69
390.961	789.69
391.186	782.69
391.411	831.69
391.636	851.69
391.86	846.69
392.085	850.69
392.31	846.69
392.534	839.69
392.759	862.69
392.984	822.69
393.208	813.69
393.433	845.69
393.658	814.69
393.882	808.69
394.107	819.69
394.331	834.69
394.556	828.69
394.78	822.69
395.005	864.69
395.229	841.69
395.454	866.69
395.678	892.69
395.903	891.69
396.127	861.69
396.352	850.69
396.576	827.69
396.801	830.69
397.025	850.69
397.249	860.69
397.474	880.69
397.698	857.69
397.922	870.69
398.147	877.69
398.371	910.69
398.595	910.69
398.82	950.69
399.044	1014.69
399.268	1117.69
399.492	1260.69
399.717	1382.69
399.941	1324.69
400.165	1202.69
400.389	1142.69
400.613	1051.69
400.837	999.69
401.062	998.69
401.286	996.69
401.51	958.69
401.734	970.69
401.958	982.69
402.182	979.69
402.406	997.69
402.63	959.69
402.854	998.69
403.078	1018.69
403.302	1069.69
403.526	1080.69
403.75	1066.69
403.974	1074.69
404.198	1124.69
404.422	1087.69
404.645	1099.69
404.869	1053.69
405.093	1078.69
405.317	1046.69
405.541	1051.69
405.765	1063.69
405.988	999.69
406.212	1042.69
406.436	1049.69
406.66	1066.69
406.883	1084.69
407.107	1142.69
407.331	1157.69
407.555	1205.69
407.778	1212.69
408.002	1163.69
408.226	1162.69
408.449	1163.69
408.673	1124.69
408.896	1090.69
409.12	1063.69
409.344	1104.69
409.567	1090.69
409.791	1080.69
410.014	1090.69
410.238	1076.69
410.461	1074.69
410.685	1055.69
410.908	1017.69
411.132	1027.69
411.355	999.69
411.578	1012.69
411.802	1005.69
412.025	1010.69
412.249	1041.69
412.472	980.69
412.695	1010.69
412.919	964.69
413.142	982.69
413.365	953.69
413.589	998.69
413.812	983.69
414.035	986.69
414.258	976.69
414.482	998.69
414.705	1005.69
414.928	966.69
415.151	982.69
415.374	987.69
415.597	963.69
415.821	964.69
416.044	946.69
416.267	954.69
416.49	962.69
416.713	959.69
416.936	964.69
417.159	950.69
417.382	924.69
417.605	944.69
417.828	941.69
418.051	967.69
418.274	973.69
418.497	979.69
418.72	974.69
418.943	962.69
419.166	1019.69
419.389	1103.69
419.611	1062.69
419.834	1014.69
420.057	982.69
420.28	993.69
420.503	941.69
420.726	968.69
420.948	950.69
421.171	966.69
421.394	951.69
421.617	959.69
421.839	959.69
422.062	971.69
422.285	950.69
422.507	975.69
422.73	954.69
422.953	960.69
423.175	978.69
423.398	1002.69
423.621	1002.69
423.843	991.69
424.066	987.69
424.288	997.69
424.511	1010.69
424.733	962.69
424.956	983.69
425.178	975.69
425.401	970.69
425.623	968.69
425.846	938.69
426.068	914.69
426.291	921.69
426.513	899.69
426.735	936.69
426.958	923.69
427.18	890.69
427.402	904.69
427.625	874.69
427.847	878.69
428.069	873.69
428.292	884.69
428.514	856.69
428.736	872.69
428.958	879.69
429.181	874.69
429.403	867.69
429.625	864.69
429.847	840.69
430.069	837.69
430.292	846.69
430.514	874.69
430.736	885.69
430.958	864.69
431.18	899.69
431.402	900.69
431.624	886.69
431.846	879.69
432.068	860.69
432.29	889.69
432.512	902.69
432.734	886.69
432.956	885.69
433.178	892.69
433.4	870.69
433.622	916.69
433.844	916.69
434.066	920.69
434.287	920.69
434.509	933.69
434.731	964.69
434.953	1001.69
435.175	980.69
435.397	988.69
435.618	963.69
435.84	928.69
436.062	900.69
436.284	902.69
436.505	906.69
436.727	878.69
436.949	878.69
437.17	846.69
437.392	844.69
437.614	850.69
437.835	858.69
438.057	854.69
438.278	875.69
438.5	876.69
438.721	869.69
438.943	875.69
439.165	844.69
439.386	882.69
439.608	898.69
439.829	930.69
440.05	883.69
440.272	894.69
440.493	937.69
440.715	914.69
440.936	907.69
441.158	917.69
441.379	969.69
441.6	1002.69
441.822	1004.69
442.043	1010.69
442.264	992.69
442.486	948.69
442.707	963.69
442.928	981.69
443.149	983.69
443.371	966.69
443.592	972.69
443.813	988.69
444.034	1002.69
444.255	1039.69
444.476	1074.69
444.698	1103.69
444.919	1127.69
445.14	1167.69
445.361	1086.69
445.582	1023.69
445.803	963.69
446.024	965.69
446.245	952.69
446.466	926.69
446.687	891.69
446.908	916.69
447.129	911.69
447.35	877.69
447.571	869.69
447.792	840.69
448.013	867.69
448.234	845.69
448.455	846.69
448.675	848.69
448.896	834.69
449.117	833.69
449.338	855.69
449.559	839.69
449.779	831.69
450	847.69
450.221	832.69
450.442	858.69
450.662	818.69
450.883	849.69
451.104	857.69
451.324	848.69
451.545	839.69
451.766	839.69
451.986	835.69
452.207	803.69
452.428	832.69
452.648	796.69
452.869	788.69
453.089	789.69
453.31	813.69
453.53	796.69
453.751	803.69
453.971	811.69
454.192	809.69
454.412	782.69
454.633	787.69
454.853	783.69
455.073	768.69
455.294	798.69
455.514	791.69
455.734	770.69
455.955	787.69
456.175	784.69
456.395	757.69
456.616	764.69
456.836	757.69
457.056	788.69
457.276	751.69
457.497	786.69
457.717	770.69
457.937	789.69
458.157	810.69
458.377	830.69
458.598	813.69
458.818	818.69
459.038	875.69
459.258	884.69
459.478	916.69
459.698	933.69
459.918	946.69
460.138	1032.69
460.358	1013.69
460.578	1048.69
460.798	1049.69
461.018	1054.69
461.238	1040.69
461.458	1046.69
461.678	1055.69
461.898	1071.69
462.118	1084.69
462.338	1148.69
462.558	1134.69
462.777	1190.69
462.997	1253.69
463.217	1346.69
463.437	1338.69
463.657	1251.69
463.876	1220.69
464.096	1217.69
464.316	1201.69
464.536	1198.69
464.755	1147.69
464.975	1125.69
465.195	1066.69
465.414	995.69
465.634	958.69
465.854	962.69
466.073	907.69
466.293	931.69
466.512	901.69
466.732	893.69
466.951	874.69
467.171	891.69
467.391	875.69
467.61	862.69
467.829	859.69
468.049	877.69
468.268	847.69
468.488	848.69
468.707	840.69
468.927	841.69
469.146	856.69
469.365	866.69
469.585	871.69
469.804	879.69
470.023	882.69
470.243	908.69
470.462	877.69
470.681	908.69
470.901	907.69
471.12	894.69
471.339	911.69
471.558	861.69
471.777	887.69
471.997	872.69
472.216	870.69
472.435	847.69
472.654	847.69
472.873	845.69
473.092	835.69
473.311	837.69
473.53	832.69
473.749	812.69
473.968	814.69
474.187	788.69
474.406	847.69
474.625	843.69
474.844	839.69
475.063	813.69
475.282	820.69
475.501	848.69
475.72	846.69
475.939	845.69
476.158	869.69
476.377	865.69
476.596	875.69
476.814	887.69
477.033	860.69
477.252	902.69
477.471	931.69
477.69	911.69
477.908	960.69
478.127	962.69
478.346	974.69
478.564	988.69
478.783	1015.69
479.002	1031.69
479.22	1029.69
479.439	1043.69
479.658	1026.69
479.876	994.69
480.095	1046.69
480.313	1071.69
480.532	1070.69
480.751	1088.69
480.969	1030.69
481.188	1027.69
481.406	996.69
481.624	978.69
481.843	974.69
482.061	949.69
482.28	944.69
482.498	931.69
482.717	937.69
482.935	940.69
483.153	954.69
483.372	979.69
483.59	967.69
483.808	953.69
484.027	950.69
484.245	976.69
484.463	972.69
484.681	989.69
484.9	974.69
485.118	992.69
485.336	983.69
485.554	999.69
485.772	1021.69
485.99	995.69
486.209	1002.69
486.427	981.69
486.645	1035.69
486.863	1010.69
487.081	1034.69
487.299	984.69
487.517	986.69
487.735	976.69
487.953	994.69
488.171	1010.69
488.389	994.69
488.607	994.69
488.825	964.69
489.043	974.69
489.261	1000.69
489.479	990.69
489.696	1011.69
489.914	1018.69
490.132	1014.69
490.35	1037.69
490.568	1004.69
490.786	994.69
491.003	1014.69
491.221	1046.69
491.439	1009.69
491.657	1046.69
491.874	1033.69
492.092	1017.69
492.31	1063.69
492.527	1055.69
492.745	1040.69
492.963	1053.69
493.18	1048.69
493.398	1054.69
493.615	1056.69
493.833	1050.69
494.05	1083.69
494.268	1037.69
494.485	1055.69
494.703	1085.69
494.92	1064.69
495.138	1055.69
495.355	1045.69
495.573	1084.69
495.79	1055.69
496.008	1062.69
496.225	1098.69
496.442	1128.69
496.66	1107.69
496.877	1127.69
497.094	1170.69
497.312	1186.69
497.529	1216.69
497.746	1238.69
497.963	1246.69
498.181	1314.69
498.398	1328.69
498.615	1440.69
498.832	1519.69
499.049	1591.69
499.267	1692.69
499.484	1824.69
