Data from NiCl2@0.0625M.TitratingCurve.Agarose3%dH2O.NegLispCup.LampEnergy10.LIBS07252019_HRD10591_18-35-26-577.txt Node
Date: Thu Jul 25 18:35:26 EDT 2019
User: cochatt
Spectrometer: HR+D1059
Trigger mode: 1
Integration Time (sec): 1.000000E-1
Scans to average: 1
Electric dark correction enabled: true
Nonlinearity correction enabled: false
Boxcar width: 0
XAxis mode: Wavelengths
Number of Pixels in Spectrum: 2048
>>>>>Begin Spectral Data<<<<<
223.165	-11.44
223.4	-11.44
223.635	-11.44
223.869	-22.44
224.104	-15.44
224.338	-22.44
224.573	-6.44
224.808	-19.44
225.042	-5.44
225.277	-7.44
225.511	-2.44
225.746	1.56
225.98	7.56
226.215	8.56
226.449	9.56
226.683	21.56
226.918	19.56
227.152	44.56
227.387	36.56
227.621	37.56
227.856	55.56
228.09	52.56
228.324	52.56
228.559	69.56
228.793	80.56
229.027	159.56
229.262	168.56
229.496	157.56
229.73	151.56
229.964	184.56
230.199	176.56
230.433	197.56
230.667	168.56
230.901	180.56
231.136	180.56
231.37	192.56
231.604	202.56
231.838	197.56
232.072	197.56
232.306	209.56
232.541	211.56
232.775	209.56
233.009	200.56
233.243	215.56
233.477	219.56
233.711	215.56
233.945	204.56
234.179	229.56
234.413	206.56
234.647	214.56
234.881	215.56
235.115	223.56
235.349	203.56
235.583	225.56
235.817	220.56
236.051	228.56
236.285	216.56
236.519	210.56
236.753	233.56
236.987	220.56
237.221	235.56
237.455	224.56
237.689	247.56
237.922	242.56
238.156	247.56
238.39	246.56
238.624	231.56
238.858	262.56
239.091	262.56
239.325	280.56
239.559	264.56
239.793	275.56
240.027	273.56
240.26	262.56
240.494	266.56
240.728	286.56
240.961	270.56
241.195	282.56
241.429	284.56
241.662	300.56
241.896	289.56
242.13	307.56
242.363	298.56
242.597	294.56
242.83	313.56
243.064	311.56
243.298	322.56
243.531	299.56
243.765	313.56
243.998	310.56
244.232	319.56
244.465	327.56
244.699	324.56
244.932	324.56
245.166	324.56
245.399	349.56
245.633	344.56
245.866	358.56
246.099	353.56
246.333	334.56
246.566	357.56
246.8	342.56
247.033	351.56
247.266	363.56
247.5	365.56
247.733	364.56
247.966	376.56
248.2	375.56
248.433	374.56
248.666	357.56
248.899	386.56
249.133	394.56
249.366	413.56
249.599	399.56
249.832	396.56
250.066	388.56
250.299	396.56
250.532	416.56
250.765	388.56
250.998	416.56
251.231	417.56
251.465	410.56
251.698	423.56
251.931	426.56
252.164	415.56
252.397	420.56
252.63	438.56
252.863	421.56
253.096	426.56
253.329	453.56
253.562	433.56
253.795	456.56
254.028	460.56
254.261	445.56
254.494	464.56
254.727	463.56
254.96	457.56
255.193	464.56
255.426	465.56
255.659	472.56
255.892	462.56
256.124	485.56
256.357	492.56
256.59	473.56
256.823	478.56
257.056	463.56
257.289	497.56
257.521	486.56
257.754	469.56
257.987	482.56
258.22	501.56
258.452	506.56
258.685	501.56
258.918	501.56
259.151	495.56
259.383	522.56
259.616	491.56
259.849	500.56
260.081	518.56
260.314	535.56
260.547	511.56
260.779	513.56
261.012	508.56
261.244	492.56
261.477	540.56
261.71	527.56
261.942	550.56
262.175	525.56
262.407	567.56
262.64	536.56
262.872	564.56
263.105	549.56
263.337	560.56
263.57	578.56
263.802	564.56
264.035	564.56
264.267	569.56
264.499	590.56
264.732	603.56
264.964	549.56
265.197	557.56
265.429	575.56
265.661	576.56
265.894	585.56
266.126	609.56
266.358	575.56
266.591	594.56
266.823	614.56
267.055	587.56
267.287	626.56
267.52	602.56
267.752	608.56
267.984	612.56
268.216	624.56
268.448	637.56
268.681	618.56
268.913	634.56
269.145	634.56
269.377	608.56
269.609	610.56
269.841	632.56
270.073	648.56
270.306	633.56
270.538	644.56
270.77	628.56
271.002	654.56
271.234	668.56
271.466	656.56
271.698	635.56
271.93	654.56
272.162	639.56
272.394	678.56
272.626	687.56
272.858	670.56
273.09	676.56
273.322	708.56
273.553	682.56
273.785	682.56
274.017	670.56
274.249	704.56
274.481	669.56
274.713	680.56
274.945	672.56
275.176	700.56
275.408	729.56
275.64	682.56
275.872	695.56
276.104	701.56
276.335	708.56
276.567	709.56
276.799	716.56
277.031	726.56
277.262	743.56
277.494	712.56
277.726	706.56
277.957	709.56
278.189	731.56
278.421	728.56
278.652	741.56
278.884	738.56
279.115	748.56
279.347	750.56
279.579	743.56
279.81	734.56
280.042	731.56
280.273	750.56
280.505	762.56
280.736	769.56
280.968	760.56
281.199	774.56
281.431	755.56
281.662	756.56
281.894	782.56
282.125	779.56
282.356	791.56
282.588	813.56
282.819	790.56
283.051	794.56
283.282	812.56
283.513	806.56
283.745	782.56
283.976	828.56
284.207	806.56
284.439	799.56
284.67	798.56
284.901	837.56
285.132	816.56
285.364	834.56
285.595	824.56
285.826	848.56
286.057	817.56
286.288	808.56
286.52	846.56
286.751	838.56
286.982	846.56
287.213	835.56
287.444	838.56
287.675	878.56
287.906	883.56
288.138	879.56
288.369	861.56
288.6	858.56
288.831	871.56
289.062	860.56
289.293	875.56
289.524	866.56
289.755	883.56
289.986	874.56
290.217	848.56
290.448	858.56
290.679	914.56
290.91	879.56
291.141	874.56
291.371	874.56
291.602	897.56
291.833	906.56
292.064	890.56
292.295	922.56
292.526	879.56
292.757	909.56
292.987	874.56
293.218	896.56
293.449	916.56
293.68	894.56
293.91	896.56
294.141	871.56
294.372	897.56
294.603	897.56
294.833	908.56
295.064	890.56
295.295	888.56
295.525	897.56
295.756	929.56
295.987	880.56
296.217	922.56
296.448	950.56
296.679	928.56
296.909	918.56
297.14	960.56
297.37	952.56
297.601	949.56
297.831	953.56
298.062	978.56
298.292	965.56
298.523	972.56
298.753	953.56
298.984	932.56
299.214	944.56
299.445	962.56
299.675	958.56
299.905	988.56
300.136	997.56
300.366	972.56
300.597	981.56
300.827	1001.56
301.057	993.56
301.288	1022.56
301.518	1030.56
301.748	1017.56
301.979	1052.56
302.209	1032.56
302.439	1002.56
302.669	1022.56
302.9	987.56
303.13	1024.56
303.36	999.56
303.59	1005.56
303.82	1018.56
304.051	1012.56
304.281	1029.56
304.511	1015.56
304.741	1033.56
304.971	1008.56
305.201	1030.56
305.431	1004.56
305.661	1038.56
305.891	1049.56
306.121	1018.56
306.352	1026.56
306.582	1023.56
306.812	989.56
307.042	1016.56
307.272	997.56
307.502	1008.56
307.731	1010.56
307.961	1003.56
308.191	970.56
308.421	1002.56
308.651	996.56
308.881	980.56
309.111	997.56
309.341	995.56
309.571	1023.56
309.8	1017.56
310.03	1019.56
310.26	1006.56
310.49	994.56
310.72	1017.56
310.949	1003.56
311.179	1020.56
311.409	1017.56
311.639	1025.56
311.868	1032.56
312.098	1031.56
312.328	1053.56
312.557	1038.56
312.787	1063.56
313.017	1067.56
313.246	1073.56
313.476	1039.56
313.706	1065.56
313.935	1088.56
314.165	1097.56
314.394	1085.56
314.624	1099.56
314.853	1097.56
315.083	1128.56
315.312	1099.56
315.542	1082.56
315.771	1096.56
316.001	1072.56
316.23	1067.56
316.46	1096.56
316.689	1086.56
316.919	1086.56
317.148	1081.56
317.377	1060.56
317.607	1046.56
317.836	1057.56
318.065	1061.56
318.295	1052.56
318.524	1076.56
318.753	1084.56
318.983	1053.56
319.212	1042.56
319.441	1028.56
319.67	1090.56
319.9	1060.56
320.129	1061.56
320.358	1084.56
320.587	1078.56
320.816	1112.56
321.046	1097.56
321.275	1123.56
321.504	1105.56
321.733	1088.56
321.962	1098.56
322.191	1087.56
322.42	1092.56
322.649	1126.56
322.878	1084.56
323.108	1083.56
323.337	1078.56
323.566	1116.56
323.795	1103.56
324.024	1099.56
324.253	1114.56
324.482	1126.56
324.71	1100.56
324.939	1135.56
325.168	1164.56
325.397	1116.56
325.626	1134.56
325.855	1146.56
326.084	1186.56
326.313	1161.56
326.542	1190.56
326.77	1195.56
326.999	1158.56
327.228	1152.56
327.457	1174.56
327.686	1152.56
327.914	1170.56
328.143	1166.56
328.372	1201.56
328.6	1168.56
328.829	1157.56
329.058	1190.56
329.287	1193.56
329.515	1176.56
329.744	1188.56
329.972	1202.56
330.201	1184.56
330.43	1197.56
330.658	1176.56
330.887	1195.56
331.115	1189.56
331.344	1249.56
331.572	1223.56
331.801	1240.56
332.03	1263.56
332.258	1296.56
332.486	1322.56
332.715	1365.56
332.943	1376.56
333.172	1430.56
333.4	1470.56
333.629	1498.56
333.857	1502.56
334.085	1521.56
334.314	1541.56
334.542	1503.56
334.771	1489.56
334.999	1471.56
335.227	1467.56
335.455	1506.56
335.684	1461.56
335.912	1419.56
336.14	1414.56
336.369	1401.56
336.597	1465.56
336.825	1432.56
337.053	1417.56
337.281	1376.56
337.51	1359.56
337.738	1320.56
337.966	1304.56
338.194	1342.56
338.422	1295.56
338.65	1296.56
338.878	1261.56
339.106	1260.56
339.334	1301.56
339.562	1265.56
339.79	1271.56
340.018	1240.56
340.246	1214.56
340.474	1277.56
340.702	1228.56
340.93	1243.56
341.158	1241.56
341.386	1262.56
341.614	1274.56
341.842	1224.56
342.07	1215.56
342.298	1231.56
342.526	1174.56
342.754	1225.56
342.981	1263.56
343.209	1252.56
343.437	1295.56
343.665	1366.56
343.893	1405.56
344.12	1453.56
344.348	1405.56
344.576	1394.56
344.804	1339.56
345.031	1264.56
345.259	1292.56
345.487	1228.56
345.714	1226.56
345.942	1232.56
346.17	1226.56
346.397	1200.56
346.625	1186.56
346.853	1174.56
347.08	1176.56
347.308	1192.56
347.535	1210.56
347.763	1206.56
347.99	1168.56
348.218	1199.56
348.445	1173.56
348.673	1168.56
348.9	1186.56
349.128	1158.56
349.355	1145.56
349.583	1166.56
349.81	1136.56
350.037	1145.56
350.265	1172.56
350.492	1164.56
350.72	1137.56
350.947	1129.56
351.174	1167.56
351.402	1162.56
351.629	1163.56
351.856	1151.56
352.083	1122.56
352.311	1119.56
352.538	1171.56
352.765	1154.56
352.992	1130.56
353.22	1119.56
353.447	1119.56
353.674	1137.56
353.901	1152.56
354.128	1148.56
354.355	1139.56
354.583	1132.56
354.81	1151.56
355.037	1126.56
355.264	1156.56
355.491	1148.56
355.718	1154.56
355.945	1109.56
356.172	1140.56
356.399	1143.56
356.626	1190.56
356.853	1154.56
357.08	1130.56
357.307	1174.56
357.534	1139.56
357.761	1150.56
357.988	1152.56
358.215	1140.56
358.441	1136.56
358.668	1136.56
358.895	1132.56
359.122	1127.56
359.349	1144.56
359.576	1132.56
359.802	1148.56
360.029	1135.56
360.256	1141.56
360.483	1140.56
360.709	1163.56
360.936	1140.56
361.163	1157.56
361.39	1130.56
361.616	1134.56
361.843	1157.56
362.07	1120.56
362.296	1162.56
362.523	1147.56
362.749	1132.56
362.976	1154.56
363.203	1152.56
363.429	1145.56
363.656	1140.56
363.882	1156.56
364.109	1135.56
364.335	1066.56
364.562	1157.56
364.788	1139.56
365.015	1116.56
365.241	1146.56
365.468	1148.56
365.694	1167.56
365.92	1182.56
366.147	1130.56
366.373	1128.56
366.599	1124.56
366.826	1125.56
367.052	1152.56
367.278	1116.56
367.505	1172.56
367.731	1149.56
367.957	1153.56
368.184	1134.56
368.41	1166.56
368.636	1178.56
368.862	1188.56
369.089	1172.56
369.315	1208.56
369.541	1178.56
369.767	1174.56
369.993	1206.56
370.219	1175.56
370.445	1221.56
370.672	1233.56
370.898	1205.56
371.124	1242.56
371.35	1226.56
371.576	1264.56
371.802	1237.56
372.028	1225.56
372.254	1248.56
372.48	1265.56
372.706	1283.56
372.932	1288.56
373.158	1290.56
373.384	1266.56
373.61	1231.56
373.835	1262.56
374.061	1259.56
374.287	1254.56
374.513	1291.56
374.739	1288.56
374.965	1343.56
375.191	1376.56
375.416	1340.56
375.642	1326.56
375.868	1306.56
376.094	1272.56
376.319	1259.56
376.545	1275.56
376.771	1259.56
376.997	1236.56
377.222	1253.56
377.448	1249.56
377.674	1265.56
377.899	1273.56
378.125	1245.56
378.35	1210.56
378.576	1218.56
378.802	1235.56
379.027	1183.56
379.253	1227.56
379.478	1214.56
379.704	1233.56
379.929	1220.56
380.155	1223.56
380.38	1213.56
380.606	1216.56
380.831	1215.56
381.057	1248.56
381.282	1228.56
381.507	1244.56
381.733	1227.56
381.958	1244.56
382.184	1260.56
382.409	1276.56
382.634	1292.56
382.86	1324.56
383.085	1280.56
383.31	1321.56
383.535	1321.56
383.761	1297.56
383.986	1381.56
384.211	1382.56
384.436	1399.56
384.662	1430.56
384.887	1419.56
385.112	1431.56
385.337	1448.56
385.562	1493.56
385.787	1439.56
386.013	1482.56
386.238	1464.56
386.463	1478.56
386.688	1483.56
386.913	1440.56
387.138	1461.56
387.363	1468.56
387.588	1467.56
387.813	1461.56
388.038	1445.56
388.263	1449.56
388.488	1478.56
388.713	1471.56
388.938	1503.56
389.163	1445.56
389.387	1455.56
389.612	1458.56
389.837	1461.56
390.062	1466.56
390.287	1468.56
390.512	1420.56
390.736	1444.56
390.961	1482.56
391.186	1507.56
391.411	1547.56
391.636	1592.56
391.86	1633.56
392.085	1671.56
392.31	1631.56
392.534	1615.56
392.759	1617.56
392.984	1563.56
393.208	1546.56
393.433	1532.56
393.658	1546.56
393.882	1521.56
394.107	1554.56
394.331	1546.56
394.556	1584.56
394.78	1588.56
395.005	1584.56
395.229	1601.56
395.454	1644.56
395.678	1654.56
395.903	1650.56
396.127	1634.56
396.352	1630.56
396.576	1595.56
396.801	1576.56
397.025	1594.56
397.249	1670.56
397.474	1636.56
397.698	1682.56
397.922	1681.56
398.147	1711.56
398.371	1746.56
398.595	1740.56
398.82	1837.56
399.044	1921.56
399.268	2074.56
399.492	2280.56
399.717	2505.56
399.941	2564.56
400.165	2329.56
400.389	2186.56
400.613	2056.56
400.837	1972.56
401.062	1907.56
401.286	1889.56
401.51	1887.56
401.734	1854.56
401.958	1868.56
402.182	1873.56
402.406	1847.56
402.63	1857.56
402.854	1913.56
403.078	1888.56
403.302	1916.56
403.526	1935.56
403.75	1988.56
403.974	1969.56
404.198	2011.56
404.422	1996.56
404.645	1986.56
404.869	1934.56
405.093	1988.56
405.317	1961.56
405.541	1994.56
405.765	1976.56
405.988	1955.56
406.212	1996.56
406.436	1965.56
406.66	2052.56
406.883	2083.56
407.107	2209.56
407.331	2236.56
407.555	2328.56
407.778	2341.56
408.002	2283.56
408.226	2255.56
408.449	2173.56
408.673	2088.56
408.896	2104.56
409.12	2061.56
409.344	2087.56
409.567	2021.56
409.791	2095.56
410.014	2007.56
410.238	2052.56
410.461	2021.56
410.685	2014.56
410.908	1953.56
411.132	1945.56
411.355	1911.56
411.578	1969.56
411.802	1916.56
412.025	1926.56
412.249	1929.56
412.472	1928.56
412.695	1889.56
412.919	1837.56
413.142	1842.56
413.365	1855.56
413.589	1883.56
413.812	1837.56
414.035	1802.56
414.258	1831.56
414.482	1836.56
414.705	1848.56
414.928	1871.56
415.151	1869.56
415.374	1818.56
415.597	1819.56
415.821	1758.56
416.044	1805.56
416.267	1760.56
416.49	1761.56
416.713	1765.56
416.936	1788.56
417.159	1746.56
417.382	1735.56
417.605	1752.56
417.828	1761.56
418.051	1776.56
418.274	1750.56
418.497	1777.56
418.72	1825.56
418.943	1784.56
419.166	1912.56
419.389	2033.56
419.611	1975.56
419.834	1915.56
420.057	1841.56
420.28	1805.56
420.503	1774.56
420.726	1766.56
420.948	1749.56
421.171	1754.56
421.394	1728.56
421.617	1762.56
421.839	1776.56
422.062	1784.56
422.285	1748.56
422.507	1799.56
422.73	1780.56
422.953	1753.56
423.175	1806.56
423.398	1855.56
423.621	1779.56
423.843	1838.56
424.066	1863.56
424.288	1823.56
424.511	1833.56
424.733	1774.56
424.956	1764.56
425.178	1763.56
425.401	1775.56
425.623	1766.56
425.846	1709.56
426.068	1773.56
426.291	1700.56
426.513	1705.56
426.735	1677.56
426.958	1728.56
427.18	1614.56
427.402	1622.56
427.625	1632.56
427.847	1617.56
428.069	1592.56
428.292	1623.56
428.514	1596.56
428.736	1611.56
428.958	1601.56
429.181	1588.56
429.403	1571.56
429.625	1585.56
429.847	1551.56
430.069	1558.56
430.292	1546.56
430.514	1559.56
430.736	1606.56
430.958	1566.56
431.18	1576.56
431.402	1596.56
431.624	1601.56
431.846	1613.56
432.068	1608.56
432.29	1668.56
432.512	1633.56
432.734	1662.56
432.956	1626.56
433.178	1614.56
433.4	1637.56
433.622	1615.56
433.844	1662.56
434.066	1704.56
434.287	1663.56
434.509	1708.56
434.731	1766.56
434.953	1801.56
435.175	1840.56
435.397	1800.56
435.618	1727.56
435.84	1694.56
436.062	1636.56
436.284	1642.56
436.505	1647.56
436.727	1599.56
436.949	1639.56
437.17	1639.56
437.392	1552.56
437.614	1546.56
437.835	1524.56
438.057	1564.56
438.278	1534.56
438.5	1526.56
438.721	1526.56
438.943	1548.56
439.165	1546.56
439.386	1550.56
439.608	1534.56
439.829	1609.56
440.05	1597.56
440.272	1621.56
440.493	1598.56
440.715	1630.56
440.936	1659.56
441.158	1620.56
441.379	1682.56
441.6	1696.56
441.822	1753.56
442.043	1773.56
442.264	1706.56
442.486	1730.56
442.707	1698.56
442.928	1692.56
443.149	1708.56
443.371	1707.56
443.592	1729.56
443.813	1722.56
444.034	1772.56
444.255	1791.56
444.476	1862.56
444.698	1941.56
444.919	1978.56
445.14	2031.56
445.361	1915.56
445.582	1796.56
445.803	1751.56
446.024	1704.56
446.245	1661.56
446.466	1610.56
446.687	1614.56
446.908	1579.56
447.129	1561.56
447.35	1556.56
447.571	1540.56
447.792	1504.56
448.013	1535.56
448.234	1458.56
448.455	1476.56
448.675	1458.56
448.896	1420.56
449.117	1441.56
449.338	1442.56
449.559	1418.56
449.779	1429.56
450	1387.56
450.221	1404.56
450.442	1441.56
450.662	1437.56
450.883	1415.56
451.104	1456.56
451.324	1470.56
451.545	1415.56
451.766	1431.56
451.986	1406.56
452.207	1448.56
452.428	1415.56
452.648	1423.56
452.869	1397.56
453.089	1368.56
453.31	1384.56
453.53	1392.56
453.751	1372.56
453.971	1382.56
454.192	1359.56
454.412	1364.56
454.633	1358.56
454.853	1368.56
455.073	1368.56
455.294	1382.56
455.514	1370.56
455.734	1309.56
455.955	1310.56
456.175	1349.56
456.395	1330.56
456.616	1348.56
456.836	1376.56
457.056	1353.56
457.276	1346.56
457.497	1374.56
457.717	1351.56
457.937	1369.56
458.157	1383.56
458.377	1393.56
458.598	1421.56
458.818	1494.56
459.038	1478.56
459.258	1541.56
459.478	1594.56
459.698	1636.56
459.918	1670.56
460.138	1683.56
460.358	1740.56
460.578	1771.56
460.798	1863.56
461.018	1773.56
461.238	1797.56
461.458	1795.56
461.678	1774.56
461.898	1814.56
462.118	1838.56
462.338	1888.56
462.558	1915.56
462.777	2028.56
462.997	2166.56
463.217	2233.56
463.437	2278.56
463.657	2162.56
463.876	2121.56
464.096	2092.56
464.316	2069.56
464.536	2068.56
464.755	2020.56
464.975	1950.56
465.195	1892.56
465.414	1791.56
465.634	1686.56
465.854	1629.56
466.073	1668.56
466.293	1630.56
466.512	1573.56
466.732	1546.56
466.951	1512.56
467.171	1522.56
467.391	1489.56
467.61	1515.56
467.829	1502.56
468.049	1468.56
468.268	1479.56
468.488	1472.56
468.707	1430.56
468.927	1446.56
469.146	1437.56
469.365	1493.56
469.585	1485.56
469.804	1495.56
470.023	1500.56
470.243	1503.56
470.462	1546.56
470.681	1531.56
470.901	1544.56
471.12	1532.56
471.339	1528.56
471.558	1499.56
471.777	1488.56
471.997	1453.56
472.216	1474.56
472.435	1438.56
472.654	1436.56
472.873	1428.56
473.092	1429.56
473.311	1426.56
473.53	1460.56
473.749	1436.56
473.968	1438.56
474.187	1434.56
474.406	1421.56
474.625	1449.56
474.844	1451.56
475.063	1467.56
475.282	1432.56
475.501	1462.56
475.72	1490.56
475.939	1472.56
476.158	1485.56
476.377	1518.56
476.596	1494.56
476.814	1506.56
477.033	1553.56
477.252	1549.56
477.471	1561.56
477.69	1621.56
477.908	1684.56
478.127	1672.56
478.346	1710.56
478.564	1756.56
478.783	1754.56
479.002	1787.56
479.22	1792.56
479.439	1802.56
479.658	1839.56
479.876	1817.56
480.095	1825.56
480.313	1866.56
480.532	1892.56
480.751	1957.56
480.969	1863.56
481.188	1823.56
481.406	1818.56
481.624	1753.56
481.843	1776.56
482.061	1776.56
482.28	1743.56
482.498	1770.56
482.717	1738.56
482.935	1768.56
483.153	1757.56
483.372	1761.56
483.59	1813.56
483.808	1778.56
484.027	1794.56
484.245	1823.56
484.463	1859.56
484.681	1864.56
484.9	1850.56
485.118	1887.56
485.336	1900.56
485.554	1930.56
485.772	1974.56
485.99	1936.56
486.209	1948.56
486.427	1941.56
486.645	1968.56
486.863	1918.56
487.081	1913.56
487.299	1892.56
487.517	1922.56
487.735	1874.56
487.953	1926.56
488.171	1880.56
488.389	1876.56
488.607	1871.56
488.825	1853.56
489.043	1833.56
489.261	1847.56
489.479	1866.56
489.696	1816.56
489.914	1801.56
490.132	1836.56
