Data from NiCl2@0.125M.TitratingCurve.Agarose3%dH2O.NegLispCup.LampEnergy10.LIBS07252019_HRD10591_18-29-36-574.txt Node
Date: Thu Jul 25 18:29:36 EDT 2019
User: cochatt
Spectrometer: HR+D1059
Trigger mode: 1
Integration Time (sec): 1.000000E-1
Scans to average: 1
Electric dark correction enabled: true
Nonlinearity correction enabled: false
Boxcar width: 0
XAxis mode: Wavelengths
Number of Pixels in Spectrum: 2048
>>>>>Begin Spectral Data<<<<<
223.165	-17.19
223.4	-17.19
223.635	-17.19
223.869	-16.19
224.104	-10.19
224.338	-16.19
224.573	-12.19
224.808	-7.19
225.042	-6.19
225.277	-13.19
225.511	-13.19
225.746	-6.19
225.98	19.81
226.215	9.81
226.449	14.81
226.683	14.81
226.918	17.81
227.152	40.81
227.387	27.81
227.621	26.81
227.856	35.81
228.09	36.81
228.324	57.81
228.559	57.81
228.793	70.81
229.027	100.81
229.262	117.81
229.496	109.81
229.73	103.81
229.964	115.81
230.199	112.81
230.433	146.81
230.667	138.81
230.901	113.81
231.136	137.81
231.37	138.81
231.604	145.81
231.838	140.81
232.072	152.81
232.306	142.81
232.541	153.81
232.775	137.81
233.009	144.81
233.243	151.81
233.477	152.81
233.711	143.81
233.945	144.81
234.179	142.81
234.413	154.81
234.647	152.81
234.881	150.81
235.115	134.81
235.349	145.81
235.583	159.81
235.817	152.81
236.051	145.81
236.285	146.81
236.519	157.81
236.753	136.81
236.987	164.81
237.221	184.81
237.455	164.81
237.689	148.81
237.922	148.81
238.156	169.81
238.39	165.81
238.624	162.81
238.858	168.81
239.091	150.81
239.325	153.81
239.559	180.81
239.793	185.81
240.027	170.81
240.26	179.81
240.494	175.81
240.728	189.81
240.961	177.81
241.195	186.81
241.429	178.81
241.662	194.81
241.896	188.81
242.13	186.81
242.363	179.81
242.597	194.81
242.83	182.81
243.064	195.81
243.298	195.81
243.531	206.81
243.765	220.81
243.998	217.81
244.232	203.81
244.465	193.81
244.699	210.81
244.932	223.81
245.166	237.81
245.399	224.81
245.633	196.81
245.866	227.81
246.099	221.81
246.333	205.81
246.566	214.81
246.8	235.81
247.033	221.81
247.266	211.81
247.5	226.81
247.733	230.81
247.966	233.81
248.2	248.81
248.433	232.81
248.666	234.81
248.899	239.81
249.133	238.81
249.366	242.81
249.599	245.81
249.832	244.81
250.066	248.81
250.299	242.81
250.532	239.81
250.765	261.81
250.998	242.81
251.231	255.81
251.465	267.81
251.698	274.81
251.931	264.81
252.164	262.81
252.397	259.81
252.63	272.81
252.863	274.81
253.096	297.81
253.329	288.81
253.562	266.81
253.795	270.81
254.028	288.81
254.261	293.81
254.494	283.81
254.727	275.81
254.96	286.81
255.193	266.81
255.426	302.81
255.659	283.81
255.892	292.81
256.124	279.81
256.357	294.81
256.59	294.81
256.823	297.81
257.056	291.81
257.289	311.81
257.521	299.81
257.754	311.81
257.987	321.81
258.22	304.81
258.452	303.81
258.685	303.81
258.918	311.81
259.151	313.81
259.383	301.81
259.616	305.81
259.849	310.81
260.081	336.81
260.314	298.81
260.547	308.81
260.779	307.81
261.012	323.81
261.244	312.81
261.477	321.81
261.71	343.81
261.942	328.81
262.175	317.81
262.407	330.81
262.64	320.81
262.872	337.81
263.105	333.81
263.337	321.81
263.57	331.81
263.802	345.81
264.035	325.81
264.267	325.81
264.499	344.81
264.732	339.81
264.964	337.81
265.197	363.81
265.429	347.81
265.661	367.81
265.894	343.81
266.126	346.81
266.358	371.81
266.591	352.81
266.823	343.81
267.055	343.81
267.287	361.81
267.52	357.81
267.752	360.81
267.984	366.81
268.216	353.81
268.448	369.81
268.681	359.81
268.913	349.81
269.145	371.81
269.377	360.81
269.609	379.81
269.841	381.81
270.073	353.81
270.306	375.81
270.538	376.81
270.77	373.81
271.002	386.81
271.234	364.81
271.466	373.81
271.698	377.81
271.93	395.81
272.162	379.81
272.394	387.81
272.626	377.81
272.858	369.81
273.09	395.81
273.322	400.81
273.553	374.81
273.785	387.81
274.017	393.81
274.249	402.81
274.481	384.81
274.713	401.81
274.945	399.81
275.176	404.81
275.408	403.81
275.64	391.81
275.872	411.81
276.104	420.81
276.335	421.81
276.567	421.81
276.799	408.81
277.031	417.81
277.262	394.81
277.494	415.81
277.726	406.81
277.957	421.81
278.189	436.81
278.421	418.81
278.652	418.81
278.884	424.81
279.115	417.81
279.347	434.81
279.579	422.81
279.81	420.81
280.042	430.81
280.273	437.81
280.505	451.81
280.736	441.81
280.968	437.81
281.199	441.81
281.431	457.81
281.662	448.81
281.894	443.81
282.125	439.81
282.356	453.81
282.588	474.81
282.819	454.81
283.051	463.81
283.282	464.81
283.513	480.81
283.745	463.81
283.976	462.81
284.207	459.81
284.439	465.81
284.67	463.81
284.901	485.81
285.132	488.81
285.364	472.81
285.595	464.81
285.826	509.81
286.057	497.81
286.288	510.81
286.52	491.81
286.751	500.81
286.982	493.81
287.213	499.81
287.444	516.81
287.675	523.81
287.906	472.81
288.138	489.81
288.369	493.81
288.6	515.81
288.831	495.81
289.062	518.81
289.293	511.81
289.524	550.81
289.755	509.81
289.986	517.81
290.217	527.81
290.448	507.81
290.679	509.81
290.91	527.81
291.141	523.81
291.371	518.81
291.602	526.81
291.833	511.81
292.064	513.81
292.295	535.81
292.526	534.81
292.757	515.81
292.987	527.81
293.218	510.81
293.449	510.81
293.68	528.81
293.91	513.81
294.141	521.81
294.372	502.81
294.603	523.81
294.833	538.81
295.064	537.81
295.295	544.81
295.525	538.81
295.756	559.81
295.987	546.81
296.217	541.81
296.448	563.81
296.679	544.81
296.909	542.81
297.14	565.81
297.37	569.81
297.601	558.81
297.831	562.81
298.062	570.81
298.292	569.81
298.523	600.81
298.753	599.81
298.984	583.81
299.214	592.81
299.445	579.81
299.675	571.81
299.905	574.81
300.136	570.81
300.366	577.81
300.597	570.81
300.827	590.81
301.057	601.81
301.288	630.81
301.518	598.81
301.748	591.81
301.979	629.81
302.209	586.81
302.439	604.81
302.669	586.81
302.9	601.81
303.13	572.81
303.36	569.81
303.59	602.81
303.82	593.81
304.051	594.81
304.281	576.81
304.511	576.81
304.741	582.81
304.971	577.81
305.201	570.81
305.431	567.81
305.661	591.81
305.891	583.81
306.121	603.81
306.352	573.81
306.582	563.81
306.812	573.81
307.042	579.81
307.272	583.81
307.502	574.81
307.731	537.81
307.961	587.81
308.191	541.81
308.421	552.81
308.651	559.81
308.881	553.81
309.111	549.81
309.341	554.81
309.571	564.81
309.8	566.81
310.03	570.81
310.26	586.81
310.49	555.81
310.72	574.81
310.949	563.81
311.179	581.81
311.409	594.81
311.639	584.81
311.868	586.81
312.098	570.81
312.328	569.81
312.557	604.81
312.787	585.81
313.017	600.81
313.246	590.81
313.476	592.81
313.706	585.81
313.935	597.81
314.165	607.81
314.394	591.81
314.624	614.81
314.853	601.81
315.083	647.81
315.312	601.81
315.542	590.81
315.771	598.81
316.001	614.81
316.23	586.81
316.46	579.81
316.689	583.81
316.919	582.81
317.148	604.81
317.377	606.81
317.607	592.81
317.836	577.81
318.065	589.81
318.295	575.81
318.524	580.81
318.753	581.81
318.983	595.81
319.212	577.81
319.441	578.81
319.67	591.81
319.9	613.81
320.129	583.81
320.358	600.81
320.587	603.81
320.816	599.81
321.046	587.81
321.275	590.81
321.504	593.81
321.733	585.81
321.962	605.81
322.191	579.81
322.42	609.81
322.649	590.81
322.878	590.81
323.108	590.81
323.337	581.81
323.566	612.81
323.795	617.81
324.024	624.81
324.253	599.81
324.482	602.81
324.71	616.81
324.939	609.81
325.168	617.81
325.397	597.81
325.626	626.81
325.855	636.81
326.084	633.81
326.313	655.81
326.542	650.81
326.77	669.81
326.999	641.81
327.228	669.81
327.457	644.81
327.686	640.81
327.914	635.81
328.143	666.81
328.372	671.81
328.6	635.81
328.829	641.81
329.058	629.81
329.287	638.81
329.515	659.81
329.744	661.81
329.972	649.81
330.201	638.81
330.43	653.81
330.658	651.81
330.887	646.81
331.115	690.81
331.344	690.81
331.572	696.81
331.801	702.81
332.03	742.81
332.258	730.81
332.486	750.81
332.715	756.81
332.943	816.81
333.172	807.81
333.4	889.81
333.629	920.81
333.857	905.81
334.085	915.81
334.314	908.81
334.542	859.81
334.771	825.81
334.999	804.81
335.227	804.81
335.455	825.81
335.684	800.81
335.912	789.81
336.14	766.81
336.369	789.81
336.597	793.81
336.825	790.81
337.053	753.81
337.281	770.81
337.51	754.81
337.738	733.81
337.966	741.81
338.194	706.81
338.422	691.81
338.65	690.81
338.878	708.81
339.106	698.81
339.334	712.81
339.562	695.81
339.79	675.81
340.018	661.81
340.246	653.81
340.474	662.81
340.702	674.81
340.93	691.81
341.158	690.81
341.386	706.81
341.614	665.81
341.842	668.81
342.07	653.81
342.298	663.81
342.526	644.81
342.754	646.81
342.981	646.81
343.209	674.81
343.437	693.81
343.665	750.81
343.893	818.81
344.12	879.81
344.348	825.81
344.576	743.81
344.804	736.81
345.031	682.81
345.259	694.81
345.487	681.81
345.714	671.81
345.942	677.81
346.17	657.81
346.397	633.81
346.625	659.81
346.853	669.81
347.08	652.81
347.308	655.81
347.535	683.81
347.763	689.81
347.99	663.81
348.218	683.81
348.445	685.81
348.673	650.81
348.9	648.81
349.128	635.81
349.355	635.81
349.583	656.81
349.81	619.81
350.037	624.81
350.265	643.81
350.492	639.81
350.72	615.81
350.947	596.81
351.174	600.81
351.402	631.81
351.629	627.81
351.856	643.81
352.083	634.81
352.311	615.81
352.538	636.81
352.765	621.81
352.992	624.81
353.22	606.81
353.447	592.81
353.674	625.81
353.901	613.81
354.128	605.81
354.355	609.81
354.583	628.81
354.81	614.81
355.037	618.81
355.264	627.81
355.491	623.81
355.718	629.81
355.945	615.81
356.172	625.81
356.399	623.81
356.626	641.81
356.853	621.81
357.08	644.81
357.307	624.81
357.534	646.81
357.761	633.81
357.988	630.81
358.215	613.81
358.441	618.81
358.668	597.81
358.895	614.81
359.122	616.81
359.349	614.81
359.576	638.81
359.802	624.81
360.029	609.81
360.256	623.81
360.483	616.81
360.709	610.81
360.936	626.81
361.163	623.81
361.39	629.81
361.616	623.81
361.843	632.81
362.07	634.81
362.296	640.81
362.523	593.81
362.749	631.81
362.976	629.81
363.203	627.81
363.429	611.81
363.656	619.81
363.882	624.81
364.109	613.81
364.335	615.81
364.562	611.81
364.788	601.81
365.015	622.81
365.241	623.81
365.468	612.81
365.694	620.81
365.92	648.81
366.147	613.81
366.373	601.81
366.599	629.81
366.826	605.81
367.052	602.81
367.278	626.81
367.505	608.81
367.731	623.81
367.957	631.81
368.184	629.81
368.41	616.81
368.636	633.81
368.862	642.81
369.089	646.81
369.315	639.81
369.541	642.81
369.767	624.81
369.993	642.81
370.219	655.81
370.445	640.81
370.672	658.81
370.898	689.81
371.124	659.81
371.35	676.81
371.576	689.81
371.802	689.81
372.028	674.81
372.254	667.81
372.48	658.81
372.706	691.81
372.932	708.81
373.158	711.81
373.384	707.81
373.61	652.81
373.835	685.81
374.061	702.81
374.287	677.81
374.513	691.81
374.739	723.81
374.965	755.81
375.191	750.81
375.416	769.81
375.642	749.81
375.868	752.81
376.094	719.81
376.319	708.81
376.545	695.81
376.771	668.81
376.997	688.81
377.222	643.81
377.448	652.81
377.674	672.81
377.899	693.81
378.125	682.81
378.35	657.81
378.576	689.81
378.802	679.81
379.027	667.81
379.253	674.81
379.478	651.81
379.704	666.81
379.929	676.81
380.155	653.81
380.38	651.81
380.606	673.81
380.831	647.81
381.057	688.81
381.282	679.81
381.507	695.81
381.733	678.81
381.958	661.81
382.184	674.81
382.409	706.81
382.634	694.81
382.86	695.81
383.085	720.81
383.31	746.81
383.535	765.81
383.761	747.81
383.986	773.81
384.211	769.81
384.436	793.81
384.662	804.81
384.887	801.81
385.112	813.81
385.337	831.81
385.562	823.81
385.787	824.81
386.013	846.81
386.238	841.81
386.463	833.81
386.688	825.81
386.913	826.81
387.138	802.81
387.363	806.81
387.588	791.81
387.813	791.81
388.038	791.81
388.263	811.81
388.488	822.81
388.713	795.81
388.938	775.81
389.163	780.81
389.387	789.81
389.612	783.81
389.837	788.81
390.062	773.81
390.287	783.81
390.512	777.81
390.736	809.81
390.961	809.81
391.186	821.81
391.411	850.81
391.636	871.81
391.86	913.81
392.085	957.81
392.31	938.81
392.534	905.81
392.759	893.81
392.984	863.81
393.208	896.81
393.433	869.81
393.658	869.81
393.882	868.81
394.107	891.81
394.331	899.81
394.556	859.81
394.78	870.81
395.005	907.81
395.229	869.81
395.454	914.81
395.678	904.81
395.903	934.81
396.127	914.81
396.352	882.81
396.576	859.81
396.801	828.81
397.025	868.81
397.249	890.81
397.474	909.81
397.698	912.81
397.922	931.81
398.147	904.81
398.371	933.81
398.595	954.81
398.82	971.81
399.044	1078.81
399.268	1217.81
399.492	1385.81
399.717	1647.81
399.941	1622.81
400.165	1436.81
400.389	1229.81
400.613	1145.81
400.837	1061.81
401.062	1032.81
401.286	1043.81
401.51	1013.81
401.734	1020.81
401.958	1043.81
402.182	1026.81
402.406	1049.81
402.63	1062.81
402.854	1113.81
403.078	1122.81
403.302	1198.81
403.526	1202.81
403.75	1179.81
403.974	1236.81
404.198	1219.81
404.422	1238.81
404.645	1224.81
404.869	1195.81
405.093	1187.81
405.317	1155.81
405.541	1209.81
405.765	1119.81
405.988	1141.81
406.212	1143.81
406.436	1113.81
406.66	1151.81
406.883	1163.81
407.107	1269.81
407.331	1335.81
407.555	1402.81
407.778	1359.81
408.002	1304.81
408.226	1278.81
408.449	1263.81
408.673	1230.81
408.896	1169.81
409.12	1179.81
409.344	1191.81
409.567	1229.81
409.791	1220.81
410.014	1208.81
410.238	1193.81
410.461	1215.81
410.685	1125.81
410.908	1121.81
411.132	1110.81
411.355	1076.81
411.578	1104.81
411.802	1083.81
412.025	1098.81
412.249	1089.81
412.472	1093.81
412.695	1052.81
412.919	1012.81
413.142	1031.81
413.365	1031.81
413.589	1041.81
413.812	1029.81
414.035	1000.81
414.258	1021.81
414.482	1043.81
414.705	1038.81
414.928	1027.81
415.151	1037.81
415.374	1018.81
415.597	1020.81
415.821	1022.81
416.044	1015.81
416.267	1013.81
416.49	998.81
416.713	1008.81
416.936	1021.81
417.159	1026.81
417.382	1030.81
417.605	994.81
417.828	1021.81
418.051	1059.81
418.274	1062.81
418.497	1042.81
418.72	1075.81
418.943	1045.81
419.166	1124.81
419.389	1223.81
419.611	1183.81
419.834	1126.81
420.057	1110.81
420.28	1066.81
420.503	1057.81
420.726	1027.81
420.948	1016.81
421.171	1021.81
421.394	1042.81
421.617	1021.81
421.839	1035.81
422.062	1010.81
422.285	1033.81
422.507	1059.81
422.73	1079.81
422.953	1042.81
423.175	1080.81
423.398	1107.81
423.621	1114.81
423.843	1126.81
424.066	1133.81
424.288	1103.81
424.511	1111.81
424.733	1096.81
424.956	1092.81
425.178	1051.81
425.401	1051.81
425.623	1048.81
425.846	1038.81
426.068	1008.81
426.291	981.81
426.513	985.81
426.735	963.81
426.958	953.81
427.18	911.81
427.402	907.81
427.625	937.81
427.847	952.81
428.069	919.81
428.292	914.81
428.514	927.81
428.736	900.81
428.958	917.81
429.181	908.81
429.403	905.81
429.625	893.81
429.847	889.81
430.069	875.81
430.292	877.81
430.514	875.81
430.736	928.81
430.958	881.81
431.18	887.81
431.402	922.81
431.624	926.81
431.846	910.81
432.068	934.81
432.29	915.81
432.512	909.81
432.734	898.81
432.956	930.81
433.178	914.81
433.4	898.81
433.622	925.81
433.844	913.81
434.066	930.81
434.287	945.81
434.509	967.81
434.731	990.81
434.953	1032.81
435.175	1064.81
435.397	1052.81
435.618	998.81
435.84	954.81
436.062	941.81
436.284	898.81
436.505	903.81
436.727	919.81
436.949	940.81
437.17	936.81
437.392	909.81
437.614	884.81
437.835	907.81
438.057	864.81
438.278	878.81
438.5	895.81
438.721	886.81
438.943	890.81
439.165	901.81
439.386	887.81
439.608	918.81
439.829	959.81
440.05	932.81
440.272	955.81
440.493	917.81
440.715	963.81
440.936	986.81
441.158	968.81
441.379	1039.81
441.6	1060.81
441.822	1075.81
442.043	1060.81
442.264	1035.81
442.486	1031.81
442.707	1032.81
442.928	1019.81
443.149	1017.81
443.371	1044.81
443.592	1011.81
443.813	1053.81
444.034	1074.81
444.255	1114.81
444.476	1147.81
444.698	1243.81
444.919	1289.81
445.14	1364.81
445.361	1203.81
445.582	1080.81
445.803	1029.81
446.024	1025.81
446.245	986.81
446.466	964.81
446.687	918.81
446.908	948.81
447.129	921.81
447.35	914.81
447.571	916.81
447.792	866.81
448.013	882.81
448.234	856.81
448.455	866.81
448.675	866.81
448.896	850.81
449.117	872.81
449.338	864.81
449.559	821.81
449.779	833.81
450	858.81
450.221	862.81
450.442	872.81
450.662	853.81
450.883	893.81
451.104	897.81
451.324	872.81
451.545	894.81
451.766	897.81
451.986	869.81
452.207	879.81
452.428	866.81
452.648	856.81
452.869	858.81
453.089	826.81
453.31	861.81
453.53	860.81
453.751	846.81
453.971	826.81
454.192	824.81
454.412	804.81
454.633	805.81
454.853	815.81
455.073	799.81
455.294	830.81
455.514	805.81
455.734	789.81
455.955	776.81
456.175	791.81
456.395	790.81
456.616	790.81
456.836	785.81
457.056	812.81
457.276	789.81
457.497	816.81
457.717	784.81
457.937	773.81
458.157	816.81
458.377	831.81
458.598	806.81
458.818	865.81
459.038	899.81
459.258	930.81
459.478	939.81
459.698	964.81
459.918	986.81
460.138	1049.81
460.358	1113.81
460.578	1096.81
460.798	1125.81
461.018	1112.81
461.238	1110.81
461.458	1077.81
461.678	1058.81
461.898	1122.81
462.118	1142.81
462.338	1193.81
462.558	1249.81
462.777	1250.81
462.997	1395.81
463.217	1553.81
463.437	1574.81
463.657	1405.81
463.876	1330.81
464.096	1313.81
464.316	1302.81
464.536	1325.81
464.755	1257.81
464.975	1244.81
465.195	1147.81
465.414	1075.81
465.634	1005.81
465.854	957.81
466.073	946.81
466.293	928.81
466.512	940.81
466.732	886.81
466.951	900.81
467.171	889.81
467.391	907.81
467.61	884.81
467.829	901.81
468.049	873.81
468.268	856.81
468.488	835.81
468.707	831.81
468.927	881.81
469.146	847.81
469.365	867.81
469.585	873.81
469.804	867.81
470.023	905.81
470.243	898.81
470.462	931.81
470.681	922.81
470.901	949.81
471.12	911.81
471.339	913.81
471.558	877.81
471.777	878.81
471.997	862.81
472.216	855.81
472.435	861.81
472.654	821.81
472.873	809.81
473.092	847.81
473.311	838.81
473.53	802.81
473.749	819.81
473.968	825.81
474.187	802.81
474.406	826.81
474.625	835.81
474.844	796.81
475.063	843.81
475.282	833.81
475.501	835.81
475.72	846.81
475.939	848.81
476.158	844.81
476.377	861.81
476.596	866.81
476.814	862.81
477.033	886.81
477.252	913.81
477.471	906.81
477.69	929.81
477.908	955.81
478.127	986.81
478.346	1017.81
478.564	1001.81
478.783	1016.81
479.002	1071.81
479.22	1039.81
479.439	1032.81
479.658	1024.81
479.876	1032.81
480.095	1066.81
480.313	1045.81
480.532	1133.81
480.751	1133.81
480.969	1075.81
481.188	1018.81
481.406	983.81
481.624	975.81
481.843	965.81
482.061	951.81
482.28	924.81
482.498	928.81
482.717	907.81
482.935	947.81
483.153	936.81
483.372	925.81
483.59	935.81
483.808	973.81
484.027	939.81
484.245	920.81
484.463	952.81
484.681	977.81
484.9	957.81
485.118	975.81
485.336	995.81
485.554	977.81
485.772	1021.81
485.99	1018.81
486.209	1023.81
486.427	1021.81
486.645	1013.81
486.863	1001.81
487.081	969.81
487.299	1000.81
487.517	996.81
487.735	999.81
487.953	967.81
488.171	993.81
488.389	972.81
488.607	967.81
488.825	952.81
489.043	968.81
489.261	957.81
489.479	973.81
489.696	976.81
489.914	985.81
490.132	990.81
490.35	976.81
490.568	962.81
490.786	977.81
491.003	962.81
491.221	961.81
491.439	1002.81
491.657	1010.81
491.874	987.81
492.092	995.81
492.31	977.81
492.527	991.81
492.745	1027.81
492.963	984.81
493.18	1025.81
493.398	1032.81
493.615	1027.81
493.833	1011.81
494.05	1007.81
494.268	1037.81
494.485	1048.81
494.703	1025.81
494.92	1055.81
495.138	1034.81
495.355	1055.81
495.573	1045.81
495.79	1031.81
496.008	1058.81
496.225	1058.81
496.442	1083.81
496.66	1081.81
496.877	1087.81
497.094	1100.81
497.312	1117.81
497.529	1144.81
497.746	1147.81
497.963	1191.81
498.181	1275.81
498.398	1270.81
498.615	1345.81
