Data from NiCl2@0.5M.TitratingCurve.Agarose3%dH2O.NegLispCup.LampEnergy10.LIBS07252019_HRD10591_18-18-30-571.txt Node
Date: Thu Jul 25 18:18:30 EDT 2019
User: cochatt
Spectrometer: HR+D1059
Trigger mode: 1
Integration Time (sec): 1.000000E-1
Scans to average: 1
Electric dark correction enabled: true
Nonlinearity correction enabled: false
Boxcar width: 0
XAxis mode: Wavelengths
Number of Pixels in Spectrum: 2048
>>>>>Begin Spectral Data<<<<<
223.165	-25.38
223.4	-25.38
223.635	-25.38
223.869	-2.38
224.104	-17.38
224.338	-7.38
224.573	-23.38
224.808	-12.38
225.042	-5.38
225.277	4.62
225.511	-8.38
225.746	10.62
225.98	15.62
226.215	-2.38
226.449	4.62
226.683	24.62
226.918	25.62
227.152	18.62
227.387	30.62
227.621	49.62
227.856	48.62
228.09	39.62
228.324	54.62
228.559	64.62
228.793	89.62
229.027	171.62
229.262	187.62
229.496	190.62
229.73	180.62
229.964	220.62
230.199	276.62
230.433	260.62
230.667	266.62
230.901	247.62
231.136	216.62
231.37	217.62
231.604	244.62
231.838	254.62
232.072	277.62
232.306	262.62
232.541	253.62
232.775	222.62
233.009	235.62
233.243	235.62
233.477	206.62
233.711	225.62
233.945	232.62
234.179	247.62
234.413	261.62
234.647	246.62
234.881	259.62
235.115	246.62
235.349	243.62
235.583	245.62
235.817	256.62
236.051	233.62
236.285	226.62
236.519	245.62
236.753	235.62
236.987	261.62
237.221	250.62
237.455	250.62
237.689	263.62
237.922	273.62
238.156	263.62
238.39	268.62
238.624	268.62
238.858	258.62
239.091	278.62
239.325	272.62
239.559	295.62
239.793	327.62
240.027	329.62
240.26	300.62
240.494	285.62
240.728	283.62
240.961	296.62
241.195	295.62
241.429	312.62
241.662	327.62
241.896	335.62
242.13	358.62
242.363	332.62
242.597	327.62
242.83	317.62
243.064	336.62
243.298	303.62
243.531	326.62
243.765	336.62
243.998	352.62
244.232	372.62
244.465	358.62
244.699	369.62
244.932	356.62
245.166	351.62
245.399	359.62
245.633	352.62
245.866	357.62
246.099	354.62
246.333	376.62
246.566	364.62
246.8	389.62
247.033	373.62
247.266	386.62
247.5	369.62
247.733	364.62
247.966	368.62
248.2	400.62
248.433	389.62
248.666	391.62
248.899	398.62
249.133	393.62
249.366	399.62
249.599	381.62
249.832	397.62
250.066	427.62
250.299	422.62
250.532	420.62
250.765	433.62
250.998	431.62
251.231	451.62
251.465	473.62
251.698	454.62
251.931	460.62
252.164	447.62
252.397	456.62
252.63	479.62
252.863	445.62
253.096	445.62
253.329	456.62
253.562	458.62
253.795	456.62
254.028	490.62
254.261	459.62
254.494	476.62
254.727	479.62
254.96	478.62
255.193	500.62
255.426	501.62
255.659	465.62
255.892	510.62
256.124	506.62
256.357	499.62
256.59	511.62
256.823	516.62
257.056	500.62
257.289	516.62
257.521	521.62
257.754	503.62
257.987	530.62
258.22	521.62
258.452	537.62
258.685	539.62
258.918	535.62
259.151	540.62
259.383	533.62
259.616	534.62
259.849	561.62
260.081	544.62
260.314	535.62
260.547	545.62
260.779	557.62
261.012	573.62
261.244	569.62
261.477	603.62
261.71	580.62
261.942	585.62
262.175	573.62
262.407	589.62
262.64	567.62
262.872	602.62
263.105	556.62
263.337	589.62
263.57	604.62
263.802	615.62
264.035	605.62
264.267	598.62
264.499	613.62
264.732	593.62
264.964	603.62
265.197	633.62
265.429	623.62
265.661	623.62
265.894	612.62
266.126	612.62
266.358	614.62
266.591	647.62
266.823	655.62
267.055	666.62
267.287	632.62
267.52	625.62
267.752	651.62
267.984	651.62
268.216	634.62
268.448	663.62
268.681	657.62
268.913	668.62
269.145	639.62
269.377	640.62
269.609	661.62
269.841	670.62
270.073	667.62
270.306	668.62
270.538	664.62
270.77	684.62
271.002	675.62
271.234	665.62
271.466	683.62
271.698	680.62
271.93	702.62
272.162	705.62
272.394	748.62
272.626	680.62
272.858	716.62
273.09	731.62
273.322	725.62
273.553	718.62
273.785	717.62
274.017	758.62
274.249	719.62
274.481	718.62
274.713	771.62
274.945	749.62
275.176	747.62
275.408	750.62
275.64	734.62
275.872	747.62
276.104	777.62
276.335	780.62
276.567	764.62
276.799	771.62
277.031	776.62
277.262	776.62
277.494	796.62
277.726	783.62
277.957	778.62
278.189	777.62
278.421	777.62
278.652	793.62
278.884	787.62
279.115	795.62
279.347	821.62
279.579	836.62
279.81	809.62
280.042	824.62
280.273	829.62
280.505	832.62
280.736	826.62
280.968	833.62
281.199	818.62
281.431	869.62
281.662	853.62
281.894	835.62
282.125	800.62
282.356	872.62
282.588	847.62
282.819	836.62
283.051	853.62
283.282	860.62
283.513	840.62
283.745	857.62
283.976	895.62
284.207	876.62
284.439	879.62
284.67	871.62
284.901	906.62
285.132	889.62
285.364	870.62
285.595	892.62
285.826	874.62
286.057	910.62
286.288	905.62
286.52	927.62
286.751	881.62
286.982	935.62
287.213	918.62
287.444	943.62
287.675	939.62
287.906	931.62
288.138	936.62
288.369	896.62
288.6	904.62
288.831	936.62
289.062	927.62
289.293	957.62
289.524	920.62
289.755	948.62
289.986	952.62
290.217	946.62
290.448	952.62
290.679	930.62
290.91	938.62
291.141	960.62
291.371	965.62
291.602	997.62
291.833	987.62
292.064	945.62
292.295	954.62
292.526	960.62
292.757	975.62
292.987	939.62
293.218	947.62
293.449	968.62
293.68	964.62
293.91	1000.62
294.141	965.62
294.372	970.62
294.603	982.62
294.833	993.62
295.064	976.62
295.295	955.62
295.525	961.62
295.756	965.62
295.987	995.62
296.217	992.62
296.448	984.62
296.679	992.62
296.909	1003.62
297.14	999.62
297.37	1000.62
297.601	1036.62
297.831	1022.62
298.062	999.62
298.292	1017.62
298.523	1051.62
298.753	1061.62
298.984	1040.62
299.214	1074.62
299.445	1035.62
299.675	1030.62
299.905	1063.62
300.136	1082.62
300.366	1112.62
300.597	1155.62
300.827	1117.62
301.057	1100.62
301.288	1105.62
301.518	1124.62
301.748	1141.62
301.979	1106.62
302.209	1133.62
302.439	1120.62
302.669	1089.62
302.9	1106.62
303.13	1110.62
303.36	1163.62
303.59	1129.62
303.82	1119.62
304.051	1131.62
304.281	1117.62
304.511	1128.62
304.741	1117.62
304.971	1108.62
305.201	1160.62
305.431	1198.62
305.661	1173.62
305.891	1159.62
306.121	1133.62
306.352	1126.62
306.582	1110.62
306.812	1092.62
307.042	1086.62
307.272	1094.62
307.502	1104.62
307.731	1111.62
307.961	1111.62
308.191	1082.62
308.421	1113.62
308.651	1085.62
308.881	1087.62
309.111	1104.62
309.341	1104.62
309.571	1097.62
309.8	1124.62
310.03	1158.62
310.26	1195.62
310.49	1229.62
310.72	1130.62
310.949	1129.62
311.179	1124.62
311.409	1125.62
311.639	1134.62
311.868	1126.62
312.098	1148.62
312.328	1174.62
312.557	1173.62
312.787	1173.62
313.017	1149.62
313.246	1166.62
313.476	1214.62
313.706	1197.62
313.935	1225.62
314.165	1198.62
314.394	1179.62
314.624	1181.62
314.853	1165.62
315.083	1196.62
315.312	1183.62
315.542	1203.62
315.771	1183.62
316.001	1193.62
316.23	1185.62
316.46	1184.62
316.689	1189.62
316.919	1156.62
317.148	1196.62
317.377	1164.62
317.607	1187.62
317.836	1177.62
318.065	1193.62
318.295	1175.62
318.524	1190.62
318.753	1191.62
318.983	1194.62
319.212	1201.62
319.441	1171.62
319.67	1232.62
319.9	1180.62
320.129	1220.62
320.358	1198.62
320.587	1218.62
320.816	1216.62
321.046	1203.62
321.275	1226.62
321.504	1221.62
321.733	1229.62
321.962	1208.62
322.191	1226.62
322.42	1229.62
322.649	1221.62
322.878	1235.62
323.108	1190.62
323.337	1299.62
323.566	1260.62
323.795	1253.62
324.024	1243.62
324.253	1261.62
324.482	1248.62
324.71	1264.62
324.939	1239.62
325.168	1265.62
325.397	1261.62
325.626	1279.62
325.855	1276.62
326.084	1275.62
326.313	1301.62
326.542	1293.62
326.77	1323.62
326.999	1268.62
327.228	1271.62
327.457	1289.62
327.686	1284.62
327.914	1296.62
328.143	1304.62
328.372	1319.62
328.6	1301.62
328.829	1297.62
329.058	1267.62
329.287	1334.62
329.515	1341.62
329.744	1311.62
329.972	1363.62
330.201	1309.62
330.43	1305.62
330.658	1344.62
330.887	1346.62
331.115	1340.62
331.344	1396.62
331.572	1383.62
331.801	1413.62
332.03	1439.62
332.258	1455.62
332.486	1439.62
332.715	1475.62
332.943	1461.62
333.172	1503.62
333.4	1566.62
333.629	1539.62
333.857	1601.62
334.085	1628.62
334.314	1599.62
334.542	1616.62
334.771	1608.62
334.999	1567.62
335.227	1610.62
335.455	1612.62
335.684	1594.62
335.912	1566.62
336.14	1567.62
336.369	1549.62
336.597	1558.62
336.825	1581.62
337.053	1604.62
337.281	1601.62
337.51	1552.62
337.738	1530.62
337.966	1523.62
338.194	1506.62
338.422	1508.62
338.65	1451.62
338.878	1448.62
339.106	1493.62
339.334	1491.62
339.562	1472.62
339.79	1402.62
340.018	1403.62
340.246	1374.62
340.474	1402.62
340.702	1381.62
340.93	1419.62
341.158	1399.62
341.386	1433.62
341.614	1567.62
341.842	1499.62
342.07	1383.62
342.298	1399.62
342.526	1428.62
342.754	1375.62
342.981	1396.62
343.209	1421.62
343.437	1451.62
343.665	1528.62
343.893	1561.62
344.12	1590.62
344.348	1547.62
344.576	1556.62
344.804	1530.62
345.031	1469.62
345.259	1434.62
345.487	1405.62
345.714	1442.62
345.942	1477.62
346.17	1514.62
346.397	1463.62
346.625	1411.62
346.853	1336.62
347.08	1331.62
347.308	1351.62
347.535	1340.62
347.763	1325.62
347.99	1311.62
348.218	1294.62
348.445	1301.62
348.673	1337.62
348.9	1326.62
349.128	1314.62
349.355	1364.62
349.583	1403.62
349.81	1321.62
350.037	1267.62
350.265	1287.62
350.492	1323.62
350.72	1280.62
350.947	1274.62
351.174	1327.62
351.402	1367.62
351.629	1425.62
351.856	1385.62
352.083	1323.62
352.311	1353.62
352.538	1389.62
352.765	1427.62
352.992	1289.62
353.22	1217.62
353.447	1269.62
353.674	1255.62
353.901	1251.62
354.128	1245.62
354.355	1230.62
354.583	1259.62
354.81	1262.62
355.037	1271.62
355.264	1244.62
355.491	1245.62
355.718	1235.62
355.945	1223.62
356.172	1292.62
356.399	1279.62
356.626	1316.62
356.853	1375.62
357.08	1311.62
357.307	1272.62
357.534	1297.62
357.761	1240.62
357.988	1264.62
358.215	1276.62
358.441	1253.62
358.668	1252.62
358.895	1248.62
359.122	1265.62
359.349	1246.62
359.576	1257.62
359.802	1296.62
360.029	1303.62
360.256	1305.62
360.483	1265.62
360.709	1267.62
360.936	1241.62
361.163	1313.62
361.39	1313.62
361.616	1279.62
361.843	1311.62
362.07	1425.62
362.296	1405.62
362.523	1256.62
362.749	1245.62
362.976	1259.62
363.203	1244.62
363.429	1235.62
363.656	1258.62
363.882	1272.62
364.109	1264.62
364.335	1249.62
364.562	1244.62
364.788	1249.62
365.015	1249.62
365.241	1245.62
365.468	1246.62
365.694	1218.62
365.92	1231.62
366.147	1241.62
366.373	1259.62
366.599	1270.62
366.826	1283.62
367.052	1250.62
367.278	1274.62
367.505	1283.62
367.731	1273.62
367.957	1250.62
368.184	1255.62
368.41	1257.62
368.636	1252.62
368.862	1314.62
369.089	1303.62
369.315	1282.62
369.541	1269.62
369.767	1295.62
369.993	1292.62
370.219	1246.62
370.445	1248.62
370.672	1319.62
370.898	1322.62
371.124	1295.62
371.35	1310.62
371.576	1349.62
371.802	1321.62
372.028	1313.62
372.254	1322.62
372.48	1324.62
372.706	1332.62
372.932	1336.62
373.158	1378.62
373.384	1371.62
373.61	1324.62
373.835	1355.62
374.061	1338.62
374.287	1328.62
374.513	1404.62
374.739	1399.62
374.965	1422.62
375.191	1408.62
375.416	1419.62
375.642	1382.62
375.868	1341.62
376.094	1353.62
376.319	1333.62
376.545	1313.62
376.771	1340.62
376.997	1321.62
377.222	1317.62
377.448	1280.62
377.674	1325.62
377.899	1291.62
378.125	1307.62
378.35	1316.62
378.576	1311.62
378.802	1319.62
379.027	1280.62
379.253	1305.62
379.478	1281.62
379.704	1279.62
379.929	1310.62
380.155	1297.62
380.38	1309.62
380.606	1339.62
380.831	1297.62
381.057	1336.62
381.282	1335.62
381.507	1320.62
381.733	1323.62
381.958	1343.62
382.184	1358.62
382.409	1331.62
382.634	1362.62
382.86	1377.62
383.085	1366.62
383.31	1381.62
383.535	1377.62
383.761	1385.62
383.986	1423.62
384.211	1445.62
384.436	1422.62
384.662	1490.62
384.887	1501.62
385.112	1489.62
385.337	1521.62
385.562	1527.62
385.787	1532.62
386.013	1565.62
386.238	1556.62
386.463	1554.62
386.688	1559.62
386.913	1509.62
387.138	1547.62
387.363	1543.62
387.588	1514.62
387.813	1545.62
388.038	1553.62
388.263	1523.62
388.488	1520.62
388.713	1574.62
388.938	1528.62
389.163	1513.62
389.387	1518.62
389.612	1515.62
389.837	1534.62
390.062	1511.62
390.287	1514.62
390.512	1538.62
390.736	1535.62
390.961	1542.62
391.186	1565.62
391.411	1636.62
391.636	1644.62
391.86	1669.62
392.085	1672.62
392.31	1654.62
392.534	1672.62
392.759	1643.62
392.984	1627.62
393.208	1617.62
393.433	1613.62
393.658	1610.62
393.882	1624.62
394.107	1618.62
394.331	1650.62
394.556	1593.62
394.78	1637.62
395.005	1679.62
395.229	1632.62
395.454	1680.62
395.678	1687.62
395.903	1695.62
396.127	1690.62
396.352	1667.62
396.576	1648.62
396.801	1639.62
397.025	1660.62
397.249	1696.62
397.474	1709.62
397.698	1694.62
397.922	1780.62
398.147	1716.62
398.371	1775.62
398.595	1841.62
398.82	1886.62
399.044	1942.62
399.268	2070.62
399.492	2273.62
399.717	2397.62
399.941	2429.62
400.165	2343.62
400.389	2199.62
400.613	2083.62
400.837	1975.62
401.062	1957.62
401.286	1919.62
401.51	1904.62
401.734	1907.62
401.958	1943.62
402.182	1923.62
402.406	1931.62
402.63	1902.62
402.854	1939.62
403.078	1987.62
403.302	1936.62
403.526	1960.62
403.75	1974.62
403.974	1983.62
404.198	1994.62
404.422	1979.62
404.645	1997.62
404.869	1964.62
405.093	2013.62
405.317	2006.62
405.541	2025.62
405.765	1989.62
405.988	2009.62
406.212	2056.62
406.436	2040.62
406.66	2108.62
406.883	2092.62
407.107	2189.62
407.331	2202.62
407.555	2265.62
407.778	2215.62
408.002	2199.62
408.226	2217.62
408.449	2203.62
408.673	2116.62
408.896	2081.62
409.12	2085.62
409.344	2088.62
409.567	2070.62
409.791	2048.62
410.014	2036.62
410.238	2075.62
410.461	2002.62
410.685	1994.62
410.908	2006.62
411.132	1947.62
411.355	1902.62
411.578	1938.62
411.802	1947.62
412.025	1945.62
412.249	1982.62
412.472	1979.62
412.695	1944.62
412.919	1907.62
413.142	1925.62
413.365	1924.62
413.589	1904.62
413.812	1902.62
414.035	1891.62
414.258	1873.62
414.482	1896.62
414.705	1887.62
414.928	1901.62
415.151	1886.62
415.374	1894.62
415.597	1877.62
415.821	1814.62
416.044	1800.62
416.267	1828.62
416.49	1819.62
416.713	1845.62
416.936	1844.62
417.159	1872.62
417.382	1815.62
417.605	1772.62
417.828	1816.62
418.051	1803.62
418.274	1850.62
418.497	1798.62
418.72	1847.62
418.943	1846.62
419.166	1920.62
419.389	2085.62
419.611	2077.62
419.834	1965.62
420.057	1891.62
420.28	1851.62
420.503	1828.62
420.726	1783.62
420.948	1837.62
421.171	1801.62
421.394	1830.62
421.617	1796.62
421.839	1861.62
422.062	1806.62
422.285	1812.62
422.507	1878.62
422.73	1829.62
422.953	1882.62
423.175	1851.62
423.398	1845.62
423.621	1816.62
423.843	1873.62
424.066	1878.62
424.288	1849.62
424.511	1863.62
424.733	1821.62
424.956	1819.62
425.178	1836.62
425.401	1863.62
425.623	1846.62
425.846	1784.62
426.068	1803.62
426.291	1796.62
426.513	1740.62
426.735	1741.62
426.958	1763.62
427.18	1720.62
427.402	1729.62
427.625	1739.62
427.847	1686.62
428.069	1729.62
428.292	1758.62
428.514	1705.62
428.736	1678.62
428.958	1735.62
429.181	1681.62
429.403	1665.62
429.625	1721.62
429.847	1672.62
430.069	1642.62
430.292	1676.62
430.514	1665.62
430.736	1703.62
430.958	1727.62
431.18	1652.62
431.402	1672.62
431.624	1666.62
431.846	1701.62
432.068	1699.62
432.29	1732.62
432.512	1695.62
432.734	1739.62
432.956	1733.62
433.178	1752.62
433.4	1793.62
433.622	1801.62
433.844	1786.62
434.066	1794.62
434.287	1786.62
434.509	1832.62
434.731	1807.62
434.953	1894.62
435.175	1903.62
435.397	1895.62
435.618	1825.62
435.84	1783.62
436.062	1730.62
436.284	1744.62
436.505	1742.62
436.727	1733.62
436.949	1777.62
437.17	1758.62
437.392	1781.62
437.614	1743.62
437.835	1683.62
438.057	1687.62
438.278	1668.62
438.5	1663.62
438.721	1680.62
438.943	1689.62
439.165	1684.62
439.386	1660.62
439.608	1672.62
439.829	1692.62
440.05	1707.62
440.272	1750.62
440.493	1744.62
440.715	1747.62
440.936	1773.62
441.158	1807.62
441.379	1762.62
441.6	1885.62
441.822	1900.62
442.043	1829.62
442.264	1805.62
442.486	1875.62
442.707	1861.62
442.928	1787.62
443.149	1824.62
443.371	1891.62
443.592	1965.62
443.813	1963.62
444.034	1880.62
444.255	1935.62
444.476	1975.62
444.698	2046.62
444.919	2105.62
445.14	2132.62
445.361	2055.62
445.582	1946.62
445.803	1837.62
446.024	1831.62
446.245	1802.62
446.466	1772.62
446.687	1719.62
446.908	1727.62
447.129	1706.62
447.35	1681.62
447.571	1662.62
447.792	1615.62
448.013	1614.62
448.234	1627.62
448.455	1600.62
448.675	1572.62
448.896	1604.62
449.117	1576.62
449.338	1562.62
449.559	1576.62
449.779	1583.62
450	1555.62
450.221	1545.62
450.442	1583.62
450.662	1579.62
450.883	1653.62
451.104	1632.62
451.324	1601.62
451.545	1556.62
451.766	1555.62
451.986	1557.62
452.207	1562.62
452.428	1551.62
452.648	1550.62
452.869	1486.62
453.089	1559.62
453.31	1584.62
453.53	1513.62
453.751	1556.62
453.971	1489.62
454.192	1568.62
454.412	1585.62
454.633	1528.62
454.853	1496.62
455.073	1503.62
455.294	1496.62
455.514	1500.62
455.734	1539.62
455.955	1530.62
456.175	1567.62
456.395	1505.62
456.616	1468.62
456.836	1480.62
457.056	1525.62
457.276	1491.62
457.497	1514.62
457.717	1573.62
457.937	1548.62
458.157	1550.62
458.377	1565.62
458.598	1599.62
458.818	1621.62
459.038	1655.62
459.258	1683.62
459.478	1759.62
459.698	1933.62
459.918	1953.62
460.138	1926.62
460.358	1955.62
460.578	1952.62
460.798	2061.62
461.018	2083.62
461.238	1969.62
461.458	1901.62
461.678	1933.62
461.898	1983.62
462.118	1966.62
462.338	2096.62
462.558	2159.62
462.777	2212.62
462.997	2328.62
463.217	2398.62
463.437	2479.62
463.657	2373.62
463.876	2269.62
464.096	2220.62
464.316	2208.62
464.536	2220.62
464.755	2123.62
464.975	2035.62
465.195	2018.62
465.414	1949.62
465.634	1878.62
465.854	1781.62
466.073	1784.62
466.293	1737.62
466.512	1720.62
466.732	1693.62
466.951	1707.62
467.171	1740.62
467.391	1737.62
467.61	1697.62
467.829	1677.62
468.049	1672.62
468.268	1646.62
468.488	1640.62
468.707	1639.62
468.927	1636.62
469.146	1634.62
469.365	1705.62
469.585	1668.62
469.804	1676.62
470.023	1679.62
470.243	1685.62
470.462	1713.62
470.681	1712.62
470.901	1729.62
471.12	1752.62
471.339	1742.62
471.558	1709.62
471.777	1706.62
471.997	1715.62
472.216	1657.62
472.435	1616.62
472.654	1604.62
472.873	1597.62
473.092	1604.62
473.311	1652.62
473.53	1664.62
473.749	1617.62
473.968	1649.62
474.187	1609.62
474.406	1602.62
474.625	1632.62
474.844	1679.62
475.063	1699.62
475.282	1692.62
475.501	1694.62
475.72	1681.62
475.939	1720.62
476.158	1750.62
476.377	1719.62
476.596	1697.62
476.814	1729.62
477.033	1771.62
477.252	1777.62
477.471	1801.62
477.69	1868.62
477.908	1943.62
478.127	1925.62
478.346	1897.62
478.564	1977.62
478.783	2009.62
479.002	2055.62
479.22	2135.62
479.439	2072.62
479.658	2025.62
479.876	2020.62
480.095	2005.62
480.313	2032.62
480.532	2078.62
480.751	2130.62
480.969	2065.62
481.188	2015.62
481.406	1999.62
481.624	1958.62
481.843	1986.62
482.061	1957.62
482.28	2024.62
482.498	1969.62
482.717	1977.62
482.935	2002.62
483.153	1983.62
483.372	2049.62
483.59	2115.62
483.808	2035.62
484.027	1988.62
484.245	2027.62
484.463	2029.62
484.681	2072.62
484.9	2060.62
485.118	2014.62
485.336	2048.62
485.554	2116.62
485.772	2083.62
485.99	2087.62
486.209	2057.62
486.427	2082.62
486.645	2105.62
486.863	2166.62
487.081	2126.62
487.299	2080.62
487.517	2060.62
487.735	2093.62
487.953	2167.62
488.171	2095.62
488.389	2069.62
488.607	2016.62
488.825	2040.62
489.043	2008.62
489.261	2026.62
489.479	2041.62
489.696	2035.62
489.914	2052.62
