Data from NiCl2@0.125M.TitratingCurve.Agarose3%dH2O.NegLispCup.LampEnergy10.LIBS07252019_HRD10591_18-30-46-574.txt Node
Date: Thu Jul 25 18:30:46 EDT 2019
User: cochatt
Spectrometer: HR+D1059
Trigger mode: 1
Integration Time (sec): 1.000000E-1
Scans to average: 1
Electric dark correction enabled: true
Nonlinearity correction enabled: false
Boxcar width: 0
XAxis mode: Wavelengths
Number of Pixels in Spectrum: 2048
>>>>>Begin Spectral Data<<<<<
223.165	-20.25
223.4	-20.25
223.635	-20.25
223.869	-27.25
224.104	-11.25
224.338	-7.25
224.573	-16.25
224.808	-13.25
225.042	-11.25
225.277	-15.25
225.511	-12.25
225.746	-5.25
225.98	17.75
226.215	17.75
226.449	10.75
226.683	11.75
226.918	37.75
227.152	43.75
227.387	32.75
227.621	36.75
227.856	73.75
228.09	43.75
228.324	47.75
228.559	63.75
228.793	62.75
229.027	60.75
229.262	68.75
229.496	72.75
229.73	73.75
229.964	79.75
230.199	73.75
230.433	73.75
230.667	87.75
230.901	78.75
231.136	77.75
231.37	82.75
231.604	84.75
231.838	74.75
232.072	79.75
232.306	70.75
232.541	83.75
232.775	76.75
233.009	83.75
233.243	68.75
233.477	80.75
233.711	90.75
233.945	84.75
234.179	79.75
234.413	83.75
234.647	77.75
234.881	58.75
235.115	69.75
235.349	89.75
235.583	79.75
235.817	82.75
236.051	71.75
236.285	89.75
236.519	71.75
236.753	87.75
236.987	77.75
237.221	66.75
237.455	83.75
237.689	84.75
237.922	76.75
238.156	69.75
238.39	81.75
238.624	87.75
238.858	77.75
239.091	76.75
239.325	70.75
239.559	65.75
239.793	70.75
240.027	67.75
240.26	63.75
240.494	69.75
240.728	76.75
240.961	83.75
241.195	49.75
241.429	88.75
241.662	78.75
241.896	76.75
242.13	71.75
242.363	71.75
242.597	61.75
242.83	77.75
243.064	71.75
243.298	82.75
243.531	71.75
243.765	83.75
243.998	79.75
244.232	72.75
244.465	80.75
244.699	82.75
244.932	75.75
245.166	69.75
245.399	78.75
245.633	88.75
245.866	84.75
246.099	83.75
246.333	84.75
246.566	77.75
246.8	70.75
247.033	82.75
247.266	68.75
247.5	70.75
247.733	76.75
247.966	81.75
248.2	84.75
248.433	85.75
248.666	59.75
248.899	73.75
249.133	85.75
249.366	91.75
249.599	77.75
249.832	69.75
250.066	82.75
250.299	67.75
250.532	88.75
250.765	77.75
250.998	78.75
251.231	79.75
251.465	88.75
251.698	85.75
251.931	84.75
252.164	73.75
252.397	83.75
252.63	84.75
252.863	82.75
253.096	74.75
253.329	66.75
253.562	85.75
253.795	78.75
254.028	90.75
254.261	90.75
254.494	83.75
254.727	88.75
254.96	87.75
255.193	102.75
255.426	76.75
255.659	78.75
255.892	83.75
256.124	72.75
256.357	81.75
256.59	79.75
256.823	76.75
257.056	65.75
257.289	75.75
257.521	76.75
257.754	67.75
257.987	73.75
258.22	93.75
258.452	89.75
258.685	75.75
258.918	86.75
259.151	79.75
259.383	75.75
259.616	68.75
259.849	77.75
260.081	87.75
260.314	72.75
260.547	75.75
260.779	77.75
261.012	72.75
261.244	72.75
261.477	82.75
261.71	80.75
261.942	71.75
262.175	90.75
262.407	76.75
262.64	88.75
262.872	82.75
263.105	73.75
263.337	77.75
263.57	76.75
263.802	75.75
264.035	72.75
264.267	81.75
264.499	76.75
264.732	90.75
264.964	95.75
265.197	80.75
265.429	82.75
265.661	75.75
265.894	89.75
266.126	67.75
266.358	84.75
266.591	81.75
266.823	89.75
267.055	95.75
267.287	89.75
267.52	84.75
267.752	92.75
267.984	102.75
268.216	89.75
268.448	82.75
268.681	80.75
268.913	76.75
269.145	74.75
269.377	76.75
269.609	86.75
269.841	73.75
270.073	83.75
270.306	87.75
270.538	88.75
270.77	75.75
271.002	83.75
271.234	83.75
271.466	89.75
271.698	77.75
271.93	79.75
272.162	57.75
272.394	82.75
272.626	81.75
272.858	93.75
273.09	71.75
273.322	81.75
273.553	80.75
273.785	67.75
274.017	79.75
274.249	80.75
274.481	81.75
274.713	80.75
274.945	70.75
275.176	76.75
275.408	70.75
275.64	81.75
275.872	83.75
276.104	77.75
276.335	92.75
276.567	80.75
276.799	91.75
277.031	78.75
277.262	85.75
277.494	74.75
277.726	77.75
277.957	69.75
278.189	89.75
278.421	70.75
278.652	71.75
278.884	94.75
279.115	78.75
279.347	94.75
279.579	76.75
279.81	79.75
280.042	87.75
280.273	85.75
280.505	85.75
280.736	90.75
280.968	89.75
281.199	93.75
281.431	80.75
281.662	78.75
281.894	75.75
282.125	77.75
282.356	86.75
282.588	75.75
282.819	86.75
283.051	68.75
283.282	80.75
283.513	91.75
283.745	87.75
283.976	92.75
284.207	84.75
284.439	80.75
284.67	87.75
284.901	84.75
285.132	71.75
285.364	70.75
285.595	87.75
285.826	74.75
286.057	94.75
286.288	80.75
286.52	76.75
286.751	85.75
286.982	78.75
287.213	72.75
287.444	72.75
287.675	84.75
287.906	72.75
288.138	101.75
288.369	76.75
288.6	79.75
288.831	80.75
289.062	84.75
289.293	89.75
289.524	85.75
289.755	85.75
289.986	68.75
290.217	77.75
290.448	88.75
290.679	83.75
290.91	92.75
291.141	74.75
291.371	77.75
291.602	88.75
291.833	84.75
292.064	79.75
292.295	85.75
292.526	77.75
292.757	61.75
292.987	80.75
293.218	89.75
293.449	72.75
293.68	104.75
293.91	72.75
294.141	75.75
294.372	94.75
294.603	77.75
294.833	82.75
295.064	83.75
295.295	87.75
295.525	76.75
295.756	98.75
295.987	89.75
296.217	86.75
296.448	80.75
296.679	92.75
296.909	88.75
297.14	99.75
297.37	89.75
297.601	86.75
297.831	89.75
298.062	81.75
298.292	88.75
298.523	81.75
298.753	93.75
298.984	88.75
299.214	91.75
299.445	81.75
299.675	85.75
299.905	90.75
300.136	85.75
300.366	79.75
300.597	76.75
300.827	87.75
301.057	86.75
301.288	93.75
301.518	83.75
301.748	72.75
301.979	87.75
302.209	76.75
302.439	85.75
302.669	90.75
302.9	82.75
303.13	84.75
303.36	84.75
303.59	73.75
303.82	73.75
304.051	80.75
304.281	99.75
304.511	96.75
304.741	83.75
304.971	92.75
305.201	87.75
305.431	58.75
305.661	62.75
305.891	72.75
306.121	79.75
306.352	91.75
306.582	81.75
306.812	83.75
307.042	88.75
307.272	100.75
307.502	77.75
307.731	99.75
307.961	84.75
308.191	78.75
308.421	74.75
308.651	87.75
308.881	86.75
309.111	93.75
309.341	75.75
309.571	82.75
309.8	78.75
310.03	89.75
310.26	85.75
310.49	79.75
310.72	75.75
310.949	76.75
311.179	91.75
311.409	93.75
311.639	89.75
311.868	87.75
312.098	75.75
312.328	78.75
312.557	81.75
312.787	76.75
313.017	82.75
313.246	80.75
313.476	76.75
313.706	75.75
313.935	73.75
314.165	98.75
314.394	79.75
314.624	74.75
314.853	73.75
315.083	86.75
315.312	73.75
315.542	92.75
315.771	79.75
316.001	80.75
316.23	93.75
316.46	81.75
316.689	90.75
316.919	76.75
317.148	77.75
317.377	87.75
317.607	68.75
317.836	88.75
318.065	85.75
318.295	83.75
318.524	86.75
318.753	73.75
318.983	79.75
319.212	60.75
319.441	64.75
319.67	91.75
319.9	91.75
320.129	74.75
320.358	82.75
320.587	76.75
320.816	91.75
321.046	81.75
321.275	86.75
321.504	75.75
321.733	87.75
321.962	93.75
322.191	82.75
322.42	79.75
322.649	83.75
322.878	77.75
323.108	98.75
323.337	85.75
323.566	92.75
323.795	90.75
324.024	86.75
324.253	80.75
324.482	76.75
324.71	81.75
324.939	92.75
325.168	77.75
325.397	82.75
325.626	103.75
325.855	91.75
326.084	78.75
326.313	92.75
326.542	82.75
326.77	68.75
326.999	70.75
327.228	87.75
327.457	76.75
327.686	95.75
327.914	88.75
328.143	98.75
328.372	87.75
328.6	79.75
328.829	84.75
329.058	82.75
329.287	87.75
329.515	84.75
329.744	94.75
329.972	90.75
330.201	75.75
330.43	90.75
330.658	92.75
330.887	92.75
331.115	72.75
331.344	76.75
331.572	77.75
331.801	97.75
332.03	91.75
332.258	78.75
332.486	79.75
332.715	90.75
332.943	67.75
333.172	79.75
333.4	83.75
333.629	83.75
333.857	88.75
334.085	87.75
334.314	80.75
334.542	89.75
334.771	88.75
334.999	94.75
335.227	74.75
335.455	83.75
335.684	80.75
335.912	88.75
336.14	81.75
336.369	75.75
336.597	79.75
336.825	98.75
337.053	72.75
337.281	84.75
337.51	76.75
337.738	79.75
337.966	89.75
338.194	90.75
338.422	96.75
338.65	75.75
338.878	83.75
339.106	84.75
339.334	75.75
339.562	92.75
339.79	79.75
340.018	78.75
340.246	77.75
340.474	86.75
340.702	69.75
340.93	85.75
341.158	87.75
341.386	107.75
341.614	87.75
341.842	88.75
342.07	83.75
342.298	79.75
342.526	84.75
342.754	83.75
342.981	80.75
343.209	77.75
343.437	64.75
343.665	73.75
343.893	76.75
344.12	78.75
344.348	97.75
344.576	89.75
344.804	92.75
345.031	84.75
345.259	82.75
345.487	82.75
345.714	92.75
345.942	84.75
346.17	93.75
346.397	86.75
346.625	88.75
346.853	84.75
347.08	84.75
347.308	82.75
347.535	92.75
347.763	86.75
347.99	93.75
348.218	77.75
348.445	88.75
348.673	79.75
348.9	79.75
349.128	102.75
349.355	90.75
349.583	87.75
349.81	83.75
350.037	78.75
350.265	80.75
350.492	93.75
350.72	81.75
350.947	82.75
351.174	91.75
351.402	79.75
351.629	88.75
351.856	90.75
352.083	83.75
352.311	71.75
352.538	82.75
352.765	76.75
352.992	88.75
353.22	92.75
353.447	95.75
353.674	89.75
353.901	85.75
354.128	82.75
354.355	88.75
354.583	86.75
354.81	87.75
355.037	91.75
355.264	84.75
355.491	97.75
355.718	100.75
355.945	94.75
356.172	84.75
356.399	86.75
356.626	85.75
356.853	87.75
357.08	96.75
357.307	83.75
357.534	81.75
357.761	93.75
357.988	80.75
358.215	97.75
358.441	84.75
358.668	85.75
358.895	81.75
359.122	90.75
359.349	78.75
359.576	77.75
359.802	78.75
360.029	91.75
360.256	89.75
360.483	82.75
360.709	81.75
360.936	93.75
361.163	85.75
361.39	83.75
361.616	77.75
361.843	77.75
362.07	87.75
362.296	84.75
362.523	77.75
362.749	92.75
362.976	93.75
363.203	86.75
363.429	87.75
363.656	80.75
363.882	79.75
364.109	83.75
364.335	72.75
364.562	76.75
364.788	74.75
365.015	75.75
365.241	65.75
365.468	85.75
365.694	76.75
365.92	73.75
366.147	85.75
366.373	101.75
366.599	92.75
366.826	94.75
367.052	78.75
367.278	77.75
367.505	89.75
367.731	72.75
367.957	93.75
368.184	80.75
368.41	70.75
368.636	75.75
368.862	87.75
369.089	79.75
369.315	77.75
369.541	77.75
369.767	76.75
369.993	72.75
370.219	72.75
370.445	85.75
370.672	80.75
370.898	77.75
371.124	81.75
371.35	83.75
371.576	81.75
371.802	85.75
372.028	68.75
372.254	101.75
372.48	80.75
372.706	72.75
372.932	84.75
373.158	76.75
373.384	75.75
373.61	80.75
373.835	92.75
374.061	91.75
374.287	77.75
374.513	84.75
374.739	79.75
374.965	76.75
375.191	77.75
375.416	67.75
375.642	92.75
375.868	77.75
376.094	86.75
376.319	79.75
376.545	72.75
376.771	87.75
376.997	79.75
377.222	74.75
377.448	80.75
377.674	85.75
377.899	90.75
378.125	77.75
378.35	86.75
378.576	79.75
378.802	71.75
379.027	85.75
379.253	91.75
379.478	92.75
379.704	79.75
379.929	92.75
380.155	89.75
380.38	87.75
380.606	85.75
380.831	75.75
381.057	87.75
381.282	83.75
381.507	79.75
381.733	64.75
381.958	83.75
382.184	77.75
382.409	75.75
382.634	86.75
382.86	80.75
383.085	93.75
383.31	90.75
383.535	89.75
383.761	68.75
383.986	92.75
384.211	81.75
384.436	84.75
384.662	91.75
384.887	90.75
385.112	101.75
385.337	86.75
385.562	72.75
385.787	95.75
386.013	99.75
386.238	83.75
386.463	80.75
386.688	84.75
386.913	78.75
387.138	70.75
387.363	81.75
387.588	78.75
387.813	90.75
388.038	94.75
388.263	83.75
388.488	83.75
388.713	77.75
388.938	85.75
389.163	69.75
389.387	76.75
389.612	78.75
389.837	79.75
390.062	80.75
390.287	71.75
390.512	78.75
390.736	76.75
390.961	80.75
391.186	79.75
391.411	79.75
391.636	87.75
391.86	80.75
392.085	89.75
392.31	83.75
392.534	87.75
392.759	81.75
392.984	87.75
393.208	75.75
393.433	81.75
393.658	74.75
393.882	83.75
394.107	75.75
394.331	75.75
394.556	81.75
394.78	86.75
395.005	89.75
395.229	90.75
395.454	95.75
395.678	91.75
395.903	83.75
396.127	93.75
396.352	75.75
396.576	81.75
396.801	69.75
397.025	75.75
397.249	73.75
397.474	87.75
397.698	90.75
397.922	88.75
398.147	86.75
398.371	83.75
398.595	100.75
398.82	84.75
399.044	69.75
399.268	91.75
399.492	81.75
399.717	91.75
399.941	89.75
400.165	84.75
400.389	93.75
400.613	95.75
400.837	81.75
401.062	67.75
401.286	77.75
401.51	95.75
401.734	87.75
401.958	81.75
402.182	91.75
402.406	102.75
402.63	82.75
402.854	83.75
403.078	94.75
403.302	85.75
403.526	83.75
403.75	76.75
403.974	83.75
404.198	82.75
404.422	87.75
404.645	76.75
404.869	88.75
405.093	77.75
405.317	92.75
405.541	83.75
405.765	80.75
405.988	87.75
406.212	76.75
406.436	85.75
406.66	84.75
406.883	96.75
407.107	95.75
407.331	74.75
407.555	87.75
407.778	97.75
408.002	91.75
408.226	79.75
408.449	96.75
408.673	94.75
408.896	87.75
409.12	95.75
409.344	79.75
409.567	82.75
409.791	85.75
410.014	82.75
410.238	83.75
410.461	90.75
410.685	88.75
410.908	84.75
411.132	89.75
411.355	75.75
411.578	84.75
411.802	76.75
412.025	94.75
412.249	77.75
412.472	93.75
412.695	86.75
412.919	85.75
413.142	88.75
413.365	82.75
413.589	74.75
413.812	79.75
414.035	97.75
414.258	94.75
414.482	88.75
414.705	78.75
414.928	83.75
415.151	86.75
415.374	111.75
415.597	105.75
415.821	98.75
416.044	93.75
416.267	72.75
416.49	78.75
416.713	80.75
416.936	87.75
417.159	101.75
417.382	87.75
417.605	90.75
417.828	87.75
418.051	95.75
418.274	90.75
418.497	82.75
418.72	98.75
418.943	93.75
419.166	90.75
419.389	97.75
419.611	95.75
419.834	90.75
420.057	95.75
420.28	81.75
420.503	104.75
420.726	93.75
420.948	97.75
421.171	95.75
421.394	95.75
421.617	87.75
421.839	92.75
422.062	100.75
422.285	83.75
422.507	106.75
422.73	85.75
422.953	101.75
423.175	80.75
423.398	89.75
423.621	92.75
423.843	96.75
424.066	89.75
424.288	101.75
424.511	88.75
424.733	100.75
424.956	76.75
425.178	91.75
425.401	82.75
425.623	95.75
425.846	104.75
426.068	85.75
426.291	88.75
426.513	85.75
426.735	98.75
426.958	68.75
427.18	88.75
427.402	101.75
427.625	92.75
427.847	98.75
428.069	92.75
428.292	88.75
428.514	94.75
428.736	89.75
428.958	87.75
429.181	93.75
429.403	81.75
429.625	91.75
429.847	88.75
430.069	89.75
430.292	74.75
430.514	97.75
430.736	81.75
430.958	86.75
431.18	87.75
431.402	87.75
431.624	97.75
431.846	88.75
432.068	93.75
432.29	100.75
432.512	92.75
432.734	91.75
432.956	91.75
433.178	89.75
433.4	96.75
433.622	91.75
433.844	90.75
434.066	94.75
434.287	88.75
434.509	86.75
434.731	88.75
434.953	85.75
435.175	96.75
435.397	86.75
435.618	84.75
435.84	91.75
436.062	88.75
436.284	85.75
436.505	102.75
436.727	75.75
436.949	86.75
437.17	81.75
437.392	94.75
437.614	87.75
437.835	95.75
438.057	89.75
438.278	82.75
438.5	79.75
438.721	95.75
438.943	90.75
439.165	91.75
439.386	95.75
439.608	83.75
439.829	100.75
440.05	95.75
440.272	87.75
440.493	92.75
440.715	83.75
440.936	74.75
441.158	89.75
441.379	86.75
441.6	81.75
441.822	100.75
442.043	107.75
442.264	90.75
442.486	86.75
442.707	84.75
442.928	88.75
443.149	100.75
443.371	105.75
443.592	101.75
443.813	83.75
444.034	97.75
444.255	114.75
444.476	86.75
444.698	89.75
444.919	88.75
445.14	211.75
445.361	155.75
445.582	101.75
445.803	95.75
446.024	93.75
446.245	97.75
446.466	98.75
446.687	102.75
446.908	93.75
447.129	90.75
447.35	89.75
447.571	104.75
447.792	86.75
448.013	92.75
448.234	86.75
448.455	92.75
448.675	95.75
448.896	82.75
449.117	83.75
449.338	86.75
449.559	87.75
449.779	87.75
450	95.75
450.221	98.75
450.442	75.75
450.662	99.75
450.883	107.75
451.104	87.75
451.324	88.75
451.545	85.75
451.766	95.75
451.986	90.75
452.207	89.75
452.428	105.75
452.648	106.75
452.869	81.75
453.089	91.75
453.31	94.75
453.53	91.75
453.751	92.75
453.971	92.75
454.192	87.75
454.412	73.75
454.633	81.75
454.853	95.75
455.073	78.75
455.294	82.75
455.514	77.75
455.734	99.75
455.955	93.75
456.175	82.75
456.395	87.75
456.616	85.75
456.836	87.75
457.056	90.75
457.276	97.75
457.497	84.75
457.717	85.75
457.937	88.75
458.157	79.75
458.377	83.75
458.598	80.75
458.818	81.75
459.038	96.75
459.258	101.75
459.478	100.75
459.698	94.75
459.918	91.75
460.138	89.75
460.358	73.75
460.578	93.75
460.798	85.75
461.018	88.75
461.238	87.75
461.458	92.75
461.678	70.75
461.898	79.75
462.118	86.75
462.338	78.75
462.558	103.75
462.777	95.75
462.997	88.75
463.217	81.75
463.437	77.75
463.657	92.75
463.876	80.75
464.096	92.75
464.316	76.75
464.536	86.75
464.755	83.75
464.975	90.75
465.195	88.75
465.414	87.75
465.634	74.75
465.854	93.75
466.073	94.75
466.293	75.75
466.512	87.75
466.732	87.75
466.951	93.75
467.171	92.75
467.391	86.75
467.61	71.75
467.829	87.75
468.049	87.75
468.268	74.75
468.488	97.75
468.707	95.75
468.927	90.75
469.146	102.75
469.365	84.75
469.585	98.75
469.804	99.75
470.023	96.75
470.243	86.75
470.462	96.75
470.681	100.75
470.901	93.75
471.12	102.75
471.339	97.75
471.558	93.75
471.777	91.75
471.997	96.75
472.216	98.75
472.435	87.75
472.654	74.75
472.873	88.75
473.092	84.75
473.311	87.75
473.53	84.75
473.749	82.75
473.968	85.75
474.187	88.75
474.406	87.75
474.625	82.75
474.844	85.75
475.063	103.75
475.282	86.75
475.501	92.75
475.72	88.75
475.939	95.75
476.158	85.75
476.377	74.75
476.596	87.75
476.814	97.75
477.033	82.75
477.252	87.75
477.471	100.75
477.69	97.75
477.908	86.75
478.127	88.75
478.346	88.75
478.564	93.75
478.783	92.75
479.002	94.75
479.22	104.75
479.439	95.75
479.658	95.75
479.876	84.75
480.095	77.75
480.313	98.75
480.532	86.75
480.751	100.75
480.969	82.75
481.188	85.75
481.406	83.75
481.624	69.75
481.843	73.75
482.061	82.75
482.28	88.75
482.498	85.75
482.717	88.75
482.935	73.75
483.153	98.75
483.372	93.75
483.59	85.75
483.808	97.75
484.027	85.75
484.245	90.75
484.463	98.75
484.681	88.75
484.9	88.75
485.118	105.75
485.336	97.75
485.554	94.75
485.772	80.75
485.99	75.75
486.209	80.75
486.427	85.75
486.645	87.75
486.863	89.75
487.081	96.75
487.299	87.75
487.517	79.75
487.735	97.75
487.953	101.75
488.171	104.75
488.389	108.75
488.607	90.75
488.825	76.75
489.043	87.75
489.261	88.75
489.479	75.75
489.696	96.75
489.914	75.75
490.132	85.75
490.35	96.75
490.568	90.75
490.786	99.75
491.003	119.75
491.221	111.75
491.439	88.75
491.657	95.75
491.874	94.75
492.092	104.75
492.31	124.75
492.527	100.75
492.745	94.75
492.963	106.75
493.18	115.75
493.398	97.75
493.615	116.75
493.833	93.75
494.05	99.75
494.268	124.75
494.485	106.75
494.703	102.75
494.92	104.75
495.138	108.75
495.355	100.75
495.573	111.75
495.79	97.75
496.008	94.75
496.225	98.75
496.442	104.75
496.66	106.75
496.877	107.75
497.094	91.75
497.312	98.75
497.529	87.75
497.746	87.75
497.963	85.75
498.181	110.75
498.398	90.75
498.615	89.75
498.832	80.75
499.049	91.75
499.267	81.75
499.484	107.75
499.701	93.75
499.918	107.75
500.135	96.75
500.352	99.75
500.569	94.75
500.786	92.75
501.003	94.75
501.22	79.75
501.437	99.75
501.654	87.75
501.871	90.75
502.088	95.75
502.305	91.75
502.522	79.75
502.739	77.75
502.956	79.75
503.172	87.75
503.389	88.75
503.606	96.75
503.823	89.75
504.04	77.75
504.256	82.75
504.473	75.75
504.69	94.75
504.907	102.75
505.123	95.75
505.34	74.75
505.557	77.75
505.773	87.75
505.99	98.75
506.207	92.75
506.423	99.75
506.64	88.75
506.856	92.75
507.073	80.75
507.289	82.75
507.506	93.75
507.722	73.75
507.939	76.75
508.155	92.75
508.372	89.75
508.588	86.75
508.805	89.75
509.021	82.75
509.238	87.75
509.454	81.75
509.67	68.75
509.887	87.75
510.103	85.75
510.319	83.75
510.536	87.75
510.752	83.75
510.968	69.75
511.184	77.75
511.401	85.75
511.617	91.75
511.833	76.75
512.049	83.75
512.265	79.75
512.481	91.75
512.698	81.75
512.914	72.75
513.13	84.75
513.346	74.75
513.562	83.75
513.778	83.75
513.994	84.75
514.21	68.75
514.426	93.75
514.642	86.75
514.858	78.75
515.074	96.75
515.29	95.75
515.506	86.75
515.721	75.75
515.937	88.75
516.153	100.75
516.369	74.75
516.585	92.75
516.801	92.75
517.016	91.75
517.232	93.75
517.448	91.75
517.664	65.75
517.879	70.75
