Data from NiCl2@0.5M.TitratingCurve.Agarose3%dH2O.NegLispCup.LampEnergy10.LIBS07252019_HRD10591_18-21-39-572.txt Node
Date: Thu Jul 25 18:21:39 EDT 2019
User: cochatt
Spectrometer: HR+D1059
Trigger mode: 1
Integration Time (sec): 1.000000E-1
Scans to average: 1
Electric dark correction enabled: true
Nonlinearity correction enabled: false
Boxcar width: 0
XAxis mode: Wavelengths
Number of Pixels in Spectrum: 2048
>>>>>Begin Spectral Data<<<<<
223.165	-17.75
223.4	-17.75
223.635	-17.75
223.869	-21.75
224.104	-19.75
224.338	-9.75
224.573	-24.75
224.808	-22.75
225.042	2.25
225.277	-5.75
225.511	4.25
225.746	21.25
225.98	3.25
226.215	14.25
226.449	10.25
226.683	19.25
226.918	21.25
227.152	26.25
227.387	37.25
227.621	33.25
227.856	41.25
228.09	51.25
228.324	50.25
228.559	61.25
228.793	63.25
229.027	81.25
229.262	97.25
229.496	103.25
229.73	103.25
229.964	103.25
230.199	112.25
230.433	116.25
230.667	120.25
230.901	121.25
231.136	112.25
231.37	108.25
231.604	114.25
231.838	103.25
232.072	119.25
232.306	125.25
232.541	123.25
232.775	130.25
233.009	137.25
233.243	144.25
233.477	134.25
233.711	131.25
233.945	131.25
234.179	125.25
234.413	139.25
234.647	135.25
234.881	119.25
235.115	130.25
235.349	128.25
235.583	134.25
235.817	126.25
236.051	129.25
236.285	113.25
236.519	131.25
236.753	126.25
236.987	119.25
237.221	129.25
237.455	137.25
237.689	147.25
237.922	132.25
238.156	141.25
238.39	155.25
238.624	124.25
238.858	135.25
239.091	151.25
239.325	128.25
239.559	133.25
239.793	147.25
240.027	144.25
240.26	139.25
240.494	152.25
240.728	155.25
240.961	151.25
241.195	155.25
241.429	157.25
241.662	146.25
241.896	166.25
242.13	163.25
242.363	141.25
242.597	142.25
242.83	151.25
243.064	148.25
243.298	151.25
243.531	166.25
243.765	167.25
243.998	164.25
244.232	157.25
244.465	175.25
244.699	166.25
244.932	173.25
245.166	172.25
245.399	173.25
245.633	172.25
245.866	161.25
246.099	165.25
246.333	167.25
246.566	171.25
246.8	176.25
247.033	191.25
247.266	175.25
247.5	185.25
247.733	199.25
247.966	172.25
248.2	187.25
248.433	179.25
248.666	196.25
248.899	201.25
249.133	193.25
249.366	202.25
249.599	191.25
249.832	187.25
250.066	207.25
250.299	184.25
250.532	194.25
250.765	183.25
250.998	209.25
251.231	193.25
251.465	196.25
251.698	208.25
251.931	200.25
252.164	210.25
252.397	216.25
252.63	211.25
252.863	194.25
253.096	208.25
253.329	196.25
253.562	206.25
253.795	201.25
254.028	225.25
254.261	229.25
254.494	209.25
254.727	213.25
254.96	224.25
255.193	224.25
255.426	225.25
255.659	217.25
255.892	223.25
256.124	212.25
256.357	236.25
256.59	221.25
256.823	221.25
257.056	200.25
257.289	225.25
257.521	228.25
257.754	233.25
257.987	221.25
258.22	224.25
258.452	233.25
258.685	234.25
258.918	227.25
259.151	240.25
259.383	230.25
259.616	226.25
259.849	241.25
260.081	249.25
260.314	240.25
260.547	242.25
260.779	239.25
261.012	243.25
261.244	232.25
261.477	251.25
261.71	230.25
261.942	253.25
262.175	256.25
262.407	265.25
262.64	252.25
262.872	245.25
263.105	246.25
263.337	262.25
263.57	252.25
263.802	257.25
264.035	267.25
264.267	260.25
264.499	267.25
264.732	271.25
264.964	258.25
265.197	264.25
265.429	254.25
265.661	255.25
265.894	263.25
266.126	262.25
266.358	255.25
266.591	280.25
266.823	271.25
267.055	275.25
267.287	269.25
267.52	271.25
267.752	266.25
267.984	287.25
268.216	259.25
268.448	276.25
268.681	292.25
268.913	284.25
269.145	283.25
269.377	285.25
269.609	283.25
269.841	289.25
270.073	306.25
270.306	279.25
270.538	287.25
270.77	288.25
271.002	284.25
271.234	294.25
271.466	305.25
271.698	302.25
271.93	300.25
272.162	282.25
272.394	279.25
272.626	287.25
272.858	311.25
273.09	279.25
273.322	303.25
273.553	299.25
273.785	296.25
274.017	284.25
274.249	299.25
274.481	327.25
274.713	317.25
274.945	305.25
275.176	309.25
275.408	322.25
275.64	314.25
275.872	302.25
276.104	296.25
276.335	308.25
276.567	319.25
276.799	315.25
277.031	319.25
277.262	325.25
277.494	315.25
277.726	320.25
277.957	332.25
278.189	337.25
278.421	309.25
278.652	317.25
278.884	354.25
279.115	319.25
279.347	344.25
279.579	315.25
279.81	301.25
280.042	338.25
280.273	335.25
280.505	349.25
280.736	356.25
280.968	327.25
281.199	346.25
281.431	373.25
281.662	362.25
281.894	347.25
282.125	354.25
282.356	356.25
282.588	363.25
282.819	356.25
283.051	337.25
283.282	356.25
283.513	350.25
283.745	351.25
283.976	353.25
284.207	349.25
284.439	367.25
284.67	361.25
284.901	360.25
285.132	359.25
285.364	352.25
285.595	381.25
285.826	375.25
286.057	379.25
286.288	385.25
286.52	382.25
286.751	371.25
286.982	379.25
287.213	381.25
287.444	352.25
287.675	373.25
287.906	365.25
288.138	377.25
288.369	390.25
288.6	384.25
288.831	374.25
289.062	388.25
289.293	398.25
289.524	357.25
289.755	387.25
289.986	391.25
290.217	395.25
290.448	386.25
290.679	387.25
290.91	397.25
291.141	386.25
291.371	402.25
291.602	396.25
291.833	392.25
292.064	404.25
292.295	388.25
292.526	391.25
292.757	408.25
292.987	397.25
293.218	398.25
293.449	383.25
293.68	406.25
293.91	400.25
294.141	380.25
294.372	398.25
294.603	397.25
294.833	396.25
295.064	399.25
295.295	399.25
295.525	417.25
295.756	409.25
295.987	385.25
296.217	397.25
296.448	385.25
296.679	406.25
296.909	404.25
297.14	414.25
297.37	411.25
297.601	445.25
297.831	449.25
298.062	427.25
298.292	436.25
298.523	424.25
298.753	441.25
298.984	442.25
299.214	439.25
299.445	443.25
299.675	456.25
299.905	423.25
300.136	426.25
300.366	433.25
300.597	450.25
300.827	447.25
301.057	444.25
301.288	456.25
301.518	454.25
301.748	485.25
301.979	445.25
302.209	461.25
302.439	442.25
302.669	460.25
302.9	458.25
303.13	446.25
303.36	452.25
303.59	453.25
303.82	450.25
304.051	435.25
304.281	451.25
304.511	463.25
304.741	471.25
304.971	440.25
305.201	468.25
305.431	469.25
305.661	460.25
305.891	451.25
306.121	457.25
306.352	443.25
306.582	441.25
306.812	438.25
307.042	432.25
307.272	451.25
307.502	445.25
307.731	439.25
307.961	438.25
308.191	454.25
308.421	439.25
308.651	468.25
308.881	428.25
309.111	440.25
309.341	439.25
309.571	436.25
309.8	447.25
310.03	443.25
310.26	448.25
310.49	457.25
310.72	448.25
310.949	443.25
311.179	447.25
311.409	450.25
311.639	438.25
311.868	449.25
312.098	446.25
312.328	478.25
312.557	464.25
312.787	459.25
313.017	492.25
313.246	463.25
313.476	473.25
313.706	483.25
313.935	481.25
314.165	491.25
314.394	491.25
314.624	484.25
314.853	479.25
315.083	486.25
315.312	479.25
315.542	488.25
315.771	479.25
316.001	454.25
316.23	463.25
316.46	470.25
316.689	471.25
316.919	483.25
317.148	453.25
317.377	465.25
317.607	473.25
317.836	461.25
318.065	463.25
318.295	459.25
318.524	473.25
318.753	468.25
318.983	453.25
319.212	449.25
319.441	477.25
319.67	475.25
319.9	464.25
320.129	489.25
320.358	472.25
320.587	501.25
320.816	487.25
321.046	488.25
321.275	484.25
321.504	468.25
321.733	490.25
321.962	475.25
322.191	497.25
322.42	472.25
322.649	483.25
322.878	469.25
323.108	467.25
323.337	452.25
323.566	474.25
323.795	483.25
324.024	502.25
324.253	481.25
324.482	497.25
324.71	493.25
324.939	521.25
325.168	515.25
325.397	483.25
325.626	479.25
325.855	488.25
326.084	517.25
326.313	507.25
326.542	516.25
326.77	513.25
326.999	488.25
327.228	525.25
327.457	524.25
327.686	507.25
327.914	526.25
328.143	519.25
328.372	519.25
328.6	500.25
328.829	520.25
329.058	499.25
329.287	515.25
329.515	537.25
329.744	530.25
329.972	523.25
330.201	553.25
330.43	532.25
330.658	547.25
330.887	547.25
331.115	545.25
331.344	571.25
331.572	546.25
331.801	545.25
332.03	560.25
332.258	584.25
332.486	582.25
332.715	624.25
332.943	645.25
333.172	655.25
333.4	662.25
333.629	706.25
333.857	708.25
334.085	685.25
334.314	657.25
334.542	642.25
334.771	644.25
334.999	645.25
335.227	635.25
335.455	641.25
335.684	633.25
335.912	627.25
336.14	648.25
336.369	643.25
336.597	610.25
336.825	626.25
337.053	636.25
337.281	608.25
337.51	596.25
337.738	582.25
337.966	592.25
338.194	577.25
338.422	574.25
338.65	561.25
338.878	568.25
339.106	560.25
339.334	577.25
339.562	577.25
339.79	552.25
340.018	521.25
340.246	547.25
340.474	547.25
340.702	516.25
340.93	537.25
341.158	554.25
341.386	536.25
341.614	581.25
341.842	560.25
342.07	543.25
342.298	541.25
342.526	569.25
342.754	538.25
342.981	528.25
343.209	547.25
343.437	591.25
343.665	590.25
343.893	635.25
344.12	676.25
344.348	627.25
344.576	605.25
344.804	589.25
345.031	549.25
345.259	568.25
345.487	550.25
345.714	540.25
345.942	555.25
346.17	565.25
346.397	549.25
346.625	532.25
346.853	526.25
347.08	525.25
347.308	538.25
347.535	563.25
347.763	528.25
347.99	549.25
348.218	544.25
348.445	537.25
348.673	525.25
348.9	531.25
349.128	545.25
349.355	539.25
349.583	527.25
349.81	511.25
350.037	499.25
350.265	498.25
350.492	504.25
350.72	484.25
350.947	489.25
351.174	498.25
351.402	513.25
351.629	515.25
351.856	498.25
352.083	491.25
352.311	505.25
352.538	507.25
352.765	525.25
352.992	508.25
353.22	481.25
353.447	499.25
353.674	499.25
353.901	490.25
354.128	499.25
354.355	493.25
354.583	481.25
354.81	493.25
355.037	505.25
355.264	498.25
355.491	499.25
355.718	508.25
355.945	484.25
356.172	500.25
356.399	529.25
356.626	532.25
356.853	523.25
357.08	502.25
357.307	535.25
357.534	492.25
357.761	497.25
357.988	519.25
358.215	505.25
358.441	509.25
358.668	479.25
358.895	472.25
359.122	498.25
359.349	481.25
359.576	488.25
359.802	495.25
360.029	526.25
360.256	509.25
360.483	488.25
360.709	489.25
360.936	498.25
361.163	502.25
361.39	504.25
361.616	497.25
361.843	523.25
362.07	520.25
362.296	501.25
362.523	484.25
362.749	486.25
362.976	524.25
363.203	507.25
363.429	471.25
363.656	500.25
363.882	507.25
364.109	506.25
364.335	492.25
364.562	523.25
364.788	477.25
365.015	489.25
365.241	500.25
365.468	504.25
365.694	495.25
365.92	505.25
366.147	514.25
366.373	493.25
366.599	489.25
366.826	486.25
367.052	482.25
367.278	508.25
367.505	495.25
367.731	502.25
367.957	500.25
368.184	492.25
368.41	491.25
368.636	504.25
368.862	503.25
369.089	515.25
369.315	519.25
369.541	523.25
369.767	500.25
369.993	518.25
370.219	511.25
370.445	499.25
370.672	534.25
370.898	515.25
371.124	506.25
371.35	546.25
371.576	548.25
371.802	551.25
372.028	531.25
372.254	521.25
372.48	529.25
372.706	567.25
372.932	561.25
373.158	565.25
373.384	553.25
373.61	515.25
373.835	545.25
374.061	522.25
374.287	541.25
374.513	566.25
374.739	569.25
374.965	583.25
375.191	594.25
375.416	584.25
375.642	587.25
375.868	555.25
376.094	560.25
376.319	539.25
376.545	554.25
376.771	524.25
376.997	537.25
377.222	537.25
377.448	552.25
377.674	543.25
377.899	529.25
378.125	537.25
378.35	520.25
378.576	507.25
378.802	522.25
379.027	541.25
379.253	542.25
379.478	507.25
379.704	543.25
379.929	539.25
380.155	526.25
380.38	526.25
380.606	534.25
380.831	535.25
381.057	536.25
381.282	530.25
381.507	527.25
381.733	548.25
381.958	531.25
382.184	525.25
382.409	555.25
382.634	583.25
382.86	551.25
383.085	570.25
383.31	580.25
383.535	601.25
383.761	586.25
383.986	576.25
384.211	578.25
384.436	612.25
384.662	629.25
384.887	635.25
385.112	634.25
385.337	632.25
385.562	615.25
385.787	629.25
386.013	654.25
386.238	635.25
386.463	627.25
386.688	619.25
386.913	623.25
387.138	633.25
387.363	608.25
387.588	641.25
387.813	636.25
388.038	620.25
388.263	611.25
388.488	619.25
388.713	632.25
388.938	629.25
389.163	605.25
389.387	627.25
389.612	603.25
389.837	625.25
390.062	617.25
390.287	603.25
390.512	639.25
390.736	631.25
390.961	613.25
391.186	641.25
391.411	682.25
391.636	655.25
391.86	687.25
392.085	720.25
392.31	721.25
392.534	678.25
392.759	670.25
392.984	647.25
393.208	670.25
393.433	661.25
393.658	663.25
393.882	681.25
394.107	689.25
394.331	679.25
394.556	689.25
394.78	705.25
395.005	676.25
395.229	671.25
395.454	683.25
395.678	721.25
395.903	702.25
396.127	697.25
396.352	673.25
396.576	665.25
396.801	669.25
397.025	689.25
397.249	688.25
397.474	708.25
397.698	717.25
397.922	712.25
398.147	680.25
398.371	700.25
398.595	736.25
398.82	776.25
399.044	810.25
399.268	907.25
399.492	1089.25
399.717	1172.25
399.941	1170.25
400.165	1056.25
400.389	957.25
400.613	885.25
400.837	822.25
401.062	811.25
401.286	810.25
401.51	797.25
401.734	797.25
401.958	792.25
402.182	824.25
402.406	817.25
402.63	837.25
402.854	869.25
403.078	857.25
403.302	885.25
403.526	880.25
403.75	898.25
403.974	898.25
404.198	908.25
404.422	924.25
404.645	891.25
404.869	908.25
405.093	906.25
405.317	849.25
405.541	883.25
405.765	887.25
405.988	873.25
406.212	890.25
406.436	883.25
406.66	904.25
406.883	915.25
407.107	953.25
407.331	1015.25
407.555	1034.25
407.778	1041.25
408.002	1025.25
408.226	955.25
408.449	959.25
408.673	936.25
408.896	909.25
409.12	890.25
409.344	909.25
409.567	890.25
409.791	907.25
410.014	915.25
410.238	886.25
410.461	895.25
410.685	880.25
410.908	868.25
411.132	861.25
411.355	837.25
411.578	832.25
411.802	847.25
412.025	834.25
412.249	844.25
412.472	863.25
412.695	805.25
412.919	797.25
413.142	809.25
413.365	793.25
413.589	799.25
413.812	797.25
414.035	815.25
414.258	785.25
414.482	838.25
414.705	840.25
414.928	806.25
415.151	803.25
415.374	803.25
415.597	813.25
415.821	791.25
416.044	792.25
416.267	785.25
416.49	807.25
416.713	807.25
416.936	777.25
417.159	789.25
417.382	762.25
417.605	781.25
417.828	796.25
418.051	795.25
418.274	788.25
418.497	810.25
418.72	833.25
418.943	865.25
419.166	880.25
419.389	923.25
419.611	919.25
419.834	877.25
420.057	831.25
420.28	823.25
420.503	789.25
420.726	781.25
420.948	787.25
421.171	808.25
421.394	795.25
421.617	808.25
421.839	776.25
422.062	788.25
422.285	779.25
422.507	824.25
422.73	804.25
422.953	834.25
423.175	819.25
423.398	835.25
423.621	835.25
423.843	844.25
424.066	870.25
424.288	865.25
424.511	826.25
424.733	828.25
424.956	802.25
425.178	807.25
425.401	789.25
425.623	805.25
425.846	784.25
426.068	786.25
426.291	770.25
426.513	751.25
426.735	735.25
426.958	766.25
427.18	723.25
427.402	725.25
427.625	719.25
427.847	709.25
428.069	699.25
428.292	748.25
428.514	712.25
428.736	710.25
428.958	718.25
429.181	699.25
429.403	715.25
429.625	690.25
429.847	706.25
430.069	712.25
430.292	715.25
430.514	688.25
430.736	694.25
430.958	691.25
431.18	716.25
431.402	711.25
431.624	704.25
431.846	716.25
432.068	712.25
432.29	728.25
432.512	753.25
432.734	730.25
432.956	718.25
433.178	740.25
433.4	717.25
433.622	719.25
433.844	708.25
434.066	750.25
434.287	734.25
434.509	765.25
434.731	757.25
434.953	794.25
435.175	798.25
435.397	809.25
435.618	776.25
435.84	747.25
436.062	747.25
436.284	710.25
436.505	712.25
436.727	737.25
436.949	705.25
437.17	699.25
437.392	709.25
437.614	713.25
437.835	681.25
438.057	693.25
438.278	704.25
438.5	718.25
438.721	692.25
438.943	715.25
439.165	682.25
439.386	713.25
439.608	715.25
439.829	724.25
440.05	727.25
440.272	734.25
440.493	755.25
440.715	729.25
440.936	746.25
441.158	765.25
441.379	778.25
441.6	815.25
441.822	843.25
442.043	827.25
442.264	804.25
442.486	768.25
442.707	791.25
442.928	818.25
443.149	815.25
443.371	804.25
443.592	796.25
443.813	823.25
444.034	842.25
444.255	848.25
444.476	887.25
444.698	920.25
444.919	952.25
445.14	1069.25
445.361	941.25
445.582	850.25
445.803	796.25
446.024	771.25
446.245	778.25
446.466	778.25
446.687	740.25
446.908	732.25
447.129	719.25
447.35	729.25
447.571	699.25
447.792	693.25
448.013	688.25
448.234	681.25
448.455	664.25
448.675	667.25
448.896	667.25
449.117	657.25
449.338	666.25
449.559	689.25
449.779	689.25
450	675.25
450.221	671.25
450.442	685.25
450.662	692.25
450.883	694.25
451.104	708.25
451.324	715.25
451.545	687.25
451.766	674.25
451.986	692.25
452.207	662.25
452.428	673.25
452.648	672.25
452.869	660.25
453.089	667.25
453.31	684.25
453.53	656.25
453.751	651.25
453.971	641.25
454.192	641.25
454.412	632.25
454.633	650.25
454.853	626.25
455.073	637.25
455.294	649.25
455.514	626.25
455.734	635.25
455.955	628.25
456.175	639.25
456.395	631.25
456.616	603.25
456.836	631.25
457.056	643.25
457.276	616.25
457.497	601.25
457.717	609.25
457.937	650.25
458.157	652.25
458.377	647.25
458.598	653.25
458.818	677.25
459.038	697.25
459.258	714.25
459.478	737.25
459.698	754.25
459.918	798.25
460.138	804.25
460.358	865.25
460.578	846.25
460.798	875.25
461.018	857.25
461.238	882.25
461.458	842.25
461.678	859.25
461.898	892.25
462.118	853.25
462.338	909.25
462.558	987.25
462.777	981.25
462.997	1090.25
463.217	1165.25
463.437	1148.25
463.657	1039.25
463.876	1036.25
464.096	1031.25
464.316	1027.25
464.536	1024.25
464.755	970.25
464.975	961.25
465.195	901.25
465.414	839.25
465.634	797.25
465.854	767.25
466.073	761.25
466.293	708.25
466.512	716.25
466.732	706.25
466.951	725.25
467.171	680.25
467.391	697.25
467.61	697.25
467.829	692.25
468.049	691.25
468.268	677.25
468.488	680.25
468.707	668.25
468.927	660.25
469.146	679.25
469.365	674.25
469.585	689.25
469.804	707.25
470.023	729.25
470.243	723.25
470.462	731.25
470.681	720.25
470.901	739.25
471.12	743.25
471.339	719.25
471.558	700.25
471.777	711.25
471.997	703.25
472.216	692.25
472.435	667.25
472.654	645.25
472.873	665.25
473.092	653.25
473.311	649.25
473.53	655.25
473.749	670.25
473.968	653.25
474.187	678.25
474.406	666.25
474.625	649.25
474.844	672.25
475.063	668.25
475.282	664.25
475.501	693.25
475.72	685.25
475.939	677.25
476.158	676.25
476.377	675.25
476.596	692.25
476.814	692.25
477.033	700.25
477.252	724.25
477.471	728.25
477.69	746.25
477.908	775.25
478.127	807.25
478.346	784.25
478.564	801.25
478.783	812.25
479.002	819.25
479.22	823.25
479.439	819.25
479.658	810.25
479.876	812.25
480.095	837.25
480.313	865.25
480.532	889.25
480.751	908.25
480.969	798.25
481.188	805.25
481.406	788.25
481.624	754.25
481.843	752.25
482.061	735.25
482.28	737.25
482.498	732.25
482.717	730.25
482.935	748.25
483.153	747.25
483.372	752.25
483.59	753.25
483.808	756.25
484.027	736.25
484.245	760.25
484.463	759.25
484.681	786.25
484.9	770.25
485.118	780.25
485.336	765.25
485.554	773.25
485.772	781.25
485.99	787.25
486.209	794.25
486.427	808.25
486.645	803.25
486.863	789.25
487.081	785.25
487.299	827.25
487.517	812.25
487.735	789.25
487.953	777.25
488.171	801.25
488.389	799.25
488.607	796.25
488.825	744.25
489.043	776.25
489.261	775.25
489.479	756.25
489.696	767.25
489.914	787.25
490.132	789.25
490.35	794.25
490.568	771.25
490.786	790.25
491.003	795.25
491.221	803.25
491.439	798.25
491.657	785.25
491.874	822.25
492.092	827.25
492.31	826.25
492.527	827.25
492.745	818.25
492.963	824.25
493.18	810.25
493.398	836.25
493.615	832.25
493.833	848.25
494.05	837.25
494.268	841.25
494.485	846.25
494.703	825.25
494.92	845.25
495.138	847.25
495.355	858.25
495.573	849.25
495.79	838.25
496.008	877.25
496.225	843.25
496.442	868.25
496.66	881.25
496.877	921.25
497.094	888.25
497.312	908.25
497.529	956.25
497.746	978.25
497.963	984.25
498.181	1028.25
498.398	1105.25
498.615	1155.25
498.832	1185.25
499.049	1275.25
499.267	1400.25
499.484	1549.25
499.701	1711.25
499.918	1856.25
500.135	2102.25
500.352	2404.25
500.569	2505.25
500.786	2460.25
501.003	2306.25
501.22	2107.25
