Data from NiCl2@0.5M.TitratingCurve.Agarose3%dH2O.NegLispCup.LampEnergy10.LIBS07252019_HRD10591_18-20-13-571.txt Node
Date: Thu Jul 25 18:20:13 EDT 2019
User: cochatt
Spectrometer: HR+D1059
Trigger mode: 1
Integration Time (sec): 1.000000E-1
Scans to average: 1
Electric dark correction enabled: true
Nonlinearity correction enabled: false
Boxcar width: 0
XAxis mode: Wavelengths
Number of Pixels in Spectrum: 2048
>>>>>Begin Spectral Data<<<<<
223.165	-16.38
223.4	-16.38
223.635	-16.38
223.869	-9.38
224.104	-12.38
224.338	-17.38
224.573	-22.38
224.808	-12.38
225.042	-16.38
225.277	-1.38
225.511	7.62
225.746	13.62
225.98	14.62
226.215	7.62
226.449	4.62
226.683	24.62
226.918	13.62
227.152	21.62
227.387	27.62
227.621	45.62
227.856	50.62
228.09	44.62
228.324	41.62
228.559	52.62
228.793	53.62
229.027	102.62
229.262	111.62
229.496	116.62
229.73	115.62
229.964	113.62
230.199	118.62
230.433	108.62
230.667	117.62
230.901	129.62
231.136	122.62
231.37	134.62
231.604	127.62
231.838	132.62
232.072	130.62
232.306	129.62
232.541	130.62
232.775	116.62
233.009	121.62
233.243	122.62
233.477	144.62
233.711	128.62
233.945	127.62
234.179	123.62
234.413	126.62
234.647	126.62
234.881	136.62
235.115	120.62
235.349	144.62
235.583	123.62
235.817	136.62
236.051	125.62
236.285	141.62
236.519	140.62
236.753	127.62
236.987	158.62
237.221	137.62
237.455	135.62
237.689	148.62
237.922	140.62
238.156	139.62
238.39	130.62
238.624	150.62
238.858	148.62
239.091	141.62
239.325	146.62
239.559	147.62
239.793	157.62
240.027	145.62
240.26	157.62
240.494	157.62
240.728	159.62
240.961	167.62
241.195	168.62
241.429	165.62
241.662	162.62
241.896	152.62
242.13	175.62
242.363	184.62
242.597	165.62
242.83	155.62
243.064	164.62
243.298	171.62
243.531	172.62
243.765	179.62
243.998	175.62
244.232	161.62
244.465	165.62
244.699	180.62
244.932	193.62
245.166	175.62
245.399	197.62
245.633	201.62
245.866	182.62
246.099	185.62
246.333	188.62
246.566	179.62
246.8	190.62
247.033	187.62
247.266	191.62
247.5	197.62
247.733	185.62
247.966	199.62
248.2	203.62
248.433	208.62
248.666	198.62
248.899	204.62
249.133	196.62
249.366	219.62
249.599	218.62
249.832	206.62
250.066	213.62
250.299	214.62
250.532	208.62
250.765	210.62
250.998	224.62
251.231	213.62
251.465	221.62
251.698	215.62
251.931	216.62
252.164	209.62
252.397	210.62
252.63	203.62
252.863	230.62
253.096	232.62
253.329	221.62
253.562	209.62
253.795	227.62
254.028	226.62
254.261	231.62
254.494	234.62
254.727	231.62
254.96	222.62
255.193	233.62
255.426	230.62
255.659	228.62
255.892	253.62
256.124	231.62
256.357	231.62
256.59	246.62
256.823	249.62
257.056	238.62
257.289	270.62
257.521	244.62
257.754	269.62
257.987	238.62
258.22	224.62
258.452	230.62
258.685	236.62
258.918	266.62
259.151	252.62
259.383	262.62
259.616	250.62
259.849	254.62
260.081	265.62
260.314	245.62
260.547	285.62
260.779	280.62
261.012	249.62
261.244	258.62
261.477	292.62
261.71	281.62
261.942	283.62
262.175	266.62
262.407	287.62
262.64	265.62
262.872	270.62
263.105	272.62
263.337	271.62
263.57	267.62
263.802	270.62
264.035	294.62
264.267	277.62
264.499	285.62
264.732	285.62
264.964	275.62
265.197	291.62
265.429	292.62
265.661	287.62
265.894	292.62
266.126	307.62
266.358	313.62
266.591	286.62
266.823	309.62
267.055	311.62
267.287	296.62
267.52	305.62
267.752	281.62
267.984	316.62
268.216	311.62
268.448	291.62
268.681	285.62
268.913	302.62
269.145	316.62
269.377	298.62
269.609	314.62
269.841	317.62
270.073	319.62
270.306	314.62
270.538	332.62
270.77	297.62
271.002	321.62
271.234	322.62
271.466	317.62
271.698	300.62
271.93	319.62
272.162	315.62
272.394	325.62
272.626	322.62
272.858	319.62
273.09	329.62
273.322	331.62
273.553	343.62
273.785	337.62
274.017	334.62
274.249	345.62
274.481	339.62
274.713	350.62
274.945	339.62
275.176	347.62
275.408	322.62
275.64	354.62
275.872	332.62
276.104	338.62
276.335	334.62
276.567	339.62
276.799	338.62
277.031	354.62
277.262	346.62
277.494	355.62
277.726	358.62
277.957	359.62
278.189	361.62
278.421	361.62
278.652	360.62
278.884	343.62
279.115	360.62
279.347	374.62
279.579	379.62
279.81	359.62
280.042	349.62
280.273	376.62
280.505	357.62
280.736	363.62
280.968	364.62
281.199	372.62
281.431	373.62
281.662	375.62
281.894	373.62
282.125	366.62
282.356	379.62
282.588	359.62
282.819	382.62
283.051	385.62
283.282	381.62
283.513	392.62
283.745	409.62
283.976	397.62
284.207	388.62
284.439	402.62
284.67	399.62
284.901	413.62
285.132	397.62
285.364	398.62
285.595	392.62
285.826	399.62
286.057	410.62
286.288	392.62
286.52	417.62
286.751	428.62
286.982	422.62
287.213	416.62
287.444	408.62
287.675	415.62
287.906	418.62
288.138	423.62
288.369	416.62
288.6	453.62
288.831	418.62
289.062	414.62
289.293	446.62
289.524	427.62
289.755	419.62
289.986	434.62
290.217	429.62
290.448	427.62
290.679	437.62
290.91	404.62
291.141	436.62
291.371	428.62
291.602	434.62
291.833	402.62
292.064	421.62
292.295	416.62
292.526	421.62
292.757	429.62
292.987	442.62
293.218	401.62
293.449	451.62
293.68	428.62
293.91	423.62
294.141	431.62
294.372	455.62
294.603	456.62
294.833	438.62
295.064	424.62
295.295	447.62
295.525	457.62
295.756	457.62
295.987	447.62
296.217	447.62
296.448	447.62
296.679	449.62
296.909	452.62
297.14	478.62
297.37	466.62
297.601	478.62
297.831	480.62
298.062	466.62
298.292	474.62
298.523	478.62
298.753	469.62
298.984	469.62
299.214	484.62
299.445	475.62
299.675	471.62
299.905	498.62
300.136	469.62
300.366	496.62
300.597	509.62
300.827	499.62
301.057	492.62
301.288	501.62
301.518	492.62
301.748	495.62
301.979	504.62
302.209	517.62
302.439	495.62
302.669	506.62
302.9	509.62
303.13	481.62
303.36	521.62
303.59	489.62
303.82	501.62
304.051	511.62
304.281	514.62
304.511	519.62
304.741	507.62
304.971	508.62
305.201	511.62
305.431	523.62
305.661	514.62
305.891	509.62
306.121	515.62
306.352	497.62
306.582	476.62
306.812	516.62
307.042	509.62
307.272	500.62
307.502	499.62
307.731	509.62
307.961	498.62
308.191	488.62
308.421	499.62
308.651	499.62
308.881	480.62
309.111	471.62
309.341	494.62
309.571	526.62
309.8	531.62
310.03	501.62
310.26	516.62
310.49	531.62
310.72	527.62
310.949	504.62
311.179	515.62
311.409	495.62
311.639	485.62
311.868	518.62
312.098	525.62
312.328	510.62
312.557	514.62
312.787	498.62
313.017	534.62
313.246	514.62
313.476	546.62
313.706	556.62
313.935	537.62
314.165	522.62
314.394	542.62
314.624	537.62
314.853	539.62
315.083	558.62
315.312	532.62
315.542	539.62
315.771	558.62
316.001	535.62
316.23	543.62
316.46	527.62
316.689	548.62
316.919	521.62
317.148	513.62
317.377	542.62
317.607	521.62
317.836	535.62
318.065	514.62
318.295	514.62
318.524	539.62
318.753	537.62
318.983	522.62
319.212	545.62
319.441	520.62
319.67	527.62
319.9	507.62
320.129	518.62
320.358	532.62
320.587	532.62
320.816	543.62
321.046	535.62
321.275	513.62
321.504	537.62
321.733	539.62
321.962	522.62
322.191	563.62
322.42	536.62
322.649	554.62
322.878	531.62
323.108	519.62
323.337	555.62
323.566	572.62
323.795	539.62
324.024	573.62
324.253	548.62
324.482	556.62
324.71	543.62
324.939	552.62
325.168	559.62
325.397	541.62
325.626	556.62
325.855	551.62
326.084	593.62
326.313	588.62
326.542	575.62
326.77	571.62
326.999	589.62
327.228	558.62
327.457	561.62
327.686	563.62
327.914	590.62
328.143	568.62
328.372	600.62
328.6	566.62
328.829	552.62
329.058	621.62
329.287	581.62
329.515	562.62
329.744	563.62
329.972	577.62
330.201	580.62
330.43	595.62
330.658	571.62
330.887	585.62
331.115	592.62
331.344	626.62
331.572	611.62
331.801	614.62
332.03	621.62
332.258	649.62
332.486	653.62
332.715	667.62
332.943	676.62
333.172	697.62
333.4	700.62
333.629	734.62
333.857	736.62
334.085	743.62
334.314	718.62
334.542	739.62
334.771	726.62
334.999	720.62
335.227	698.62
335.455	700.62
335.684	719.62
335.912	725.62
336.14	693.62
336.369	693.62
336.597	719.62
336.825	695.62
337.053	722.62
337.281	702.62
337.51	680.62
337.738	678.62
337.966	659.62
338.194	661.62
338.422	656.62
338.65	631.62
338.878	649.62
339.106	630.62
339.334	653.62
339.562	669.62
339.79	626.62
340.018	602.62
340.246	621.62
340.474	609.62
340.702	617.62
340.93	618.62
341.158	630.62
341.386	635.62
341.614	658.62
341.842	657.62
342.07	601.62
342.298	605.62
342.526	621.62
342.754	621.62
342.981	604.62
343.209	625.62
343.437	645.62
343.665	679.62
343.893	714.62
344.12	727.62
344.348	691.62
344.576	674.62
344.804	690.62
345.031	641.62
345.259	647.62
345.487	632.62
345.714	629.62
345.942	613.62
346.17	654.62
346.397	641.62
346.625	629.62
346.853	603.62
347.08	604.62
347.308	603.62
347.535	607.62
347.763	611.62
347.99	599.62
348.218	597.62
348.445	592.62
348.673	596.62
348.9	600.62
349.128	590.62
349.355	609.62
349.583	609.62
349.81	593.62
350.037	577.62
350.265	569.62
350.492	570.62
350.72	566.62
350.947	558.62
351.174	581.62
351.402	597.62
351.629	577.62
351.856	595.62
352.083	573.62
352.311	587.62
352.538	597.62
352.765	603.62
352.992	557.62
353.22	554.62
353.447	557.62
353.674	534.62
353.901	548.62
354.128	560.62
354.355	550.62
354.583	564.62
354.81	553.62
355.037	547.62
355.264	578.62
355.491	547.62
355.718	546.62
355.945	555.62
356.172	567.62
356.399	576.62
356.626	585.62
356.853	578.62
357.08	591.62
357.307	579.62
357.534	551.62
357.761	547.62
357.988	571.62
358.215	554.62
358.441	543.62
358.668	558.62
358.895	543.62
359.122	574.62
359.349	569.62
359.576	569.62
359.802	553.62
360.029	559.62
360.256	568.62
360.483	551.62
360.709	551.62
360.936	555.62
361.163	539.62
361.39	577.62
361.616	555.62
361.843	562.62
362.07	614.62
362.296	592.62
362.523	562.62
362.749	542.62
362.976	556.62
363.203	551.62
363.429	557.62
363.656	559.62
363.882	541.62
364.109	542.62
364.335	532.62
364.562	541.62
364.788	540.62
365.015	565.62
365.241	540.62
365.468	555.62
365.694	551.62
365.92	542.62
366.147	542.62
366.373	527.62
366.599	545.62
366.826	557.62
367.052	558.62
367.278	561.62
367.505	574.62
367.731	572.62
367.957	546.62
368.184	541.62
368.41	546.62
368.636	553.62
368.862	561.62
369.089	564.62
369.315	552.62
369.541	561.62
369.767	558.62
369.993	573.62
370.219	573.62
370.445	566.62
370.672	565.62
370.898	589.62
371.124	554.62
371.35	556.62
371.576	623.62
371.802	574.62
372.028	591.62
372.254	597.62
372.48	598.62
372.706	590.62
372.932	604.62
373.158	603.62
373.384	583.62
373.61	597.62
373.835	579.62
374.061	613.62
374.287	606.62
374.513	606.62
374.739	616.62
374.965	627.62
375.191	663.62
375.416	637.62
375.642	640.62
375.868	614.62
376.094	595.62
376.319	581.62
376.545	608.62
376.771	587.62
376.997	584.62
377.222	589.62
377.448	554.62
377.674	609.62
377.899	564.62
378.125	578.62
378.35	593.62
378.576	579.62
378.802	586.62
379.027	563.62
379.253	590.62
379.478	569.62
379.704	557.62
379.929	551.62
380.155	567.62
380.38	578.62
380.606	578.62
380.831	592.62
381.057	598.62
381.282	588.62
381.507	587.62
381.733	598.62
381.958	559.62
382.184	587.62
382.409	636.62
382.634	592.62
382.86	590.62
383.085	615.62
383.31	627.62
383.535	625.62
383.761	616.62
383.986	629.62
384.211	652.62
384.436	664.62
384.662	625.62
384.887	681.62
385.112	687.62
385.337	671.62
385.562	689.62
385.787	681.62
386.013	695.62
386.238	685.62
386.463	697.62
386.688	686.62
386.913	686.62
387.138	677.62
387.363	673.62
387.588	682.62
387.813	684.62
388.038	663.62
388.263	689.62
388.488	695.62
388.713	703.62
388.938	672.62
389.163	673.62
389.387	695.62
389.612	671.62
389.837	645.62
390.062	673.62
390.287	684.62
390.512	679.62
390.736	711.62
390.961	693.62
391.186	700.62
391.411	720.62
391.636	709.62
391.86	745.62
392.085	728.62
392.31	730.62
392.534	718.62
392.759	746.62
392.984	720.62
393.208	729.62
393.433	718.62
393.658	722.62
393.882	736.62
394.107	710.62
394.331	729.62
394.556	740.62
394.78	757.62
395.005	740.62
395.229	742.62
395.454	743.62
395.678	796.62
395.903	759.62
396.127	747.62
396.352	742.62
396.576	744.62
396.801	714.62
397.025	759.62
397.249	738.62
397.474	782.62
397.698	775.62
397.922	780.62
398.147	773.62
398.371	811.62
398.595	819.62
398.82	882.62
399.044	922.62
399.268	951.62
399.492	1056.62
399.717	1150.62
399.941	1167.62
400.165	1105.62
400.389	1033.62
400.613	965.62
400.837	937.62
401.062	877.62
401.286	865.62
401.51	883.62
401.734	857.62
401.958	865.62
402.182	853.62
402.406	855.62
402.63	857.62
402.854	905.62
403.078	894.62
403.302	889.62
403.526	918.62
403.75	934.62
403.974	924.62
404.198	927.62
404.422	955.62
404.645	938.62
404.869	930.62
405.093	901.62
405.317	891.62
405.541	933.62
405.765	907.62
405.988	937.62
406.212	949.62
406.436	921.62
406.66	928.62
406.883	973.62
407.107	995.62
407.331	1020.62
407.555	1037.62
407.778	1070.62
408.002	1050.62
408.226	1028.62
408.449	1019.62
408.673	988.62
408.896	969.62
409.12	975.62
409.344	986.62
409.567	978.62
409.791	974.62
410.014	953.62
410.238	948.62
410.461	956.62
410.685	945.62
410.908	925.62
411.132	899.62
411.355	866.62
411.578	904.62
411.802	890.62
412.025	910.62
412.249	906.62
412.472	904.62
412.695	909.62
412.919	890.62
413.142	858.62
413.365	870.62
413.589	876.62
413.812	862.62
414.035	852.62
414.258	870.62
414.482	872.62
414.705	891.62
414.928	887.62
415.151	889.62
415.374	864.62
415.597	849.62
415.821	860.62
416.044	844.62
416.267	812.62
416.49	840.62
416.713	832.62
416.936	842.62
417.159	858.62
417.382	830.62
417.605	838.62
417.828	842.62
418.051	861.62
418.274	893.62
418.497	871.62
418.72	861.62
418.943	862.62
419.166	933.62
419.389	942.62
419.611	983.62
419.834	929.62
420.057	914.62
420.28	889.62
420.503	866.62
420.726	867.62
420.948	860.62
421.171	845.62
421.394	874.62
421.617	883.62
421.839	856.62
422.062	859.62
422.285	846.62
422.507	877.62
422.73	860.62
422.953	865.62
423.175	889.62
423.398	890.62
423.621	873.62
423.843	863.62
424.066	891.62
424.288	881.62
424.511	867.62
424.733	861.62
424.956	873.62
425.178	857.62
425.401	869.62
425.623	884.62
425.846	853.62
426.068	841.62
426.291	830.62
426.513	835.62
426.735	821.62
426.958	814.62
427.18	779.62
427.402	829.62
427.625	819.62
427.847	808.62
428.069	813.62
428.292	797.62
428.514	817.62
428.736	813.62
428.958	795.62
429.181	791.62
429.403	797.62
429.625	745.62
429.847	775.62
430.069	803.62
430.292	776.62
430.514	773.62
430.736	778.62
430.958	790.62
431.18	779.62
431.402	787.62
431.624	789.62
431.846	774.62
432.068	824.62
432.29	805.62
432.512	808.62
432.734	814.62
432.956	802.62
433.178	805.62
433.4	805.62
433.622	814.62
433.844	831.62
434.066	829.62
434.287	841.62
434.509	847.62
434.731	853.62
434.953	865.62
435.175	851.62
435.397	893.62
435.618	845.62
435.84	832.62
436.062	817.62
436.284	822.62
436.505	810.62
436.727	795.62
436.949	813.62
437.17	824.62
437.392	773.62
437.614	770.62
437.835	781.62
438.057	777.62
438.278	779.62
438.5	777.62
438.721	798.62
438.943	777.62
439.165	796.62
439.386	781.62
439.608	807.62
439.829	815.62
440.05	822.62
440.272	812.62
440.493	817.62
440.715	811.62
440.936	825.62
441.158	837.62
441.379	870.62
441.6	892.62
441.822	917.62
442.043	904.62
442.264	889.62
442.486	853.62
442.707	886.62
442.928	886.62
443.149	880.62
443.371	888.62
443.592	881.62
443.813	893.62
444.034	897.62
444.255	939.62
444.476	931.62
444.698	968.62
444.919	1001.62
445.14	1077.62
445.361	989.62
445.582	935.62
445.803	890.62
446.024	881.62
446.245	869.62
446.466	847.62
446.687	809.62
446.908	844.62
447.129	820.62
447.35	803.62
447.571	800.62
447.792	781.62
448.013	794.62
448.234	781.62
448.455	774.62
448.675	733.62
448.896	767.62
449.117	754.62
449.338	740.62
449.559	739.62
449.779	769.62
450	759.62
450.221	765.62
450.442	756.62
450.662	780.62
450.883	786.62
451.104	774.62
451.324	777.62
451.545	761.62
451.766	763.62
451.986	744.62
452.207	757.62
452.428	747.62
452.648	740.62
452.869	715.62
453.089	711.62
453.31	759.62
453.53	711.62
453.751	725.62
453.971	712.62
454.192	702.62
454.412	706.62
454.633	708.62
454.853	722.62
455.073	702.62
455.294	709.62
455.514	713.62
455.734	699.62
455.955	722.62
456.175	724.62
456.395	700.62
456.616	693.62
456.836	680.62
457.056	733.62
457.276	711.62
457.497	715.62
457.717	717.62
457.937	714.62
458.157	712.62
458.377	767.62
458.598	751.62
458.818	756.62
459.038	759.62
459.258	794.62
459.478	813.62
459.698	836.62
459.918	861.62
460.138	884.62
460.358	907.62
460.578	915.62
460.798	949.62
461.018	933.62
461.238	941.62
461.458	959.62
461.678	926.62
461.898	957.62
462.118	994.62
462.338	1016.62
462.558	1043.62
462.777	1091.62
462.997	1145.62
463.217	1159.62
463.437	1205.62
463.657	1123.62
463.876	1096.62
464.096	1077.62
464.316	1070.62
464.536	1069.62
464.755	1073.62
464.975	981.62
465.195	990.62
465.414	934.62
465.634	882.62
465.854	876.62
466.073	848.62
466.293	824.62
466.512	823.62
466.732	819.62
466.951	811.62
467.171	808.62
467.391	797.62
467.61	785.62
467.829	793.62
468.049	762.62
468.268	777.62
468.488	794.62
468.707	760.62
468.927	746.62
469.146	779.62
469.365	774.62
469.585	762.62
469.804	803.62
470.023	822.62
470.243	790.62
470.462	805.62
470.681	817.62
470.901	835.62
471.12	784.62
471.339	799.62
471.558	782.62
471.777	810.62
471.997	775.62
472.216	793.62
472.435	770.62
472.654	755.62
472.873	740.62
473.092	775.62
473.311	758.62
473.53	791.62
473.749	769.62
473.968	742.62
474.187	744.62
474.406	763.62
474.625	756.62
474.844	775.62
475.063	772.62
475.282	749.62
475.501	760.62
475.72	798.62
475.939	786.62
476.158	787.62
476.377	813.62
476.596	789.62
476.814	804.62
477.033	806.62
477.252	850.62
477.471	810.62
477.69	833.62
477.908	862.62
478.127	874.62
478.346	920.62
478.564	923.62
478.783	935.62
479.002	953.62
479.22	944.62
479.439	923.62
479.658	941.62
479.876	931.62
480.095	948.62
480.313	973.62
480.532	973.62
480.751	952.62
480.969	930.62
481.188	921.62
481.406	901.62
481.624	886.62
481.843	884.62
482.061	859.62
482.28	894.62
482.498	865.62
482.717	871.62
482.935	871.62
483.153	875.62
483.372	866.62
483.59	877.62
483.808	883.62
484.027	882.62
484.245	876.62
484.463	890.62
484.681	903.62
484.9	870.62
485.118	901.62
485.336	899.62
485.554	908.62
485.772	889.62
485.99	899.62
486.209	933.62
486.427	913.62
486.645	933.62
486.863	906.62
487.081	916.62
487.299	902.62
487.517	909.62
487.735	939.62
487.953	915.62
488.171	937.62
488.389	904.62
488.607	929.62
488.825	909.62
489.043	910.62
489.261	917.62
489.479	897.62
489.696	902.62
489.914	905.62
490.132	915.62
490.35	926.62
490.568	898.62
490.786	907.62
491.003	903.62
491.221	940.62
491.439	922.62
491.657	938.62
491.874	968.62
492.092	964.62
492.31	955.62
492.527	953.62
492.745	959.62
492.963	954.62
493.18	947.62
493.398	968.62
493.615	964.62
493.833	991.62
494.05	971.62
494.268	981.62
494.485	967.62
494.703	968.62
494.92	970.62
495.138	1001.62
495.355	1031.62
495.573	993.62
495.79	974.62
496.008	1013.62
496.225	1025.62
496.442	1067.62
496.66	1057.62
496.877	1045.62
497.094	1050.62
497.312	1091.62
497.529	1096.62
497.746	1148.62
497.963	1170.62
498.181	1213.62
498.398	1269.62
498.615	1299.62
498.832	1416.62
499.049	1489.62
499.267	1571.62
499.484	1708.62
499.701	1837.62
499.918	1955.62
500.135	2185.62
500.352	2326.62
500.569	2427.62
500.786	2390.62
501.003	2298.62
