Data from NiCl2@0.25M.TitratingCurve.Agarose3%dH2O.NegLispCup.LampEnergy10.LIBS07252019_HRD10591_18-22-38-572.txt Node
Date: Thu Jul 25 18:22:38 EDT 2019
User: cochatt
Spectrometer: HR+D1059
Trigger mode: 1
Integration Time (sec): 1.000000E-1
Scans to average: 1
Electric dark correction enabled: true
Nonlinearity correction enabled: false
Boxcar width: 0
XAxis mode: Wavelengths
Number of Pixels in Spectrum: 2048
>>>>>Begin Spectral Data<<<<<
223.165	-12.69
223.4	-12.69
223.635	-12.69
223.869	-15.69
224.104	-19.69
224.338	-9.69
224.573	-17.69
224.808	-12.69
225.042	-6.69
225.277	-7.69
225.511	3.31
225.746	3.31
225.98	-14.69
226.215	10.31
226.449	16.31
226.683	29.31
226.918	26.31
227.152	28.31
227.387	27.31
227.621	41.31
227.856	35.31
228.09	34.31
228.324	55.31
228.559	55.31
228.793	72.31
229.027	113.31
229.262	119.31
229.496	118.31
229.73	106.31
229.964	106.31
230.199	143.31
230.433	123.31
230.667	139.31
230.901	141.31
231.136	122.31
231.37	138.31
231.604	147.31
231.838	142.31
232.072	161.31
232.306	135.31
232.541	151.31
232.775	146.31
233.009	144.31
233.243	160.31
233.477	139.31
233.711	155.31
233.945	145.31
234.179	144.31
234.413	132.31
234.647	138.31
234.881	164.31
235.115	158.31
235.349	136.31
235.583	144.31
235.817	152.31
236.051	146.31
236.285	149.31
236.519	158.31
236.753	162.31
236.987	150.31
237.221	160.31
237.455	154.31
237.689	149.31
237.922	148.31
238.156	157.31
238.39	148.31
238.624	161.31
238.858	167.31
239.091	192.31
239.325	165.31
239.559	161.31
239.793	178.31
240.027	175.31
240.26	161.31
240.494	171.31
240.728	182.31
240.961	171.31
241.195	163.31
241.429	196.31
241.662	177.31
241.896	189.31
242.13	186.31
242.363	170.31
242.597	175.31
242.83	176.31
243.064	189.31
243.298	197.31
243.531	204.31
243.765	189.31
243.998	207.31
244.232	205.31
244.465	182.31
244.699	191.31
244.932	204.31
245.166	198.31
245.399	202.31
245.633	204.31
245.866	217.31
246.099	225.31
246.333	200.31
246.566	215.31
246.8	210.31
247.033	206.31
247.266	202.31
247.5	216.31
247.733	217.31
247.966	215.31
248.2	221.31
248.433	213.31
248.666	211.31
248.899	211.31
249.133	205.31
249.366	228.31
249.599	237.31
249.832	239.31
250.066	217.31
250.299	225.31
250.532	221.31
250.765	234.31
250.998	249.31
251.231	234.31
251.465	256.31
251.698	225.31
251.931	238.31
252.164	245.31
252.397	239.31
252.63	242.31
252.863	235.31
253.096	243.31
253.329	238.31
253.562	243.31
253.795	242.31
254.028	272.31
254.261	253.31
254.494	239.31
254.727	259.31
254.96	267.31
255.193	258.31
255.426	274.31
255.659	257.31
255.892	276.31
256.124	270.31
256.357	270.31
256.59	264.31
256.823	278.31
257.056	259.31
257.289	273.31
257.521	278.31
257.754	265.31
257.987	278.31
258.22	271.31
258.452	267.31
258.685	269.31
258.918	267.31
259.151	276.31
259.383	289.31
259.616	293.31
259.849	297.31
260.081	289.31
260.314	292.31
260.547	270.31
260.779	287.31
261.012	306.31
261.244	285.31
261.477	302.31
261.71	315.31
261.942	300.31
262.175	303.31
262.407	299.31
262.64	316.31
262.872	324.31
263.105	312.31
263.337	318.31
263.57	291.31
263.802	306.31
264.035	325.31
264.267	291.31
264.499	314.31
264.732	327.31
264.964	316.31
265.197	321.31
265.429	317.31
265.661	314.31
265.894	333.31
266.126	341.31
266.358	327.31
266.591	317.31
266.823	321.31
267.055	317.31
267.287	317.31
267.52	325.31
267.752	322.31
267.984	339.31
268.216	339.31
268.448	335.31
268.681	338.31
268.913	331.31
269.145	338.31
269.377	346.31
269.609	331.31
269.841	342.31
270.073	336.31
270.306	367.31
270.538	343.31
270.77	330.31
271.002	334.31
271.234	345.31
271.466	368.31
271.698	347.31
271.93	372.31
272.162	358.31
272.394	337.31
272.626	370.31
272.858	379.31
273.09	371.31
273.322	352.31
273.553	362.31
273.785	370.31
274.017	365.31
274.249	353.31
274.481	358.31
274.713	377.31
274.945	387.31
275.176	386.31
275.408	381.31
275.64	364.31
275.872	383.31
276.104	365.31
276.335	359.31
276.567	382.31
276.799	381.31
277.031	381.31
277.262	383.31
277.494	398.31
277.726	411.31
277.957	423.31
278.189	398.31
278.421	403.31
278.652	399.31
278.884	388.31
279.115	398.31
279.347	390.31
279.579	394.31
279.81	417.31
280.042	410.31
280.273	425.31
280.505	429.31
280.736	396.31
280.968	403.31
281.199	409.31
281.431	418.31
281.662	429.31
281.894	410.31
282.125	406.31
282.356	408.31
282.588	431.31
282.819	417.31
283.051	430.31
283.282	442.31
283.513	451.31
283.745	437.31
283.976	443.31
284.207	437.31
284.439	429.31
284.67	446.31
284.901	452.31
285.132	446.31
285.364	431.31
285.595	445.31
285.826	451.31
286.057	453.31
286.288	447.31
286.52	452.31
286.751	448.31
286.982	468.31
287.213	449.31
287.444	472.31
287.675	447.31
287.906	462.31
288.138	460.31
288.369	493.31
288.6	486.31
288.831	466.31
289.062	473.31
289.293	460.31
289.524	452.31
289.755	469.31
289.986	472.31
290.217	472.31
290.448	476.31
290.679	470.31
290.91	470.31
291.141	457.31
291.371	474.31
291.602	505.31
291.833	474.31
292.064	488.31
292.295	443.31
292.526	471.31
292.757	473.31
292.987	466.31
293.218	470.31
293.449	470.31
293.68	473.31
293.91	466.31
294.141	485.31
294.372	471.31
294.603	486.31
294.833	508.31
295.064	481.31
295.295	481.31
295.525	474.31
295.756	468.31
295.987	499.31
296.217	483.31
296.448	502.31
296.679	499.31
296.909	505.31
297.14	505.31
297.37	525.31
297.601	513.31
297.831	533.31
298.062	518.31
298.292	526.31
298.523	510.31
298.753	526.31
298.984	534.31
299.214	513.31
299.445	518.31
299.675	504.31
299.905	509.31
300.136	525.31
300.366	535.31
300.597	534.31
300.827	530.31
301.057	544.31
301.288	544.31
301.518	548.31
301.748	539.31
301.979	563.31
302.209	544.31
302.439	547.31
302.669	527.31
302.9	558.31
303.13	544.31
303.36	545.31
303.59	543.31
303.82	541.31
304.051	533.31
304.281	558.31
304.511	542.31
304.741	554.31
304.971	545.31
305.201	555.31
305.431	553.31
305.661	539.31
305.891	573.31
306.121	558.31
306.352	550.31
306.582	554.31
306.812	513.31
307.042	557.31
307.272	535.31
307.502	523.31
307.731	533.31
307.961	540.31
308.191	520.31
308.421	562.31
308.651	539.31
308.881	529.31
309.111	540.31
309.341	535.31
309.571	526.31
309.8	537.31
310.03	565.31
310.26	543.31
310.49	552.31
310.72	551.31
310.949	553.31
311.179	550.31
311.409	548.31
311.639	535.31
311.868	561.31
312.098	556.31
312.328	579.31
312.557	568.31
312.787	590.31
313.017	563.31
313.246	583.31
313.476	575.31
313.706	563.31
313.935	583.31
314.165	563.31
314.394	594.31
314.624	581.31
314.853	595.31
315.083	580.31
315.312	578.31
315.542	575.31
315.771	575.31
316.001	563.31
316.23	583.31
316.46	581.31
316.689	598.31
316.919	574.31
317.148	575.31
317.377	580.31
317.607	583.31
317.836	541.31
318.065	560.31
318.295	581.31
318.524	563.31
318.753	588.31
318.983	579.31
319.212	589.31
319.441	579.31
319.67	574.31
319.9	573.31
320.129	563.31
320.358	589.31
320.587	574.31
320.816	575.31
321.046	579.31
321.275	564.31
321.504	583.31
321.733	580.31
321.962	586.31
322.191	590.31
322.42	586.31
322.649	581.31
322.878	577.31
323.108	586.31
323.337	586.31
323.566	593.31
323.795	594.31
324.024	583.31
324.253	597.31
324.482	635.31
324.71	600.31
324.939	614.31
325.168	609.31
325.397	610.31
325.626	609.31
325.855	601.31
326.084	622.31
326.313	609.31
326.542	635.31
326.77	655.31
326.999	643.31
327.228	605.31
327.457	623.31
327.686	591.31
327.914	608.31
328.143	626.31
328.372	623.31
328.6	618.31
328.829	630.31
329.058	662.31
329.287	613.31
329.515	632.31
329.744	637.31
329.972	639.31
330.201	618.31
330.43	645.31
330.658	651.31
330.887	646.31
331.115	655.31
331.344	674.31
331.572	671.31
331.801	680.31
332.03	693.31
332.258	701.31
332.486	711.31
332.715	707.31
332.943	759.31
333.172	779.31
333.4	780.31
333.629	820.31
333.857	821.31
334.085	789.31
334.314	809.31
334.542	786.31
334.771	793.31
334.999	761.31
335.227	775.31
335.455	778.31
335.684	760.31
335.912	759.31
336.14	769.31
336.369	746.31
336.597	764.31
336.825	737.31
337.053	763.31
337.281	745.31
337.51	746.31
337.738	719.31
337.966	732.31
338.194	696.31
338.422	709.31
338.65	691.31
338.878	680.31
339.106	689.31
339.334	678.31
339.562	678.31
339.79	675.31
340.018	670.31
340.246	662.31
340.474	674.31
340.702	679.31
340.93	676.31
341.158	663.31
341.386	693.31
341.614	709.31
341.842	668.31
342.07	636.31
342.298	633.31
342.526	669.31
342.754	655.31
342.981	671.31
343.209	670.31
343.437	710.31
343.665	740.31
343.893	751.31
344.12	792.31
344.348	775.31
344.576	739.31
344.804	737.31
345.031	690.31
345.259	686.31
345.487	675.31
345.714	677.31
345.942	655.31
346.17	669.31
346.397	662.31
346.625	632.31
346.853	604.31
347.08	638.31
347.308	656.31
347.535	653.31
347.763	636.31
347.99	668.31
348.218	637.31
348.445	655.31
348.673	635.31
348.9	631.31
349.128	647.31
349.355	659.31
349.583	645.31
349.81	627.31
350.037	617.31
350.265	639.31
350.492	599.31
350.72	622.31
350.947	637.31
351.174	629.31
351.402	628.31
351.629	656.31
351.856	634.31
352.083	601.31
352.311	645.31
352.538	635.31
352.765	649.31
352.992	613.31
353.22	609.31
353.447	604.31
353.674	629.31
353.901	597.31
354.128	615.31
354.355	601.31
354.583	606.31
354.81	621.31
355.037	635.31
355.264	621.31
355.491	627.31
355.718	619.31
355.945	621.31
356.172	612.31
356.399	605.31
356.626	630.31
356.853	639.31
357.08	638.31
357.307	604.31
357.534	611.31
357.761	637.31
357.988	617.31
358.215	627.31
358.441	615.31
358.668	597.31
358.895	618.31
359.122	638.31
359.349	614.31
359.576	623.31
359.802	622.31
360.029	629.31
360.256	605.31
360.483	620.31
360.709	618.31
360.936	641.31
361.163	627.31
361.39	609.31
361.616	621.31
361.843	633.31
362.07	669.31
362.296	646.31
362.523	624.31
362.749	621.31
362.976	607.31
363.203	616.31
363.429	632.31
363.656	599.31
363.882	613.31
364.109	613.31
364.335	609.31
364.562	625.31
364.788	618.31
365.015	613.31
365.241	603.31
365.468	622.31
365.694	614.31
365.92	617.31
366.147	630.31
366.373	598.31
366.599	627.31
366.826	621.31
367.052	595.31
367.278	637.31
367.505	620.31
367.731	631.31
367.957	607.31
368.184	633.31
368.41	601.31
368.636	643.31
368.862	625.31
369.089	633.31
369.315	633.31
369.541	640.31
369.767	619.31
369.993	633.31
370.219	639.31
370.445	660.31
370.672	647.31
370.898	652.31
371.124	667.31
371.35	693.31
371.576	678.31
371.802	666.31
372.028	681.31
372.254	680.31
372.48	646.31
372.706	694.31
372.932	686.31
373.158	703.31
373.384	682.31
373.61	675.31
373.835	675.31
374.061	686.31
374.287	697.31
374.513	705.31
374.739	693.31
374.965	757.31
375.191	733.31
375.416	710.31
375.642	694.31
375.868	719.31
376.094	677.31
376.319	694.31
376.545	707.31
376.771	674.31
376.997	685.31
377.222	655.31
377.448	681.31
377.674	681.31
377.899	651.31
378.125	643.31
378.35	675.31
378.576	677.31
378.802	655.31
379.027	666.31
379.253	655.31
379.478	652.31
379.704	651.31
379.929	636.31
380.155	648.31
380.38	670.31
380.606	657.31
380.831	667.31
381.057	673.31
381.282	673.31
381.507	672.31
381.733	650.31
381.958	664.31
382.184	691.31
382.409	713.31
382.634	684.31
382.86	713.31
383.085	699.31
383.31	693.31
383.535	743.31
383.761	734.31
383.986	741.31
384.211	735.31
384.436	769.31
384.662	805.31
384.887	776.31
385.112	800.31
385.337	792.31
385.562	818.31
385.787	817.31
386.013	823.31
386.238	789.31
386.463	791.31
386.688	812.31
386.913	787.31
387.138	791.31
387.363	777.31
387.588	785.31
387.813	788.31
388.038	800.31
388.263	786.31
388.488	787.31
388.713	769.31
388.938	780.31
389.163	799.31
389.387	781.31
389.612	760.31
389.837	780.31
390.062	790.31
390.287	759.31
390.512	767.31
390.736	811.31
390.961	798.31
391.186	786.31
391.411	838.31
391.636	848.31
391.86	881.31
392.085	889.31
392.31	893.31
392.534	865.31
392.759	849.31
392.984	853.31
393.208	854.31
393.433	854.31
393.658	847.31
393.882	848.31
394.107	835.31
394.331	842.31
394.556	839.31
394.78	837.31
395.005	854.31
395.229	845.31
395.454	881.31
395.678	906.31
395.903	871.31
396.127	876.31
396.352	845.31
396.576	843.31
396.801	841.31
397.025	859.31
397.249	876.31
397.474	885.31
397.698	869.31
397.922	910.31
398.147	895.31
398.371	909.31
398.595	926.31
398.82	982.31
399.044	1029.31
399.268	1124.31
399.492	1270.31
399.717	1397.31
399.941	1373.31
400.165	1249.31
400.389	1155.31
400.613	1086.31
400.837	1045.31
401.062	996.31
401.286	1026.31
401.51	987.31
401.734	976.31
401.958	985.31
402.182	977.31
402.406	1019.31
402.63	1021.31
402.854	1031.31
403.078	1046.31
403.302	1068.31
403.526	1063.31
403.75	1084.31
403.974	1116.31
404.198	1094.31
404.422	1051.31
404.645	1095.31
404.869	1077.31
405.093	1085.31
405.317	1065.31
405.541	1089.31
405.765	1091.31
405.988	1076.31
406.212	1086.31
406.436	1080.31
406.66	1124.31
406.883	1108.31
407.107	1167.31
407.331	1217.31
407.555	1238.31
407.778	1215.31
408.002	1195.31
408.226	1161.31
408.449	1147.31
408.673	1143.31
408.896	1106.31
409.12	1084.31
409.344	1085.31
409.567	1062.31
409.791	1081.31
410.014	1127.31
410.238	1109.31
410.461	1038.31
410.685	1061.31
410.908	1054.31
411.132	1037.31
411.355	983.31
411.578	1019.31
411.802	1031.31
412.025	1002.31
412.249	1038.31
412.472	1020.31
412.695	997.31
412.919	957.31
413.142	982.31
413.365	997.31
413.589	992.31
413.812	976.31
414.035	957.31
414.258	970.31
414.482	971.31
414.705	991.31
414.928	971.31
415.151	965.31
415.374	983.31
415.597	955.31
415.821	982.31
416.044	970.31
416.267	924.31
416.49	956.31
416.713	956.31
416.936	947.31
417.159	939.31
417.382	960.31
417.605	966.31
417.828	959.31
418.051	985.31
418.274	986.31
418.497	935.31
418.72	956.31
418.943	994.31
419.166	1053.31
419.389	1093.31
419.611	1090.31
419.834	1025.31
420.057	1019.31
420.28	961.31
420.503	953.31
420.726	949.31
420.948	946.31
421.171	982.31
421.394	966.31
421.617	954.31
421.839	950.31
422.062	984.31
422.285	950.31
422.507	966.31
422.73	961.31
422.953	963.31
423.175	989.31
423.398	995.31
423.621	1005.31
423.843	1011.31
424.066	993.31
424.288	985.31
424.511	980.31
424.733	983.31
424.956	983.31
425.178	962.31
425.401	939.31
425.623	972.31
425.846	955.31
426.068	954.31
426.291	931.31
426.513	925.31
426.735	907.31
426.958	915.31
427.18	881.31
427.402	871.31
427.625	887.31
427.847	881.31
428.069	905.31
428.292	888.31
428.514	877.31
428.736	868.31
428.958	891.31
429.181	854.31
429.403	842.31
429.625	841.31
429.847	839.31
430.069	851.31
430.292	862.31
430.514	817.31
430.736	855.31
430.958	853.31
431.18	840.31
431.402	858.31
431.624	869.31
431.846	873.31
432.068	876.31
432.29	860.31
432.512	854.31
432.734	843.31
432.956	882.31
433.178	889.31
433.4	882.31
433.622	871.31
433.844	873.31
434.066	870.31
434.287	895.31
434.509	881.31
434.731	937.31
434.953	953.31
435.175	957.31
435.397	955.31
435.618	897.31
435.84	892.31
436.062	873.31
436.284	865.31
436.505	875.31
436.727	876.31
436.949	859.31
437.17	887.31
437.392	853.31
437.614	838.31
437.835	855.31
438.057	820.31
438.278	823.31
438.5	819.31
438.721	828.31
438.943	844.31
439.165	843.31
439.386	852.31
439.608	868.31
439.829	860.31
440.05	873.31
440.272	850.31
440.493	851.31
440.715	860.31
440.936	910.31
441.158	895.31
441.379	923.31
441.6	974.31
441.822	986.31
442.043	956.31
442.264	933.31
442.486	928.31
442.707	932.31
442.928	947.31
443.149	923.31
443.371	960.31
443.592	963.31
443.813	983.31
444.034	968.31
444.255	974.31
444.476	1035.31
444.698	1105.31
444.919	1114.31
445.14	1222.31
445.361	1103.31
445.582	978.31
445.803	934.31
446.024	912.31
446.245	899.31
446.466	908.31
446.687	873.31
446.908	872.31
447.129	851.31
447.35	851.31
447.571	847.31
447.792	806.31
448.013	797.31
448.234	789.31
448.455	816.31
448.675	802.31
448.896	813.31
449.117	789.31
449.338	803.31
449.559	787.31
449.779	800.31
450	799.31
450.221	775.31
450.442	814.31
450.662	811.31
450.883	809.31
451.104	814.31
451.324	792.31
451.545	786.31
451.766	812.31
451.986	799.31
452.207	780.31
452.428	773.31
452.648	791.31
452.869	803.31
453.089	788.31
453.31	779.31
453.53	771.31
453.751	738.31
453.971	772.31
454.192	785.31
454.412	762.31
454.633	757.31
454.853	748.31
455.073	750.31
455.294	743.31
455.514	744.31
455.734	727.31
455.955	721.31
456.175	723.31
456.395	754.31
456.616	730.31
456.836	755.31
457.056	746.31
457.276	726.31
457.497	775.31
457.717	771.31
457.937	774.31
458.157	753.31
458.377	773.31
458.598	802.31
458.818	821.31
459.038	799.31
459.258	850.31
459.478	887.31
459.698	927.31
459.918	941.31
460.138	980.31
460.358	982.31
460.578	992.31
460.798	1026.31
461.018	1037.31
461.238	1011.31
461.458	995.31
461.678	987.31
461.898	1018.31
462.118	1010.31
462.338	1069.31
462.558	1118.31
462.777	1156.31
462.997	1223.31
463.217	1332.31
463.437	1285.31
463.657	1204.31
463.876	1177.31
464.096	1192.31
464.316	1148.31
464.536	1137.31
464.755	1125.31
464.975	1076.31
465.195	1047.31
465.414	962.31
465.634	938.31
465.854	934.31
466.073	886.31
466.293	860.31
466.512	853.31
466.732	852.31
466.951	850.31
467.171	841.31
467.391	825.31
467.61	833.31
467.829	828.31
468.049	816.31
468.268	793.31
468.488	801.31
468.707	836.31
468.927	813.31
469.146	837.31
469.365	850.31
469.585	808.31
469.804	866.31
470.023	848.31
470.243	857.31
470.462	862.31
470.681	829.31
470.901	876.31
471.12	855.31
471.339	820.31
471.558	825.31
471.777	826.31
471.997	814.31
472.216	837.31
472.435	804.31
472.654	799.31
472.873	766.31
473.092	775.31
473.311	804.31
473.53	771.31
473.749	789.31
473.968	803.31
474.187	799.31
474.406	766.31
474.625	801.31
474.844	790.31
475.063	796.31
475.282	818.31
475.501	820.31
475.72	822.31
475.939	808.31
476.158	822.31
476.377	805.31
476.596	815.31
476.814	850.31
477.033	828.31
477.252	849.31
477.471	860.31
477.69	902.31
477.908	915.31
478.127	928.31
478.346	932.31
478.564	945.31
478.783	940.31
479.002	991.31
479.22	1003.31
479.439	985.31
479.658	952.31
479.876	966.31
480.095	990.31
480.313	1005.31
480.532	1005.31
480.751	1035.31
480.969	982.31
481.188	945.31
481.406	940.31
481.624	937.31
481.843	914.31
482.061	900.31
482.28	910.31
482.498	878.31
482.717	907.31
482.935	910.31
483.153	919.31
483.372	901.31
483.59	931.31
483.808	939.31
484.027	897.31
484.245	939.31
484.463	953.31
484.681	955.31
484.9	946.31
485.118	949.31
485.336	970.31
485.554	942.31
485.772	968.31
485.99	954.31
486.209	964.31
486.427	958.31
486.645	913.31
486.863	954.31
487.081	938.31
487.299	969.31
487.517	935.31
487.735	954.31
487.953	971.31
488.171	972.31
488.389	951.31
488.607	922.31
488.825	955.31
489.043	943.31
489.261	922.31
489.479	929.31
489.696	953.31
489.914	957.31
490.132	942.31
490.35	961.31
490.568	964.31
490.786	956.31
491.003	969.31
491.221	991.31
491.439	982.31
491.657	948.31
491.874	973.31
492.092	1006.31
492.31	980.31
492.527	990.31
492.745	954.31
492.963	993.31
493.18	989.31
493.398	982.31
493.615	995.31
493.833	1011.31
494.05	1029.31
494.268	1019.31
494.485	1032.31
494.703	1043.31
494.92	1049.31
495.138	1036.31
495.355	1002.31
495.573	1006.31
495.79	1032.31
496.008	1003.31
496.225	1047.31
496.442	1060.31
496.66	1076.31
496.877	1070.31
497.094	1081.31
497.312	1123.31
497.529	1120.31
497.746	1163.31
497.963	1181.31
498.181	1224.31
498.398	1238.31
498.615	1345.31
498.832	1391.31
499.049	1486.31
499.267	1603.31
499.484	1742.31
499.701	1951.31
499.918	2175.31
