Data from NiCl2@0.25M.TitratingCurve.Agarose3%dH2O.NegLispCup.LampEnergy10.LIBS07252019_HRD10591_18-25-24-575.txt Node
Date: Thu Jul 25 18:25:24 EDT 2019
User: cochatt
Spectrometer: HR+D1059
Trigger mode: 1
Integration Time (sec): 1.000000E-1
Scans to average: 1
Electric dark correction enabled: true
Nonlinearity correction enabled: false
Boxcar width: 0
XAxis mode: Wavelengths
Number of Pixels in Spectrum: 2048
>>>>>Begin Spectral Data<<<<<
223.165	-11
223.4	-11
223.635	-11
223.869	-27
224.104	1
224.338	-25
224.573	-19
224.808	2
225.042	-7
225.277	-6
225.511	3
225.746	-6
225.98	13
226.215	23
226.449	20
226.683	15
226.918	3
227.152	21
227.387	49
227.621	43
227.856	33
228.09	41
228.324	53
228.559	68
228.793	68
229.027	126
229.262	127
229.496	125
229.73	123
229.964	149
230.199	143
230.433	138
230.667	147
230.901	140
231.136	145
231.37	140
231.604	144
231.838	153
232.072	155
232.306	164
232.541	149
232.775	169
233.009	165
233.243	152
233.477	176
233.711	171
233.945	166
234.179	167
234.413	176
234.647	164
234.881	155
235.115	166
235.349	178
235.583	175
235.817	167
236.051	171
236.285	158
236.519	169
236.753	185
236.987	187
237.221	188
237.455	179
237.689	177
237.922	172
238.156	186
238.39	187
238.624	185
238.858	196
239.091	201
239.325	200
239.559	181
239.793	192
240.027	188
240.26	212
240.494	183
240.728	209
240.961	202
241.195	213
241.429	191
241.662	215
241.896	229
242.13	228
242.363	231
242.597	229
242.83	225
243.064	246
243.298	238
243.531	231
243.765	232
243.998	238
244.232	231
244.465	244
244.699	242
244.932	251
245.166	245
245.399	266
245.633	257
245.866	263
246.099	245
246.333	273
246.566	264
246.8	265
247.033	245
247.266	255
247.5	252
247.733	270
247.966	274
248.2	262
248.433	265
248.666	276
248.899	273
249.133	267
249.366	272
249.599	295
249.832	263
250.066	305
250.299	297
250.532	287
250.765	302
250.998	303
251.231	295
251.465	296
251.698	306
251.931	310
252.164	327
252.397	319
252.63	312
252.863	327
253.096	315
253.329	299
253.562	309
253.795	314
254.028	317
254.261	335
254.494	335
254.727	325
254.96	301
255.193	345
255.426	320
255.659	337
255.892	337
256.124	326
256.357	340
256.59	327
256.823	335
257.056	339
257.289	355
257.521	343
257.754	340
257.987	369
258.22	352
258.452	348
258.685	350
258.918	374
259.151	363
259.383	371
259.616	359
259.849	345
260.081	370
260.314	351
260.547	394
260.779	385
261.012	373
261.244	377
261.477	397
261.71	355
261.942	377
262.175	368
262.407	377
262.64	398
262.872	385
263.105	403
263.337	377
263.57	404
263.802	391
264.035	399
264.267	408
264.499	409
264.732	380
264.964	397
265.197	418
265.429	402
265.661	403
265.894	420
266.126	422
266.358	408
266.591	416
266.823	402
267.055	434
267.287	426
267.52	419
267.752	418
267.984	423
268.216	415
268.448	446
268.681	421
268.913	430
269.145	427
269.377	423
269.609	426
269.841	423
270.073	431
270.306	441
270.538	451
270.77	476
271.002	455
271.234	453
271.466	460
271.698	460
271.93	458
272.162	452
272.394	445
272.626	445
272.858	446
273.09	472
273.322	473
273.553	464
273.785	473
274.017	485
274.249	484
274.481	466
274.713	479
274.945	477
275.176	476
275.408	477
275.64	469
275.872	464
276.104	503
276.335	498
276.567	499
276.799	487
277.031	497
277.262	497
277.494	492
277.726	497
277.957	498
278.189	508
278.421	499
278.652	502
278.884	512
279.115	510
279.347	536
279.579	523
279.81	524
280.042	515
280.273	518
280.505	555
280.736	545
280.968	547
281.199	544
281.431	538
281.662	529
281.894	534
282.125	545
282.356	532
282.588	561
282.819	536
283.051	548
283.282	550
283.513	585
283.745	568
283.976	540
284.207	562
284.439	587
284.67	578
284.901	576
285.132	584
285.364	575
285.595	577
285.826	575
286.057	583
286.288	577
286.52	585
286.751	587
286.982	607
287.213	592
287.444	585
287.675	602
287.906	603
288.138	592
288.369	629
288.6	602
288.831	620
289.062	595
289.293	611
289.524	617
289.755	633
289.986	625
290.217	609
290.448	610
290.679	622
290.91	607
291.141	629
291.371	623
291.602	607
291.833	626
292.064	632
292.295	632
292.526	623
292.757	631
292.987	607
293.218	618
293.449	633
293.68	623
293.91	624
294.141	628
294.372	623
294.603	626
294.833	633
295.064	643
295.295	628
295.525	652
295.756	649
295.987	657
296.217	636
296.448	654
296.679	631
296.909	621
297.14	645
297.37	658
297.601	690
297.831	651
298.062	668
298.292	663
298.523	675
298.753	695
298.984	677
299.214	683
299.445	682
299.675	667
299.905	672
300.136	695
300.366	666
300.597	687
300.827	713
301.057	719
301.288	694
301.518	700
301.748	703
301.979	721
302.209	717
302.439	731
302.669	699
302.9	710
303.13	705
303.36	714
303.59	685
303.82	718
304.051	703
304.281	693
304.511	704
304.741	716
304.971	708
305.201	720
305.431	703
305.661	696
305.891	691
306.121	680
306.352	697
306.582	708
306.812	677
307.042	673
307.272	676
307.502	696
307.731	679
307.961	681
308.191	696
308.421	684
308.651	704
308.881	693
309.111	697
309.341	680
309.571	684
309.8	708
310.03	692
310.26	675
310.49	706
310.72	700
310.949	690
311.179	693
311.409	697
311.639	716
311.868	723
312.098	708
312.328	756
312.557	732
312.787	708
313.017	756
313.246	728
313.476	755
313.706	719
313.935	731
314.165	752
314.394	767
314.624	757
314.853	755
315.083	737
315.312	750
315.542	726
315.771	722
316.001	710
316.23	733
316.46	696
316.689	717
316.919	720
317.148	716
317.377	725
317.607	713
317.836	735
318.065	741
318.295	722
318.524	731
318.753	715
318.983	709
319.212	735
319.441	730
319.67	731
319.9	739
320.129	710
320.358	729
320.587	741
320.816	727
321.046	738
321.275	722
321.504	729
321.733	732
321.962	732
322.191	756
322.42	739
322.649	722
322.878	733
323.108	715
323.337	747
323.566	731
323.795	732
324.024	770
324.253	740
324.482	752
324.71	769
324.939	762
325.168	781
325.397	790
325.626	765
325.855	791
326.084	800
326.313	811
326.542	815
326.77	815
326.999	792
327.228	822
327.457	802
327.686	770
327.914	795
328.143	786
328.372	801
328.6	833
328.829	776
329.058	815
329.287	820
329.515	818
329.744	819
329.972	821
330.201	788
330.43	832
330.658	824
330.887	831
331.115	853
331.344	863
331.572	856
331.801	874
332.03	876
332.258	944
332.486	923
332.715	951
332.943	1009
333.172	1064
333.4	1075
333.629	1129
333.857	1125
334.085	1102
334.314	1069
334.542	1065
334.771	1070
334.999	1022
335.227	1016
335.455	1009
335.684	1019
335.912	1001
336.14	974
336.369	1000
336.597	993
336.825	962
337.053	941
337.281	972
337.51	925
337.738	944
337.966	894
338.194	890
338.422	873
338.65	867
338.878	872
339.106	868
339.334	881
339.562	885
339.79	861
340.018	841
340.246	812
340.474	823
340.702	855
340.93	845
341.158	860
341.386	825
341.614	839
341.842	811
342.07	819
342.298	810
342.526	850
342.754	867
342.981	842
343.209	872
343.437	893
343.665	948
343.893	1027
344.12	1075
344.348	1025
344.576	943
344.804	907
345.031	868
345.259	867
345.487	836
345.714	848
345.942	810
346.17	812
346.397	824
346.625	821
346.853	829
347.08	825
347.308	809
347.535	782
347.763	808
347.99	826
348.218	851
348.445	797
348.673	784
348.9	789
349.128	795
349.355	807
349.583	810
349.81	809
350.037	751
350.265	793
350.492	794
350.72	782
350.947	786
351.174	797
351.402	780
351.629	760
351.856	774
352.083	786
352.311	768
352.538	778
352.765	764
352.992	764
353.22	763
353.447	763
353.674	766
353.901	778
354.128	754
354.355	758
354.583	757
354.81	781
355.037	761
355.264	785
355.491	782
355.718	793
355.945	775
356.172	797
356.399	786
356.626	784
356.853	790
357.08	781
357.307	789
357.534	744
357.761	782
357.988	781
358.215	788
358.441	785
358.668	801
358.895	786
359.122	787
359.349	807
359.576	797
359.802	780
360.029	781
360.256	796
360.483	778
360.709	782
360.936	797
361.163	802
361.39	772
361.616	796
361.843	803
362.07	788
362.296	794
362.523	788
362.749	773
362.976	770
363.203	758
363.429	779
363.656	759
363.882	766
364.109	767
364.335	752
364.562	754
364.788	776
365.015	780
365.241	749
365.468	765
365.694	783
365.92	775
366.147	771
366.373	797
366.599	764
366.826	786
367.052	779
367.278	777
367.505	771
367.731	776
367.957	767
368.184	771
368.41	780
368.636	787
368.862	808
369.089	794
369.315	808
369.541	830
369.767	806
369.993	828
370.219	806
370.445	804
370.672	810
370.898	830
371.124	837
371.35	858
371.576	857
371.802	838
372.028	834
372.254	844
372.48	849
372.706	863
372.932	891
373.158	879
373.384	884
373.61	853
373.835	839
374.061	883
374.287	856
374.513	893
374.739	893
374.965	915
375.191	957
375.416	974
375.642	907
375.868	884
376.094	888
376.319	862
376.545	875
376.771	884
376.997	856
377.222	859
377.448	853
377.674	832
377.899	838
378.125	835
378.35	831
378.576	854
378.802	825
379.027	855
379.253	865
379.478	839
379.704	853
379.929	840
380.155	866
380.38	851
380.606	848
380.831	838
381.057	849
381.282	840
381.507	854
381.733	836
381.958	865
382.184	846
382.409	891
382.634	866
382.86	875
383.085	895
383.31	929
383.535	926
383.761	919
383.986	961
384.211	959
384.436	1008
384.662	1038
384.887	1046
385.112	1028
385.337	1056
385.562	1038
385.787	1032
386.013	1040
386.238	1030
386.463	1028
386.688	1041
386.913	1027
387.138	1029
387.363	1025
387.588	1016
387.813	984
388.038	1025
388.263	1009
388.488	1020
388.713	1017
388.938	999
389.163	1007
389.387	1000
389.612	1002
389.837	1001
390.062	993
390.287	1034
390.512	986
390.736	1014
390.961	1056
391.186	1059
391.411	1069
391.636	1135
391.86	1140
392.085	1205
392.31	1156
392.534	1130
392.759	1108
392.984	1083
393.208	1068
393.433	1054
393.658	1103
393.882	1073
394.107	1108
394.331	1097
394.556	1101
394.78	1126
395.005	1096
395.229	1101
395.454	1153
395.678	1179
395.903	1185
396.127	1142
396.352	1099
396.576	1047
396.801	1079
397.025	1076
397.249	1142
397.474	1165
397.698	1149
397.922	1160
398.147	1167
398.371	1193
398.595	1232
398.82	1268
399.044	1349
399.268	1519
399.492	1829
399.717	2049
399.941	2020
400.165	1772
400.389	1571
400.613	1455
400.837	1348
401.062	1309
401.286	1293
401.51	1301
401.734	1276
401.958	1316
402.182	1349
402.406	1343
402.63	1355
402.854	1397
403.078	1449
403.302	1465
403.526	1520
403.75	1536
403.974	1512
404.198	1500
404.422	1543
404.645	1528
404.869	1483
405.093	1478
405.317	1445
405.541	1454
405.765	1431
405.988	1416
406.212	1441
406.436	1420
406.66	1437
406.883	1484
407.107	1572
407.331	1645
407.555	1718
407.778	1694
408.002	1653
408.226	1602
408.449	1578
408.673	1519
408.896	1476
409.12	1477
409.344	1470
409.567	1474
409.791	1487
410.014	1468
410.238	1472
410.461	1444
410.685	1415
410.908	1395
411.132	1386
411.355	1378
411.578	1339
411.802	1350
412.025	1357
412.249	1356
412.472	1378
412.695	1335
412.919	1271
413.142	1289
413.365	1275
413.589	1325
413.812	1281
414.035	1282
414.258	1283
414.482	1293
414.705	1330
414.928	1311
415.151	1301
415.374	1316
415.597	1311
415.821	1271
416.044	1222
416.267	1237
416.49	1244
416.713	1292
416.936	1273
417.159	1266
417.382	1287
417.605	1276
417.828	1265
418.051	1284
418.274	1293
418.497	1300
418.72	1308
418.943	1295
419.166	1411
419.389	1495
419.611	1405
419.834	1359
420.057	1323
420.28	1323
420.503	1281
420.726	1265
420.948	1275
421.171	1272
421.394	1284
421.617	1271
421.839	1287
422.062	1318
422.285	1270
422.507	1333
422.73	1333
422.953	1291
423.175	1358
423.398	1348
423.621	1346
423.843	1400
424.066	1395
424.288	1360
424.511	1322
424.733	1319
424.956	1324
425.178	1296
425.401	1303
425.623	1265
425.846	1234
426.068	1202
426.291	1211
426.513	1208
426.735	1171
426.958	1185
427.18	1164
427.402	1173
427.625	1165
427.847	1142
428.069	1130
428.292	1142
428.514	1155
428.736	1124
428.958	1129
429.181	1089
429.403	1116
429.625	1087
429.847	1100
430.069	1072
430.292	1099
430.514	1061
430.736	1094
430.958	1104
431.18	1073
431.402	1108
431.624	1084
431.846	1151
432.068	1144
432.29	1157
432.512	1107
432.734	1151
432.956	1105
433.178	1131
433.4	1098
433.622	1121
433.844	1157
434.066	1137
434.287	1145
434.509	1190
434.731	1243
434.953	1265
435.175	1297
435.397	1276
435.618	1185
435.84	1147
436.062	1110
436.284	1100
436.505	1126
436.727	1146
436.949	1115
437.17	1119
437.392	1090
437.614	1121
437.835	1073
438.057	1087
438.278	1067
438.5	1069
438.721	1058
438.943	1096
439.165	1032
439.386	1102
439.608	1139
439.829	1111
440.05	1127
440.272	1122
440.493	1126
440.715	1128
440.936	1180
441.158	1173
441.379	1198
441.6	1238
441.822	1297
442.043	1260
442.264	1226
442.486	1222
442.707	1245
442.928	1217
443.149	1242
443.371	1217
443.592	1231
443.813	1291
444.034	1280
444.255	1312
444.476	1391
444.698	1481
444.919	1558
445.14	1615
445.361	1434
445.582	1347
445.803	1215
446.024	1188
446.245	1159
446.466	1143
446.687	1107
446.908	1142
447.129	1100
447.35	1082
447.571	1051
447.792	1044
448.013	1038
448.234	1050
448.455	1020
448.675	1039
448.896	1024
449.117	986
449.338	1001
449.559	1004
449.779	992
450	1012
450.221	991
450.442	1033
450.662	1031
450.883	1023
451.104	1055
451.324	1063
451.545	1019
451.766	1028
451.986	1016
452.207	1029
452.428	1027
452.648	999
452.869	992
453.089	984
453.31	995
453.53	988
453.751	1000
453.971	990
454.192	954
454.412	963
454.633	1004
454.853	982
455.073	966
455.294	952
455.514	933
455.734	951
455.955	914
456.175	937
456.395	933
456.616	929
456.836	947
457.056	947
457.276	935
457.497	949
457.717	948
457.937	985
458.157	950
458.377	1002
458.598	1020
458.818	1048
459.038	1090
459.258	1099
459.478	1100
459.698	1195
459.918	1205
460.138	1240
460.358	1312
460.578	1338
460.798	1336
461.018	1356
461.238	1348
461.458	1317
461.678	1359
461.898	1360
462.118	1375
462.338	1448
462.558	1483
462.777	1522
462.997	1661
463.217	1860
463.437	1828
463.657	1623
463.876	1556
464.096	1587
464.316	1544
464.536	1579
464.755	1539
464.975	1431
465.195	1397
465.414	1293
465.634	1217
465.854	1146
466.073	1140
466.293	1125
466.512	1125
466.732	1107
466.951	1082
467.171	1051
467.391	1051
467.61	1062
467.829	1077
468.049	1077
468.268	1016
468.488	1023
468.707	1015
468.927	1011
469.146	1027
469.365	1050
469.585	1034
469.804	1032
470.023	1100
470.243	1105
470.462	1120
470.681	1113
470.901	1113
471.12	1100
471.339	1060
471.558	1033
471.777	1024
471.997	1048
472.216	1059
472.435	999
472.654	1011
472.873	983
473.092	988
473.311	973
473.53	994
473.749	988
473.968	993
474.187	1009
474.406	996
474.625	979
474.844	979
475.063	999
475.282	987
475.501	999
475.72	981
475.939	1028
476.158	1030
476.377	1011
476.596	1019
476.814	1038
477.033	1070
477.252	1103
477.471	1094
477.69	1145
477.908	1159
478.127	1211
478.346	1211
478.564	1180
478.783	1223
479.002	1250
479.22	1246
479.439	1253
479.658	1250
479.876	1253
480.095	1246
480.313	1331
480.532	1378
480.751	1394
480.969	1301
481.188	1224
481.406	1203
481.624	1159
481.843	1138
482.061	1111
482.28	1153
482.498	1133
482.717	1133
482.935	1130
483.153	1139
483.372	1145
483.59	1164
483.808	1111
484.027	1147
484.245	1131
484.463	1153
484.681	1177
484.9	1188
485.118	1172
485.336	1137
485.554	1191
485.772	1199
485.99	1198
486.209	1201
486.427	1213
486.645	1221
486.863	1219
487.081	1216
487.299	1189
487.517	1195
487.735	1187
487.953	1175
488.171	1177
488.389	1203
488.607	1177
488.825	1160
489.043	1190
489.261	1178
489.479	1171
489.696	1206
489.914	1199
490.132	1165
490.35	1206
490.568	1211
490.786	1224
491.003	1204
491.221	1226
491.439	1216
491.657	1176
491.874	1159
492.092	1209
492.31	1238
492.527	1196
492.745	1219
492.963	1253
493.18	1243
493.398	1242
493.615	1233
493.833	1255
494.05	1275
494.268	1282
494.485	1299
494.703	1285
494.92	1265
495.138	1281
495.355	1281
495.573	1265
495.79	1293
496.008	1310
496.225	1278
496.442	1305
496.66	1333
496.877	1335
497.094	1348
497.312	1394
497.529	1449
497.746	1459
497.963	1485
498.181	1575
498.398	1653
498.615	1719
498.832	1828
499.049	2015
499.267	2198
499.484	2417
499.701	2698
499.918	3001
500.135	3487
500.352	3898
500.569	4130
500.786	4136
501.003	3844
501.22	3415
501.437	2993
501.654	2553
501.871	2311
502.088	2157
502.305	1989
502.522	1910
502.739	1826
502.956	1715
503.172	1619
503.389	1554
503.606	1522
503.823	1494
504.04	1477
504.256	1483
504.473	1498
504.69	1566
504.907	1539
505.123	1438
505.34	1345
505.557	1303
505.773	1243
505.99	1258
506.207	1208
506.423	1151
506.64	1160
506.856	1138
507.073	1149
507.289	1128
507.506	1118
507.722	1114
507.939	1124
508.155	1107
508.372	1104
508.588	1062
508.805	1051
509.021	1073
509.238	1062
509.454	1031
509.67	1047
509.887	1048
510.103	1055
510.319	1020
510.536	1033
510.752	1017
510.968	1059
511.184	1038
511.401	1050
511.617	1014
511.833	1035
512.049	1006
512.265	1042
512.481	1013
512.698	1019
512.914	1025
513.13	1009
513.346	1007
513.562	1026
513.778	1033
513.994	1019
514.21	1027
514.426	1035
514.642	1048
514.858	1061
515.074	1045
515.29	1063
515.506	1084
515.721	1091
515.937	1113
516.153	1120
516.369	1173
516.585	1206
516.801	1205
517.016	1289
517.232	1340
517.448	1417
517.664	1457
517.879	1479
518.095	1456
518.311	1452
518.527	1404
518.742	1319
518.958	1251
519.173	1234
519.389	1195
519.605	1142
519.82	1096
520.036	1091
520.251	1047
520.467	1057
520.682	1047
520.898	1027
521.113	1014
521.329	994
521.544	981
521.76	981
521.975	979
522.19	981
522.406	985
522.621	957
522.836	939
523.052	969
523.267	961
523.482	921
523.698	930
523.913	956
524.128	937
524.343	951
524.559	954
524.774	941
524.989	964
525.204	941
525.419	923
525.634	929
525.849	938
526.064	908
526.28	939
526.495	916
526.71	913
526.925	927
527.14	911
527.355	897
527.57	912
527.785	894
527.999	956
528.214	923
528.429	946
528.644	933
528.859	933
529.074	899
529.289	941
529.503	923
529.718	913
529.933	903
530.148	921
530.363	909
530.577	886
530.792	903
531.007	916
531.221	901
531.436	929
531.651	942
531.865	913
532.08	926
532.295	929
532.509	941
532.724	912
532.938	917
533.153	907
533.367	918
533.582	918
533.796	930
534.011	905
534.225	894
534.44	912
534.654	913
534.868	904
535.083	884
535.297	896
535.511	859
535.726	887
535.94	881
536.154	904
536.369	897
536.583	867
536.797	873
537.011	842
537.225	865
537.44	807
537.654	856
537.868	831
538.082	844
538.296	826
538.51	823
538.724	824
538.938	860
539.153	835
539.367	831
539.581	843
539.795	817
540.009	841
540.222	821
540.436	833
540.65	816
540.864	829
541.078	801
541.292	842
541.506	831
541.72	832
541.934	845
542.147	825
542.361	817
542.575	806
542.789	812
543.002	806
543.216	801
543.43	817
543.644	806
543.857	846
544.071	819
544.285	802
544.498	811
544.712	785
544.925	827
545.139	852
545.352	846
545.566	843
545.779	869
545.993	845
546.206	854
546.42	850
546.633	850
546.847	829
547.06	858
547.274	820
547.487	843
547.7	858
547.914	846
548.127	843
548.34	849
548.554	854
548.767	861
548.98	848
549.193	875
549.407	879
549.62	850
549.833	879
550.046	874
550.259	845
550.473	832
550.686	828
550.899	829
551.112	798
551.325	821
551.538	829
551.751	840
551.964	827
552.177	831
552.39	838
552.603	900
552.816	864
553.029	906
553.242	886
553.455	963
