Data from NiCl2@0.125M.TitratingCurve.Agarose3%dH2O.NegLispCup.LampEnergy10.LIBS07252019_HRD10591_18-27-53-574.txt Node
Date: Thu Jul 25 18:27:53 EDT 2019
User: cochatt
Spectrometer: HR+D1059
Trigger mode: 1
Integration Time (sec): 1.000000E-1
Scans to average: 1
Electric dark correction enabled: true
Nonlinearity correction enabled: false
Boxcar width: 0
XAxis mode: Wavelengths
Number of Pixels in Spectrum: 2048
>>>>>Begin Spectral Data<<<<<
223.165	-6.19
223.4	-6.19
223.635	-6.19
223.869	-23.19
224.104	-8.19
224.338	-12.19
224.573	-14.19
224.808	-11.19
225.042	-13.19
225.277	-13.19
225.511	-10.19
225.746	14.81
225.98	6.81
226.215	6.81
226.449	21.81
226.683	7.81
226.918	23.81
227.152	29.81
227.387	41.81
227.621	41.81
227.856	44.81
228.09	50.81
228.324	57.81
228.559	59.81
228.793	80.81
229.027	107.81
229.262	105.81
229.496	104.81
229.73	134.81
229.964	119.81
230.199	140.81
230.433	139.81
230.667	134.81
230.901	123.81
231.136	136.81
231.37	139.81
231.604	143.81
231.838	165.81
232.072	148.81
232.306	138.81
232.541	147.81
232.775	142.81
233.009	148.81
233.243	155.81
233.477	177.81
233.711	156.81
233.945	153.81
234.179	140.81
234.413	149.81
234.647	155.81
234.881	153.81
235.115	147.81
235.349	150.81
235.583	158.81
235.817	161.81
236.051	167.81
236.285	177.81
236.519	153.81
236.753	159.81
236.987	151.81
237.221	151.81
237.455	156.81
237.689	165.81
237.922	160.81
238.156	163.81
238.39	171.81
238.624	174.81
238.858	170.81
239.091	173.81
239.325	184.81
239.559	174.81
239.793	191.81
240.027	178.81
240.26	195.81
240.494	182.81
240.728	188.81
240.961	199.81
241.195	201.81
241.429	174.81
241.662	189.81
241.896	207.81
242.13	194.81
242.363	193.81
242.597	191.81
242.83	194.81
243.064	204.81
243.298	209.81
243.531	208.81
243.765	223.81
243.998	214.81
244.232	233.81
244.465	193.81
244.699	216.81
244.932	238.81
245.166	221.81
245.399	220.81
245.633	222.81
245.866	224.81
246.099	213.81
246.333	211.81
246.566	250.81
246.8	245.81
247.033	247.81
247.266	247.81
247.5	216.81
247.733	245.81
247.966	241.81
248.2	243.81
248.433	245.81
248.666	254.81
248.899	255.81
249.133	258.81
249.366	270.81
249.599	251.81
249.832	251.81
250.066	263.81
250.299	254.81
250.532	283.81
250.765	253.81
250.998	266.81
251.231	276.81
251.465	272.81
251.698	269.81
251.931	267.81
252.164	246.81
252.397	269.81
252.63	270.81
252.863	277.81
253.096	290.81
253.329	279.81
253.562	266.81
253.795	254.81
254.028	296.81
254.261	289.81
254.494	284.81
254.727	308.81
254.96	288.81
255.193	289.81
255.426	304.81
255.659	286.81
255.892	308.81
256.124	304.81
256.357	297.81
256.59	309.81
256.823	308.81
257.056	321.81
257.289	289.81
257.521	302.81
257.754	302.81
257.987	317.81
258.22	321.81
258.452	324.81
258.685	321.81
258.918	314.81
259.151	330.81
259.383	337.81
259.616	319.81
259.849	337.81
260.081	344.81
260.314	338.81
260.547	337.81
260.779	337.81
261.012	330.81
261.244	345.81
261.477	342.81
261.71	313.81
261.942	334.81
262.175	347.81
262.407	352.81
262.64	347.81
262.872	341.81
263.105	361.81
263.337	372.81
263.57	357.81
263.802	349.81
264.035	354.81
264.267	349.81
264.499	353.81
264.732	346.81
264.964	350.81
265.197	363.81
265.429	370.81
265.661	357.81
265.894	341.81
266.126	366.81
266.358	362.81
266.591	351.81
266.823	363.81
267.055	386.81
267.287	365.81
267.52	365.81
267.752	373.81
267.984	366.81
268.216	399.81
268.448	388.81
268.681	381.81
268.913	409.81
269.145	389.81
269.377	377.81
269.609	365.81
269.841	379.81
270.073	382.81
270.306	385.81
270.538	401.81
270.77	405.81
271.002	391.81
271.234	407.81
271.466	399.81
271.698	395.81
271.93	404.81
272.162	411.81
272.394	402.81
272.626	377.81
272.858	419.81
273.09	400.81
273.322	397.81
273.553	423.81
273.785	420.81
274.017	411.81
274.249	423.81
274.481	426.81
274.713	415.81
274.945	417.81
275.176	412.81
275.408	414.81
275.64	435.81
275.872	418.81
276.104	443.81
276.335	444.81
276.567	417.81
276.799	426.81
277.031	459.81
277.262	453.81
277.494	460.81
277.726	434.81
277.957	435.81
278.189	442.81
278.421	437.81
278.652	460.81
278.884	466.81
279.115	468.81
279.347	457.81
279.579	458.81
279.81	467.81
280.042	451.81
280.273	459.81
280.505	469.81
280.736	468.81
280.968	489.81
281.199	488.81
281.431	495.81
281.662	501.81
281.894	467.81
282.125	470.81
282.356	470.81
282.588	472.81
282.819	488.81
283.051	478.81
283.282	457.81
283.513	488.81
283.745	513.81
283.976	499.81
284.207	499.81
284.439	493.81
284.67	503.81
284.901	513.81
285.132	505.81
285.364	524.81
285.595	483.81
285.826	474.81
286.057	521.81
286.288	523.81
286.52	510.81
286.751	502.81
286.982	515.81
287.213	538.81
287.444	534.81
287.675	540.81
287.906	553.81
288.138	531.81
288.369	531.81
288.6	535.81
288.831	538.81
289.062	541.81
289.293	546.81
289.524	536.81
289.755	538.81
289.986	528.81
290.217	537.81
290.448	561.81
290.679	545.81
290.91	548.81
291.141	543.81
291.371	542.81
291.602	551.81
291.833	547.81
292.064	541.81
292.295	541.81
292.526	562.81
292.757	545.81
292.987	558.81
293.218	555.81
293.449	580.81
293.68	525.81
293.91	549.81
294.141	550.81
294.372	535.81
294.603	568.81
294.833	559.81
295.064	550.81
295.295	563.81
295.525	553.81
295.756	580.81
295.987	565.81
296.217	567.81
296.448	565.81
296.679	580.81
296.909	568.81
297.14	589.81
297.37	599.81
297.601	581.81
297.831	586.81
298.062	577.81
298.292	590.81
298.523	585.81
298.753	594.81
298.984	593.81
299.214	583.81
299.445	574.81
299.675	587.81
299.905	603.81
300.136	594.81
300.366	603.81
300.597	603.81
300.827	634.81
301.057	633.81
301.288	626.81
301.518	607.81
301.748	643.81
301.979	627.81
302.209	605.81
302.439	633.81
302.669	621.81
302.9	618.81
303.13	605.81
303.36	615.81
303.59	621.81
303.82	604.81
304.051	637.81
304.281	621.81
304.511	615.81
304.741	614.81
304.971	620.81
305.201	598.81
305.431	629.81
305.661	620.81
305.891	600.81
306.121	610.81
306.352	608.81
306.582	615.81
306.812	608.81
307.042	622.81
307.272	607.81
307.502	587.81
307.731	600.81
307.961	595.81
308.191	588.81
308.421	590.81
308.651	630.81
308.881	629.81
309.111	623.81
309.341	606.81
309.571	611.81
309.8	606.81
310.03	611.81
310.26	617.81
310.49	620.81
310.72	635.81
310.949	611.81
311.179	622.81
311.409	601.81
311.639	611.81
311.868	618.81
312.098	634.81
312.328	642.81
312.557	656.81
312.787	626.81
313.017	649.81
313.246	642.81
313.476	650.81
313.706	633.81
313.935	635.81
314.165	656.81
314.394	649.81
314.624	637.81
314.853	620.81
315.083	652.81
315.312	671.81
315.542	627.81
315.771	635.81
316.001	647.81
316.23	639.81
316.46	645.81
316.689	639.81
316.919	637.81
317.148	643.81
317.377	653.81
317.607	631.81
317.836	646.81
318.065	622.81
318.295	624.81
318.524	633.81
318.753	632.81
318.983	625.81
319.212	627.81
319.441	637.81
319.67	625.81
319.9	641.81
320.129	649.81
320.358	653.81
320.587	641.81
320.816	647.81
321.046	628.81
321.275	641.81
321.504	659.81
321.733	671.81
321.962	649.81
322.191	659.81
322.42	661.81
322.649	665.81
322.878	649.81
323.108	647.81
323.337	655.81
323.566	643.81
323.795	651.81
324.024	655.81
324.253	680.81
324.482	668.81
324.71	642.81
324.939	646.81
325.168	675.81
325.397	665.81
325.626	680.81
325.855	683.81
326.084	659.81
326.313	695.81
326.542	689.81
326.77	719.81
326.999	701.81
327.228	678.81
327.457	679.81
327.686	671.81
327.914	693.81
328.143	691.81
328.372	697.81
328.6	715.81
328.829	690.81
329.058	695.81
329.287	694.81
329.515	702.81
329.744	718.81
329.972	718.81
330.201	731.81
330.43	703.81
330.658	700.81
330.887	733.81
331.115	749.81
331.344	726.81
331.572	715.81
331.801	743.81
332.03	784.81
332.258	799.81
332.486	837.81
332.715	829.81
332.943	883.81
333.172	901.81
333.4	899.81
333.629	940.81
333.857	966.81
334.085	915.81
334.314	949.81
334.542	904.81
334.771	926.81
334.999	876.81
335.227	883.81
335.455	858.81
335.684	881.81
335.912	871.81
336.14	835.81
336.369	878.81
336.597	831.81
336.825	820.81
337.053	836.81
337.281	805.81
337.51	780.81
337.738	802.81
337.966	782.81
338.194	805.81
338.422	797.81
338.65	778.81
338.878	769.81
339.106	757.81
339.334	768.81
339.562	759.81
339.79	729.81
340.018	761.81
340.246	743.81
340.474	745.81
340.702	731.81
340.93	769.81
341.158	735.81
341.386	737.81
341.614	743.81
341.842	731.81
342.07	712.81
342.298	727.81
342.526	705.81
342.754	717.81
342.981	720.81
343.209	742.81
343.437	771.81
343.665	813.81
343.893	925.81
344.12	925.81
344.348	871.81
344.576	799.81
344.804	816.81
345.031	777.81
345.259	771.81
345.487	735.81
345.714	743.81
345.942	736.81
346.17	714.81
346.397	700.81
346.625	717.81
346.853	707.81
347.08	705.81
347.308	726.81
347.535	709.81
347.763	698.81
347.99	733.81
348.218	726.81
348.445	701.81
348.673	704.81
348.9	701.81
349.128	703.81
349.355	713.81
349.583	709.81
349.81	697.81
350.037	658.81
350.265	692.81
350.492	676.81
350.72	675.81
350.947	665.81
351.174	686.81
351.402	701.81
351.629	693.81
351.856	680.81
352.083	695.81
352.311	662.81
352.538	695.81
352.765	674.81
352.992	671.81
353.22	665.81
353.447	669.81
353.674	668.81
353.901	651.81
354.128	671.81
354.355	683.81
354.583	669.81
354.81	695.81
355.037	680.81
355.264	686.81
355.491	665.81
355.718	681.81
355.945	662.81
356.172	665.81
356.399	653.81
356.626	701.81
356.853	722.81
357.08	709.81
357.307	661.81
357.534	686.81
357.761	660.81
357.988	699.81
358.215	708.81
358.441	686.81
358.668	684.81
358.895	685.81
359.122	708.81
359.349	677.81
359.576	670.81
359.802	715.81
360.029	693.81
360.256	719.81
360.483	674.81
360.709	678.81
360.936	686.81
361.163	681.81
361.39	683.81
361.616	690.81
361.843	679.81
362.07	692.81
362.296	673.81
362.523	675.81
362.749	673.81
362.976	687.81
363.203	701.81
363.429	701.81
363.656	695.81
363.882	671.81
364.109	684.81
364.335	683.81
364.562	683.81
364.788	685.81
365.015	674.81
365.241	656.81
365.468	690.81
365.694	718.81
365.92	678.81
366.147	669.81
366.373	676.81
366.599	686.81
366.826	662.81
367.052	692.81
367.278	667.81
367.505	694.81
367.731	677.81
367.957	680.81
368.184	689.81
368.41	673.81
368.636	720.81
368.862	691.81
369.089	695.81
369.315	696.81
369.541	697.81
369.767	692.81
369.993	684.81
370.219	726.81
370.445	746.81
370.672	717.81
370.898	740.81
371.124	713.81
371.35	735.81
371.576	758.81
371.802	755.81
372.028	742.81
372.254	753.81
372.48	734.81
372.706	757.81
372.932	782.81
373.158	748.81
373.384	761.81
373.61	745.81
373.835	754.81
374.061	732.81
374.287	738.81
374.513	773.81
374.739	795.81
374.965	805.81
375.191	842.81
375.416	833.81
375.642	799.81
375.868	805.81
376.094	760.81
376.319	750.81
376.545	751.81
376.771	759.81
376.997	740.81
377.222	759.81
377.448	755.81
377.674	741.81
377.899	754.81
378.125	735.81
378.35	726.81
378.576	717.81
378.802	727.81
379.027	750.81
379.253	748.81
379.478	730.81
379.704	724.81
379.929	736.81
380.155	733.81
380.38	712.81
380.606	717.81
380.831	747.81
381.057	752.81
381.282	734.81
381.507	749.81
381.733	746.81
381.958	754.81
382.184	771.81
382.409	758.81
382.634	762.81
382.86	790.81
383.085	776.81
383.31	813.81
383.535	830.81
383.761	803.81
383.986	839.81
384.211	865.81
384.436	861.81
384.662	873.81
384.887	906.81
385.112	894.81
385.337	925.81
385.562	916.81
385.787	898.81
386.013	940.81
386.238	940.81
386.463	924.81
386.688	915.81
386.913	905.81
387.138	913.81
387.363	880.81
387.588	875.81
387.813	896.81
388.038	886.81
388.263	878.81
388.488	883.81
388.713	879.81
388.938	877.81
389.163	846.81
389.387	881.81
389.612	876.81
389.837	853.81
390.062	873.81
390.287	891.81
390.512	866.81
390.736	870.81
390.961	904.81
391.186	905.81
391.411	939.81
391.636	951.81
391.86	979.81
392.085	1023.81
392.31	1006.81
392.534	999.81
392.759	964.81
392.984	970.81
393.208	957.81
393.433	957.81
393.658	941.81
393.882	947.81
394.107	958.81
394.331	968.81
394.556	984.81
394.78	972.81
395.005	966.81
395.229	970.81
395.454	1009.81
395.678	1043.81
395.903	1005.81
396.127	992.81
396.352	972.81
396.576	978.81
396.801	937.81
397.025	932.81
397.249	983.81
397.474	1033.81
397.698	997.81
397.922	981.81
398.147	1033.81
398.371	1034.81
398.595	1054.81
398.82	1103.81
399.044	1229.81
399.268	1342.81
399.492	1526.81
399.717	1725.81
399.941	1745.81
400.165	1548.81
400.389	1396.81
400.613	1301.81
400.837	1201.81
401.062	1172.81
401.286	1134.81
401.51	1131.81
401.734	1101.81
401.958	1139.81
402.182	1180.81
402.406	1171.81
402.63	1214.81
402.854	1190.81
403.078	1219.81
403.302	1221.81
403.526	1276.81
403.75	1343.81
403.974	1334.81
404.198	1320.81
404.422	1335.81
404.645	1334.81
404.869	1323.81
405.093	1313.81
405.317	1244.81
405.541	1249.81
405.765	1229.81
405.988	1225.81
406.212	1246.81
406.436	1235.81
406.66	1282.81
406.883	1256.81
407.107	1372.81
407.331	1439.81
407.555	1506.81
407.778	1459.81
408.002	1429.81
408.226	1405.81
408.449	1354.81
408.673	1297.81
408.896	1315.81
409.12	1285.81
409.344	1255.81
409.567	1295.81
409.791	1286.81
410.014	1309.81
410.238	1217.81
410.461	1246.81
410.685	1240.81
410.908	1241.81
411.132	1157.81
411.355	1158.81
411.578	1221.81
411.802	1172.81
412.025	1162.81
412.249	1225.81
412.472	1217.81
412.695	1178.81
412.919	1143.81
413.142	1121.81
413.365	1123.81
413.589	1161.81
413.812	1121.81
414.035	1124.81
414.258	1128.81
414.482	1134.81
414.705	1165.81
414.928	1145.81
415.151	1146.81
415.374	1147.81
415.597	1120.81
415.821	1123.81
416.044	1103.81
416.267	1097.81
416.49	1098.81
416.713	1127.81
416.936	1117.81
417.159	1126.81
417.382	1125.81
417.605	1111.81
417.828	1092.81
418.051	1137.81
418.274	1140.81
418.497	1125.81
418.72	1185.81
418.943	1144.81
419.166	1237.81
419.389	1329.81
419.611	1277.81
419.834	1238.81
420.057	1180.81
420.28	1180.81
420.503	1148.81
420.726	1122.81
420.948	1113.81
421.171	1138.81
421.394	1143.81
421.617	1130.81
421.839	1129.81
422.062	1142.81
422.285	1137.81
422.507	1141.81
422.73	1141.81
422.953	1164.81
423.175	1164.81
423.398	1180.81
423.621	1162.81
423.843	1225.81
424.066	1207.81
424.288	1175.81
424.511	1190.81
424.733	1182.81
424.956	1176.81
425.178	1146.81
425.401	1151.81
425.623	1118.81
425.846	1103.81
426.068	1107.81
426.291	1064.81
426.513	1052.81
426.735	1068.81
426.958	1051.81
427.18	1046.81
427.402	1043.81
427.625	1004.81
427.847	1012.81
428.069	1029.81
428.292	1021.81
428.514	978.81
428.736	999.81
428.958	997.81
429.181	985.81
429.403	972.81
429.625	961.81
429.847	960.81
430.069	975.81
430.292	977.81
430.514	967.81
430.736	1009.81
430.958	990.81
431.18	993.81
431.402	997.81
431.624	982.81
431.846	975.81
432.068	1006.81
432.29	1023.81
432.512	987.81
432.734	1025.81
432.956	1016.81
433.178	1009.81
433.4	1003.81
433.622	1034.81
433.844	1029.81
434.066	1024.81
434.287	1049.81
434.509	1060.81
434.731	1085.81
434.953	1131.81
435.175	1133.81
435.397	1115.81
435.618	1058.81
435.84	1044.81
436.062	996.81
436.284	1042.81
436.505	989.81
436.727	1029.81
436.949	990.81
437.17	1013.81
437.392	993.81
437.614	992.81
437.835	956.81
438.057	947.81
438.278	947.81
438.5	967.81
438.721	1002.81
438.943	987.81
439.165	962.81
439.386	995.81
439.608	981.81
439.829	1013.81
440.05	1015.81
440.272	1003.81
440.493	970.81
440.715	1026.81
440.936	1023.81
441.158	1055.81
441.379	1087.81
441.6	1141.81
441.822	1132.81
442.043	1141.81
442.264	1173.81
442.486	1084.81
442.707	1125.81
442.928	1107.81
443.149	1111.81
443.371	1096.81
443.592	1122.81
443.813	1117.81
444.034	1159.81
444.255	1186.81
444.476	1224.81
444.698	1305.81
444.919	1358.81
445.14	1448.81
445.361	1318.81
445.582	1184.81
445.803	1107.81
446.024	1079.81
446.245	1058.81
446.466	1059.81
446.687	1051.81
446.908	1031.81
447.129	979.81
447.35	1002.81
447.571	972.81
447.792	948.81
448.013	965.81
448.234	940.81
448.455	935.81
448.675	909.81
448.896	926.81
449.117	933.81
449.338	935.81
449.559	892.81
449.779	902.81
450	908.81
450.221	902.81
450.442	921.81
450.662	908.81
450.883	916.81
451.104	981.81
451.324	959.81
451.545	949.81
451.766	937.81
451.986	934.81
452.207	934.81
452.428	929.81
452.648	914.81
452.869	903.81
453.089	893.81
453.31	912.81
453.53	893.81
453.751	920.81
453.971	889.81
454.192	889.81
454.412	869.81
454.633	872.81
454.853	883.81
455.073	881.81
455.294	859.81
455.514	892.81
455.734	871.81
455.955	856.81
456.175	859.81
456.395	869.81
456.616	840.81
456.836	859.81
457.056	866.81
457.276	885.81
457.497	866.81
457.717	849.81
457.937	891.81
458.157	859.81
458.377	886.81
458.598	910.81
458.818	908.81
459.038	945.81
459.258	977.81
459.478	1018.81
459.698	1050.81
459.918	1035.81
460.138	1097.81
460.358	1187.81
460.578	1226.81
460.798	1211.81
461.018	1213.81
461.238	1190.81
461.458	1161.81
461.678	1203.81
461.898	1201.81
462.118	1215.81
462.338	1278.81
462.558	1302.81
462.777	1360.81
462.997	1474.81
463.217	1614.81
463.437	1630.81
463.657	1463.81
463.876	1393.81
464.096	1438.81
464.316	1374.81
464.536	1402.81
464.755	1382.81
464.975	1303.81
465.195	1212.81
465.414	1174.81
465.634	1114.81
465.854	1066.81
466.073	1025.81
466.293	1003.81
466.512	982.81
466.732	978.81
466.951	981.81
467.171	941.81
467.391	982.81
467.61	978.81
467.829	988.81
468.049	961.81
468.268	927.81
468.488	935.81
468.707	921.81
468.927	916.81
469.146	917.81
469.365	943.81
469.585	930.81
469.804	948.81
470.023	976.81
470.243	982.81
470.462	1005.81
470.681	994.81
470.901	1003.81
471.12	1000.81
471.339	964.81
471.558	947.81
471.777	959.81
471.997	946.81
472.216	905.81
472.435	901.81
472.654	930.81
472.873	891.81
473.092	936.81
473.311	906.81
473.53	912.81
473.749	889.81
473.968	905.81
474.187	903.81
474.406	888.81
474.625	905.81
474.844	895.81
475.063	901.81
475.282	906.81
475.501	923.81
475.72	897.81
475.939	910.81
476.158	936.81
476.377	932.81
476.596	930.81
476.814	977.81
477.033	950.81
477.252	961.81
477.471	992.81
477.69	1009.81
477.908	1044.81
478.127	1085.81
478.346	1092.81
478.564	1134.81
478.783	1109.81
479.002	1120.81
479.22	1137.81
479.439	1100.81
479.658	1129.81
479.876	1140.81
480.095	1145.81
480.313	1189.81
480.532	1229.81
480.751	1220.81
480.969	1183.81
481.188	1131.81
481.406	1077.81
481.624	1048.81
481.843	1063.81
482.061	1002.81
482.28	1021.81
482.498	1007.81
482.717	1020.81
482.935	1029.81
483.153	1038.81
483.372	1029.81
483.59	1062.81
483.808	1046.81
484.027	1024.81
484.245	1043.81
484.463	1032.81
484.681	1062.81
484.9	1070.81
485.118	1080.81
485.336	1056.81
485.554	1060.81
485.772	1036.81
485.99	1066.81
486.209	1078.81
486.427	1085.81
486.645	1092.81
486.863	1091.81
487.081	1062.81
487.299	1085.81
487.517	1087.81
487.735	1064.81
487.953	1094.81
488.171	1099.81
488.389	1088.81
488.607	1061.81
488.825	1044.81
489.043	1025.81
489.261	1090.81
489.479	1063.81
489.696	1060.81
489.914	1069.81
490.132	1099.81
490.35	1104.81
490.568	1093.81
490.786	1092.81
491.003	1111.81
491.221	1099.81
491.439	1113.81
491.657	1062.81
491.874	1107.81
492.092	1068.81
492.31	1136.81
492.527	1094.81
492.745	1107.81
492.963	1094.81
493.18	1093.81
493.398	1097.81
493.615	1103.81
493.833	1159.81
494.05	1140.81
494.268	1175.81
494.485	1182.81
494.703	1157.81
494.92	1142.81
495.138	1142.81
495.355	1126.81
495.573	1154.81
495.79	1135.81
496.008	1126.81
496.225	1165.81
496.442	1203.81
496.66	1196.81
496.877	1194.81
497.094	1219.81
497.312	1259.81
