Data from NiCl2@0.0625M.TitratingCurve.Agarose3%dH2O.NegLispCup.LampEnergy10.LIBS07252019_HRD10591_18-34-40-577.txt Node
Date: Thu Jul 25 18:34:40 EDT 2019
User: cochatt
Spectrometer: HR+D1059
Trigger mode: 1
Integration Time (sec): 1.000000E-1
Scans to average: 1
Electric dark correction enabled: true
Nonlinearity correction enabled: false
Boxcar width: 0
XAxis mode: Wavelengths
Number of Pixels in Spectrum: 2048
>>>>>Begin Spectral Data<<<<<
223.165	-3.81
223.4	-3.81
223.635	-3.81
223.869	-15.81
224.104	-20.81
224.338	-10.81
224.573	-11.81
224.808	-10.81
225.042	-19.81
225.277	3.19
225.511	-13.81
225.746	1.19
225.98	11.19
226.215	-1.81
226.449	4.19
226.683	21.19
226.918	35.19
227.152	33.19
227.387	20.19
227.621	26.19
227.856	49.19
228.09	41.19
228.324	52.19
228.559	46.19
228.793	70.19
229.027	135.19
229.262	128.19
229.496	148.19
229.73	152.19
229.964	147.19
230.199	162.19
230.433	171.19
230.667	181.19
230.901	173.19
231.136	172.19
231.37	182.19
231.604	189.19
231.838	182.19
232.072	188.19
232.306	183.19
232.541	187.19
232.775	206.19
233.009	189.19
233.243	182.19
233.477	186.19
233.711	211.19
233.945	205.19
234.179	197.19
234.413	197.19
234.647	193.19
234.881	189.19
235.115	205.19
235.349	199.19
235.583	212.19
235.817	207.19
236.051	221.19
236.285	203.19
236.519	205.19
236.753	203.19
236.987	214.19
237.221	219.19
237.455	227.19
237.689	225.19
237.922	211.19
238.156	241.19
238.39	239.19
238.624	232.19
238.858	231.19
239.091	237.19
239.325	235.19
239.559	258.19
239.793	246.19
240.027	261.19
240.26	237.19
240.494	267.19
240.728	251.19
240.961	269.19
241.195	252.19
241.429	280.19
241.662	270.19
241.896	285.19
242.13	271.19
242.363	290.19
242.597	293.19
242.83	277.19
243.064	291.19
243.298	285.19
243.531	289.19
243.765	297.19
243.998	317.19
244.232	322.19
244.465	317.19
244.699	313.19
244.932	314.19
245.166	323.19
245.399	298.19
245.633	302.19
245.866	315.19
246.099	330.19
246.333	328.19
246.566	321.19
246.8	338.19
247.033	328.19
247.266	317.19
247.5	340.19
247.733	329.19
247.966	348.19
248.2	351.19
248.433	348.19
248.666	355.19
248.899	340.19
249.133	342.19
249.366	378.19
249.599	358.19
249.832	352.19
250.066	357.19
250.299	382.19
250.532	358.19
250.765	393.19
250.998	379.19
251.231	390.19
251.465	371.19
251.698	393.19
251.931	380.19
252.164	385.19
252.397	392.19
252.63	384.19
252.863	419.19
253.096	415.19
253.329	394.19
253.562	410.19
253.795	413.19
254.028	413.19
254.261	399.19
254.494	412.19
254.727	409.19
254.96	435.19
255.193	425.19
255.426	442.19
255.659	441.19
255.892	425.19
256.124	440.19
256.357	433.19
256.59	424.19
256.823	432.19
257.056	451.19
257.289	430.19
257.521	449.19
257.754	462.19
257.987	470.19
258.22	472.19
258.452	459.19
258.685	455.19
258.918	466.19
259.151	479.19
259.383	497.19
259.616	471.19
259.849	482.19
260.081	472.19
260.314	473.19
260.547	461.19
260.779	481.19
261.012	479.19
261.244	501.19
261.477	499.19
261.71	491.19
261.942	489.19
262.175	511.19
262.407	495.19
262.64	511.19
262.872	485.19
263.105	534.19
263.337	508.19
263.57	522.19
263.802	532.19
264.035	517.19
264.267	510.19
264.499	513.19
264.732	539.19
264.964	528.19
265.197	512.19
265.429	535.19
265.661	542.19
265.894	554.19
266.126	533.19
266.358	545.19
266.591	563.19
266.823	551.19
267.055	553.19
267.287	573.19
267.52	573.19
267.752	539.19
267.984	537.19
268.216	571.19
268.448	587.19
268.681	578.19
268.913	586.19
269.145	602.19
269.377	604.19
269.609	583.19
269.841	565.19
270.073	598.19
270.306	560.19
270.538	575.19
270.77	584.19
271.002	601.19
271.234	575.19
271.466	568.19
271.698	599.19
271.93	601.19
272.162	599.19
272.394	601.19
272.626	602.19
272.858	602.19
273.09	623.19
273.322	622.19
273.553	622.19
273.785	620.19
274.017	591.19
274.249	645.19
274.481	641.19
274.713	629.19
274.945	642.19
275.176	634.19
275.408	663.19
275.64	653.19
275.872	636.19
276.104	660.19
276.335	663.19
276.567	659.19
276.799	685.19
277.031	661.19
277.262	681.19
277.494	671.19
277.726	653.19
277.957	678.19
278.189	675.19
278.421	665.19
278.652	675.19
278.884	702.19
279.115	674.19
279.347	693.19
279.579	704.19
279.81	710.19
280.042	711.19
280.273	703.19
280.505	708.19
280.736	725.19
280.968	727.19
281.199	703.19
281.431	725.19
281.662	729.19
281.894	741.19
282.125	722.19
282.356	733.19
282.588	735.19
282.819	711.19
283.051	749.19
283.282	743.19
283.513	760.19
283.745	734.19
283.976	740.19
284.207	719.19
284.439	778.19
284.67	779.19
284.901	776.19
285.132	779.19
285.364	803.19
285.595	771.19
285.826	783.19
286.057	798.19
286.288	752.19
286.52	777.19
286.751	766.19
286.982	764.19
287.213	773.19
287.444	767.19
287.675	804.19
287.906	803.19
288.138	784.19
288.369	783.19
288.6	790.19
288.831	812.19
289.062	817.19
289.293	782.19
289.524	796.19
289.755	803.19
289.986	815.19
290.217	796.19
290.448	782.19
290.679	804.19
290.91	845.19
291.141	825.19
291.371	825.19
291.602	814.19
291.833	790.19
292.064	830.19
292.295	825.19
292.526	817.19
292.757	836.19
292.987	781.19
293.218	835.19
293.449	824.19
293.68	834.19
293.91	827.19
294.141	820.19
294.372	813.19
294.603	839.19
294.833	831.19
295.064	870.19
295.295	843.19
295.525	833.19
295.756	851.19
295.987	859.19
296.217	861.19
296.448	854.19
296.679	835.19
296.909	840.19
297.14	861.19
297.37	891.19
297.601	861.19
297.831	875.19
298.062	872.19
298.292	891.19
298.523	906.19
298.753	893.19
298.984	925.19
299.214	910.19
299.445	864.19
299.675	847.19
299.905	911.19
300.136	894.19
300.366	894.19
300.597	897.19
300.827	901.19
301.057	898.19
301.288	939.19
301.518	907.19
301.748	938.19
301.979	937.19
302.209	964.19
302.439	938.19
302.669	923.19
302.9	893.19
303.13	935.19
303.36	965.19
303.59	951.19
303.82	951.19
304.051	956.19
304.281	944.19
304.511	910.19
304.741	949.19
304.971	953.19
305.201	930.19
305.431	923.19
305.661	915.19
305.891	922.19
306.121	941.19
306.352	948.19
306.582	921.19
306.812	932.19
307.042	926.19
307.272	930.19
307.502	918.19
307.731	934.19
307.961	929.19
308.191	930.19
308.421	913.19
308.651	928.19
308.881	912.19
309.111	921.19
309.341	934.19
309.571	936.19
309.8	939.19
310.03	942.19
310.26	929.19
310.49	959.19
310.72	934.19
310.949	941.19
311.179	944.19
311.409	938.19
311.639	925.19
311.868	955.19
312.098	949.19
312.328	985.19
312.557	972.19
312.787	959.19
313.017	988.19
313.246	991.19
313.476	980.19
313.706	996.19
313.935	992.19
314.165	995.19
314.394	1001.19
314.624	1025.19
314.853	1003.19
315.083	984.19
315.312	994.19
315.542	1013.19
315.771	987.19
316.001	996.19
316.23	1001.19
316.46	980.19
316.689	988.19
316.919	997.19
317.148	998.19
317.377	1013.19
317.607	989.19
317.836	982.19
318.065	998.19
318.295	991.19
318.524	1016.19
318.753	1013.19
318.983	974.19
319.212	977.19
319.441	984.19
319.67	1001.19
319.9	1010.19
320.129	985.19
320.358	993.19
320.587	1003.19
320.816	1013.19
321.046	995.19
321.275	990.19
321.504	990.19
321.733	998.19
321.962	990.19
322.191	1009.19
322.42	1033.19
322.649	1024.19
322.878	991.19
323.108	1012.19
323.337	1019.19
323.566	1025.19
323.795	1051.19
324.024	1029.19
324.253	1053.19
324.482	1055.19
324.71	1047.19
324.939	1044.19
325.168	1049.19
325.397	1055.19
325.626	1051.19
325.855	1063.19
326.084	1081.19
326.313	1084.19
326.542	1118.19
326.77	1087.19
326.999	1070.19
327.228	1068.19
327.457	1082.19
327.686	1077.19
327.914	1073.19
328.143	1077.19
328.372	1082.19
328.6	1091.19
328.829	1065.19
329.058	1055.19
329.287	1093.19
329.515	1118.19
329.744	1103.19
329.972	1093.19
330.201	1118.19
330.43	1133.19
330.658	1107.19
330.887	1117.19
331.115	1118.19
331.344	1124.19
331.572	1122.19
331.801	1158.19
332.03	1179.19
332.258	1193.19
332.486	1189.19
332.715	1241.19
332.943	1289.19
333.172	1290.19
333.4	1329.19
333.629	1373.19
333.857	1403.19
334.085	1402.19
334.314	1377.19
334.542	1379.19
334.771	1376.19
334.999	1342.19
335.227	1329.19
335.455	1337.19
335.684	1326.19
335.912	1333.19
336.14	1303.19
336.369	1275.19
336.597	1325.19
336.825	1291.19
337.053	1308.19
337.281	1262.19
337.51	1225.19
337.738	1217.19
337.966	1260.19
338.194	1241.19
338.422	1206.19
338.65	1190.19
338.878	1207.19
339.106	1202.19
339.334	1191.19
339.562	1174.19
339.79	1155.19
340.018	1154.19
340.246	1141.19
340.474	1120.19
340.702	1109.19
340.93	1149.19
341.158	1155.19
341.386	1145.19
341.614	1144.19
341.842	1151.19
342.07	1151.19
342.298	1122.19
342.526	1127.19
342.754	1104.19
342.981	1109.19
343.209	1148.19
343.437	1189.19
343.665	1239.19
343.893	1323.19
344.12	1340.19
344.348	1286.19
344.576	1281.19
344.804	1213.19
345.031	1161.19
345.259	1172.19
345.487	1147.19
345.714	1101.19
345.942	1109.19
346.17	1137.19
346.397	1108.19
346.625	1103.19
346.853	1107.19
347.08	1048.19
347.308	1088.19
347.535	1056.19
347.763	1088.19
347.99	1068.19
348.218	1095.19
348.445	1080.19
348.673	1084.19
348.9	1097.19
349.128	1077.19
349.355	1064.19
349.583	1071.19
349.81	1098.19
350.037	1064.19
350.265	1090.19
350.492	1061.19
350.72	1045.19
350.947	1027.19
351.174	1047.19
351.402	1054.19
351.629	1056.19
351.856	1073.19
352.083	1036.19
352.311	1055.19
352.538	1038.19
352.765	1064.19
352.992	1060.19
353.22	1067.19
353.447	1042.19
353.674	1057.19
353.901	1062.19
354.128	1042.19
354.355	1028.19
354.583	1060.19
354.81	1044.19
355.037	1047.19
355.264	1072.19
355.491	1066.19
355.718	1035.19
355.945	1063.19
356.172	1043.19
356.399	1037.19
356.626	1062.19
356.853	1087.19
357.08	1049.19
357.307	1061.19
357.534	1061.19
357.761	1088.19
357.988	1079.19
358.215	1039.19
358.441	1051.19
358.668	1032.19
358.895	1059.19
359.122	1050.19
359.349	1018.19
359.576	1058.19
359.802	1069.19
360.029	1050.19
360.256	1079.19
360.483	1077.19
360.709	1095.19
360.936	1071.19
361.163	1059.19
361.39	1029.19
361.616	1073.19
361.843	1063.19
362.07	1104.19
362.296	1043.19
362.523	1053.19
362.749	1079.19
362.976	1085.19
363.203	1070.19
363.429	1079.19
363.656	1060.19
363.882	1057.19
364.109	1048.19
364.335	1039.19
364.562	1070.19
364.788	1006.19
365.015	1074.19
365.241	1061.19
365.468	1060.19
365.694	1071.19
365.92	1055.19
366.147	1022.19
366.373	1084.19
366.599	1075.19
366.826	1046.19
367.052	1045.19
367.278	1076.19
367.505	1059.19
367.731	1084.19
367.957	1046.19
368.184	1066.19
368.41	1093.19
368.636	1059.19
368.862	1086.19
369.089	1121.19
369.315	1115.19
369.541	1084.19
369.767	1100.19
369.993	1119.19
370.219	1068.19
370.445	1109.19
370.672	1117.19
370.898	1121.19
371.124	1158.19
371.35	1116.19
371.576	1150.19
371.802	1142.19
372.028	1140.19
372.254	1118.19
372.48	1123.19
372.706	1161.19
372.932	1175.19
373.158	1159.19
373.384	1158.19
373.61	1143.19
373.835	1181.19
374.061	1152.19
374.287	1199.19
374.513	1211.19
374.739	1191.19
374.965	1244.19
375.191	1236.19
375.416	1258.19
375.642	1236.19
375.868	1218.19
376.094	1185.19
376.319	1173.19
376.545	1150.19
376.771	1163.19
376.997	1192.19
377.222	1151.19
377.448	1129.19
377.674	1151.19
377.899	1136.19
378.125	1132.19
378.35	1168.19
378.576	1130.19
378.802	1109.19
379.027	1124.19
379.253	1145.19
379.478	1115.19
379.704	1119.19
379.929	1132.19
380.155	1144.19
380.38	1133.19
380.606	1145.19
380.831	1145.19
381.057	1119.19
381.282	1132.19
381.507	1141.19
381.733	1145.19
381.958	1150.19
382.184	1181.19
382.409	1196.19
382.634	1182.19
382.86	1175.19
383.085	1222.19
383.31	1199.19
383.535	1244.19
383.761	1229.19
383.986	1261.19
384.211	1249.19
384.436	1281.19
384.662	1317.19
384.887	1303.19
385.112	1316.19
385.337	1366.19
385.562	1357.19
385.787	1353.19
386.013	1355.19
386.238	1356.19
386.463	1345.19
386.688	1355.19
386.913	1343.19
387.138	1322.19
387.363	1338.19
387.588	1307.19
387.813	1333.19
388.038	1362.19
388.263	1361.19
388.488	1359.19
388.713	1337.19
388.938	1356.19
389.163	1327.19
389.387	1347.19
389.612	1337.19
389.837	1351.19
390.062	1339.19
390.287	1324.19
390.512	1373.19
390.736	1385.19
390.961	1374.19
391.186	1354.19
391.411	1415.19
391.636	1438.19
391.86	1486.19
392.085	1483.19
392.31	1480.19
392.534	1443.19
392.759	1441.19
392.984	1464.19
393.208	1430.19
393.433	1411.19
393.658	1443.19
393.882	1432.19
394.107	1402.19
394.331	1414.19
394.556	1455.19
394.78	1455.19
395.005	1443.19
395.229	1467.19
395.454	1493.19
395.678	1525.19
395.903	1511.19
396.127	1505.19
396.352	1485.19
396.576	1434.19
396.801	1477.19
397.025	1483.19
397.249	1487.19
397.474	1520.19
397.698	1523.19
397.922	1552.19
398.147	1589.19
398.371	1581.19
398.595	1609.19
398.82	1667.19
399.044	1757.19
399.268	1895.19
399.492	2126.19
399.717	2293.19
399.941	2354.19
400.165	2195.19
400.389	2005.19
400.613	1865.19
400.837	1805.19
401.062	1691.19
401.286	1686.19
401.51	1678.19
401.734	1674.19
401.958	1683.19
402.182	1738.19
402.406	1662.19
402.63	1713.19
402.854	1760.19
403.078	1768.19
403.302	1806.19
403.526	1785.19
403.75	1834.19
403.974	1871.19
404.198	1840.19
404.422	1833.19
404.645	1805.19
404.869	1768.19
405.093	1827.19
405.317	1825.19
405.541	1801.19
405.765	1763.19
405.988	1788.19
406.212	1837.19
406.436	1799.19
406.66	1871.19
406.883	1888.19
407.107	1991.19
407.331	2051.19
407.555	2121.19
407.778	2102.19
408.002	2090.19
408.226	2049.19
408.449	2044.19
408.673	1938.19
408.896	1916.19
409.12	1875.19
409.344	1892.19
409.567	1866.19
409.791	1840.19
410.014	1845.19
410.238	1816.19
410.461	1834.19
410.685	1814.19
410.908	1793.19
411.132	1781.19
411.355	1773.19
411.578	1725.19
411.802	1705.19
412.025	1758.19
412.249	1790.19
412.472	1787.19
412.695	1729.19
412.919	1686.19
413.142	1711.19
413.365	1713.19
413.589	1673.19
413.812	1687.19
414.035	1697.19
414.258	1665.19
414.482	1667.19
414.705	1670.19
414.928	1679.19
415.151	1672.19
415.374	1680.19
415.597	1685.19
415.821	1640.19
416.044	1641.19
416.267	1605.19
416.49	1608.19
416.713	1595.19
416.936	1635.19
417.159	1595.19
417.382	1621.19
417.605	1588.19
417.828	1595.19
418.051	1641.19
418.274	1626.19
418.497	1626.19
418.72	1679.19
418.943	1659.19
419.166	1780.19
419.389	1882.19
419.611	1822.19
419.834	1705.19
420.057	1699.19
420.28	1655.19
420.503	1546.19
420.726	1594.19
420.948	1590.19
421.171	1631.19
421.394	1591.19
421.617	1594.19
421.839	1621.19
422.062	1630.19
422.285	1612.19
422.507	1687.19
422.73	1614.19
422.953	1604.19
423.175	1665.19
423.398	1687.19
423.621	1616.19
423.843	1685.19
424.066	1672.19
424.288	1636.19
424.511	1688.19
424.733	1635.19
424.956	1628.19
425.178	1628.19
425.401	1656.19
425.623	1644.19
425.846	1530.19
426.068	1618.19
426.291	1591.19
426.513	1513.19
426.735	1521.19
426.958	1559.19
427.18	1519.19
427.402	1506.19
427.625	1513.19
427.847	1492.19
428.069	1495.19
428.292	1506.19
428.514	1483.19
428.736	1461.19
428.958	1480.19
429.181	1461.19
429.403	1436.19
429.625	1460.19
429.847	1453.19
430.069	1440.19
430.292	1471.19
430.514	1445.19
430.736	1466.19
430.958	1475.19
431.18	1477.19
431.402	1482.19
431.624	1431.19
431.846	1461.19
432.068	1512.19
432.29	1527.19
432.512	1482.19
432.734	1477.19
432.956	1442.19
433.178	1527.19
433.4	1490.19
433.622	1485.19
433.844	1517.19
434.066	1502.19
434.287	1537.19
434.509	1581.19
434.731	1613.19
434.953	1643.19
435.175	1622.19
435.397	1649.19
435.618	1563.19
435.84	1561.19
436.062	1514.19
436.284	1514.19
436.505	1469.19
436.727	1481.19
436.949	1457.19
437.17	1443.19
437.392	1461.19
437.614	1459.19
437.835	1429.19
438.057	1407.19
438.278	1433.19
438.5	1390.19
438.721	1390.19
438.943	1430.19
439.165	1388.19
439.386	1431.19
439.608	1409.19
439.829	1423.19
440.05	1420.19
440.272	1459.19
440.493	1412.19
440.715	1474.19
440.936	1474.19
441.158	1506.19
441.379	1534.19
441.6	1597.19
441.822	1594.19
442.043	1614.19
442.264	1588.19
442.486	1551.19
442.707	1590.19
442.928	1578.19
443.149	1566.19
443.371	1555.19
443.592	1614.19
443.813	1601.19
444.034	1610.19
444.255	1665.19
444.476	1701.19
444.698	1797.19
444.919	1824.19
445.14	1910.19
445.361	1783.19
445.582	1636.19
445.803	1557.19
446.024	1550.19
446.245	1522.19
446.466	1538.19
446.687	1466.19
446.908	1463.19
447.129	1421.19
447.35	1411.19
447.571	1376.19
447.792	1378.19
448.013	1345.19
448.234	1369.19
448.455	1339.19
448.675	1338.19
448.896	1325.19
449.117	1291.19
449.338	1324.19
449.559	1311.19
449.779	1290.19
450	1272.19
450.221	1278.19
450.442	1316.19
450.662	1317.19
450.883	1326.19
451.104	1313.19
451.324	1340.19
451.545	1315.19
451.766	1316.19
451.986	1307.19
452.207	1283.19
452.428	1297.19
452.648	1310.19
452.869	1289.19
453.089	1276.19
453.31	1261.19
453.53	1239.19
453.751	1255.19
453.971	1218.19
454.192	1271.19
454.412	1231.19
454.633	1257.19
454.853	1233.19
455.073	1233.19
455.294	1281.19
455.514	1272.19
455.734	1257.19
455.955	1217.19
456.175	1240.19
456.395	1220.19
456.616	1218.19
456.836	1253.19
457.056	1227.19
457.276	1204.19
457.497	1240.19
457.717	1258.19
457.937	1245.19
458.157	1272.19
458.377	1311.19
458.598	1341.19
458.818	1325.19
459.038	1352.19
459.258	1400.19
459.478	1467.19
459.698	1484.19
459.918	1524.19
460.138	1569.19
460.358	1604.19
460.578	1644.19
460.798	1669.19
461.018	1646.19
461.238	1698.19
461.458	1659.19
461.678	1645.19
461.898	1673.19
462.118	1689.19
462.338	1740.19
462.558	1785.19
462.777	1859.19
462.997	1973.19
463.217	2063.19
463.437	2082.19
463.657	1942.19
463.876	1915.19
464.096	1914.19
464.316	1886.19
464.536	1906.19
464.755	1828.19
464.975	1783.19
465.195	1757.19
465.414	1660.19
465.634	1546.19
465.854	1521.19
466.073	1472.19
466.293	1455.19
466.512	1424.19
466.732	1406.19
466.951	1415.19
467.171	1383.19
467.391	1389.19
467.61	1351.19
467.829	1379.19
468.049	1374.19
468.268	1345.19
468.488	1313.19
468.707	1287.19
468.927	1347.19
469.146	1303.19
469.365	1357.19
469.585	1353.19
469.804	1365.19
470.023	1401.19
470.243	1424.19
470.462	1428.19
470.681	1429.19
470.901	1382.19
471.12	1423.19
471.339	1379.19
471.558	1346.19
471.777	1373.19
471.997	1366.19
472.216	1364.19
472.435	1360.19
472.654	1346.19
472.873	1339.19
473.092	1362.19
473.311	1340.19
473.53	1339.19
473.749	1318.19
473.968	1323.19
474.187	1303.19
474.406	1304.19
474.625	1363.19
474.844	1362.19
475.063	1354.19
475.282	1344.19
475.501	1307.19
475.72	1373.19
475.939	1349.19
476.158	1355.19
476.377	1383.19
476.596	1398.19
476.814	1397.19
477.033	1411.19
477.252	1469.19
477.471	1477.19
477.69	1477.19
477.908	1505.19
478.127	1534.19
478.346	1521.19
478.564	1605.19
478.783	1617.19
479.002	1631.19
479.22	1649.19
479.439	1644.19
479.658	1637.19
479.876	1648.19
480.095	1695.19
480.313	1743.19
480.532	1755.19
480.751	1734.19
480.969	1709.19
481.188	1691.19
481.406	1624.19
481.624	1655.19
481.843	1601.19
482.061	1611.19
482.28	1652.19
482.498	1601.19
482.717	1583.19
482.935	1613.19
483.153	1630.19
483.372	1598.19
483.59	1623.19
483.808	1636.19
484.027	1647.19
484.245	1691.19
484.463	1661.19
484.681	1733.19
484.9	1707.19
485.118	1702.19
485.336	1767.19
485.554	1771.19
485.772	1773.19
485.99	1772.19
486.209	1739.19
486.427	1783.19
486.645	1731.19
486.863	1737.19
487.081	1722.19
487.299	1731.19
487.517	1735.19
487.735	1718.19
487.953	1736.19
488.171	1748.19
488.389	1723.19
488.607	1662.19
488.825	1693.19
489.043	1710.19
489.261	1655.19
489.479	1697.19
489.696	1649.19
489.914	1676.19
490.132	1690.19
490.35	1669.19
490.568	1677.19
490.786	1654.19
491.003	1685.19
