Data from NiCl2@0.5M.TitratingCurve.Agarose3%dH2O.NegLispCup.LampEnergy10.LIBS07252019_HRD10591_18-20-21-571.txt Node
Date: Thu Jul 25 18:20:21 EDT 2019
User: cochatt
Spectrometer: HR+D1059
Trigger mode: 1
Integration Time (sec): 1.000000E-1
Scans to average: 1
Electric dark correction enabled: true
Nonlinearity correction enabled: false
Boxcar width: 0
XAxis mode: Wavelengths
Number of Pixels in Spectrum: 2048
>>>>>Begin Spectral Data<<<<<
223.165	-23.31
223.4	-23.31
223.635	-23.31
223.869	-10.31
224.104	-14.31
224.338	-14.31
224.573	-28.31
224.808	-19.31
225.042	-14.31
225.277	4.69
225.511	5.69
225.746	0.69
225.98	19.69
226.215	13.69
226.449	14.69
226.683	23.69
226.918	26.69
227.152	14.69
227.387	48.69
227.621	23.69
227.856	44.69
228.09	49.69
228.324	57.69
228.559	57.69
228.793	73.69
229.027	94.69
229.262	96.69
229.496	104.69
229.73	114.69
229.964	132.69
230.199	129.69
230.433	119.69
230.667	126.69
230.901	118.69
231.136	127.69
231.37	137.69
231.604	131.69
231.838	128.69
232.072	129.69
232.306	139.69
232.541	151.69
232.775	143.69
233.009	131.69
233.243	123.69
233.477	139.69
233.711	139.69
233.945	147.69
234.179	145.69
234.413	134.69
234.647	137.69
234.881	144.69
235.115	140.69
235.349	135.69
235.583	125.69
235.817	133.69
236.051	153.69
236.285	142.69
236.519	151.69
236.753	140.69
236.987	135.69
237.221	140.69
237.455	138.69
237.689	147.69
237.922	144.69
238.156	153.69
238.39	148.69
238.624	166.69
238.858	147.69
239.091	157.69
239.325	161.69
239.559	167.69
239.793	161.69
240.027	174.69
240.26	169.69
240.494	153.69
240.728	159.69
240.961	159.69
241.195	148.69
241.429	159.69
241.662	161.69
241.896	164.69
242.13	176.69
242.363	175.69
242.597	174.69
242.83	170.69
243.064	162.69
243.298	187.69
243.531	183.69
243.765	200.69
243.998	188.69
244.232	179.69
244.465	185.69
244.699	199.69
244.932	184.69
245.166	178.69
245.399	196.69
245.633	171.69
245.866	191.69
246.099	188.69
246.333	208.69
246.566	206.69
246.8	202.69
247.033	207.69
247.266	204.69
247.5	195.69
247.733	205.69
247.966	203.69
248.2	173.69
248.433	206.69
248.666	193.69
248.899	199.69
249.133	201.69
249.366	215.69
249.599	202.69
249.832	197.69
250.066	222.69
250.299	215.69
250.532	211.69
250.765	212.69
250.998	240.69
251.231	229.69
251.465	230.69
251.698	226.69
251.931	224.69
252.164	242.69
252.397	230.69
252.63	240.69
252.863	227.69
253.096	237.69
253.329	239.69
253.562	234.69
253.795	245.69
254.028	237.69
254.261	245.69
254.494	241.69
254.727	243.69
254.96	244.69
255.193	253.69
255.426	257.69
255.659	239.69
255.892	258.69
256.124	250.69
256.357	239.69
256.59	259.69
256.823	253.69
257.056	238.69
257.289	255.69
257.521	274.69
257.754	248.69
257.987	256.69
258.22	262.69
258.452	251.69
258.685	264.69
258.918	265.69
259.151	276.69
259.383	270.69
259.616	249.69
259.849	280.69
260.081	266.69
260.314	285.69
260.547	276.69
260.779	280.69
261.012	287.69
261.244	282.69
261.477	297.69
261.71	274.69
261.942	269.69
262.175	284.69
262.407	284.69
262.64	275.69
262.872	276.69
263.105	279.69
263.337	273.69
263.57	268.69
263.802	290.69
264.035	299.69
264.267	310.69
264.499	304.69
264.732	270.69
264.964	288.69
265.197	297.69
265.429	306.69
265.661	308.69
265.894	326.69
266.126	308.69
266.358	284.69
266.591	301.69
266.823	324.69
267.055	323.69
267.287	304.69
267.52	313.69
267.752	318.69
267.984	323.69
268.216	300.69
268.448	320.69
268.681	314.69
268.913	328.69
269.145	306.69
269.377	316.69
269.609	317.69
269.841	313.69
270.073	337.69
270.306	316.69
270.538	339.69
270.77	333.69
271.002	324.69
271.234	312.69
271.466	336.69
271.698	331.69
271.93	341.69
272.162	329.69
272.394	337.69
272.626	327.69
272.858	346.69
273.09	353.69
273.322	341.69
273.553	350.69
273.785	360.69
274.017	359.69
274.249	348.69
274.481	357.69
274.713	361.69
274.945	356.69
275.176	363.69
275.408	357.69
275.64	362.69
275.872	373.69
276.104	345.69
276.335	353.69
276.567	372.69
276.799	352.69
277.031	361.69
277.262	391.69
277.494	379.69
277.726	363.69
277.957	387.69
278.189	370.69
278.421	370.69
278.652	374.69
278.884	391.69
279.115	393.69
279.347	372.69
279.579	369.69
279.81	403.69
280.042	384.69
280.273	393.69
280.505	401.69
280.736	403.69
280.968	398.69
281.199	415.69
281.431	418.69
281.662	403.69
281.894	392.69
282.125	407.69
282.356	407.69
282.588	397.69
282.819	393.69
283.051	398.69
283.282	396.69
283.513	415.69
283.745	433.69
283.976	424.69
284.207	403.69
284.439	424.69
284.67	416.69
284.901	415.69
285.132	424.69
285.364	417.69
285.595	405.69
285.826	435.69
286.057	429.69
286.288	428.69
286.52	444.69
286.751	425.69
286.982	417.69
287.213	418.69
287.444	440.69
287.675	432.69
287.906	441.69
288.138	434.69
288.369	426.69
288.6	452.69
288.831	444.69
289.062	443.69
289.293	452.69
289.524	441.69
289.755	439.69
289.986	434.69
290.217	458.69
290.448	451.69
290.679	443.69
290.91	462.69
291.141	470.69
291.371	454.69
291.602	472.69
291.833	455.69
292.064	449.69
292.295	452.69
292.526	472.69
292.757	454.69
292.987	461.69
293.218	481.69
293.449	461.69
293.68	478.69
293.91	451.69
294.141	460.69
294.372	450.69
294.603	465.69
294.833	464.69
295.064	456.69
295.295	476.69
295.525	479.69
295.756	480.69
295.987	473.69
296.217	487.69
296.448	473.69
296.679	459.69
296.909	470.69
297.14	486.69
297.37	484.69
297.601	498.69
297.831	486.69
298.062	509.69
298.292	509.69
298.523	502.69
298.753	496.69
298.984	471.69
299.214	488.69
299.445	503.69
299.675	503.69
299.905	497.69
300.136	482.69
300.366	506.69
300.597	526.69
300.827	545.69
301.057	521.69
301.288	519.69
301.518	537.69
301.748	516.69
301.979	529.69
302.209	546.69
302.439	522.69
302.669	514.69
302.9	526.69
303.13	504.69
303.36	518.69
303.59	533.69
303.82	549.69
304.051	533.69
304.281	524.69
304.511	563.69
304.741	522.69
304.971	513.69
305.201	533.69
305.431	513.69
305.661	537.69
305.891	521.69
306.121	550.69
306.352	503.69
306.582	528.69
306.812	517.69
307.042	527.69
307.272	533.69
307.502	503.69
307.731	517.69
307.961	524.69
308.191	535.69
308.421	490.69
308.651	524.69
308.881	537.69
309.111	533.69
309.341	522.69
309.571	514.69
309.8	522.69
310.03	542.69
310.26	524.69
310.49	530.69
310.72	536.69
310.949	526.69
311.179	501.69
311.409	538.69
311.639	563.69
311.868	528.69
312.098	535.69
312.328	555.69
312.557	515.69
312.787	536.69
313.017	507.69
313.246	560.69
313.476	569.69
313.706	571.69
313.935	585.69
314.165	585.69
314.394	573.69
314.624	548.69
314.853	554.69
315.083	533.69
315.312	539.69
315.542	563.69
315.771	547.69
316.001	541.69
316.23	556.69
316.46	548.69
316.689	554.69
316.919	528.69
317.148	520.69
317.377	558.69
317.607	537.69
317.836	537.69
318.065	552.69
318.295	547.69
318.524	533.69
318.753	536.69
318.983	529.69
319.212	532.69
319.441	569.69
319.67	565.69
319.9	542.69
320.129	564.69
320.358	563.69
320.587	552.69
320.816	575.69
321.046	556.69
321.275	565.69
321.504	566.69
321.733	568.69
321.962	561.69
322.191	557.69
322.42	575.69
322.649	563.69
322.878	549.69
323.108	571.69
323.337	572.69
323.566	594.69
323.795	583.69
324.024	585.69
324.253	576.69
324.482	591.69
324.71	578.69
324.939	569.69
325.168	597.69
325.397	605.69
325.626	600.69
325.855	618.69
326.084	600.69
326.313	586.69
326.542	582.69
326.77	593.69
326.999	589.69
327.228	603.69
327.457	566.69
327.686	599.69
327.914	610.69
328.143	609.69
328.372	612.69
328.6	607.69
328.829	620.69
329.058	625.69
329.287	589.69
329.515	596.69
329.744	638.69
329.972	634.69
330.201	616.69
330.43	635.69
330.658	613.69
330.887	641.69
331.115	633.69
331.344	663.69
331.572	650.69
331.801	660.69
332.03	675.69
332.258	681.69
332.486	693.69
332.715	693.69
332.943	715.69
333.172	749.69
333.4	762.69
333.629	769.69
333.857	793.69
334.085	792.69
334.314	779.69
334.542	769.69
334.771	759.69
334.999	744.69
335.227	756.69
335.455	748.69
335.684	730.69
335.912	708.69
336.14	733.69
336.369	733.69
336.597	738.69
336.825	719.69
337.053	717.69
337.281	714.69
337.51	682.69
337.738	680.69
337.966	682.69
338.194	679.69
338.422	675.69
338.65	673.69
338.878	683.69
339.106	666.69
339.334	712.69
339.562	654.69
339.79	643.69
340.018	649.69
340.246	617.69
340.474	639.69
340.702	631.69
340.93	646.69
341.158	652.69
341.386	640.69
341.614	660.69
341.842	660.69
342.07	637.69
342.298	631.69
342.526	643.69
342.754	619.69
342.981	644.69
343.209	656.69
343.437	663.69
343.665	706.69
343.893	745.69
344.12	746.69
344.348	741.69
344.576	704.69
344.804	703.69
345.031	675.69
345.259	662.69
345.487	665.69
345.714	620.69
345.942	645.69
346.17	647.69
346.397	640.69
346.625	617.69
346.853	623.69
347.08	626.69
347.308	642.69
347.535	624.69
347.763	611.69
347.99	615.69
348.218	592.69
348.445	592.69
348.673	607.69
348.9	592.69
349.128	625.69
349.355	584.69
349.583	616.69
349.81	599.69
350.037	612.69
350.265	598.69
350.492	605.69
350.72	600.69
350.947	608.69
351.174	597.69
351.402	606.69
351.629	615.69
351.856	583.69
352.083	588.69
352.311	612.69
352.538	607.69
352.765	611.69
352.992	604.69
353.22	587.69
353.447	597.69
353.674	570.69
353.901	588.69
354.128	576.69
354.355	584.69
354.583	575.69
354.81	585.69
355.037	596.69
355.264	584.69
355.491	590.69
355.718	581.69
355.945	597.69
356.172	597.69
356.399	609.69
356.626	612.69
356.853	616.69
357.08	581.69
357.307	576.69
357.534	601.69
357.761	577.69
357.988	591.69
358.215	598.69
358.441	588.69
358.668	591.69
358.895	602.69
359.122	585.69
359.349	563.69
359.576	589.69
359.802	580.69
360.029	582.69
360.256	579.69
360.483	603.69
360.709	573.69
360.936	585.69
361.163	593.69
361.39	598.69
361.616	597.69
361.843	595.69
362.07	613.69
362.296	601.69
362.523	566.69
362.749	581.69
362.976	581.69
363.203	585.69
363.429	580.69
363.656	602.69
363.882	562.69
364.109	577.69
364.335	569.69
364.562	577.69
364.788	561.69
365.015	565.69
365.241	565.69
365.468	564.69
365.694	561.69
365.92	586.69
366.147	583.69
366.373	561.69
366.599	574.69
366.826	574.69
367.052	568.69
367.278	577.69
367.505	591.69
367.731	570.69
367.957	584.69
368.184	582.69
368.41	583.69
368.636	560.69
368.862	610.69
369.089	610.69
369.315	601.69
369.541	590.69
369.767	602.69
369.993	591.69
370.219	602.69
370.445	602.69
370.672	607.69
370.898	595.69
371.124	611.69
371.35	642.69
371.576	616.69
371.802	623.69
372.028	631.69
372.254	619.69
372.48	597.69
372.706	652.69
372.932	639.69
373.158	611.69
373.384	654.69
373.61	631.69
373.835	623.69
374.061	636.69
374.287	645.69
374.513	616.69
374.739	653.69
374.965	664.69
375.191	659.69
375.416	642.69
375.642	631.69
375.868	637.69
376.094	633.69
376.319	612.69
376.545	605.69
376.771	604.69
376.997	615.69
377.222	625.69
377.448	601.69
377.674	613.69
377.899	614.69
378.125	601.69
378.35	603.69
378.576	610.69
378.802	609.69
379.027	611.69
379.253	598.69
379.478	606.69
379.704	616.69
379.929	608.69
380.155	612.69
380.38	604.69
380.606	597.69
380.831	619.69
381.057	596.69
381.282	605.69
381.507	623.69
381.733	631.69
381.958	631.69
382.184	637.69
382.409	627.69
382.634	634.69
382.86	644.69
383.085	641.69
383.31	649.69
383.535	665.69
383.761	685.69
383.986	669.69
384.211	708.69
384.436	696.69
384.662	703.69
384.887	722.69
385.112	699.69
385.337	731.69
385.562	723.69
385.787	711.69
386.013	728.69
386.238	733.69
386.463	717.69
386.688	716.69
386.913	722.69
387.138	725.69
387.363	705.69
387.588	724.69
387.813	722.69
388.038	716.69
388.263	742.69
388.488	722.69
388.713	705.69
388.938	695.69
389.163	703.69
389.387	697.69
389.612	694.69
389.837	716.69
390.062	704.69
390.287	704.69
390.512	708.69
390.736	701.69
390.961	747.69
391.186	727.69
391.411	746.69
391.636	769.69
391.86	800.69
392.085	810.69
392.31	805.69
392.534	776.69
392.759	788.69
392.984	754.69
393.208	738.69
393.433	735.69
393.658	743.69
393.882	759.69
394.107	765.69
394.331	768.69
394.556	760.69
394.78	777.69
395.005	777.69
395.229	745.69
395.454	803.69
395.678	810.69
395.903	799.69
396.127	793.69
396.352	776.69
396.576	754.69
396.801	781.69
397.025	758.69
397.249	836.69
397.474	808.69
397.698	811.69
397.922	820.69
398.147	804.69
398.371	828.69
398.595	852.69
398.82	880.69
399.044	947.69
399.268	1055.69
399.492	1136.69
399.717	1265.69
399.941	1299.69
400.165	1145.69
400.389	1063.69
400.613	1004.69
400.837	956.69
401.062	901.69
401.286	889.69
401.51	925.69
401.734	863.69
401.958	915.69
402.182	903.69
402.406	919.69
402.63	913.69
402.854	948.69
403.078	968.69
403.302	952.69
403.526	966.69
403.75	978.69
403.974	1037.69
404.198	995.69
404.422	995.69
404.645	1018.69
404.869	997.69
405.093	979.69
405.317	999.69
405.541	977.69
405.765	953.69
405.988	968.69
406.212	980.69
406.436	954.69
406.66	973.69
406.883	1029.69
407.107	1079.69
407.331	1096.69
407.555	1137.69
407.778	1159.69
408.002	1085.69
408.226	1087.69
408.449	1042.69
408.673	1037.69
408.896	1023.69
409.12	1034.69
409.344	1022.69
409.567	999.69
409.791	1017.69
410.014	1002.69
410.238	976.69
410.461	1000.69
410.685	968.69
410.908	982.69
411.132	932.69
411.355	920.69
411.578	943.69
411.802	910.69
412.025	925.69
412.249	973.69
412.472	940.69
412.695	912.69
412.919	906.69
413.142	921.69
413.365	905.69
413.589	904.69
413.812	915.69
414.035	885.69
414.258	896.69
414.482	889.69
414.705	923.69
414.928	912.69
415.151	909.69
415.374	905.69
415.597	902.69
415.821	898.69
416.044	873.69
416.267	911.69
416.49	871.69
416.713	881.69
416.936	897.69
417.159	888.69
417.382	889.69
417.605	883.69
417.828	864.69
418.051	898.69
418.274	911.69
418.497	900.69
418.72	896.69
418.943	949.69
419.166	981.69
419.389	1037.69
419.611	1010.69
419.834	958.69
420.057	940.69
420.28	928.69
420.503	893.69
420.726	883.69
420.948	895.69
421.171	869.69
421.394	912.69
421.617	870.69
421.839	899.69
422.062	889.69
422.285	907.69
422.507	904.69
422.73	935.69
422.953	923.69
423.175	922.69
423.398	929.69
423.621	927.69
423.843	933.69
424.066	953.69
424.288	932.69
424.511	928.69
424.733	915.69
424.956	903.69
425.178	943.69
425.401	896.69
425.623	924.69
425.846	865.69
426.068	883.69
426.291	873.69
426.513	859.69
426.735	854.69
426.958	870.69
427.18	850.69
427.402	860.69
427.625	834.69
427.847	832.69
428.069	827.69
428.292	851.69
428.514	846.69
428.736	799.69
428.958	817.69
429.181	804.69
429.403	811.69
429.625	809.69
429.847	805.69
430.069	800.69
430.292	812.69
430.514	810.69
430.736	816.69
430.958	821.69
431.18	832.69
431.402	808.69
431.624	822.69
431.846	852.69
432.068	840.69
432.29	827.69
432.512	812.69
432.734	845.69
432.956	840.69
433.178	823.69
433.4	842.69
433.622	830.69
433.844	839.69
434.066	846.69
434.287	866.69
434.509	871.69
434.731	880.69
434.953	904.69
435.175	913.69
435.397	937.69
435.618	866.69
435.84	867.69
436.062	853.69
436.284	812.69
436.505	820.69
436.727	832.69
436.949	844.69
437.17	848.69
437.392	815.69
437.614	807.69
437.835	794.69
438.057	810.69
438.278	801.69
438.5	803.69
438.721	797.69
438.943	829.69
439.165	825.69
439.386	811.69
439.608	810.69
439.829	833.69
440.05	860.69
440.272	865.69
440.493	854.69
440.715	869.69
440.936	872.69
441.158	858.69
441.379	880.69
441.6	938.69
441.822	924.69
442.043	917.69
442.264	893.69
442.486	895.69
442.707	894.69
442.928	896.69
443.149	913.69
443.371	889.69
443.592	963.69
443.813	924.69
444.034	935.69
444.255	991.69
444.476	1013.69
444.698	1045.69
444.919	1101.69
445.14	1126.69
445.361	1037.69
445.582	983.69
445.803	914.69
446.024	915.69
446.245	854.69
446.466	863.69
446.687	823.69
446.908	845.69
447.129	825.69
447.35	848.69
447.571	821.69
447.792	797.69
448.013	792.69
448.234	806.69
448.455	793.69
448.675	792.69
448.896	822.69
449.117	765.69
449.338	786.69
449.559	777.69
449.779	771.69
450	748.69
450.221	755.69
450.442	769.69
450.662	791.69
450.883	794.69
451.104	799.69
451.324	768.69
451.545	783.69
451.766	788.69
451.986	761.69
452.207	754.69
452.428	766.69
452.648	770.69
452.869	743.69
453.089	760.69
453.31	767.69
453.53	713.69
453.751	728.69
453.971	733.69
454.192	745.69
454.412	757.69
454.633	745.69
454.853	740.69
455.073	743.69
455.294	739.69
455.514	734.69
455.734	730.69
455.955	732.69
456.175	741.69
456.395	724.69
456.616	713.69
456.836	727.69
457.056	751.69
457.276	699.69
457.497	726.69
457.717	739.69
457.937	748.69
458.157	737.69
458.377	757.69
458.598	777.69
458.818	765.69
459.038	827.69
459.258	810.69
459.478	857.69
459.698	884.69
459.918	878.69
460.138	910.69
460.358	976.69
460.578	952.69
460.798	966.69
461.018	995.69
461.238	976.69
461.458	971.69
461.678	957.69
461.898	1004.69
462.118	995.69
462.338	1039.69
462.558	1076.69
462.777	1101.69
462.997	1159.69
463.217	1265.69
463.437	1238.69
463.657	1171.69
463.876	1151.69
464.096	1121.69
464.316	1130.69
464.536	1101.69
464.755	1101.69
464.975	1054.69
465.195	994.69
465.414	972.69
465.634	933.69
465.854	883.69
466.073	844.69
466.293	852.69
466.512	844.69
466.732	804.69
466.951	816.69
467.171	821.69
467.391	818.69
467.61	820.69
467.829	830.69
468.049	824.69
468.268	808.69
468.488	791.69
468.707	793.69
468.927	811.69
469.146	796.69
469.365	799.69
469.585	817.69
469.804	826.69
470.023	829.69
470.243	834.69
470.462	847.69
470.681	844.69
470.901	872.69
471.12	863.69
471.339	851.69
471.558	824.69
471.777	804.69
471.997	815.69
472.216	804.69
472.435	775.69
472.654	770.69
472.873	777.69
473.092	758.69
473.311	779.69
473.53	780.69
473.749	765.69
473.968	785.69
474.187	775.69
474.406	796.69
474.625	792.69
474.844	768.69
475.063	803.69
475.282	812.69
475.501	816.69
475.72	815.69
475.939	803.69
476.158	828.69
476.377	818.69
476.596	795.69
476.814	833.69
477.033	828.69
477.252	843.69
477.471	864.69
477.69	912.69
477.908	887.69
478.127	935.69
478.346	924.69
478.564	955.69
478.783	932.69
479.002	962.69
479.22	968.69
479.439	959.69
479.658	948.69
479.876	973.69
480.095	992.69
480.313	1029.69
480.532	1043.69
480.751	1024.69
480.969	961.69
481.188	964.69
481.406	915.69
481.624	935.69
481.843	899.69
482.061	868.69
482.28	896.69
482.498	891.69
482.717	905.69
482.935	911.69
483.153	905.69
483.372	915.69
483.59	923.69
483.808	917.69
484.027	900.69
484.245	894.69
484.463	920.69
484.681	968.69
484.9	935.69
485.118	930.69
485.336	902.69
485.554	941.69
485.772	912.69
485.99	929.69
486.209	941.69
486.427	941.69
486.645	931.69
486.863	961.69
487.081	950.69
487.299	940.69
487.517	930.69
487.735	939.69
487.953	947.69
488.171	968.69
488.389	936.69
488.607	940.69
488.825	929.69
489.043	923.69
489.261	918.69
489.479	929.69
489.696	934.69
489.914	937.69
490.132	948.69
490.35	949.69
490.568	947.69
490.786	969.69
491.003	947.69
491.221	958.69
491.439	946.69
491.657	951.69
491.874	978.69
492.092	992.69
492.31	1003.69
492.527	1005.69
492.745	1009.69
492.963	1011.69
493.18	974.69
493.398	1010.69
493.615	1003.69
493.833	1006.69
494.05	1004.69
494.268	1003.69
494.485	1007.69
494.703	1019.69
494.92	982.69
495.138	995.69
495.355	1021.69
495.573	1001.69
495.79	1013.69
496.008	1061.69
496.225	1030.69
496.442	1039.69
496.66	1047.69
496.877	1061.69
497.094	1080.69
497.312	1100.69
497.529	1111.69
497.746	1159.69
497.963	1157.69
498.181	1205.69
498.398	1252.69
498.615	1303.69
498.832	1425.69
499.049	1498.69
499.267	1559.69
499.484	1765.69
499.701	1886.69
499.918	2078.69
500.135	2318.69
500.352	2591.69
500.569	2633.69
