Data from NiCl2@0.125M.TitratingCurve.Agarose3%dH2O.NegLispCup.LampEnergy10.LIBS07252019_HRD10591_18-29-52-575.txt Node
Date: Thu Jul 25 18:29:52 EDT 2019
User: cochatt
Spectrometer: HR+D1059
Trigger mode: 1
Integration Time (sec): 1.000000E-1
Scans to average: 1
Electric dark correction enabled: true
Nonlinearity correction enabled: false
Boxcar width: 0
XAxis mode: Wavelengths
Number of Pixels in Spectrum: 2048
>>>>>Begin Spectral Data<<<<<
223.165	-4.25
223.4	-4.25
223.635	-4.25
223.869	-19.25
224.104	-21.25
224.338	-17.25
224.573	-15.25
224.808	-6.25
225.042	-7.25
225.277	7.75
225.511	-12.25
225.746	-10.25
225.98	8.75
226.215	6.75
226.449	12.75
226.683	30.75
226.918	25.75
227.152	20.75
227.387	25.75
227.621	43.75
227.856	38.75
228.09	44.75
228.324	45.75
228.559	59.75
228.793	82.75
229.027	110.75
229.262	138.75
229.496	124.75
229.73	124.75
229.964	125.75
230.199	135.75
230.433	124.75
230.667	146.75
230.901	131.75
231.136	122.75
231.37	130.75
231.604	141.75
231.838	154.75
232.072	133.75
232.306	136.75
232.541	143.75
232.775	140.75
233.009	150.75
233.243	155.75
233.477	153.75
233.711	136.75
233.945	142.75
234.179	138.75
234.413	154.75
234.647	136.75
234.881	146.75
235.115	154.75
235.349	140.75
235.583	132.75
235.817	127.75
236.051	164.75
236.285	169.75
236.519	148.75
236.753	152.75
236.987	152.75
237.221	160.75
237.455	161.75
237.689	177.75
237.922	181.75
238.156	160.75
238.39	154.75
238.624	164.75
238.858	162.75
239.091	161.75
239.325	174.75
239.559	165.75
239.793	183.75
240.027	184.75
240.26	177.75
240.494	171.75
240.728	197.75
240.961	170.75
241.195	190.75
241.429	185.75
241.662	173.75
241.896	173.75
242.13	188.75
242.363	192.75
242.597	191.75
242.83	195.75
243.064	203.75
243.298	210.75
243.531	193.75
243.765	203.75
243.998	189.75
244.232	208.75
244.465	191.75
244.699	195.75
244.932	198.75
245.166	212.75
245.399	198.75
245.633	213.75
245.866	221.75
246.099	214.75
246.333	227.75
246.566	227.75
246.8	230.75
247.033	229.75
247.266	221.75
247.5	217.75
247.733	229.75
247.966	244.75
248.2	234.75
248.433	235.75
248.666	240.75
248.899	222.75
249.133	224.75
249.366	240.75
249.599	222.75
249.832	232.75
250.066	242.75
250.299	252.75
250.532	274.75
250.765	240.75
250.998	234.75
251.231	240.75
251.465	255.75
251.698	262.75
251.931	253.75
252.164	250.75
252.397	258.75
252.63	260.75
252.863	264.75
253.096	271.75
253.329	257.75
253.562	274.75
253.795	264.75
254.028	288.75
254.261	281.75
254.494	269.75
254.727	271.75
254.96	272.75
255.193	274.75
255.426	291.75
255.659	288.75
255.892	282.75
256.124	265.75
256.357	277.75
256.59	289.75
256.823	285.75
257.056	289.75
257.289	277.75
257.521	292.75
257.754	283.75
257.987	304.75
258.22	309.75
258.452	291.75
258.685	300.75
258.918	321.75
259.151	310.75
259.383	310.75
259.616	300.75
259.849	304.75
260.081	288.75
260.314	318.75
260.547	316.75
260.779	295.75
261.012	301.75
261.244	319.75
261.477	308.75
261.71	316.75
261.942	318.75
262.175	314.75
262.407	341.75
262.64	331.75
262.872	339.75
263.105	325.75
263.337	329.75
263.57	337.75
263.802	336.75
264.035	345.75
264.267	348.75
264.499	333.75
264.732	344.75
264.964	353.75
265.197	347.75
265.429	340.75
265.661	333.75
265.894	358.75
266.126	357.75
266.358	353.75
266.591	342.75
266.823	352.75
267.055	328.75
267.287	344.75
267.52	343.75
267.752	339.75
267.984	348.75
268.216	355.75
268.448	357.75
268.681	369.75
268.913	354.75
269.145	363.75
269.377	361.75
269.609	361.75
269.841	361.75
270.073	353.75
270.306	372.75
270.538	391.75
270.77	382.75
271.002	378.75
271.234	366.75
271.466	380.75
271.698	393.75
271.93	365.75
272.162	386.75
272.394	381.75
272.626	377.75
272.858	378.75
273.09	396.75
273.322	408.75
273.553	380.75
273.785	376.75
274.017	390.75
274.249	385.75
274.481	374.75
274.713	385.75
274.945	382.75
275.176	389.75
275.408	406.75
275.64	382.75
275.872	397.75
276.104	409.75
276.335	413.75
276.567	400.75
276.799	402.75
277.031	418.75
277.262	434.75
277.494	419.75
277.726	407.75
277.957	421.75
278.189	406.75
278.421	418.75
278.652	419.75
278.884	438.75
279.115	417.75
279.347	422.75
279.579	417.75
279.81	426.75
280.042	402.75
280.273	426.75
280.505	430.75
280.736	438.75
280.968	434.75
281.199	440.75
281.431	434.75
281.662	436.75
281.894	468.75
282.125	446.75
282.356	453.75
282.588	452.75
282.819	465.75
283.051	452.75
283.282	449.75
283.513	459.75
283.745	478.75
283.976	474.75
284.207	461.75
284.439	477.75
284.67	459.75
284.901	462.75
285.132	468.75
285.364	483.75
285.595	483.75
285.826	481.75
286.057	489.75
286.288	480.75
286.52	502.75
286.751	477.75
286.982	494.75
287.213	458.75
287.444	481.75
287.675	494.75
287.906	503.75
288.138	488.75
288.369	496.75
288.6	520.75
288.831	482.75
289.062	493.75
289.293	497.75
289.524	498.75
289.755	488.75
289.986	502.75
290.217	480.75
290.448	504.75
290.679	497.75
290.91	514.75
291.141	511.75
291.371	514.75
291.602	495.75
291.833	507.75
292.064	504.75
292.295	499.75
292.526	524.75
292.757	493.75
292.987	526.75
293.218	502.75
293.449	524.75
293.68	524.75
293.91	524.75
294.141	515.75
294.372	509.75
294.603	500.75
294.833	537.75
295.064	536.75
295.295	534.75
295.525	530.75
295.756	548.75
295.987	534.75
296.217	510.75
296.448	538.75
296.679	562.75
296.909	518.75
297.14	553.75
297.37	547.75
297.601	548.75
297.831	554.75
298.062	551.75
298.292	569.75
298.523	603.75
298.753	580.75
298.984	567.75
299.214	545.75
299.445	553.75
299.675	565.75
299.905	570.75
300.136	549.75
300.366	585.75
300.597	585.75
300.827	550.75
301.057	593.75
301.288	578.75
301.518	598.75
301.748	560.75
301.979	569.75
302.209	581.75
302.439	610.75
302.669	594.75
302.9	582.75
303.13	548.75
303.36	557.75
303.59	590.75
303.82	582.75
304.051	562.75
304.281	570.75
304.511	576.75
304.741	584.75
304.971	605.75
305.201	571.75
305.431	586.75
305.661	562.75
305.891	564.75
306.121	569.75
306.352	571.75
306.582	570.75
306.812	535.75
307.042	546.75
307.272	558.75
307.502	554.75
307.731	564.75
307.961	546.75
308.191	540.75
308.421	537.75
308.651	565.75
308.881	556.75
309.111	588.75
309.341	550.75
309.571	552.75
309.8	580.75
310.03	557.75
310.26	564.75
310.49	564.75
310.72	573.75
310.949	552.75
311.179	570.75
311.409	565.75
311.639	556.75
311.868	567.75
312.098	582.75
312.328	580.75
312.557	580.75
312.787	587.75
313.017	594.75
313.246	596.75
313.476	616.75
313.706	595.75
313.935	601.75
314.165	602.75
314.394	595.75
314.624	592.75
314.853	586.75
315.083	601.75
315.312	600.75
315.542	615.75
315.771	621.75
316.001	571.75
316.23	576.75
316.46	586.75
316.689	608.75
316.919	567.75
317.148	590.75
317.377	587.75
317.607	570.75
317.836	573.75
318.065	582.75
318.295	590.75
318.524	581.75
318.753	589.75
318.983	574.75
319.212	576.75
319.441	590.75
319.67	584.75
319.9	580.75
320.129	584.75
320.358	590.75
320.587	572.75
320.816	575.75
321.046	599.75
321.275	572.75
321.504	560.75
321.733	580.75
321.962	595.75
322.191	557.75
322.42	579.75
322.649	578.75
322.878	570.75
323.108	591.75
323.337	611.75
323.566	590.75
323.795	604.75
324.024	602.75
324.253	581.75
324.482	603.75
324.71	596.75
324.939	613.75
325.168	633.75
325.397	602.75
325.626	604.75
325.855	607.75
326.084	640.75
326.313	648.75
326.542	638.75
326.77	661.75
326.999	637.75
327.228	629.75
327.457	645.75
327.686	653.75
327.914	641.75
328.143	630.75
328.372	630.75
328.6	646.75
328.829	643.75
329.058	605.75
329.287	653.75
329.515	636.75
329.744	642.75
329.972	648.75
330.201	644.75
330.43	666.75
330.658	656.75
330.887	650.75
331.115	663.75
331.344	653.75
331.572	673.75
331.801	708.75
332.03	717.75
332.258	714.75
332.486	733.75
332.715	760.75
332.943	821.75
333.172	800.75
333.4	849.75
333.629	882.75
333.857	875.75
334.085	904.75
334.314	870.75
334.542	833.75
334.771	834.75
334.999	796.75
335.227	802.75
335.455	804.75
335.684	806.75
335.912	802.75
336.14	786.75
336.369	801.75
336.597	810.75
336.825	805.75
337.053	773.75
337.281	752.75
337.51	736.75
337.738	700.75
337.966	701.75
338.194	712.75
338.422	685.75
338.65	719.75
338.878	666.75
339.106	709.75
339.334	672.75
339.562	709.75
339.79	693.75
340.018	650.75
340.246	656.75
340.474	670.75
340.702	674.75
340.93	684.75
341.158	674.75
341.386	648.75
341.614	644.75
341.842	668.75
342.07	642.75
342.298	663.75
342.526	658.75
342.754	634.75
342.981	685.75
343.209	678.75
343.437	723.75
343.665	740.75
343.893	823.75
344.12	844.75
344.348	801.75
344.576	784.75
344.804	741.75
345.031	722.75
345.259	677.75
345.487	692.75
345.714	679.75
345.942	685.75
346.17	675.75
346.397	678.75
346.625	652.75
346.853	655.75
347.08	645.75
347.308	652.75
347.535	661.75
347.763	676.75
347.99	650.75
348.218	672.75
348.445	696.75
348.673	653.75
348.9	652.75
349.128	649.75
349.355	645.75
349.583	629.75
349.81	643.75
350.037	615.75
350.265	612.75
350.492	610.75
350.72	649.75
350.947	626.75
351.174	642.75
351.402	641.75
351.629	625.75
351.856	641.75
352.083	616.75
352.311	632.75
352.538	636.75
352.765	643.75
352.992	621.75
353.22	604.75
353.447	609.75
353.674	609.75
353.901	620.75
354.128	635.75
354.355	618.75
354.583	640.75
354.81	630.75
355.037	634.75
355.264	635.75
355.491	626.75
355.718	636.75
355.945	627.75
356.172	640.75
356.399	641.75
356.626	633.75
356.853	631.75
357.08	625.75
357.307	650.75
357.534	622.75
357.761	616.75
357.988	622.75
358.215	620.75
358.441	624.75
358.668	642.75
358.895	618.75
359.122	629.75
359.349	636.75
359.576	646.75
359.802	634.75
360.029	629.75
360.256	612.75
360.483	651.75
360.709	640.75
360.936	635.75
361.163	640.75
361.39	632.75
361.616	628.75
361.843	637.75
362.07	635.75
362.296	632.75
362.523	612.75
362.749	619.75
362.976	614.75
363.203	618.75
363.429	612.75
363.656	608.75
363.882	608.75
364.109	629.75
364.335	608.75
364.562	641.75
364.788	634.75
365.015	637.75
365.241	605.75
365.468	632.75
365.694	624.75
365.92	635.75
366.147	638.75
366.373	611.75
366.599	636.75
366.826	609.75
367.052	608.75
367.278	620.75
367.505	644.75
367.731	636.75
367.957	604.75
368.184	633.75
368.41	644.75
368.636	634.75
368.862	634.75
369.089	641.75
369.315	660.75
369.541	658.75
369.767	666.75
369.993	634.75
370.219	645.75
370.445	667.75
370.672	675.75
370.898	685.75
371.124	693.75
371.35	693.75
371.576	665.75
371.802	664.75
372.028	665.75
372.254	676.75
372.48	688.75
372.706	698.75
372.932	702.75
373.158	702.75
373.384	706.75
373.61	704.75
373.835	677.75
374.061	681.75
374.287	714.75
374.513	700.75
374.739	722.75
374.965	743.75
375.191	755.75
375.416	761.75
375.642	764.75
375.868	742.75
376.094	729.75
376.319	717.75
376.545	705.75
376.771	698.75
376.997	690.75
377.222	683.75
377.448	680.75
377.674	703.75
377.899	705.75
378.125	683.75
378.35	673.75
378.576	670.75
378.802	670.75
379.027	682.75
379.253	674.75
379.478	646.75
379.704	689.75
379.929	672.75
380.155	700.75
380.38	674.75
380.606	658.75
380.831	680.75
381.057	688.75
381.282	684.75
381.507	690.75
381.733	683.75
381.958	724.75
382.184	690.75
382.409	708.75
382.634	705.75
382.86	733.75
383.085	723.75
383.31	748.75
383.535	741.75
383.761	737.75
383.986	753.75
384.211	778.75
384.436	773.75
384.662	816.75
384.887	810.75
385.112	820.75
385.337	826.75
385.562	804.75
385.787	813.75
386.013	834.75
386.238	818.75
386.463	833.75
386.688	840.75
386.913	826.75
387.138	803.75
387.363	827.75
387.588	789.75
387.813	823.75
388.038	769.75
388.263	807.75
388.488	823.75
388.713	794.75
388.938	785.75
389.163	776.75
389.387	793.75
389.612	811.75
389.837	796.75
390.062	783.75
390.287	823.75
390.512	791.75
390.736	821.75
390.961	823.75
391.186	872.75
391.411	842.75
391.636	890.75
391.86	906.75
392.085	919.75
392.31	924.75
392.534	898.75
392.759	896.75
392.984	867.75
393.208	876.75
393.433	867.75
393.658	892.75
393.882	888.75
394.107	873.75
394.331	861.75
394.556	865.75
394.78	902.75
395.005	876.75
395.229	874.75
395.454	886.75
395.678	920.75
395.903	924.75
396.127	924.75
396.352	885.75
396.576	865.75
396.801	873.75
397.025	902.75
397.249	894.75
397.474	929.75
397.698	891.75
397.922	880.75
398.147	910.75
398.371	921.75
398.595	944.75
398.82	1016.75
399.044	1081.75
399.268	1131.75
399.492	1353.75
399.717	1538.75
399.941	1596.75
400.165	1452.75
400.389	1246.75
400.613	1174.75
400.837	1059.75
401.062	1078.75
401.286	1068.75
401.51	1034.75
401.734	1002.75
401.958	1044.75
402.182	1034.75
402.406	1069.75
402.63	1063.75
402.854	1088.75
403.078	1103.75
403.302	1141.75
403.526	1149.75
403.75	1201.75
403.974	1172.75
404.198	1194.75
404.422	1197.75
404.645	1191.75
404.869	1173.75
405.093	1172.75
405.317	1162.75
405.541	1172.75
405.765	1166.75
405.988	1131.75
406.212	1129.75
406.436	1099.75
406.66	1144.75
406.883	1172.75
407.107	1267.75
407.331	1341.75
407.555	1367.75
407.778	1301.75
408.002	1332.75
408.226	1282.75
408.449	1259.75
408.673	1196.75
408.896	1185.75
409.12	1160.75
409.344	1166.75
409.567	1158.75
409.791	1188.75
410.014	1204.75
410.238	1179.75
410.461	1145.75
410.685	1142.75
410.908	1131.75
411.132	1085.75
411.355	1092.75
411.578	1068.75
411.802	1067.75
412.025	1058.75
412.249	1089.75
412.472	1084.75
412.695	1069.75
412.919	1070.75
413.142	1006.75
413.365	1033.75
413.589	1042.75
413.812	1029.75
414.035	1011.75
414.258	1030.75
414.482	1030.75
414.705	1050.75
414.928	1051.75
415.151	1031.75
415.374	1025.75
415.597	1019.75
415.821	1011.75
416.044	1020.75
416.267	1037.75
416.49	1015.75
416.713	1022.75
416.936	1016.75
417.159	1007.75
417.382	1020.75
417.605	1000.75
417.828	1024.75
418.051	1029.75
418.274	995.75
418.497	1026.75
418.72	1059.75
418.943	1058.75
419.166	1117.75
419.389	1186.75
419.611	1183.75
419.834	1141.75
420.057	1062.75
420.28	1047.75
420.503	1045.75
420.726	1036.75
420.948	989.75
421.171	1030.75
421.394	999.75
421.617	1012.75
421.839	1010.75
422.062	1042.75
422.285	1017.75
422.507	1051.75
422.73	1041.75
422.953	1056.75
423.175	1056.75
423.398	1053.75
423.621	1045.75
423.843	1067.75
424.066	1121.75
424.288	1080.75
424.511	1069.75
424.733	1065.75
424.956	1052.75
425.178	1030.75
425.401	1021.75
425.623	1033.75
425.846	1000.75
426.068	1009.75
426.291	992.75
426.513	944.75
426.735	987.75
426.958	961.75
427.18	937.75
427.402	948.75
427.625	931.75
427.847	898.75
428.069	947.75
428.292	930.75
428.514	930.75
428.736	925.75
428.958	926.75
429.181	898.75
429.403	924.75
429.625	917.75
429.847	876.75
430.069	908.75
430.292	903.75
430.514	904.75
430.736	891.75
430.958	902.75
431.18	881.75
431.402	896.75
431.624	912.75
431.846	910.75
432.068	914.75
432.29	960.75
432.512	936.75
432.734	942.75
432.956	913.75
433.178	938.75
433.4	930.75
433.622	928.75
433.844	933.75
434.066	939.75
434.287	946.75
434.509	961.75
434.731	1028.75
434.953	1022.75
435.175	1077.75
435.397	1048.75
435.618	983.75
435.84	957.75
436.062	934.75
436.284	938.75
436.505	925.75
436.727	941.75
436.949	928.75
437.17	923.75
437.392	918.75
437.614	907.75
437.835	898.75
438.057	905.75
438.278	882.75
438.5	894.75
438.721	884.75
438.943	924.75
439.165	904.75
439.386	896.75
439.608	911.75
439.829	916.75
440.05	949.75
440.272	976.75
440.493	934.75
440.715	929.75
440.936	975.75
441.158	941.75
441.379	982.75
441.6	1034.75
441.822	1058.75
442.043	1082.75
442.264	1043.75
442.486	1032.75
442.707	1014.75
442.928	1000.75
443.149	1040.75
443.371	1020.75
443.592	1044.75
443.813	1041.75
444.034	1068.75
444.255	1074.75
444.476	1144.75
444.698	1195.75
444.919	1242.75
445.14	1346.75
445.361	1178.75
445.582	1113.75
445.803	1020.75
446.024	997.75
446.245	983.75
446.466	954.75
446.687	916.75
446.908	957.75
447.129	948.75
447.35	925.75
447.571	922.75
447.792	896.75
448.013	882.75
448.234	871.75
448.455	872.75
448.675	861.75
448.896	844.75
449.117	852.75
449.338	841.75
449.559	853.75
449.779	858.75
450	854.75
450.221	871.75
450.442	885.75
450.662	900.75
450.883	883.75
451.104	913.75
451.324	890.75
451.545	875.75
451.766	889.75
451.986	882.75
452.207	865.75
452.428	881.75
452.648	845.75
452.869	839.75
453.089	843.75
453.31	843.75
453.53	825.75
453.751	834.75
453.971	861.75
454.192	828.75
454.412	810.75
454.633	810.75
454.853	805.75
455.073	835.75
455.294	804.75
455.514	789.75
455.734	838.75
455.955	782.75
456.175	806.75
456.395	790.75
456.616	803.75
456.836	808.75
457.056	803.75
457.276	791.75
457.497	806.75
457.717	773.75
457.937	786.75
458.157	856.75
458.377	834.75
458.598	851.75
458.818	873.75
459.038	857.75
459.258	941.75
459.478	976.75
459.698	956.75
459.918	993.75
460.138	1039.75
460.358	1072.75
460.578	1092.75
460.798	1115.75
461.018	1148.75
461.238	1108.75
461.458	1117.75
461.678	1085.75
461.898	1106.75
462.118	1109.75
462.338	1149.75
462.558	1247.75
462.777	1267.75
462.997	1344.75
463.217	1446.75
463.437	1508.75
463.657	1385.75
463.876	1337.75
464.096	1267.75
464.316	1310.75
464.536	1294.75
464.755	1235.75
464.975	1189.75
465.195	1117.75
465.414	1098.75
465.634	1014.75
465.854	958.75
466.073	976.75
466.293	946.75
466.512	921.75
466.732	894.75
466.951	888.75
467.171	910.75
467.391	893.75
467.61	910.75
467.829	890.75
468.049	881.75
468.268	870.75
468.488	861.75
468.707	857.75
468.927	855.75
469.146	860.75
469.365	893.75
469.585	868.75
469.804	900.75
470.023	930.75
470.243	906.75
470.462	918.75
470.681	916.75
470.901	957.75
471.12	907.75
471.339	901.75
471.558	894.75
471.777	883.75
471.997	891.75
472.216	848.75
472.435	859.75
472.654	833.75
472.873	822.75
473.092	848.75
473.311	826.75
473.53	857.75
473.749	863.75
473.968	840.75
474.187	829.75
474.406	837.75
474.625	836.75
474.844	852.75
475.063	852.75
475.282	855.75
475.501	855.75
475.72	836.75
475.939	892.75
476.158	880.75
476.377	876.75
476.596	850.75
476.814	910.75
477.033	852.75
477.252	876.75
477.471	900.75
477.69	938.75
477.908	972.75
478.127	1013.75
478.346	1009.75
478.564	1039.75
478.783	998.75
479.002	1061.75
479.22	1034.75
479.439	1042.75
479.658	1063.75
479.876	1038.75
480.095	1068.75
480.313	1108.75
480.532	1125.75
480.751	1117.75
480.969	1100.75
481.188	1052.75
481.406	994.75
481.624	1013.75
481.843	954.75
482.061	983.75
482.28	972.75
482.498	975.75
482.717	977.75
482.935	972.75
483.153	978.75
483.372	973.75
483.59	969.75
483.808	988.75
484.027	959.75
484.245	952.75
484.463	980.75
484.681	984.75
484.9	969.75
485.118	1003.75
485.336	1033.75
485.554	1024.75
485.772	1029.75
485.99	1032.75
486.209	1035.75
486.427	1031.75
486.645	1016.75
486.863	1044.75
487.081	1050.75
487.299	1046.75
487.517	1012.75
487.735	1029.75
487.953	1008.75
488.171	1025.75
488.389	1000.75
488.607	996.75
488.825	976.75
489.043	998.75
489.261	987.75
489.479	991.75
489.696	1003.75
489.914	1004.75
490.132	1024.75
490.35	1035.75
490.568	1008.75
490.786	1013.75
491.003	1021.75
491.221	1035.75
491.439	1029.75
491.657	1029.75
491.874	1016.75
492.092	1015.75
492.31	1045.75
492.527	1001.75
492.745	1012.75
492.963	1067.75
493.18	1044.75
493.398	1053.75
493.615	1048.75
493.833	1037.75
494.05	1041.75
494.268	1070.75
494.485	1065.75
494.703	1075.75
494.92	1090.75
495.138	1057.75
495.355	1104.75
495.573	1072.75
495.79	1070.75
496.008	1080.75
496.225	1078.75
496.442	1086.75
496.66	1137.75
496.877	1126.75
497.094	1136.75
497.312	1170.75
497.529	1164.75
497.746	1209.75
497.963	1243.75
498.181	1245.75
498.398	1320.75
