Data from NiCl2@0.125M.TitratingCurve.Agarose3%dH2O.NegLispCup.LampEnergy10.LIBS07252019_HRD10591_18-28-45-574.txt Node
Date: Thu Jul 25 18:28:45 EDT 2019
User: cochatt
Spectrometer: HR+D1059
Trigger mode: 1
Integration Time (sec): 1.000000E-1
Scans to average: 1
Electric dark correction enabled: true
Nonlinearity correction enabled: false
Boxcar width: 0
XAxis mode: Wavelengths
Number of Pixels in Spectrum: 2048
>>>>>Begin Spectral Data<<<<<
223.165	-16.94
223.4	-16.94
223.635	-16.94
223.869	-24.94
224.104	-19.94
224.338	-12.94
224.573	-11.94
224.808	-8.94
225.042	-18.94
225.277	-3.94
225.511	-0.94
225.746	5.06
225.98	23.06
226.215	7.06
226.449	18.06
226.683	19.06
226.918	12.06
227.152	35.06
227.387	39.06
227.621	37.06
227.856	46.06
228.09	36.06
228.324	41.06
228.559	58.06
228.793	72.06
229.027	109.06
229.262	114.06
229.496	100.06
229.73	112.06
229.964	126.06
230.199	116.06
230.433	101.06
230.667	136.06
230.901	134.06
231.136	131.06
231.37	117.06
231.604	142.06
231.838	134.06
232.072	137.06
232.306	144.06
232.541	124.06
232.775	135.06
233.009	138.06
233.243	150.06
233.477	126.06
233.711	120.06
233.945	131.06
234.179	145.06
234.413	149.06
234.647	128.06
234.881	146.06
235.115	144.06
235.349	140.06
235.583	137.06
235.817	143.06
236.051	152.06
236.285	153.06
236.519	160.06
236.753	146.06
236.987	143.06
237.221	152.06
237.455	139.06
237.689	149.06
237.922	154.06
238.156	146.06
238.39	150.06
238.624	162.06
238.858	156.06
239.091	160.06
239.325	170.06
239.559	166.06
239.793	171.06
240.027	162.06
240.26	175.06
240.494	174.06
240.728	174.06
240.961	183.06
241.195	168.06
241.429	157.06
241.662	169.06
241.896	188.06
242.13	208.06
242.363	194.06
242.597	186.06
242.83	186.06
243.064	189.06
243.298	178.06
243.531	200.06
243.765	208.06
243.998	203.06
244.232	190.06
244.465	206.06
244.699	203.06
244.932	201.06
245.166	203.06
245.399	204.06
245.633	196.06
245.866	211.06
246.099	221.06
246.333	221.06
246.566	209.06
246.8	228.06
247.033	231.06
247.266	208.06
247.5	215.06
247.733	215.06
247.966	219.06
248.2	245.06
248.433	238.06
248.666	235.06
248.899	232.06
249.133	238.06
249.366	233.06
249.599	230.06
249.832	230.06
250.066	244.06
250.299	260.06
250.532	253.06
250.765	240.06
250.998	229.06
251.231	245.06
251.465	256.06
251.698	259.06
251.931	252.06
252.164	270.06
252.397	258.06
252.63	251.06
252.863	258.06
253.096	267.06
253.329	290.06
253.562	259.06
253.795	269.06
254.028	258.06
254.261	274.06
254.494	278.06
254.727	269.06
254.96	264.06
255.193	276.06
255.426	284.06
255.659	263.06
255.892	280.06
256.124	292.06
256.357	291.06
256.59	274.06
256.823	288.06
257.056	292.06
257.289	280.06
257.521	275.06
257.754	281.06
257.987	293.06
258.22	274.06
258.452	294.06
258.685	291.06
258.918	299.06
259.151	299.06
259.383	303.06
259.616	305.06
259.849	296.06
260.081	305.06
260.314	291.06
260.547	310.06
260.779	306.06
261.012	297.06
261.244	306.06
261.477	317.06
261.71	320.06
261.942	327.06
262.175	306.06
262.407	308.06
262.64	322.06
262.872	307.06
263.105	306.06
263.337	312.06
263.57	308.06
263.802	332.06
264.035	327.06
264.267	345.06
264.499	332.06
264.732	332.06
264.964	323.06
265.197	322.06
265.429	339.06
265.661	337.06
265.894	318.06
266.126	354.06
266.358	351.06
266.591	348.06
266.823	345.06
267.055	363.06
267.287	356.06
267.52	332.06
267.752	344.06
267.984	353.06
268.216	344.06
268.448	355.06
268.681	357.06
268.913	364.06
269.145	382.06
269.377	359.06
269.609	360.06
269.841	376.06
270.073	366.06
270.306	347.06
270.538	350.06
270.77	351.06
271.002	349.06
271.234	359.06
271.466	373.06
271.698	370.06
271.93	373.06
272.162	372.06
272.394	362.06
272.626	376.06
272.858	363.06
273.09	377.06
273.322	381.06
273.553	371.06
273.785	378.06
274.017	378.06
274.249	388.06
274.481	390.06
274.713	381.06
274.945	401.06
275.176	414.06
275.408	408.06
275.64	403.06
275.872	426.06
276.104	408.06
276.335	379.06
276.567	408.06
276.799	402.06
277.031	418.06
277.262	411.06
277.494	405.06
277.726	430.06
277.957	416.06
278.189	404.06
278.421	404.06
278.652	404.06
278.884	416.06
279.115	426.06
279.347	438.06
279.579	423.06
279.81	425.06
280.042	441.06
280.273	424.06
280.505	430.06
280.736	418.06
280.968	440.06
281.199	423.06
281.431	441.06
281.662	454.06
281.894	438.06
282.125	451.06
282.356	430.06
282.588	448.06
282.819	459.06
283.051	432.06
283.282	454.06
283.513	456.06
283.745	471.06
283.976	445.06
284.207	475.06
284.439	452.06
284.67	454.06
284.901	451.06
285.132	460.06
285.364	466.06
285.595	479.06
285.826	475.06
286.057	492.06
286.288	459.06
286.52	459.06
286.751	474.06
286.982	496.06
287.213	489.06
287.444	499.06
287.675	510.06
287.906	475.06
288.138	499.06
288.369	491.06
288.6	492.06
288.831	494.06
289.062	483.06
289.293	474.06
289.524	475.06
289.755	484.06
289.986	485.06
290.217	490.06
290.448	491.06
290.679	509.06
290.91	475.06
291.141	496.06
291.371	511.06
291.602	487.06
291.833	501.06
292.064	514.06
292.295	504.06
292.526	503.06
292.757	498.06
292.987	491.06
293.218	491.06
293.449	517.06
293.68	505.06
293.91	499.06
294.141	515.06
294.372	511.06
294.603	510.06
294.833	522.06
295.064	498.06
295.295	520.06
295.525	523.06
295.756	529.06
295.987	543.06
296.217	536.06
296.448	544.06
296.679	540.06
296.909	561.06
297.14	549.06
297.37	530.06
297.601	545.06
297.831	525.06
298.062	564.06
298.292	552.06
298.523	582.06
298.753	547.06
298.984	534.06
299.214	573.06
299.445	568.06
299.675	554.06
299.905	547.06
300.136	554.06
300.366	588.06
300.597	581.06
300.827	556.06
301.057	581.06
301.288	568.06
301.518	571.06
301.748	578.06
301.979	585.06
302.209	596.06
302.439	586.06
302.669	583.06
302.9	585.06
303.13	582.06
303.36	577.06
303.59	563.06
303.82	560.06
304.051	590.06
304.281	583.06
304.511	564.06
304.741	555.06
304.971	589.06
305.201	577.06
305.431	574.06
305.661	600.06
305.891	567.06
306.121	558.06
306.352	565.06
306.582	567.06
306.812	572.06
307.042	558.06
307.272	590.06
307.502	555.06
307.731	564.06
307.961	600.06
308.191	547.06
308.421	559.06
308.651	564.06
308.881	550.06
309.111	587.06
309.341	551.06
309.571	559.06
309.8	554.06
310.03	578.06
310.26	576.06
310.49	570.06
310.72	568.06
310.949	565.06
311.179	576.06
311.409	573.06
311.639	598.06
311.868	579.06
312.098	564.06
312.328	565.06
312.557	585.06
312.787	585.06
313.017	601.06
313.246	578.06
313.476	602.06
313.706	591.06
313.935	600.06
314.165	588.06
314.394	592.06
314.624	606.06
314.853	591.06
315.083	586.06
315.312	623.06
315.542	626.06
315.771	587.06
316.001	600.06
316.23	584.06
316.46	598.06
316.689	574.06
316.919	592.06
317.148	578.06
317.377	591.06
317.607	566.06
317.836	570.06
318.065	611.06
318.295	566.06
318.524	602.06
318.753	592.06
318.983	576.06
319.212	574.06
319.441	578.06
319.67	563.06
319.9	598.06
320.129	590.06
320.358	597.06
320.587	591.06
320.816	585.06
321.046	601.06
321.275	607.06
321.504	596.06
321.733	604.06
321.962	568.06
322.191	581.06
322.42	613.06
322.649	587.06
322.878	601.06
323.108	606.06
323.337	597.06
323.566	606.06
323.795	627.06
324.024	590.06
324.253	630.06
324.482	574.06
324.71	590.06
324.939	609.06
325.168	616.06
325.397	609.06
325.626	600.06
325.855	611.06
326.084	624.06
326.313	632.06
326.542	645.06
326.77	653.06
326.999	635.06
327.228	638.06
327.457	622.06
327.686	649.06
327.914	633.06
328.143	639.06
328.372	655.06
328.6	636.06
328.829	635.06
329.058	640.06
329.287	639.06
329.515	644.06
329.744	643.06
329.972	657.06
330.201	660.06
330.43	661.06
330.658	648.06
330.887	673.06
331.115	651.06
331.344	660.06
331.572	678.06
331.801	672.06
332.03	687.06
332.258	716.06
332.486	735.06
332.715	753.06
332.943	756.06
333.172	810.06
333.4	830.06
333.629	859.06
333.857	843.06
334.085	867.06
334.314	852.06
334.542	856.06
334.771	824.06
334.999	832.06
335.227	852.06
335.455	816.06
335.684	779.06
335.912	798.06
336.14	772.06
336.369	771.06
336.597	790.06
336.825	778.06
337.053	766.06
337.281	768.06
337.51	739.06
337.738	719.06
337.966	739.06
338.194	734.06
338.422	706.06
338.65	704.06
338.878	702.06
339.106	688.06
339.334	711.06
339.562	680.06
339.79	672.06
340.018	664.06
340.246	643.06
340.474	643.06
340.702	664.06
340.93	662.06
341.158	712.06
341.386	680.06
341.614	708.06
341.842	676.06
342.07	640.06
342.298	661.06
342.526	642.06
342.754	666.06
342.981	683.06
343.209	694.06
343.437	715.06
343.665	746.06
343.893	791.06
344.12	838.06
344.348	824.06
344.576	786.06
344.804	738.06
345.031	717.06
345.259	707.06
345.487	706.06
345.714	679.06
345.942	666.06
346.17	683.06
346.397	679.06
346.625	678.06
346.853	674.06
347.08	633.06
347.308	670.06
347.535	636.06
347.763	670.06
347.99	672.06
348.218	681.06
348.445	658.06
348.673	661.06
348.9	641.06
349.128	658.06
349.355	648.06
349.583	646.06
349.81	638.06
350.037	636.06
350.265	634.06
350.492	627.06
350.72	626.06
350.947	618.06
351.174	636.06
351.402	626.06
351.629	646.06
351.856	637.06
352.083	626.06
352.311	617.06
352.538	642.06
352.765	640.06
352.992	629.06
353.22	642.06
353.447	618.06
353.674	602.06
353.901	635.06
354.128	622.06
354.355	642.06
354.583	630.06
354.81	619.06
355.037	639.06
355.264	666.06
355.491	642.06
355.718	643.06
355.945	653.06
356.172	648.06
356.399	638.06
356.626	639.06
356.853	644.06
357.08	647.06
357.307	649.06
357.534	623.06
357.761	650.06
357.988	636.06
358.215	632.06
358.441	635.06
358.668	637.06
358.895	631.06
359.122	631.06
359.349	648.06
359.576	619.06
359.802	644.06
360.029	628.06
360.256	634.06
360.483	655.06
360.709	629.06
360.936	626.06
361.163	628.06
361.39	643.06
361.616	629.06
361.843	634.06
362.07	666.06
362.296	652.06
362.523	627.06
362.749	619.06
362.976	625.06
363.203	620.06
363.429	650.06
363.656	614.06
363.882	615.06
364.109	616.06
364.335	619.06
364.562	642.06
364.788	633.06
365.015	628.06
365.241	628.06
365.468	604.06
365.694	622.06
365.92	627.06
366.147	626.06
366.373	627.06
366.599	615.06
366.826	621.06
367.052	628.06
367.278	627.06
367.505	634.06
367.731	644.06
367.957	629.06
368.184	632.06
368.41	636.06
368.636	639.06
368.862	617.06
369.089	665.06
369.315	644.06
369.541	654.06
369.767	648.06
369.993	644.06
370.219	649.06
370.445	689.06
370.672	676.06
370.898	670.06
371.124	663.06
371.35	704.06
371.576	691.06
371.802	681.06
372.028	683.06
372.254	692.06
372.48	710.06
372.706	698.06
372.932	718.06
373.158	703.06
373.384	704.06
373.61	696.06
373.835	688.06
374.061	693.06
374.287	699.06
374.513	702.06
374.739	712.06
374.965	729.06
375.191	790.06
375.416	770.06
375.642	746.06
375.868	718.06
376.094	730.06
376.319	683.06
376.545	694.06
376.771	698.06
376.997	691.06
377.222	721.06
377.448	688.06
377.674	687.06
377.899	691.06
378.125	664.06
378.35	673.06
378.576	664.06
378.802	674.06
379.027	688.06
379.253	672.06
379.478	675.06
379.704	680.06
379.929	674.06
380.155	684.06
380.38	682.06
380.606	687.06
380.831	698.06
381.057	674.06
381.282	700.06
381.507	675.06
381.733	698.06
381.958	701.06
382.184	717.06
382.409	694.06
382.634	706.06
382.86	711.06
383.085	731.06
383.31	748.06
383.535	747.06
383.761	744.06
383.986	783.06
384.211	790.06
384.436	801.06
384.662	815.06
384.887	840.06
385.112	808.06
385.337	814.06
385.562	808.06
385.787	829.06
386.013	839.06
386.238	854.06
386.463	862.06
386.688	867.06
386.913	827.06
387.138	833.06
387.363	819.06
387.588	803.06
387.813	815.06
388.038	828.06
388.263	816.06
388.488	805.06
388.713	810.06
388.938	847.06
389.163	826.06
389.387	827.06
389.612	802.06
389.837	836.06
390.062	802.06
390.287	811.06
390.512	799.06
390.736	838.06
390.961	820.06
391.186	851.06
391.411	882.06
391.636	878.06
391.86	911.06
392.085	934.06
392.31	955.06
392.534	911.06
392.759	930.06
392.984	898.06
393.208	858.06
393.433	870.06
393.658	894.06
393.882	862.06
394.107	868.06
394.331	867.06
394.556	865.06
394.78	875.06
395.005	890.06
395.229	872.06
395.454	917.06
395.678	925.06
395.903	942.06
396.127	938.06
396.352	923.06
396.576	872.06
396.801	870.06
397.025	869.06
397.249	929.06
397.474	928.06
397.698	954.06
397.922	930.06
398.147	941.06
398.371	955.06
398.595	993.06
398.82	1034.06
399.044	1090.06
399.268	1230.06
399.492	1358.06
399.717	1526.06
399.941	1603.06
400.165	1462.06
400.389	1287.06
400.613	1208.06
400.837	1141.06
401.062	1084.06
401.286	1048.06
401.51	1023.06
401.734	1032.06
401.958	1071.06
402.182	1049.06
402.406	1103.06
402.63	1091.06
402.854	1121.06
403.078	1094.06
403.302	1162.06
403.526	1185.06
403.75	1172.06
403.974	1176.06
404.198	1209.06
404.422	1163.06
404.645	1235.06
404.869	1168.06
405.093	1211.06
405.317	1145.06
405.541	1163.06
405.765	1162.06
405.988	1146.06
406.212	1137.06
406.436	1146.06
406.66	1151.06
406.883	1189.06
407.107	1240.06
407.331	1294.06
407.555	1371.06
407.778	1383.06
408.002	1318.06
408.226	1293.06
408.449	1271.06
408.673	1222.06
408.896	1188.06
409.12	1164.06
409.344	1178.06
409.567	1160.06
409.791	1195.06
410.014	1178.06
410.238	1200.06
410.461	1162.06
410.685	1144.06
410.908	1151.06
411.132	1121.06
411.355	1068.06
411.578	1086.06
411.802	1068.06
412.025	1064.06
412.249	1083.06
412.472	1100.06
412.695	1086.06
412.919	1062.06
413.142	1031.06
413.365	1037.06
413.589	1054.06
413.812	1012.06
414.035	1049.06
414.258	1024.06
414.482	1052.06
414.705	1059.06
414.928	1079.06
415.151	1036.06
415.374	1048.06
415.597	1029.06
415.821	1017.06
416.044	1032.06
416.267	1034.06
416.49	1021.06
416.713	1018.06
416.936	1036.06
417.159	1027.06
417.382	1038.06
417.605	1026.06
417.828	1020.06
418.051	1023.06
418.274	1056.06
418.497	1057.06
418.72	1055.06
418.943	1048.06
419.166	1123.06
419.389	1174.06
419.611	1206.06
419.834	1131.06
420.057	1099.06
420.28	1051.06
420.503	1014.06
420.726	1008.06
420.948	1019.06
421.171	1038.06
421.394	1033.06
421.617	1036.06
421.839	1010.06
422.062	1023.06
422.285	1009.06
422.507	1045.06
422.73	1070.06
422.953	1070.06
423.175	1083.06
423.398	1062.06
423.621	1076.06
423.843	1106.06
424.066	1120.06
424.288	1091.06
424.511	1090.06
424.733	1054.06
424.956	1066.06
425.178	1089.06
425.401	1027.06
425.623	1020.06
425.846	1012.06
426.068	1014.06
426.291	1022.06
426.513	1000.06
426.735	980.06
426.958	976.06
427.18	946.06
427.402	963.06
427.625	946.06
427.847	935.06
428.069	926.06
428.292	934.06
428.514	925.06
428.736	904.06
428.958	921.06
429.181	921.06
429.403	889.06
429.625	889.06
429.847	922.06
430.069	891.06
430.292	912.06
430.514	901.06
430.736	887.06
430.958	910.06
431.18	894.06
431.402	918.06
431.624	904.06
431.846	943.06
432.068	914.06
432.29	943.06
432.512	922.06
432.734	954.06
432.956	934.06
433.178	947.06
433.4	947.06
433.622	950.06
433.844	958.06
434.066	963.06
434.287	972.06
434.509	967.06
434.731	1029.06
434.953	1058.06
435.175	1048.06
435.397	1035.06
435.618	966.06
435.84	946.06
436.062	958.06
436.284	962.06
436.505	919.06
436.727	928.06
436.949	971.06
437.17	912.06
437.392	932.06
437.614	939.06
437.835	905.06
438.057	894.06
438.278	899.06
438.5	878.06
438.721	889.06
438.943	917.06
439.165	893.06
439.386	917.06
439.608	942.06
439.829	915.06
440.05	956.06
440.272	948.06
440.493	931.06
440.715	968.06
440.936	966.06
441.158	983.06
441.379	1032.06
441.6	1059.06
441.822	1058.06
442.043	1070.06
442.264	1055.06
442.486	1023.06
442.707	1042.06
442.928	1034.06
443.149	1036.06
443.371	1011.06
443.592	1032.06
443.813	1067.06
444.034	1089.06
444.255	1098.06
444.476	1143.06
444.698	1193.06
444.919	1237.06
445.14	1326.06
445.361	1218.06
445.582	1107.06
445.803	1066.06
446.024	1020.06
446.245	1008.06
446.466	993.06
446.687	950.06
446.908	952.06
447.129	931.06
447.35	934.06
447.571	912.06
447.792	884.06
448.013	899.06
448.234	858.06
448.455	871.06
448.675	889.06
448.896	864.06
449.117	835.06
449.338	873.06
449.559	863.06
449.779	862.06
450	846.06
450.221	866.06
450.442	871.06
450.662	879.06
450.883	865.06
451.104	866.06
451.324	872.06
451.545	880.06
451.766	905.06
451.986	879.06
452.207	871.06
452.428	871.06
452.648	866.06
452.869	847.06
453.089	818.06
453.31	851.06
453.53	847.06
453.751	857.06
453.971	834.06
454.192	865.06
454.412	832.06
454.633	850.06
454.853	816.06
455.073	817.06
455.294	835.06
455.514	815.06
455.734	825.06
455.955	817.06
456.175	828.06
456.395	798.06
456.616	818.06
456.836	803.06
457.056	791.06
457.276	794.06
457.497	840.06
457.717	809.06
457.937	807.06
458.157	811.06
458.377	859.06
458.598	839.06
458.818	856.06
459.038	896.06
459.258	916.06
459.478	956.06
459.698	1005.06
459.918	1030.06
460.138	1048.06
460.358	1073.06
460.578	1114.06
460.798	1118.06
461.018	1138.06
461.238	1119.06
461.458	1122.06
461.678	1093.06
461.898	1119.06
462.118	1148.06
462.338	1196.06
462.558	1244.06
462.777	1268.06
462.997	1404.06
463.217	1472.06
463.437	1506.06
463.657	1368.06
463.876	1352.06
464.096	1348.06
464.316	1312.06
464.536	1306.06
464.755	1272.06
464.975	1221.06
465.195	1170.06
465.414	1092.06
465.634	1024.06
465.854	988.06
466.073	967.06
466.293	967.06
466.512	957.06
466.732	909.06
466.951	899.06
467.171	930.06
467.391	936.06
467.61	880.06
467.829	887.06
468.049	906.06
468.268	889.06
468.488	890.06
468.707	876.06
468.927	856.06
469.146	883.06
469.365	884.06
469.585	871.06
469.804	942.06
470.023	924.06
470.243	946.06
470.462	938.06
470.681	930.06
470.901	914.06
471.12	932.06
471.339	912.06
471.558	910.06
471.777	915.06
471.997	870.06
472.216	898.06
472.435	888.06
472.654	848.06
472.873	870.06
473.092	834.06
473.311	825.06
473.53	848.06
473.749	867.06
473.968	861.06
474.187	862.06
474.406	854.06
474.625	841.06
474.844	871.06
475.063	878.06
475.282	856.06
475.501	847.06
475.72	848.06
475.939	863.06
476.158	871.06
476.377	891.06
476.596	886.06
476.814	908.06
477.033	919.06
477.252	925.06
477.471	953.06
477.69	980.06
477.908	985.06
478.127	1010.06
478.346	1029.06
478.564	1021.06
478.783	1048.06
479.002	1092.06
479.22	1099.06
479.439	1076.06
479.658	1074.06
479.876	1089.06
480.095	1089.06
480.313	1137.06
480.532	1139.06
480.751	1148.06
480.969	1100.06
481.188	1096.06
481.406	1068.06
481.624	1033.06
481.843	1000.06
482.061	998.06
482.28	955.06
482.498	972.06
482.717	998.06
482.935	988.06
483.153	974.06
483.372	988.06
483.59	994.06
483.808	968.06
484.027	988.06
484.245	986.06
484.463	987.06
484.681	1048.06
484.9	1013.06
485.118	1026.06
485.336	989.06
485.554	1043.06
485.772	1040.06
485.99	1057.06
486.209	1072.06
486.427	1030.06
486.645	1031.06
486.863	1017.06
487.081	1047.06
487.299	1007.06
487.517	1031.06
487.735	1032.06
487.953	1007.06
488.171	1016.06
488.389	983.06
488.607	986.06
488.825	1015.06
489.043	1003.06
489.261	982.06
489.479	988.06
489.696	1019.06
489.914	1026.06
490.132	988.06
490.35	1021.06
490.568	1030.06
490.786	1039.06
491.003	1047.06
491.221	1060.06
491.439	1043.06
491.657	1027.06
491.874	1036.06
492.092	1058.06
492.31	1037.06
492.527	1057.06
492.745	1072.06
492.963	1042.06
493.18	1068.06
493.398	1072.06
493.615	1067.06
493.833	1068.06
494.05	1083.06
494.268	1081.06
494.485	1103.06
494.703	1095.06
494.92	1106.06
495.138	1112.06
495.355	1092.06
495.573	1091.06
495.79	1104.06
496.008	1106.06
496.225	1092.06
496.442	1134.06
496.66	1162.06
496.877	1144.06
497.094	1173.06
497.312	1206.06
497.529	1233.06
497.746	1239.06
497.963	1292.06
498.181	1341.06
