Data from NiCl2@0.5M.TitratingCurve.Agarose3%dH2O.NegLispCup.LampEnergy10.LIBS07252019_HRD10591_18-19-50-571.txt Node
Date: Thu Jul 25 18:19:50 EDT 2019
User: cochatt
Spectrometer: HR+D1059
Trigger mode: 1
Integration Time (sec): 1.000000E-1
Scans to average: 1
Electric dark correction enabled: true
Nonlinearity correction enabled: false
Boxcar width: 0
XAxis mode: Wavelengths
Number of Pixels in Spectrum: 2048
>>>>>Begin Spectral Data<<<<<
223.165	-21.81
223.4	-21.81
223.635	-21.81
223.869	-8.81
224.104	-17.81
224.338	-17.81
224.573	-20.81
224.808	-15.81
225.042	-8.81
225.277	-3.81
225.511	-6.81
225.746	-8.81
225.98	4.19
226.215	11.19
226.449	25.19
226.683	25.19
226.918	42.19
227.152	23.19
227.387	32.19
227.621	39.19
227.856	42.19
228.09	48.19
228.324	68.19
228.559	46.19
228.793	69.19
229.027	93.19
229.262	110.19
229.496	115.19
229.73	106.19
229.964	112.19
230.199	128.19
230.433	118.19
230.667	131.19
230.901	127.19
231.136	138.19
231.37	131.19
231.604	118.19
231.838	127.19
232.072	136.19
232.306	130.19
232.541	132.19
232.775	140.19
233.009	122.19
233.243	147.19
233.477	139.19
233.711	128.19
233.945	137.19
234.179	139.19
234.413	142.19
234.647	157.19
234.881	134.19
235.115	138.19
235.349	142.19
235.583	151.19
235.817	141.19
236.051	127.19
236.285	116.19
236.519	115.19
236.753	147.19
236.987	132.19
237.221	144.19
237.455	141.19
237.689	125.19
237.922	147.19
238.156	138.19
238.39	156.19
238.624	142.19
238.858	143.19
239.091	149.19
239.325	142.19
239.559	156.19
239.793	154.19
240.027	142.19
240.26	165.19
240.494	168.19
240.728	157.19
240.961	148.19
241.195	168.19
241.429	162.19
241.662	166.19
241.896	167.19
242.13	158.19
242.363	161.19
242.597	171.19
242.83	159.19
243.064	164.19
243.298	170.19
243.531	179.19
243.765	175.19
243.998	186.19
244.232	171.19
244.465	178.19
244.699	162.19
244.932	171.19
245.166	164.19
245.399	192.19
245.633	172.19
245.866	184.19
246.099	180.19
246.333	166.19
246.566	182.19
246.8	182.19
247.033	187.19
247.266	182.19
247.5	178.19
247.733	193.19
247.966	189.19
248.2	192.19
248.433	195.19
248.666	190.19
248.899	195.19
249.133	195.19
249.366	198.19
249.599	200.19
249.832	196.19
250.066	215.19
250.299	200.19
250.532	194.19
250.765	216.19
250.998	221.19
251.231	221.19
251.465	214.19
251.698	225.19
251.931	214.19
252.164	207.19
252.397	205.19
252.63	231.19
252.863	234.19
253.096	233.19
253.329	218.19
253.562	238.19
253.795	208.19
254.028	234.19
254.261	230.19
254.494	233.19
254.727	222.19
254.96	244.19
255.193	220.19
255.426	230.19
255.659	211.19
255.892	223.19
256.124	231.19
256.357	242.19
256.59	246.19
256.823	246.19
257.056	238.19
257.289	236.19
257.521	232.19
257.754	262.19
257.987	266.19
258.22	256.19
258.452	247.19
258.685	249.19
258.918	262.19
259.151	250.19
259.383	263.19
259.616	267.19
259.849	264.19
260.081	254.19
260.314	246.19
260.547	265.19
260.779	258.19
261.012	245.19
261.244	276.19
261.477	274.19
261.71	272.19
261.942	260.19
262.175	296.19
262.407	268.19
262.64	266.19
262.872	260.19
263.105	258.19
263.337	281.19
263.57	264.19
263.802	285.19
264.035	277.19
264.267	288.19
264.499	274.19
264.732	267.19
264.964	249.19
265.197	276.19
265.429	276.19
265.661	292.19
265.894	294.19
266.126	296.19
266.358	293.19
266.591	296.19
266.823	275.19
267.055	290.19
267.287	291.19
267.52	293.19
267.752	318.19
267.984	297.19
268.216	303.19
268.448	314.19
268.681	303.19
268.913	298.19
269.145	301.19
269.377	301.19
269.609	303.19
269.841	315.19
270.073	308.19
270.306	314.19
270.538	320.19
270.77	298.19
271.002	311.19
271.234	309.19
271.466	308.19
271.698	310.19
271.93	322.19
272.162	320.19
272.394	310.19
272.626	302.19
272.858	314.19
273.09	324.19
273.322	327.19
273.553	341.19
273.785	314.19
274.017	337.19
274.249	328.19
274.481	329.19
274.713	334.19
274.945	335.19
275.176	335.19
275.408	332.19
275.64	325.19
275.872	318.19
276.104	326.19
276.335	334.19
276.567	330.19
276.799	333.19
277.031	350.19
277.262	328.19
277.494	339.19
277.726	338.19
277.957	367.19
278.189	351.19
278.421	359.19
278.652	356.19
278.884	351.19
279.115	361.19
279.347	348.19
279.579	375.19
279.81	350.19
280.042	349.19
280.273	374.19
280.505	371.19
280.736	367.19
280.968	361.19
281.199	367.19
281.431	380.19
281.662	374.19
281.894	378.19
282.125	378.19
282.356	373.19
282.588	382.19
282.819	386.19
283.051	374.19
283.282	381.19
283.513	396.19
283.745	391.19
283.976	397.19
284.207	383.19
284.439	404.19
284.67	391.19
284.901	407.19
285.132	393.19
285.364	382.19
285.595	374.19
285.826	391.19
286.057	398.19
286.288	402.19
286.52	411.19
286.751	412.19
286.982	418.19
287.213	398.19
287.444	418.19
287.675	414.19
287.906	404.19
288.138	410.19
288.369	414.19
288.6	403.19
288.831	428.19
289.062	412.19
289.293	416.19
289.524	407.19
289.755	420.19
289.986	426.19
290.217	423.19
290.448	434.19
290.679	423.19
290.91	433.19
291.141	409.19
291.371	419.19
291.602	402.19
291.833	428.19
292.064	412.19
292.295	418.19
292.526	410.19
292.757	405.19
292.987	428.19
293.218	440.19
293.449	423.19
293.68	421.19
293.91	421.19
294.141	419.19
294.372	412.19
294.603	427.19
294.833	415.19
295.064	423.19
295.295	438.19
295.525	424.19
295.756	425.19
295.987	456.19
296.217	452.19
296.448	463.19
296.679	455.19
296.909	454.19
297.14	467.19
297.37	459.19
297.601	463.19
297.831	468.19
298.062	471.19
298.292	463.19
298.523	464.19
298.753	479.19
298.984	467.19
299.214	456.19
299.445	459.19
299.675	463.19
299.905	467.19
300.136	463.19
300.366	490.19
300.597	492.19
300.827	499.19
301.057	484.19
301.288	476.19
301.518	481.19
301.748	507.19
301.979	487.19
302.209	473.19
302.439	502.19
302.669	502.19
302.9	469.19
303.13	501.19
303.36	468.19
303.59	484.19
303.82	509.19
304.051	499.19
304.281	512.19
304.511	485.19
304.741	512.19
304.971	487.19
305.201	500.19
305.431	509.19
305.661	475.19
305.891	507.19
306.121	479.19
306.352	493.19
306.582	465.19
306.812	500.19
307.042	514.19
307.272	482.19
307.502	501.19
307.731	474.19
307.961	475.19
308.191	485.19
308.421	496.19
308.651	491.19
308.881	471.19
309.111	478.19
309.341	500.19
309.571	477.19
309.8	480.19
310.03	507.19
310.26	499.19
310.49	501.19
310.72	505.19
310.949	502.19
311.179	489.19
311.409	493.19
311.639	508.19
311.868	516.19
312.098	489.19
312.328	495.19
312.557	523.19
312.787	528.19
313.017	515.19
313.246	514.19
313.476	532.19
313.706	544.19
313.935	525.19
314.165	520.19
314.394	527.19
314.624	506.19
314.853	522.19
315.083	518.19
315.312	508.19
315.542	539.19
315.771	535.19
316.001	494.19
316.23	542.19
316.46	517.19
316.689	539.19
316.919	516.19
317.148	540.19
317.377	515.19
317.607	503.19
317.836	524.19
318.065	516.19
318.295	509.19
318.524	516.19
318.753	514.19
318.983	518.19
319.212	552.19
319.441	520.19
319.67	513.19
319.9	534.19
320.129	524.19
320.358	504.19
320.587	532.19
320.816	532.19
321.046	529.19
321.275	531.19
321.504	529.19
321.733	536.19
321.962	529.19
322.191	505.19
322.42	515.19
322.649	542.19
322.878	510.19
323.108	524.19
323.337	546.19
323.566	543.19
323.795	530.19
324.024	550.19
324.253	568.19
324.482	534.19
324.71	542.19
324.939	554.19
325.168	540.19
325.397	543.19
325.626	549.19
325.855	553.19
326.084	560.19
326.313	572.19
326.542	574.19
326.77	571.19
326.999	559.19
327.228	544.19
327.457	566.19
327.686	567.19
327.914	562.19
328.143	546.19
328.372	550.19
328.6	547.19
328.829	554.19
329.058	574.19
329.287	542.19
329.515	586.19
329.744	579.19
329.972	574.19
330.201	571.19
330.43	569.19
330.658	581.19
330.887	610.19
331.115	583.19
331.344	571.19
331.572	602.19
331.801	610.19
332.03	629.19
332.258	656.19
332.486	644.19
332.715	649.19
332.943	651.19
333.172	662.19
333.4	694.19
333.629	701.19
333.857	699.19
334.085	712.19
334.314	712.19
334.542	719.19
334.771	707.19
334.999	678.19
335.227	690.19
335.455	696.19
335.684	675.19
335.912	696.19
336.14	690.19
336.369	683.19
336.597	715.19
336.825	683.19
337.053	694.19
337.281	692.19
337.51	668.19
337.738	636.19
337.966	640.19
338.194	656.19
338.422	649.19
338.65	619.19
338.878	624.19
339.106	640.19
339.334	641.19
339.562	640.19
339.79	599.19
340.018	600.19
340.246	606.19
340.474	604.19
340.702	603.19
340.93	593.19
341.158	611.19
341.386	639.19
341.614	640.19
341.842	628.19
342.07	613.19
342.298	626.19
342.526	600.19
342.754	607.19
342.981	606.19
343.209	596.19
343.437	646.19
343.665	656.19
343.893	674.19
344.12	664.19
344.348	647.19
344.576	642.19
344.804	651.19
345.031	652.19
345.259	614.19
345.487	620.19
345.714	612.19
345.942	634.19
346.17	643.19
346.397	633.19
346.625	602.19
346.853	586.19
347.08	584.19
347.308	586.19
347.535	596.19
347.763	594.19
347.99	574.19
348.218	562.19
348.445	566.19
348.673	564.19
348.9	589.19
349.128	594.19
349.355	603.19
349.583	598.19
349.81	573.19
350.037	540.19
350.265	566.19
350.492	573.19
350.72	559.19
350.947	558.19
351.174	602.19
351.402	562.19
351.629	575.19
351.856	598.19
352.083	566.19
352.311	574.19
352.538	581.19
352.765	577.19
352.992	556.19
353.22	555.19
353.447	547.19
353.674	542.19
353.901	545.19
354.128	542.19
354.355	565.19
354.583	542.19
354.81	531.19
355.037	551.19
355.264	557.19
355.491	549.19
355.718	525.19
355.945	551.19
356.172	559.19
356.399	536.19
356.626	570.19
356.853	590.19
357.08	554.19
357.307	549.19
357.534	558.19
357.761	536.19
357.988	550.19
358.215	547.19
358.441	538.19
358.668	539.19
358.895	539.19
359.122	538.19
359.349	532.19
359.576	524.19
359.802	544.19
360.029	555.19
360.256	556.19
360.483	540.19
360.709	548.19
360.936	550.19
361.163	570.19
361.39	544.19
361.616	547.19
361.843	538.19
362.07	569.19
362.296	576.19
362.523	540.19
362.749	544.19
362.976	543.19
363.203	536.19
363.429	530.19
363.656	540.19
363.882	547.19
364.109	541.19
364.335	520.19
364.562	536.19
364.788	532.19
365.015	532.19
365.241	520.19
365.468	540.19
365.694	541.19
365.92	540.19
366.147	544.19
366.373	516.19
366.599	562.19
366.826	572.19
367.052	533.19
367.278	529.19
367.505	556.19
367.731	528.19
367.957	547.19
368.184	535.19
368.41	542.19
368.636	543.19
368.862	538.19
369.089	544.19
369.315	532.19
369.541	543.19
369.767	566.19
369.993	574.19
370.219	549.19
370.445	558.19
370.672	541.19
370.898	546.19
371.124	583.19
371.35	555.19
371.576	554.19
371.802	584.19
372.028	562.19
372.254	582.19
372.48	576.19
372.706	559.19
372.932	607.19
373.158	612.19
373.384	570.19
373.61	568.19
373.835	559.19
374.061	574.19
374.287	590.19
374.513	570.19
374.739	583.19
374.965	608.19
375.191	614.19
375.416	619.19
375.642	592.19
375.868	595.19
376.094	585.19
376.319	593.19
376.545	556.19
376.771	589.19
376.997	564.19
377.222	596.19
377.448	570.19
377.674	564.19
377.899	573.19
378.125	557.19
378.35	554.19
378.576	544.19
378.802	552.19
379.027	543.19
379.253	542.19
379.478	570.19
379.704	566.19
379.929	547.19
380.155	568.19
380.38	543.19
380.606	568.19
380.831	557.19
381.057	550.19
381.282	545.19
381.507	532.19
381.733	564.19
381.958	551.19
382.184	563.19
382.409	579.19
382.634	572.19
382.86	585.19
383.085	556.19
383.31	570.19
383.535	590.19
383.761	610.19
383.986	600.19
384.211	619.19
384.436	618.19
384.662	633.19
384.887	590.19
385.112	600.19
385.337	662.19
385.562	641.19
385.787	649.19
386.013	654.19
386.238	657.19
386.463	644.19
386.688	658.19
386.913	648.19
387.138	642.19
387.363	657.19
387.588	637.19
387.813	649.19
388.038	652.19
388.263	638.19
388.488	660.19
388.713	660.19
388.938	659.19
389.163	649.19
389.387	640.19
389.612	623.19
389.837	662.19
390.062	638.19
390.287	648.19
390.512	654.19
390.736	651.19
390.961	662.19
391.186	679.19
391.411	656.19
391.636	708.19
391.86	702.19
392.085	711.19
392.31	705.19
392.534	696.19
392.759	710.19
392.984	662.19
393.208	648.19
393.433	666.19
393.658	698.19
393.882	670.19
394.107	706.19
394.331	696.19
394.556	682.19
394.78	681.19
395.005	676.19
395.229	691.19
395.454	703.19
395.678	731.19
395.903	708.19
396.127	709.19
396.352	710.19
396.576	687.19
396.801	681.19
397.025	710.19
397.249	699.19
397.474	735.19
397.698	711.19
397.922	738.19
398.147	734.19
398.371	729.19
398.595	754.19
398.82	780.19
399.044	830.19
399.268	886.19
399.492	953.19
399.717	1018.19
399.941	1014.19
400.165	1014.19
400.389	907.19
400.613	892.19
400.837	840.19
401.062	829.19
401.286	816.19
401.51	840.19
401.734	804.19
401.958	787.19
402.182	811.19
402.406	837.19
402.63	812.19
402.854	839.19
403.078	847.19
403.302	829.19
403.526	824.19
403.75	853.19
403.974	866.19
404.198	868.19
404.422	859.19
404.645	860.19
404.869	840.19
405.093	875.19
405.317	847.19
405.541	851.19
405.765	847.19
405.988	831.19
406.212	883.19
406.436	874.19
406.66	884.19
406.883	877.19
407.107	926.19
407.331	980.19
407.555	943.19
407.778	984.19
408.002	959.19
408.226	954.19
408.449	924.19
408.673	926.19
408.896	915.19
409.12	916.19
409.344	917.19
409.567	871.19
409.791	883.19
410.014	896.19
410.238	917.19
410.461	904.19
410.685	883.19
410.908	855.19
411.132	847.19
411.355	824.19
411.578	824.19
411.802	839.19
412.025	816.19
412.249	847.19
412.472	871.19
412.695	827.19
412.919	861.19
413.142	830.19
413.365	822.19
413.589	825.19
413.812	805.19
414.035	799.19
414.258	809.19
414.482	822.19
414.705	801.19
414.928	830.19
415.151	804.19
415.374	822.19
415.597	822.19
415.821	795.19
416.044	794.19
416.267	799.19
416.49	808.19
416.713	800.19
416.936	807.19
417.159	760.19
417.382	791.19
417.605	770.19
417.828	794.19
418.051	767.19
418.274	783.19
418.497	808.19
418.72	842.19
418.943	815.19
419.166	862.19
419.389	894.19
419.611	911.19
419.834	891.19
420.057	867.19
420.28	834.19
420.503	824.19
420.726	804.19
420.948	790.19
421.171	808.19
421.394	834.19
421.617	797.19
421.839	811.19
422.062	790.19
422.285	808.19
422.507	823.19
422.73	829.19
422.953	815.19
423.175	840.19
423.398	842.19
423.621	808.19
423.843	850.19
424.066	834.19
424.288	834.19
424.511	805.19
424.733	806.19
424.956	824.19
425.178	835.19
425.401	820.19
425.623	812.19
425.846	810.19
426.068	775.19
426.291	786.19
426.513	782.19
426.735	787.19
426.958	789.19
427.18	745.19
427.402	778.19
427.625	758.19
427.847	776.19
428.069	745.19
428.292	740.19
428.514	741.19
428.736	759.19
428.958	758.19
429.181	734.19
429.403	758.19
429.625	775.19
429.847	741.19
430.069	755.19
430.292	748.19
430.514	740.19
430.736	787.19
430.958	727.19
431.18	758.19
431.402	761.19
431.624	745.19
431.846	782.19
432.068	780.19
432.29	774.19
432.512	766.19
432.734	793.19
432.956	778.19
433.178	795.19
433.4	781.19
433.622	786.19
433.844	790.19
434.066	794.19
434.287	799.19
434.509	815.19
434.731	823.19
434.953	823.19
435.175	850.19
435.397	852.19
435.618	809.19
435.84	815.19
436.062	782.19
436.284	781.19
436.505	752.19
436.727	770.19
436.949	770.19
437.17	783.19
437.392	754.19
437.614	772.19
437.835	740.19
438.057	747.19
438.278	735.19
438.5	758.19
438.721	744.19
438.943	770.19
439.165	774.19
439.386	735.19
439.608	785.19
439.829	781.19
440.05	775.19
440.272	750.19
440.493	781.19
440.715	828.19
440.936	803.19
441.158	802.19
441.379	826.19
441.6	846.19
441.822	848.19
442.043	862.19
442.264	828.19
442.486	822.19
442.707	809.19
442.928	830.19
443.149	863.19
443.371	828.19
443.592	853.19
443.813	867.19
444.034	860.19
444.255	877.19
444.476	926.19
444.698	917.19
444.919	953.19
445.14	1037.19
445.361	963.19
445.582	900.19
445.803	862.19
446.024	807.19
446.245	842.19
446.466	836.19
446.687	781.19
446.908	803.19
447.129	801.19
447.35	746.19
447.571	758.19
447.792	762.19
448.013	768.19
448.234	730.19
448.455	743.19
448.675	718.19
448.896	751.19
449.117	749.19
449.338	715.19
449.559	715.19
449.779	728.19
450	724.19
450.221	738.19
450.442	750.19
450.662	716.19
450.883	751.19
451.104	756.19
451.324	757.19
451.545	734.19
451.766	735.19
451.986	731.19
452.207	756.19
452.428	726.19
452.648	733.19
452.869	700.19
453.089	749.19
453.31	741.19
453.53	715.19
453.751	696.19
453.971	701.19
454.192	709.19
454.412	696.19
454.633	710.19
454.853	705.19
455.073	681.19
455.294	691.19
455.514	700.19
455.734	704.19
455.955	691.19
456.175	678.19
456.395	715.19
456.616	672.19
456.836	699.19
457.056	706.19
457.276	660.19
457.497	698.19
457.717	700.19
457.937	717.19
458.157	705.19
458.377	682.19
458.598	740.19
458.818	739.19
459.038	751.19
459.258	784.19
459.478	781.19
459.698	826.19
459.918	846.19
460.138	884.19
460.358	852.19
460.578	874.19
460.798	910.19
461.018	918.19
461.238	895.19
461.458	934.19
461.678	895.19
461.898	911.19
462.118	920.19
462.338	966.19
462.558	964.19
462.777	982.19
462.997	1084.19
463.217	1127.19
463.437	1130.19
463.657	1063.19
463.876	1052.19
464.096	1021.19
464.316	986.19
464.536	1007.19
464.755	1004.19
464.975	969.19
465.195	905.19
465.414	872.19
465.634	864.19
465.854	829.19
466.073	810.19
466.293	821.19
466.512	782.19
466.732	770.19
466.951	788.19
467.171	771.19
467.391	778.19
467.61	782.19
467.829	778.19
468.049	758.19
468.268	739.19
468.488	749.19
468.707	752.19
468.927	761.19
469.146	731.19
469.365	757.19
469.585	747.19
469.804	762.19
470.023	792.19
470.243	777.19
470.462	791.19
470.681	799.19
470.901	811.19
471.12	791.19
471.339	774.19
471.558	758.19
471.777	795.19
471.997	776.19
472.216	760.19
472.435	757.19
472.654	743.19
472.873	728.19
473.092	736.19
473.311	733.19
473.53	728.19
473.749	741.19
473.968	719.19
474.187	745.19
474.406	730.19
474.625	754.19
474.844	755.19
475.063	736.19
475.282	762.19
475.501	756.19
475.72	758.19
475.939	783.19
476.158	789.19
476.377	784.19
476.596	764.19
476.814	796.19
477.033	793.19
477.252	807.19
477.471	796.19
477.69	852.19
477.908	846.19
478.127	851.19
478.346	860.19
478.564	871.19
478.783	912.19
479.002	911.19
479.22	898.19
479.439	909.19
479.658	895.19
479.876	878.19
480.095	894.19
480.313	933.19
480.532	903.19
480.751	912.19
480.969	932.19
481.188	893.19
481.406	892.19
481.624	858.19
481.843	853.19
482.061	850.19
482.28	876.19
482.498	850.19
482.717	845.19
482.935	870.19
483.153	853.19
483.372	847.19
483.59	853.19
483.808	882.19
484.027	849.19
484.245	873.19
484.463	885.19
484.681	866.19
484.9	870.19
485.118	884.19
485.336	877.19
485.554	887.19
485.772	900.19
485.99	870.19
486.209	910.19
486.427	881.19
486.645	896.19
486.863	907.19
487.081	890.19
487.299	898.19
487.517	883.19
487.735	898.19
487.953	906.19
488.171	903.19
488.389	879.19
488.607	895.19
488.825	876.19
489.043	871.19
489.261	866.19
489.479	900.19
489.696	890.19
489.914	873.19
490.132	896.19
490.35	914.19
490.568	890.19
490.786	898.19
491.003	901.19
491.221	903.19
491.439	910.19
491.657	922.19
491.874	904.19
492.092	949.19
492.31	971.19
492.527	942.19
492.745	945.19
492.963	938.19
493.18	934.19
493.398	936.19
493.615	921.19
493.833	950.19
494.05	960.19
494.268	939.19
494.485	966.19
494.703	985.19
494.92	944.19
495.138	982.19
495.355	969.19
495.573	970.19
495.79	955.19
496.008	965.19
496.225	1011.19
496.442	1006.19
496.66	1022.19
496.877	1026.19
497.094	1041.19
497.312	1058.19
497.529	1086.19
497.746	1101.19
497.963	1104.19
498.181	1120.19
498.398	1177.19
498.615	1225.19
498.832	1311.19
499.049	1354.19
499.267	1468.19
499.484	1573.19
499.701	1702.19
499.918	1796.19
500.135	1972.19
500.352	2142.19
500.569	2187.19
500.786	2166.19
501.003	2108.19
501.22	1990.19
