Data from NiCl2@0.125M.TitratingCurve.Agarose3%dH2O.NegLispCup.LampEnergy10.LIBS07252019_HRD10591_18-28-57-575.txt Node
Date: Thu Jul 25 18:28:57 EDT 2019
User: cochatt
Spectrometer: HR+D1059
Trigger mode: 1
Integration Time (sec): 1.000000E-1
Scans to average: 1
Electric dark correction enabled: true
Nonlinearity correction enabled: false
Boxcar width: 0
XAxis mode: Wavelengths
Number of Pixels in Spectrum: 2048
>>>>>Begin Spectral Data<<<<<
223.165	-20.5
223.4	-20.5
223.635	-20.5
223.869	-6.5
224.104	-19.5
224.338	-10.5
224.573	-24.5
224.808	-17.5
225.042	-15.5
225.277	-5.5
225.511	-6.5
225.746	13.5
225.98	2.5
226.215	13.5
226.449	19.5
226.683	25.5
226.918	15.5
227.152	36.5
227.387	27.5
227.621	43.5
227.856	44.5
228.09	41.5
228.324	56.5
228.559	77.5
228.793	69.5
229.027	108.5
229.262	102.5
229.496	122.5
229.73	119.5
229.964	124.5
230.199	125.5
230.433	126.5
230.667	144.5
230.901	145.5
231.136	137.5
231.37	131.5
231.604	140.5
231.838	140.5
232.072	162.5
232.306	148.5
232.541	154.5
232.775	152.5
233.009	156.5
233.243	153.5
233.477	141.5
233.711	154.5
233.945	166.5
234.179	173.5
234.413	148.5
234.647	171.5
234.881	155.5
235.115	149.5
235.349	162.5
235.583	151.5
235.817	167.5
236.051	152.5
236.285	162.5
236.519	161.5
236.753	167.5
236.987	161.5
237.221	158.5
237.455	150.5
237.689	170.5
237.922	177.5
238.156	179.5
238.39	167.5
238.624	169.5
238.858	175.5
239.091	198.5
239.325	184.5
239.559	171.5
239.793	181.5
240.027	176.5
240.26	170.5
240.494	191.5
240.728	205.5
240.961	201.5
241.195	186.5
241.429	195.5
241.662	197.5
241.896	203.5
242.13	212.5
242.363	197.5
242.597	194.5
242.83	219.5
243.064	210.5
243.298	215.5
243.531	192.5
243.765	218.5
243.998	209.5
244.232	204.5
244.465	214.5
244.699	217.5
244.932	231.5
245.166	228.5
245.399	223.5
245.633	231.5
245.866	226.5
246.099	217.5
246.333	222.5
246.566	235.5
246.8	233.5
247.033	232.5
247.266	246.5
247.5	237.5
247.733	240.5
247.966	235.5
248.2	241.5
248.433	261.5
248.666	265.5
248.899	250.5
249.133	254.5
249.366	246.5
249.599	243.5
249.832	248.5
250.066	270.5
250.299	269.5
250.532	258.5
250.765	261.5
250.998	257.5
251.231	266.5
251.465	269.5
251.698	270.5
251.931	273.5
252.164	282.5
252.397	279.5
252.63	309.5
252.863	293.5
253.096	281.5
253.329	279.5
253.562	291.5
253.795	273.5
254.028	294.5
254.261	285.5
254.494	278.5
254.727	299.5
254.96	294.5
255.193	311.5
255.426	298.5
255.659	294.5
255.892	285.5
256.124	319.5
256.357	305.5
256.59	293.5
256.823	302.5
257.056	297.5
257.289	297.5
257.521	311.5
257.754	315.5
257.987	329.5
258.22	317.5
258.452	308.5
258.685	296.5
258.918	345.5
259.151	329.5
259.383	326.5
259.616	343.5
259.849	318.5
260.081	329.5
260.314	317.5
260.547	329.5
260.779	333.5
261.012	333.5
261.244	333.5
261.477	329.5
261.71	338.5
261.942	311.5
262.175	338.5
262.407	315.5
262.64	338.5
262.872	353.5
263.105	340.5
263.337	347.5
263.57	343.5
263.802	366.5
264.035	362.5
264.267	359.5
264.499	363.5
264.732	371.5
264.964	385.5
265.197	371.5
265.429	391.5
265.661	369.5
265.894	369.5
266.126	371.5
266.358	380.5
266.591	378.5
266.823	381.5
267.055	354.5
267.287	379.5
267.52	375.5
267.752	374.5
267.984	398.5
268.216	401.5
268.448	395.5
268.681	394.5
268.913	384.5
269.145	366.5
269.377	391.5
269.609	401.5
269.841	381.5
270.073	381.5
270.306	398.5
270.538	365.5
270.77	378.5
271.002	409.5
271.234	405.5
271.466	403.5
271.698	400.5
271.93	399.5
272.162	382.5
272.394	402.5
272.626	407.5
272.858	409.5
273.09	409.5
273.322	412.5
273.553	393.5
273.785	423.5
274.017	417.5
274.249	405.5
274.481	410.5
274.713	396.5
274.945	399.5
275.176	407.5
275.408	420.5
275.64	442.5
275.872	449.5
276.104	434.5
276.335	428.5
276.567	436.5
276.799	425.5
277.031	423.5
277.262	449.5
277.494	426.5
277.726	439.5
277.957	456.5
278.189	457.5
278.421	430.5
278.652	469.5
278.884	433.5
279.115	462.5
279.347	466.5
279.579	467.5
279.81	479.5
280.042	455.5
280.273	473.5
280.505	466.5
280.736	487.5
280.968	465.5
281.199	479.5
281.431	479.5
281.662	463.5
281.894	484.5
282.125	480.5
282.356	490.5
282.588	491.5
282.819	478.5
283.051	499.5
283.282	477.5
283.513	484.5
283.745	484.5
283.976	479.5
284.207	501.5
284.439	499.5
284.67	483.5
284.901	510.5
285.132	517.5
285.364	521.5
285.595	533.5
285.826	511.5
286.057	490.5
286.288	518.5
286.52	483.5
286.751	537.5
286.982	543.5
287.213	526.5
287.444	527.5
287.675	518.5
287.906	526.5
288.138	519.5
288.369	530.5
288.6	525.5
288.831	535.5
289.062	519.5
289.293	534.5
289.524	510.5
289.755	542.5
289.986	538.5
290.217	537.5
290.448	542.5
290.679	550.5
290.91	559.5
291.141	537.5
291.371	538.5
291.602	530.5
291.833	526.5
292.064	558.5
292.295	541.5
292.526	541.5
292.757	535.5
292.987	524.5
293.218	536.5
293.449	553.5
293.68	551.5
293.91	549.5
294.141	559.5
294.372	544.5
294.603	559.5
294.833	564.5
295.064	561.5
295.295	576.5
295.525	547.5
295.756	556.5
295.987	575.5
296.217	568.5
296.448	569.5
296.679	584.5
296.909	580.5
297.14	585.5
297.37	597.5
297.601	607.5
297.831	621.5
298.062	595.5
298.292	632.5
298.523	622.5
298.753	623.5
298.984	615.5
299.214	591.5
299.445	598.5
299.675	600.5
299.905	581.5
300.136	578.5
300.366	596.5
300.597	616.5
300.827	608.5
301.057	606.5
301.288	633.5
301.518	628.5
301.748	637.5
301.979	619.5
302.209	619.5
302.439	608.5
302.669	632.5
302.9	614.5
303.13	596.5
303.36	601.5
303.59	601.5
303.82	629.5
304.051	595.5
304.281	601.5
304.511	609.5
304.741	602.5
304.971	621.5
305.201	593.5
305.431	611.5
305.661	630.5
305.891	601.5
306.121	621.5
306.352	617.5
306.582	579.5
306.812	585.5
307.042	595.5
307.272	579.5
307.502	596.5
307.731	604.5
307.961	590.5
308.191	591.5
308.421	573.5
308.651	605.5
308.881	588.5
309.111	576.5
309.341	581.5
309.571	608.5
309.8	599.5
310.03	586.5
310.26	585.5
310.49	611.5
310.72	617.5
310.949	605.5
311.179	612.5
311.409	609.5
311.639	614.5
311.868	614.5
312.098	621.5
312.328	601.5
312.557	623.5
312.787	615.5
313.017	634.5
313.246	655.5
313.476	647.5
313.706	631.5
313.935	651.5
314.165	634.5
314.394	635.5
314.624	613.5
314.853	647.5
315.083	658.5
315.312	639.5
315.542	655.5
315.771	635.5
316.001	629.5
316.23	629.5
316.46	616.5
316.689	618.5
316.919	583.5
317.148	601.5
317.377	602.5
317.607	602.5
317.836	610.5
318.065	614.5
318.295	636.5
318.524	622.5
318.753	643.5
318.983	627.5
319.212	620.5
319.441	621.5
319.67	615.5
319.9	599.5
320.129	610.5
320.358	625.5
320.587	620.5
320.816	622.5
321.046	636.5
321.275	618.5
321.504	633.5
321.733	637.5
321.962	634.5
322.191	604.5
322.42	612.5
322.649	638.5
322.878	633.5
323.108	630.5
323.337	643.5
323.566	605.5
323.795	651.5
324.024	661.5
324.253	620.5
324.482	635.5
324.71	614.5
324.939	607.5
325.168	661.5
325.397	622.5
325.626	657.5
325.855	662.5
326.084	679.5
326.313	681.5
326.542	686.5
326.77	702.5
326.999	656.5
327.228	660.5
327.457	654.5
327.686	657.5
327.914	706.5
328.143	691.5
328.372	685.5
328.6	683.5
328.829	663.5
329.058	685.5
329.287	685.5
329.515	668.5
329.744	655.5
329.972	679.5
330.201	700.5
330.43	696.5
330.658	706.5
330.887	686.5
331.115	687.5
331.344	711.5
331.572	727.5
331.801	746.5
332.03	744.5
332.258	778.5
332.486	763.5
332.715	817.5
332.943	831.5
333.172	889.5
333.4	917.5
333.629	937.5
333.857	946.5
334.085	903.5
334.314	911.5
334.542	882.5
334.771	888.5
334.999	865.5
335.227	860.5
335.455	828.5
335.684	853.5
335.912	853.5
336.14	826.5
336.369	827.5
336.597	820.5
336.825	811.5
337.053	806.5
337.281	791.5
337.51	775.5
337.738	754.5
337.966	752.5
338.194	746.5
338.422	738.5
338.65	746.5
338.878	753.5
339.106	755.5
339.334	742.5
339.562	719.5
339.79	686.5
340.018	715.5
340.246	704.5
340.474	714.5
340.702	682.5
340.93	714.5
341.158	707.5
341.386	716.5
341.614	701.5
341.842	704.5
342.07	684.5
342.298	685.5
342.526	724.5
342.754	697.5
342.981	719.5
343.209	702.5
343.437	741.5
343.665	814.5
343.893	838.5
344.12	898.5
344.348	860.5
344.576	819.5
344.804	789.5
345.031	739.5
345.259	737.5
345.487	700.5
345.714	702.5
345.942	697.5
346.17	726.5
346.397	704.5
346.625	683.5
346.853	697.5
347.08	666.5
347.308	684.5
347.535	709.5
347.763	763.5
347.99	709.5
348.218	703.5
348.445	687.5
348.673	694.5
348.9	692.5
349.128	675.5
349.355	654.5
349.583	698.5
349.81	662.5
350.037	665.5
350.265	638.5
350.492	637.5
350.72	655.5
350.947	666.5
351.174	668.5
351.402	656.5
351.629	635.5
351.856	638.5
352.083	651.5
352.311	654.5
352.538	645.5
352.765	652.5
352.992	655.5
353.22	644.5
353.447	636.5
353.674	638.5
353.901	642.5
354.128	649.5
354.355	630.5
354.583	645.5
354.81	634.5
355.037	650.5
355.264	636.5
355.491	638.5
355.718	658.5
355.945	660.5
356.172	666.5
356.399	670.5
356.626	655.5
356.853	677.5
357.08	670.5
357.307	665.5
357.534	667.5
357.761	647.5
357.988	653.5
358.215	652.5
358.441	653.5
358.668	668.5
358.895	667.5
359.122	667.5
359.349	695.5
359.576	652.5
359.802	661.5
360.029	650.5
360.256	649.5
360.483	671.5
360.709	689.5
360.936	651.5
361.163	669.5
361.39	655.5
361.616	677.5
361.843	663.5
362.07	641.5
362.296	645.5
362.523	660.5
362.749	659.5
362.976	638.5
363.203	659.5
363.429	646.5
363.656	627.5
363.882	668.5
364.109	641.5
364.335	671.5
364.562	635.5
364.788	636.5
365.015	663.5
365.241	656.5
365.468	623.5
365.694	643.5
365.92	650.5
366.147	634.5
366.373	666.5
366.599	666.5
366.826	666.5
367.052	639.5
367.278	669.5
367.505	654.5
367.731	654.5
367.957	641.5
368.184	654.5
368.41	679.5
368.636	669.5
368.862	665.5
369.089	654.5
369.315	682.5
369.541	685.5
369.767	655.5
369.993	701.5
370.219	684.5
370.445	687.5
370.672	696.5
370.898	680.5
371.124	722.5
371.35	729.5
371.576	749.5
371.802	718.5
372.028	725.5
372.254	714.5
372.48	731.5
372.706	714.5
372.932	759.5
373.158	755.5
373.384	749.5
373.61	723.5
373.835	721.5
374.061	669.5
374.287	725.5
374.513	731.5
374.739	754.5
374.965	791.5
375.191	821.5
375.416	823.5
375.642	776.5
375.868	755.5
376.094	743.5
376.319	767.5
376.545	739.5
376.771	719.5
376.997	724.5
377.222	681.5
377.448	711.5
377.674	710.5
377.899	713.5
378.125	696.5
378.35	712.5
378.576	714.5
378.802	707.5
379.027	718.5
379.253	711.5
379.478	706.5
379.704	706.5
379.929	709.5
380.155	666.5
380.38	696.5
380.606	691.5
380.831	713.5
381.057	716.5
381.282	706.5
381.507	710.5
381.733	715.5
381.958	721.5
382.184	741.5
382.409	737.5
382.634	758.5
382.86	755.5
383.085	759.5
383.31	772.5
383.535	776.5
383.761	775.5
383.986	782.5
384.211	824.5
384.436	838.5
384.662	854.5
384.887	868.5
385.112	869.5
385.337	861.5
385.562	855.5
385.787	845.5
386.013	889.5
386.238	876.5
386.463	859.5
386.688	901.5
386.913	867.5
387.138	887.5
387.363	840.5
387.588	831.5
387.813	847.5
388.038	841.5
388.263	874.5
388.488	836.5
388.713	838.5
388.938	853.5
389.163	829.5
389.387	834.5
389.612	807.5
389.837	819.5
390.062	843.5
390.287	822.5
390.512	841.5
390.736	837.5
390.961	843.5
391.186	876.5
391.411	915.5
391.636	919.5
391.86	957.5
392.085	954.5
392.31	994.5
392.534	969.5
392.759	953.5
392.984	927.5
393.208	921.5
393.433	916.5
393.658	920.5
393.882	939.5
394.107	943.5
394.331	921.5
394.556	945.5
394.78	949.5
395.005	930.5
395.229	950.5
395.454	934.5
395.678	968.5
395.903	961.5
396.127	949.5
396.352	892.5
396.576	890.5
396.801	921.5
397.025	907.5
397.249	925.5
397.474	951.5
397.698	946.5
397.922	936.5
398.147	968.5
398.371	1006.5
398.595	997.5
398.82	1051.5
399.044	1132.5
399.268	1259.5
399.492	1446.5
399.717	1696.5
399.941	1700.5
400.165	1515.5
400.389	1365.5
400.613	1227.5
400.837	1149.5
401.062	1128.5
401.286	1099.5
401.51	1098.5
401.734	1101.5
401.958	1083.5
402.182	1082.5
402.406	1121.5
402.63	1146.5
402.854	1171.5
403.078	1179.5
403.302	1212.5
403.526	1236.5
403.75	1284.5
403.974	1305.5
404.198	1271.5
404.422	1297.5
404.645	1236.5
404.869	1250.5
405.093	1247.5
405.317	1239.5
405.541	1217.5
405.765	1226.5
405.988	1177.5
406.212	1204.5
406.436	1216.5
406.66	1218.5
406.883	1240.5
407.107	1312.5
407.331	1373.5
407.555	1429.5
407.778	1406.5
408.002	1387.5
408.226	1332.5
408.449	1313.5
408.673	1254.5
408.896	1243.5
409.12	1240.5
409.344	1235.5
409.567	1260.5
409.791	1239.5
410.014	1251.5
410.238	1258.5
410.461	1221.5
410.685	1193.5
410.908	1163.5
411.132	1142.5
411.355	1128.5
411.578	1141.5
411.802	1116.5
412.025	1113.5
412.249	1153.5
412.472	1145.5
412.695	1083.5
412.919	1067.5
413.142	1107.5
413.365	1106.5
413.589	1103.5
413.812	1109.5
414.035	1060.5
414.258	1071.5
414.482	1078.5
414.705	1130.5
414.928	1118.5
415.151	1074.5
415.374	1112.5
415.597	1065.5
415.821	1070.5
416.044	1051.5
416.267	1049.5
416.49	1020.5
416.713	1085.5
416.936	1119.5
417.159	1098.5
417.382	1074.5
417.605	1071.5
417.828	1059.5
418.051	1068.5
418.274	1096.5
418.497	1062.5
418.72	1095.5
418.943	1110.5
419.166	1204.5
419.389	1277.5
419.611	1237.5
419.834	1189.5
420.057	1140.5
420.28	1114.5
420.503	1096.5
420.726	1058.5
420.948	1075.5
421.171	1102.5
421.394	1098.5
421.617	1088.5
421.839	1073.5
422.062	1089.5
422.285	1074.5
422.507	1103.5
422.73	1126.5
422.953	1125.5
423.175	1140.5
423.398	1176.5
423.621	1157.5
423.843	1164.5
424.066	1173.5
424.288	1145.5
424.511	1173.5
424.733	1142.5
424.956	1140.5
425.178	1112.5
425.401	1095.5
425.623	1122.5
425.846	1061.5
426.068	1049.5
426.291	1061.5
426.513	1024.5
426.735	1038.5
426.958	1017.5
427.18	955.5
427.402	990.5
427.625	1003.5
427.847	948.5
428.069	974.5
428.292	1025.5
428.514	967.5
428.736	949.5
428.958	991.5
429.181	958.5
429.403	926.5
429.625	935.5
429.847	913.5
430.069	927.5
430.292	908.5
430.514	959.5
430.736	936.5
430.958	973.5
431.18	929.5
431.402	936.5
431.624	971.5
431.846	965.5
432.068	967.5
432.29	977.5
432.512	955.5
432.734	959.5
432.956	946.5
433.178	950.5
433.4	965.5
433.622	996.5
433.844	975.5
434.066	975.5
434.287	1025.5
434.509	1028.5
434.731	1082.5
434.953	1076.5
435.175	1128.5
435.397	1087.5
435.618	1006.5
435.84	1014.5
436.062	999.5
436.284	975.5
436.505	971.5
436.727	943.5
436.949	980.5
437.17	964.5
437.392	957.5
437.614	957.5
437.835	903.5
438.057	937.5
438.278	924.5
438.5	933.5
438.721	954.5
438.943	933.5
439.165	927.5
439.386	921.5
439.608	948.5
439.829	966.5
440.05	959.5
440.272	991.5
440.493	988.5
440.715	978.5
440.936	1020.5
441.158	1028.5
441.379	1065.5
441.6	1113.5
441.822	1111.5
442.043	1126.5
442.264	1079.5
442.486	1093.5
442.707	1090.5
442.928	1071.5
443.149	1074.5
443.371	1070.5
443.592	1081.5
443.813	1140.5
444.034	1103.5
444.255	1145.5
444.476	1212.5
444.698	1286.5
444.919	1339.5
445.14	1471.5
445.361	1285.5
445.582	1147.5
445.803	1082.5
446.024	1043.5
446.245	1035.5
446.466	1029.5
446.687	1019.5
446.908	990.5
447.129	970.5
447.35	974.5
447.571	950.5
447.792	931.5
448.013	950.5
448.234	918.5
448.455	926.5
448.675	902.5
448.896	910.5
449.117	928.5
449.338	862.5
449.559	901.5
449.779	919.5
450	883.5
450.221	887.5
450.442	929.5
450.662	933.5
450.883	908.5
451.104	947.5
451.324	937.5
451.545	943.5
451.766	969.5
451.986	911.5
452.207	908.5
452.428	929.5
452.648	901.5
452.869	901.5
453.089	890.5
453.31	901.5
453.53	865.5
453.751	889.5
453.971	901.5
454.192	891.5
454.412	829.5
454.633	861.5
454.853	886.5
455.073	851.5
455.294	867.5
455.514	837.5
455.734	838.5
455.955	819.5
456.175	835.5
456.395	822.5
456.616	827.5
456.836	842.5
457.056	841.5
457.276	838.5
457.497	829.5
457.717	836.5
457.937	854.5
458.157	848.5
458.377	854.5
458.598	877.5
458.818	925.5
459.038	893.5
459.258	949.5
459.478	1019.5
459.698	1020.5
459.918	1047.5
460.138	1087.5
460.358	1125.5
460.578	1175.5
460.798	1182.5
461.018	1188.5
461.238	1150.5
461.458	1162.5
461.678	1136.5
461.898	1157.5
462.118	1142.5
462.338	1222.5
462.558	1284.5
462.777	1303.5
462.997	1461.5
463.217	1588.5
463.437	1607.5
463.657	1508.5
463.876	1366.5
464.096	1369.5
464.316	1390.5
464.536	1367.5
464.755	1313.5
464.975	1271.5
465.195	1181.5
465.414	1129.5
465.634	1055.5
465.854	1031.5
466.073	977.5
466.293	983.5
466.512	972.5
466.732	941.5
466.951	974.5
467.171	933.5
467.391	975.5
467.61	952.5
467.829	947.5
468.049	949.5
468.268	897.5
468.488	868.5
468.707	885.5
468.927	879.5
469.146	921.5
469.365	918.5
469.585	936.5
469.804	935.5
470.023	973.5
470.243	979.5
470.462	963.5
470.681	992.5
470.901	1003.5
471.12	964.5
471.339	956.5
471.558	924.5
471.777	914.5
471.997	903.5
472.216	884.5
472.435	879.5
472.654	897.5
472.873	869.5
473.092	884.5
473.311	874.5
473.53	859.5
473.749	869.5
473.968	856.5
474.187	876.5
474.406	846.5
474.625	847.5
474.844	877.5
475.063	875.5
475.282	861.5
475.501	893.5
475.72	901.5
475.939	895.5
476.158	900.5
476.377	890.5
476.596	895.5
476.814	915.5
477.033	937.5
477.252	932.5
477.471	966.5
477.69	988.5
477.908	1015.5
478.127	1035.5
478.346	1041.5
478.564	1048.5
478.783	1032.5
479.002	1071.5
479.22	1070.5
479.439	1090.5
479.658	1067.5
479.876	1079.5
480.095	1099.5
480.313	1136.5
480.532	1183.5
480.751	1170.5
480.969	1129.5
481.188	1075.5
481.406	1076.5
481.624	1019.5
481.843	993.5
482.061	970.5
482.28	1007.5
482.498	943.5
482.717	951.5
482.935	969.5
483.153	983.5
483.372	972.5
483.59	973.5
483.808	964.5
484.027	961.5
484.245	947.5
484.463	984.5
484.681	1009.5
484.9	1002.5
485.118	995.5
485.336	1029.5
485.554	1025.5
485.772	1043.5
485.99	1039.5
486.209	1065.5
486.427	1051.5
486.645	1058.5
486.863	1067.5
487.081	1045.5
487.299	1048.5
487.517	1030.5
487.735	1015.5
487.953	1007.5
488.171	1068.5
488.389	1034.5
488.607	1018.5
488.825	1009.5
489.043	979.5
489.261	1044.5
489.479	1028.5
489.696	1031.5
489.914	1008.5
490.132	997.5
490.35	1014.5
490.568	1061.5
490.786	1053.5
491.003	1058.5
491.221	1065.5
491.439	999.5
491.657	1019.5
491.874	1072.5
492.092	1041.5
492.31	1038.5
492.527	1045.5
492.745	1075.5
492.963	1067.5
493.18	1068.5
493.398	1069.5
493.615	1081.5
493.833	1093.5
494.05	1097.5
494.268	1106.5
494.485	1094.5
494.703	1108.5
494.92	1107.5
495.138	1104.5
495.355	1094.5
495.573	1122.5
495.79	1123.5
496.008	1094.5
496.225	1117.5
496.442	1139.5
496.66	1124.5
496.877	1115.5
497.094	1146.5
497.312	1184.5
497.529	1195.5
497.746	1241.5
497.963	1280.5
498.181	1309.5
498.398	1347.5
498.615	1460.5
498.832	1561.5
499.049	1651.5
499.267	1808.5
499.484	2039.5
499.701	2237.5
499.918	2478.5
500.135	2899.5
500.352	3314.5
500.569	3449.5
500.786	3572.5
501.003	3278.5
501.22	2850.5
501.437	2539.5
501.654	2179.5
501.871	1962.5
502.088	1800.5
502.305	1711.5
502.522	1594.5
502.739	1546.5
502.956	1433.5
503.172	1373.5
503.389	1315.5
503.606	1254.5
503.823	1258.5
504.04	1258.5
504.256	1273.5
504.473	1297.5
504.69	1297.5
504.907	1289.5
505.123	1198.5
505.34	1151.5
505.557	1074.5
505.773	1095.5
505.99	1047.5
506.207	1029.5
506.423	1011.5
506.64	1014.5
506.856	997.5
507.073	977.5
507.289	981.5
507.506	950.5
507.722	985.5
507.939	992.5
508.155	969.5
508.372	928.5
508.588	935.5
508.805	916.5
509.021	930.5
509.238	930.5
509.454	911.5
509.67	925.5
509.887	904.5
510.103	896.5
510.319	922.5
510.536	902.5
510.752	881.5
510.968	901.5
511.184	875.5
511.401	878.5
511.617	897.5
511.833	897.5
512.049	864.5
512.265	912.5
512.481	874.5
512.698	879.5
512.914	895.5
513.13	879.5
513.346	888.5
513.562	890.5
513.778	891.5
513.994	888.5
514.21	886.5
514.426	888.5
514.642	902.5
514.858	897.5
