Data from NiCl2@0.125M.TitratingCurve.Agarose3%dH2O.NegLispCup.LampEnergy10.LIBS07252019_HRD10591_18-29-30-575.txt Node
Date: Thu Jul 25 18:29:30 EDT 2019
User: cochatt
Spectrometer: HR+D1059
Trigger mode: 1
Integration Time (sec): 1.000000E-1
Scans to average: 1
Electric dark correction enabled: true
Nonlinearity correction enabled: false
Boxcar width: 0
XAxis mode: Wavelengths
Number of Pixels in Spectrum: 2048
>>>>>Begin Spectral Data<<<<<
223.165	-18.38
223.4	-18.38
223.635	-18.38
223.869	-26.38
224.104	-18.38
224.338	-18.38
224.573	-6.38
224.808	-18.38
225.042	2.62
225.277	2.62
225.511	9.62
225.746	-6.38
225.98	16.62
226.215	6.62
226.449	8.62
226.683	16.62
226.918	23.62
227.152	25.62
227.387	36.62
227.621	26.62
227.856	42.62
228.09	53.62
228.324	37.62
228.559	42.62
228.793	70.62
229.027	108.62
229.262	121.62
229.496	112.62
229.73	126.62
229.964	107.62
230.199	116.62
230.433	123.62
230.667	136.62
230.901	128.62
231.136	140.62
231.37	133.62
231.604	130.62
231.838	124.62
232.072	133.62
232.306	142.62
232.541	143.62
232.775	150.62
233.009	164.62
233.243	141.62
233.477	140.62
233.711	153.62
233.945	156.62
234.179	136.62
234.413	141.62
234.647	136.62
234.881	142.62
235.115	151.62
235.349	147.62
235.583	148.62
235.817	151.62
236.051	162.62
236.285	158.62
236.519	160.62
236.753	163.62
236.987	150.62
237.221	168.62
237.455	150.62
237.689	156.62
237.922	173.62
238.156	179.62
238.39	172.62
238.624	146.62
238.858	146.62
239.091	152.62
239.325	189.62
239.559	155.62
239.793	160.62
240.027	177.62
240.26	174.62
240.494	167.62
240.728	169.62
240.961	185.62
241.195	184.62
241.429	185.62
241.662	194.62
241.896	188.62
242.13	205.62
242.363	184.62
242.597	199.62
242.83	196.62
243.064	176.62
243.298	198.62
243.531	199.62
243.765	203.62
243.998	200.62
244.232	205.62
244.465	200.62
244.699	203.62
244.932	192.62
245.166	219.62
245.399	207.62
245.633	206.62
245.866	200.62
246.099	204.62
246.333	201.62
246.566	229.62
246.8	198.62
247.033	214.62
247.266	224.62
247.5	210.62
247.733	229.62
247.966	223.62
248.2	222.62
248.433	244.62
248.666	224.62
248.899	236.62
249.133	224.62
249.366	257.62
249.599	234.62
249.832	231.62
250.066	256.62
250.299	229.62
250.532	256.62
250.765	243.62
250.998	241.62
251.231	245.62
251.465	251.62
251.698	243.62
251.931	251.62
252.164	253.62
252.397	253.62
252.63	276.62
252.863	265.62
253.096	270.62
253.329	273.62
253.562	273.62
253.795	277.62
254.028	261.62
254.261	266.62
254.494	273.62
254.727	268.62
254.96	270.62
255.193	264.62
255.426	286.62
255.659	274.62
255.892	285.62
256.124	285.62
256.357	289.62
256.59	283.62
256.823	292.62
257.056	286.62
257.289	286.62
257.521	294.62
257.754	285.62
257.987	291.62
258.22	288.62
258.452	283.62
258.685	273.62
258.918	301.62
259.151	309.62
259.383	294.62
259.616	293.62
259.849	292.62
260.081	289.62
260.314	292.62
260.547	299.62
260.779	289.62
261.012	288.62
261.244	308.62
261.477	320.62
261.71	297.62
261.942	310.62
262.175	320.62
262.407	325.62
262.64	321.62
262.872	301.62
263.105	331.62
263.337	337.62
263.57	323.62
263.802	310.62
264.035	309.62
264.267	339.62
264.499	326.62
264.732	315.62
264.964	330.62
265.197	340.62
265.429	343.62
265.661	355.62
265.894	330.62
266.126	333.62
266.358	334.62
266.591	326.62
266.823	333.62
267.055	333.62
267.287	345.62
267.52	359.62
267.752	334.62
267.984	353.62
268.216	350.62
268.448	352.62
268.681	370.62
268.913	353.62
269.145	346.62
269.377	370.62
269.609	351.62
269.841	340.62
270.073	349.62
270.306	363.62
270.538	357.62
270.77	351.62
271.002	349.62
271.234	372.62
271.466	355.62
271.698	378.62
271.93	356.62
272.162	374.62
272.394	367.62
272.626	377.62
272.858	366.62
273.09	384.62
273.322	390.62
273.553	379.62
273.785	382.62
274.017	397.62
274.249	392.62
274.481	384.62
274.713	377.62
274.945	411.62
275.176	396.62
275.408	416.62
275.64	399.62
275.872	388.62
276.104	385.62
276.335	406.62
276.567	362.62
276.799	388.62
277.031	412.62
277.262	409.62
277.494	408.62
277.726	419.62
277.957	407.62
278.189	403.62
278.421	417.62
278.652	416.62
278.884	410.62
279.115	416.62
279.347	406.62
279.579	420.62
279.81	416.62
280.042	398.62
280.273	427.62
280.505	428.62
280.736	420.62
280.968	421.62
281.199	443.62
281.431	453.62
281.662	441.62
281.894	441.62
282.125	437.62
282.356	430.62
282.588	446.62
282.819	449.62
283.051	426.62
283.282	434.62
283.513	452.62
283.745	453.62
283.976	460.62
284.207	451.62
284.439	436.62
284.67	460.62
284.901	456.62
285.132	459.62
285.364	446.62
285.595	465.62
285.826	458.62
286.057	474.62
286.288	482.62
286.52	469.62
286.751	464.62
286.982	484.62
287.213	459.62
287.444	467.62
287.675	470.62
287.906	472.62
288.138	491.62
288.369	466.62
288.6	452.62
288.831	482.62
289.062	472.62
289.293	471.62
289.524	493.62
289.755	485.62
289.986	497.62
290.217	505.62
290.448	493.62
290.679	460.62
290.91	518.62
291.141	505.62
291.371	487.62
291.602	502.62
291.833	497.62
292.064	473.62
292.295	494.62
292.526	522.62
292.757	492.62
292.987	486.62
293.218	506.62
293.449	507.62
293.68	501.62
293.91	478.62
294.141	519.62
294.372	504.62
294.603	510.62
294.833	504.62
295.064	513.62
295.295	513.62
295.525	540.62
295.756	506.62
295.987	498.62
296.217	509.62
296.448	536.62
296.679	533.62
296.909	527.62
297.14	541.62
297.37	536.62
297.601	525.62
297.831	539.62
298.062	559.62
298.292	547.62
298.523	576.62
298.753	560.62
298.984	542.62
299.214	554.62
299.445	536.62
299.675	540.62
299.905	553.62
300.136	540.62
300.366	586.62
300.597	558.62
300.827	565.62
301.057	570.62
301.288	562.62
301.518	571.62
301.748	564.62
301.979	588.62
302.209	596.62
302.439	565.62
302.669	565.62
302.9	561.62
303.13	563.62
303.36	547.62
303.59	548.62
303.82	547.62
304.051	570.62
304.281	574.62
304.511	559.62
304.741	565.62
304.971	544.62
305.201	554.62
305.431	556.62
305.661	539.62
305.891	566.62
306.121	572.62
306.352	558.62
306.582	534.62
306.812	529.62
307.042	566.62
307.272	549.62
307.502	522.62
307.731	525.62
307.961	552.62
308.191	555.62
308.421	527.62
308.651	552.62
308.881	568.62
309.111	541.62
309.341	550.62
309.571	579.62
309.8	546.62
310.03	547.62
310.26	521.62
310.49	532.62
310.72	550.62
310.949	548.62
311.179	527.62
311.409	553.62
311.639	577.62
311.868	557.62
312.098	565.62
312.328	568.62
312.557	564.62
312.787	577.62
313.017	570.62
313.246	572.62
313.476	588.62
313.706	577.62
313.935	574.62
314.165	602.62
314.394	594.62
314.624	590.62
314.853	591.62
315.083	599.62
315.312	571.62
315.542	565.62
315.771	556.62
316.001	568.62
316.23	580.62
316.46	562.62
316.689	562.62
316.919	554.62
317.148	537.62
317.377	566.62
317.607	569.62
317.836	569.62
318.065	561.62
318.295	560.62
318.524	564.62
318.753	552.62
318.983	554.62
319.212	562.62
319.441	559.62
319.67	580.62
319.9	574.62
320.129	567.62
320.358	563.62
320.587	564.62
320.816	557.62
321.046	584.62
321.275	604.62
321.504	566.62
321.733	575.62
321.962	598.62
322.191	566.62
322.42	564.62
322.649	560.62
322.878	578.62
323.108	565.62
323.337	588.62
323.566	549.62
323.795	559.62
324.024	570.62
324.253	583.62
324.482	567.62
324.71	568.62
324.939	578.62
325.168	566.62
325.397	615.62
325.626	614.62
325.855	603.62
326.084	597.62
326.313	613.62
326.542	621.62
326.77	634.62
326.999	638.62
327.228	604.62
327.457	605.62
327.686	603.62
327.914	606.62
328.143	623.62
328.372	608.62
328.6	621.62
328.829	613.62
329.058	575.62
329.287	621.62
329.515	618.62
329.744	626.62
329.972	630.62
330.201	631.62
330.43	621.62
330.658	662.62
330.887	611.62
331.115	653.62
331.344	655.62
331.572	658.62
331.801	668.62
332.03	666.62
332.258	688.62
332.486	704.62
332.715	742.62
332.943	767.62
333.172	804.62
333.4	865.62
333.629	870.62
333.857	851.62
334.085	823.62
334.314	816.62
334.542	797.62
334.771	814.62
334.999	752.62
335.227	749.62
335.455	779.62
335.684	761.62
335.912	772.62
336.14	736.62
336.369	747.62
336.597	749.62
336.825	753.62
337.053	738.62
337.281	727.62
337.51	734.62
337.738	731.62
337.966	684.62
338.194	692.62
338.422	674.62
338.65	653.62
338.878	665.62
339.106	652.62
339.334	688.62
339.562	671.62
339.79	657.62
340.018	633.62
340.246	631.62
340.474	640.62
340.702	650.62
340.93	670.62
341.158	636.62
341.386	654.62
341.614	640.62
341.842	620.62
342.07	646.62
342.298	618.62
342.526	630.62
342.754	628.62
342.981	618.62
343.209	646.62
343.437	668.62
343.665	721.62
343.893	779.62
344.12	828.62
344.348	792.62
344.576	718.62
344.804	723.62
345.031	667.62
345.259	645.62
345.487	644.62
345.714	638.62
345.942	630.62
346.17	642.62
346.397	628.62
346.625	630.62
346.853	639.62
347.08	627.62
347.308	603.62
347.535	643.62
347.763	650.62
347.99	663.62
348.218	658.62
348.445	657.62
348.673	638.62
348.9	626.62
349.128	633.62
349.355	624.62
349.583	608.62
349.81	591.62
350.037	596.62
350.265	590.62
350.492	602.62
350.72	608.62
350.947	594.62
351.174	628.62
351.402	588.62
351.629	601.62
351.856	612.62
352.083	613.62
352.311	586.62
352.538	586.62
352.765	589.62
352.992	598.62
353.22	588.62
353.447	577.62
353.674	603.62
353.901	580.62
354.128	603.62
354.355	589.62
354.583	613.62
354.81	603.62
355.037	600.62
355.264	600.62
355.491	589.62
355.718	593.62
355.945	595.62
356.172	620.62
356.399	599.62
356.626	600.62
356.853	593.62
357.08	599.62
357.307	593.62
357.534	602.62
357.761	576.62
357.988	598.62
358.215	602.62
358.441	582.62
358.668	600.62
358.895	612.62
359.122	612.62
359.349	605.62
359.576	578.62
359.802	586.62
360.029	602.62
360.256	597.62
360.483	588.62
360.709	598.62
360.936	571.62
361.163	605.62
361.39	580.62
361.616	594.62
361.843	630.62
362.07	603.62
362.296	566.62
362.523	584.62
362.749	588.62
362.976	613.62
363.203	584.62
363.429	604.62
363.656	614.62
363.882	592.62
364.109	582.62
364.335	583.62
364.562	587.62
364.788	600.62
365.015	586.62
365.241	589.62
365.468	577.62
365.694	589.62
365.92	582.62
366.147	597.62
366.373	591.62
366.599	602.62
366.826	582.62
367.052	599.62
367.278	587.62
367.505	593.62
367.731	627.62
367.957	600.62
368.184	619.62
368.41	597.62
368.636	601.62
368.862	597.62
369.089	588.62
369.315	619.62
369.541	614.62
369.767	625.62
369.993	630.62
370.219	621.62
370.445	613.62
370.672	635.62
370.898	627.62
371.124	665.62
371.35	644.62
371.576	650.62
371.802	652.62
372.028	638.62
372.254	634.62
372.48	640.62
372.706	659.62
372.932	690.62
373.158	682.62
373.384	668.62
373.61	647.62
373.835	657.62
374.061	638.62
374.287	658.62
374.513	654.62
374.739	711.62
374.965	701.62
375.191	723.62
375.416	737.62
375.642	729.62
375.868	705.62
376.094	672.62
376.319	668.62
376.545	672.62
376.771	676.62
376.997	666.62
377.222	679.62
377.448	660.62
377.674	646.62
377.899	648.62
378.125	645.62
378.35	642.62
378.576	643.62
378.802	642.62
379.027	654.62
379.253	649.62
379.478	636.62
379.704	641.62
379.929	636.62
380.155	632.62
380.38	646.62
380.606	633.62
380.831	660.62
381.057	658.62
381.282	642.62
381.507	657.62
381.733	651.62
381.958	648.62
382.184	665.62
382.409	651.62
382.634	672.62
382.86	681.62
383.085	693.62
383.31	694.62
383.535	715.62
383.761	726.62
383.986	727.62
384.211	738.62
384.436	742.62
384.662	762.62
384.887	776.62
385.112	768.62
385.337	808.62
385.562	809.62
385.787	772.62
386.013	780.62
386.238	792.62
386.463	796.62
386.688	811.62
386.913	771.62
387.138	758.62
387.363	780.62
387.588	762.62
387.813	778.62
388.038	764.62
388.263	772.62
388.488	762.62
388.713	778.62
388.938	734.62
389.163	754.62
389.387	746.62
389.612	746.62
389.837	749.62
390.062	738.62
390.287	738.62
390.512	723.62
390.736	755.62
390.961	794.62
391.186	790.62
391.411	832.62
391.636	860.62
391.86	868.62
392.085	884.62
392.31	866.62
392.534	860.62
392.759	846.62
392.984	833.62
393.208	804.62
393.433	786.62
393.658	827.62
393.882	800.62
394.107	816.62
394.331	834.62
394.556	856.62
394.78	819.62
395.005	836.62
395.229	818.62
395.454	906.62
395.678	878.62
395.903	889.62
396.127	874.62
396.352	830.62
396.576	809.62
396.801	803.62
397.025	819.62
397.249	827.62
397.474	869.62
397.698	852.62
397.922	864.62
398.147	859.62
398.371	864.62
398.595	871.62
398.82	923.62
399.044	1010.62
399.268	1123.62
399.492	1298.62
399.717	1542.62
399.941	1546.62
400.165	1346.62
400.389	1193.62
400.613	1094.62
400.837	1011.62
401.062	991.62
401.286	992.62
401.51	938.62
401.734	961.62
401.958	1013.62
402.182	1000.62
402.406	1001.62
402.63	1001.62
402.854	1035.62
403.078	1085.62
403.302	1093.62
403.526	1108.62
403.75	1152.62
403.974	1143.62
404.198	1172.62
404.422	1161.62
404.645	1152.62
404.869	1138.62
405.093	1138.62
405.317	1109.62
405.541	1088.62
405.765	1085.62
405.988	1103.62
406.212	1089.62
406.436	1080.62
406.66	1072.62
406.883	1097.62
407.107	1176.62
407.331	1261.62
407.555	1318.62
407.778	1281.62
408.002	1248.62
408.226	1238.62
408.449	1177.62
408.673	1158.62
408.896	1126.62
409.12	1090.62
409.344	1110.62
409.567	1116.62
409.791	1131.62
410.014	1136.62
410.238	1087.62
410.461	1121.62
410.685	1091.62
410.908	1050.62
411.132	1056.62
411.355	1003.62
411.578	1033.62
411.802	1029.62
412.025	1039.62
412.249	1049.62
412.472	1058.62
412.695	976.62
412.919	978.62
413.142	994.62
413.365	966.62
413.589	978.62
413.812	951.62
414.035	939.62
414.258	964.62
414.482	1000.62
414.705	1019.62
414.928	993.62
415.151	958.62
415.374	979.62
415.597	962.62
415.821	953.62
416.044	955.62
416.267	936.62
416.49	946.62
416.713	934.62
416.936	955.62
417.159	969.62
417.382	995.62
417.605	955.62
417.828	962.62
418.051	995.62
418.274	1006.62
418.497	950.62
418.72	1038.62
418.943	1016.62
419.166	1062.62
419.389	1160.62
419.611	1102.62
419.834	1072.62
420.057	1031.62
420.28	1013.62
420.503	991.62
420.726	972.62
420.948	964.62
421.171	980.62
421.394	956.62
421.617	1003.62
421.839	970.62
422.062	970.62
422.285	968.62
422.507	995.62
422.73	1004.62
422.953	1034.62
423.175	1062.62
423.398	1049.62
423.621	1028.62
423.843	1067.62
424.066	1072.62
424.288	1064.62
424.511	1035.62
424.733	1033.62
424.956	1013.62
425.178	999.62
425.401	988.62
425.623	991.62
425.846	942.62
426.068	946.62
426.291	937.62
426.513	914.62
426.735	891.62
426.958	923.62
427.18	892.62
427.402	872.62
427.625	882.62
427.847	869.62
428.069	881.62
428.292	865.62
428.514	866.62
428.736	867.62
428.958	862.62
429.181	844.62
429.403	826.62
429.625	849.62
429.847	839.62
430.069	832.62
430.292	857.62
430.514	823.62
430.736	864.62
430.958	834.62
431.18	833.62
431.402	878.62
431.624	830.62
431.846	832.62
432.068	857.62
432.29	877.62
432.512	856.62
432.734	872.62
432.956	874.62
433.178	882.62
433.4	859.62
433.622	858.62
433.844	886.62
434.066	913.62
434.287	892.62
434.509	918.62
434.731	944.62
434.953	1037.62
435.175	982.62
435.397	972.62
435.618	918.62
435.84	902.62
436.062	895.62
436.284	872.62
436.505	877.62
436.727	899.62
436.949	894.62
437.17	866.62
437.392	853.62
437.614	888.62
437.835	808.62
438.057	847.62
438.278	836.62
438.5	840.62
438.721	861.62
438.943	851.62
439.165	843.62
439.386	860.62
439.608	876.62
439.829	881.62
440.05	860.62
440.272	873.62
440.493	885.62
440.715	880.62
440.936	917.62
441.158	903.62
441.379	960.62
441.6	1011.62
441.822	1024.62
442.043	1040.62
442.264	968.62
442.486	968.62
442.707	973.62
442.928	953.62
443.149	978.62
443.371	971.62
443.592	988.62
443.813	1001.62
444.034	1001.62
444.255	1036.62
444.476	1099.62
444.698	1151.62
444.919	1185.62
445.14	1290.62
445.361	1129.62
445.582	1024.62
445.803	957.62
446.024	933.62
446.245	912.62
446.466	928.62
446.687	891.62
446.908	895.62
447.129	883.62
447.35	862.62
447.571	852.62
447.792	833.62
448.013	853.62
448.234	809.62
448.455	837.62
448.675	809.62
448.896	832.62
449.117	794.62
449.338	799.62
449.559	821.62
449.779	803.62
450	801.62
450.221	775.62
450.442	819.62
450.662	841.62
450.883	822.62
451.104	857.62
451.324	851.62
451.545	871.62
451.766	842.62
451.986	831.62
452.207	862.62
452.428	821.62
452.648	823.62
452.869	821.62
453.089	800.62
453.31	816.62
453.53	828.62
453.751	774.62
453.971	802.62
454.192	792.62
454.412	800.62
454.633	782.62
454.853	781.62
455.073	781.62
455.294	796.62
455.514	740.62
455.734	753.62
455.955	748.62
456.175	755.62
456.395	768.62
456.616	742.62
456.836	765.62
457.056	745.62
457.276	730.62
457.497	739.62
457.717	744.62
457.937	759.62
458.157	761.62
458.377	773.62
458.598	810.62
458.818	800.62
459.038	803.62
459.258	892.62
459.478	902.62
459.698	913.62
459.918	948.62
460.138	968.62
460.358	1035.62
460.578	1075.62
460.798	1094.62
461.018	1082.62
461.238	1055.62
461.458	1046.62
461.678	1042.62
461.898	1056.62
462.118	1050.62
462.338	1096.62
462.558	1138.62
462.777	1177.62
462.997	1317.62
463.217	1423.62
463.437	1431.62
463.657	1330.62
463.876	1217.62
464.096	1220.62
464.316	1234.62
464.536	1282.62
464.755	1177.62
464.975	1165.62
465.195	1116.62
465.414	1028.62
465.634	950.62
465.854	929.62
466.073	882.62
466.293	888.62
466.512	873.62
466.732	859.62
466.951	837.62
467.171	845.62
467.391	827.62
467.61	834.62
467.829	836.62
468.049	825.62
468.268	810.62
468.488	756.62
468.707	819.62
468.927	790.62
469.146	790.62
469.365	812.62
469.585	818.62
469.804	846.62
470.023	857.62
470.243	853.62
470.462	886.62
470.681	902.62
470.901	865.62
471.12	841.62
471.339	856.62
471.558	838.62
471.777	855.62
471.997	802.62
472.216	811.62
472.435	787.62
472.654	802.62
472.873	789.62
473.092	801.62
473.311	786.62
473.53	816.62
473.749	784.62
473.968	764.62
474.187	776.62
474.406	757.62
474.625	800.62
474.844	784.62
475.063	781.62
475.282	792.62
475.501	783.62
475.72	801.62
475.939	784.62
476.158	813.62
476.377	796.62
476.596	814.62
476.814	810.62
477.033	822.62
477.252	843.62
477.471	835.62
477.69	869.62
477.908	902.62
478.127	935.62
478.346	931.62
478.564	932.62
478.783	941.62
479.002	995.62
479.22	989.62
479.439	972.62
479.658	960.62
479.876	970.62
480.095	972.62
480.313	1016.62
480.532	1050.62
480.751	1079.62
480.969	1029.62
481.188	957.62
481.406	948.62
481.624	917.62
481.843	913.62
482.061	909.62
482.28	898.62
482.498	888.62
482.717	871.62
482.935	860.62
483.153	887.62
483.372	876.62
483.59	885.62
483.808	892.62
484.027	864.62
484.245	908.62
484.463	858.62
484.681	918.62
484.9	907.62
485.118	924.62
485.336	922.62
485.554	935.62
485.772	956.62
485.99	948.62
486.209	962.62
486.427	993.62
486.645	957.62
486.863	944.62
487.081	960.62
487.299	904.62
487.517	936.62
487.735	926.62
487.953	937.62
488.171	898.62
488.389	901.62
488.607	897.62
488.825	902.62
489.043	901.62
489.261	923.62
489.479	910.62
489.696	924.62
489.914	904.62
490.132	915.62
490.35	912.62
490.568	937.62
490.786	968.62
491.003	932.62
491.221	928.62
491.439	929.62
491.657	936.62
491.874	963.62
492.092	940.62
492.31	961.62
492.527	941.62
492.745	969.62
492.963	989.62
493.18	952.62
493.398	962.62
493.615	969.62
493.833	971.62
494.05	951.62
494.268	968.62
494.485	976.62
494.703	990.62
494.92	979.62
495.138	978.62
495.355	985.62
495.573	952.62
495.79	1005.62
496.008	986.62
496.225	1030.62
496.442	991.62
496.66	1002.62
496.877	993.62
497.094	1052.62
497.312	1046.62
497.529	1055.62
497.746	1076.62
497.963	1129.62
498.181	1189.62
498.398	1192.62
498.615	1274.62
498.832	1398.62
499.049	1548.62
499.267	1617.62
499.484	1792.62
499.701	2030.62
