Data from NiCl2@0.125M.TitratingCurve.Agarose3%dH2O.NegLispCup.LampEnergy10.LIBS07252019_HRD10591_18-28-15-574.txt Node
Date: Thu Jul 25 18:28:15 EDT 2019
User: cochatt
Spectrometer: HR+D1059
Trigger mode: 1
Integration Time (sec): 1.000000E-1
Scans to average: 1
Electric dark correction enabled: true
Nonlinearity correction enabled: false
Boxcar width: 0
XAxis mode: Wavelengths
Number of Pixels in Spectrum: 2048
>>>>>Begin Spectral Data<<<<<
223.165	-9.12
223.4	-9.12
223.635	-9.12
223.869	-27.12
224.104	-12.12
224.338	-15.12
224.573	-13.12
224.808	-24.12
225.042	-5.12
225.277	-0.12
225.511	8.88
225.746	2.88
225.98	8.88
226.215	11.88
226.449	6.88
226.683	9.88
226.918	20.88
227.152	35.88
227.387	44.88
227.621	32.88
227.856	54.88
228.09	58.88
228.324	50.88
228.559	48.88
228.793	76.88
229.027	106.88
229.262	116.88
229.496	138.88
229.73	130.88
229.964	136.88
230.199	148.88
230.433	153.88
230.667	145.88
230.901	138.88
231.136	142.88
231.37	155.88
231.604	157.88
231.838	165.88
232.072	157.88
232.306	150.88
232.541	148.88
232.775	152.88
233.009	157.88
233.243	142.88
233.477	153.88
233.711	159.88
233.945	162.88
234.179	161.88
234.413	154.88
234.647	167.88
234.881	162.88
235.115	164.88
235.349	152.88
235.583	178.88
235.817	168.88
236.051	172.88
236.285	173.88
236.519	161.88
236.753	160.88
236.987	184.88
237.221	186.88
237.455	176.88
237.689	173.88
237.922	167.88
238.156	166.88
238.39	185.88
238.624	187.88
238.858	178.88
239.091	193.88
239.325	186.88
239.559	183.88
239.793	195.88
240.027	200.88
240.26	187.88
240.494	198.88
240.728	202.88
240.961	197.88
241.195	211.88
241.429	207.88
241.662	199.88
241.896	200.88
242.13	224.88
242.363	202.88
242.597	212.88
242.83	217.88
243.064	222.88
243.298	215.88
243.531	223.88
243.765	234.88
243.998	214.88
244.232	234.88
244.465	238.88
244.699	231.88
244.932	257.88
245.166	246.88
245.399	228.88
245.633	236.88
245.866	249.88
246.099	239.88
246.333	240.88
246.566	247.88
246.8	243.88
247.033	258.88
247.266	244.88
247.5	250.88
247.733	262.88
247.966	273.88
248.2	259.88
248.433	262.88
248.666	252.88
248.899	265.88
249.133	265.88
249.366	268.88
249.599	266.88
249.832	265.88
250.066	278.88
250.299	252.88
250.532	271.88
250.765	282.88
250.998	268.88
251.231	280.88
251.465	285.88
251.698	292.88
251.931	306.88
252.164	299.88
252.397	306.88
252.63	310.88
252.863	294.88
253.096	294.88
253.329	310.88
253.562	298.88
253.795	313.88
254.028	321.88
254.261	311.88
254.494	298.88
254.727	304.88
254.96	308.88
255.193	324.88
255.426	307.88
255.659	318.88
255.892	314.88
256.124	327.88
256.357	318.88
256.59	320.88
256.823	333.88
257.056	332.88
257.289	356.88
257.521	341.88
257.754	344.88
257.987	340.88
258.22	337.88
258.452	348.88
258.685	326.88
258.918	334.88
259.151	350.88
259.383	328.88
259.616	349.88
259.849	344.88
260.081	330.88
260.314	341.88
260.547	336.88
260.779	350.88
261.012	351.88
261.244	348.88
261.477	361.88
261.71	346.88
261.942	353.88
262.175	366.88
262.407	367.88
262.64	360.88
262.872	352.88
263.105	356.88
263.337	386.88
263.57	367.88
263.802	364.88
264.035	370.88
264.267	390.88
264.499	373.88
264.732	381.88
264.964	370.88
265.197	384.88
265.429	391.88
265.661	373.88
265.894	394.88
266.126	380.88
266.358	382.88
266.591	379.88
266.823	387.88
267.055	377.88
267.287	400.88
267.52	419.88
267.752	402.88
267.984	412.88
268.216	420.88
268.448	417.88
268.681	422.88
268.913	398.88
269.145	416.88
269.377	415.88
269.609	403.88
269.841	420.88
270.073	429.88
270.306	422.88
270.538	410.88
270.77	419.88
271.002	423.88
271.234	415.88
271.466	430.88
271.698	419.88
271.93	430.88
272.162	427.88
272.394	444.88
272.626	442.88
272.858	399.88
273.09	439.88
273.322	450.88
273.553	446.88
273.785	437.88
274.017	427.88
274.249	450.88
274.481	453.88
274.713	440.88
274.945	477.88
275.176	471.88
275.408	455.88
275.64	440.88
275.872	453.88
276.104	464.88
276.335	445.88
276.567	464.88
276.799	455.88
277.031	483.88
277.262	473.88
277.494	474.88
277.726	498.88
277.957	471.88
278.189	474.88
278.421	484.88
278.652	480.88
278.884	467.88
279.115	468.88
279.347	477.88
279.579	488.88
279.81	486.88
280.042	506.88
280.273	496.88
280.505	488.88
280.736	477.88
280.968	514.88
281.199	504.88
281.431	517.88
281.662	508.88
281.894	512.88
282.125	526.88
282.356	522.88
282.588	520.88
282.819	503.88
283.051	524.88
283.282	518.88
283.513	532.88
283.745	522.88
283.976	518.88
284.207	557.88
284.439	522.88
284.67	534.88
284.901	536.88
285.132	541.88
285.364	518.88
285.595	541.88
285.826	537.88
286.057	560.88
286.288	549.88
286.52	559.88
286.751	543.88
286.982	550.88
287.213	532.88
287.444	558.88
287.675	574.88
287.906	573.88
288.138	552.88
288.369	568.88
288.6	564.88
288.831	573.88
289.062	586.88
289.293	563.88
289.524	567.88
289.755	558.88
289.986	567.88
290.217	577.88
290.448	563.88
290.679	589.88
290.91	581.88
291.141	586.88
291.371	578.88
291.602	567.88
291.833	554.88
292.064	598.88
292.295	580.88
292.526	578.88
292.757	586.88
292.987	560.88
293.218	575.88
293.449	584.88
293.68	585.88
293.91	590.88
294.141	575.88
294.372	552.88
294.603	590.88
294.833	590.88
295.064	585.88
295.295	612.88
295.525	598.88
295.756	587.88
295.987	600.88
296.217	608.88
296.448	614.88
296.679	601.88
296.909	594.88
297.14	594.88
297.37	613.88
297.601	615.88
297.831	608.88
298.062	623.88
298.292	627.88
298.523	646.88
298.753	647.88
298.984	642.88
299.214	592.88
299.445	613.88
299.675	624.88
299.905	656.88
300.136	646.88
300.366	614.88
300.597	629.88
300.827	647.88
301.057	690.88
301.288	676.88
301.518	666.88
301.748	684.88
301.979	675.88
302.209	679.88
302.439	668.88
302.669	664.88
302.9	663.88
303.13	661.88
303.36	657.88
303.59	650.88
303.82	646.88
304.051	658.88
304.281	650.88
304.511	643.88
304.741	637.88
304.971	654.88
305.201	664.88
305.431	652.88
305.661	660.88
305.891	655.88
306.121	664.88
306.352	639.88
306.582	657.88
306.812	662.88
307.042	652.88
307.272	654.88
307.502	650.88
307.731	641.88
307.961	647.88
308.191	617.88
308.421	628.88
308.651	630.88
308.881	615.88
309.111	636.88
309.341	641.88
309.571	644.88
309.8	645.88
310.03	634.88
310.26	641.88
310.49	631.88
310.72	607.88
310.949	640.88
311.179	656.88
311.409	664.88
311.639	653.88
311.868	641.88
312.098	672.88
312.328	694.88
312.557	680.88
312.787	668.88
313.017	682.88
313.246	694.88
313.476	683.88
313.706	671.88
313.935	701.88
314.165	684.88
314.394	703.88
314.624	680.88
314.853	684.88
315.083	673.88
315.312	688.88
315.542	703.88
315.771	662.88
316.001	674.88
316.23	679.88
316.46	664.88
316.689	692.88
316.919	658.88
317.148	660.88
317.377	665.88
317.607	666.88
317.836	651.88
318.065	642.88
318.295	658.88
318.524	683.88
318.753	653.88
318.983	671.88
319.212	669.88
319.441	671.88
319.67	683.88
319.9	684.88
320.129	698.88
320.358	706.88
320.587	678.88
320.816	671.88
321.046	696.88
321.275	698.88
321.504	669.88
321.733	655.88
321.962	681.88
322.191	679.88
322.42	664.88
322.649	678.88
322.878	702.88
323.108	687.88
323.337	702.88
323.566	687.88
323.795	704.88
324.024	692.88
324.253	698.88
324.482	691.88
324.71	716.88
324.939	706.88
325.168	708.88
325.397	715.88
325.626	710.88
325.855	708.88
326.084	717.88
326.313	727.88
326.542	734.88
326.77	749.88
326.999	763.88
327.228	726.88
327.457	700.88
327.686	731.88
327.914	720.88
328.143	738.88
328.372	738.88
328.6	724.88
328.829	770.88
329.058	730.88
329.287	719.88
329.515	746.88
329.744	766.88
329.972	756.88
330.201	747.88
330.43	750.88
330.658	748.88
330.887	743.88
331.115	753.88
331.344	786.88
331.572	783.88
331.801	793.88
332.03	781.88
332.258	799.88
332.486	872.88
332.715	864.88
332.943	878.88
333.172	951.88
333.4	994.88
333.629	998.88
333.857	997.88
334.085	963.88
334.314	985.88
334.542	968.88
334.771	935.88
334.999	923.88
335.227	926.88
335.455	939.88
335.684	916.88
335.912	889.88
336.14	886.88
336.369	851.88
336.597	895.88
336.825	888.88
337.053	878.88
337.281	879.88
337.51	855.88
337.738	854.88
337.966	848.88
338.194	836.88
338.422	838.88
338.65	815.88
338.878	812.88
339.106	774.88
339.334	816.88
339.562	792.88
339.79	781.88
340.018	780.88
340.246	761.88
340.474	755.88
340.702	758.88
340.93	770.88
341.158	774.88
341.386	784.88
341.614	767.88
341.842	790.88
342.07	758.88
342.298	752.88
342.526	770.88
342.754	779.88
342.981	779.88
343.209	775.88
343.437	806.88
343.665	863.88
343.893	941.88
344.12	975.88
344.348	920.88
344.576	882.88
344.804	866.88
345.031	800.88
345.259	804.88
345.487	773.88
345.714	746.88
345.942	770.88
346.17	776.88
346.397	762.88
346.625	754.88
346.853	756.88
347.08	744.88
347.308	744.88
347.535	757.88
347.763	767.88
347.99	754.88
348.218	758.88
348.445	754.88
348.673	777.88
348.9	750.88
349.128	754.88
349.355	736.88
349.583	733.88
349.81	744.88
350.037	746.88
350.265	727.88
350.492	720.88
350.72	714.88
350.947	717.88
351.174	698.88
351.402	696.88
351.629	730.88
351.856	701.88
352.083	729.88
352.311	739.88
352.538	699.88
352.765	716.88
352.992	694.88
353.22	697.88
353.447	696.88
353.674	694.88
353.901	698.88
354.128	692.88
354.355	682.88
354.583	714.88
354.81	720.88
355.037	702.88
355.264	720.88
355.491	718.88
355.718	709.88
355.945	682.88
356.172	732.88
356.399	719.88
356.626	713.88
356.853	723.88
357.08	724.88
357.307	705.88
357.534	704.88
357.761	727.88
357.988	713.88
358.215	708.88
358.441	731.88
358.668	716.88
358.895	715.88
359.122	743.88
359.349	740.88
359.576	747.88
359.802	731.88
360.029	720.88
360.256	716.88
360.483	710.88
360.709	717.88
360.936	715.88
361.163	713.88
361.39	717.88
361.616	708.88
361.843	743.88
362.07	706.88
362.296	710.88
362.523	714.88
362.749	715.88
362.976	702.88
363.203	731.88
363.429	715.88
363.656	698.88
363.882	716.88
364.109	685.88
364.335	714.88
364.562	719.88
364.788	724.88
365.015	712.88
365.241	709.88
365.468	712.88
365.694	722.88
365.92	710.88
366.147	710.88
366.373	724.88
366.599	746.88
366.826	744.88
367.052	715.88
367.278	698.88
367.505	708.88
367.731	712.88
367.957	727.88
368.184	751.88
368.41	708.88
368.636	727.88
368.862	735.88
369.089	746.88
369.315	719.88
369.541	740.88
369.767	757.88
369.993	746.88
370.219	741.88
370.445	770.88
370.672	794.88
370.898	750.88
371.124	773.88
371.35	756.88
371.576	811.88
371.802	787.88
372.028	797.88
372.254	786.88
372.48	796.88
372.706	829.88
372.932	842.88
373.158	827.88
373.384	799.88
373.61	809.88
373.835	794.88
374.061	792.88
374.287	816.88
374.513	819.88
374.739	848.88
374.965	876.88
375.191	892.88
375.416	858.88
375.642	845.88
375.868	830.88
376.094	788.88
376.319	799.88
376.545	834.88
376.771	798.88
376.997	781.88
377.222	794.88
377.448	798.88
377.674	789.88
377.899	771.88
378.125	771.88
378.35	784.88
378.576	768.88
378.802	782.88
379.027	774.88
379.253	775.88
379.478	769.88
379.704	792.88
379.929	760.88
380.155	793.88
380.38	782.88
380.606	786.88
380.831	798.88
381.057	804.88
381.282	794.88
381.507	786.88
381.733	794.88
381.958	766.88
382.184	812.88
382.409	797.88
382.634	797.88
382.86	807.88
383.085	845.88
383.31	810.88
383.535	830.88
383.761	851.88
383.986	864.88
384.211	906.88
384.436	888.88
384.662	914.88
384.887	940.88
385.112	912.88
385.337	937.88
385.562	950.88
385.787	924.88
386.013	958.88
386.238	922.88
386.463	957.88
386.688	972.88
386.913	934.88
387.138	907.88
387.363	931.88
387.588	911.88
387.813	916.88
388.038	912.88
388.263	940.88
388.488	923.88
388.713	966.88
388.938	908.88
389.163	910.88
389.387	895.88
389.612	893.88
389.837	907.88
390.062	891.88
390.287	922.88
390.512	931.88
390.736	946.88
390.961	974.88
391.186	940.88
391.411	981.88
391.636	1022.88
391.86	1017.88
392.085	1053.88
392.31	1084.88
392.534	1044.88
392.759	999.88
392.984	992.88
393.208	1006.88
393.433	1040.88
393.658	983.88
393.882	972.88
394.107	991.88
394.331	1002.88
394.556	995.88
394.78	1012.88
395.005	1020.88
395.229	1018.88
395.454	1043.88
395.678	1054.88
395.903	1083.88
396.127	1058.88
396.352	992.88
396.576	998.88
396.801	993.88
397.025	1006.88
397.249	1026.88
397.474	1053.88
397.698	1057.88
397.922	1049.88
398.147	1035.88
398.371	1058.88
398.595	1122.88
398.82	1149.88
399.044	1253.88
399.268	1367.88
399.492	1551.88
399.717	1802.88
399.941	1812.88
400.165	1611.88
400.389	1428.88
400.613	1308.88
400.837	1222.88
401.062	1220.88
401.286	1228.88
401.51	1168.88
401.734	1191.88
401.958	1166.88
402.182	1203.88
402.406	1221.88
402.63	1259.88
402.854	1242.88
403.078	1255.88
403.302	1302.88
403.526	1304.88
403.75	1340.88
403.974	1343.88
404.198	1359.88
404.422	1360.88
404.645	1365.88
404.869	1370.88
405.093	1342.88
405.317	1282.88
405.541	1282.88
405.765	1292.88
405.988	1297.88
406.212	1286.88
406.436	1285.88
406.66	1307.88
406.883	1338.88
407.107	1430.88
407.331	1462.88
407.555	1580.88
407.778	1529.88
408.002	1478.88
408.226	1456.88
408.449	1461.88
408.673	1360.88
408.896	1339.88
409.12	1334.88
409.344	1388.88
409.567	1363.88
409.791	1370.88
410.014	1346.88
410.238	1338.88
410.461	1337.88
410.685	1309.88
410.908	1300.88
411.132	1261.88
411.355	1224.88
411.578	1262.88
411.802	1226.88
412.025	1231.88
412.249	1254.88
412.472	1262.88
412.695	1229.88
412.919	1168.88
413.142	1190.88
413.365	1165.88
413.589	1184.88
413.812	1191.88
414.035	1146.88
414.258	1166.88
414.482	1191.88
414.705	1210.88
414.928	1194.88
415.151	1176.88
415.374	1168.88
415.597	1177.88
415.821	1150.88
416.044	1149.88
416.267	1169.88
416.49	1132.88
416.713	1134.88
416.936	1143.88
417.159	1150.88
417.382	1178.88
417.605	1162.88
417.828	1172.88
418.051	1160.88
418.274	1185.88
418.497	1166.88
418.72	1194.88
418.943	1204.88
419.166	1261.88
419.389	1376.88
419.611	1358.88
419.834	1277.88
420.057	1229.88
420.28	1210.88
420.503	1159.88
420.726	1172.88
420.948	1163.88
421.171	1143.88
421.394	1160.88
421.617	1181.88
421.839	1162.88
422.062	1202.88
422.285	1182.88
422.507	1184.88
422.73	1197.88
422.953	1195.88
423.175	1219.88
423.398	1208.88
423.621	1243.88
423.843	1235.88
424.066	1258.88
424.288	1282.88
424.511	1240.88
424.733	1247.88
424.956	1223.88
425.178	1196.88
425.401	1153.88
425.623	1156.88
425.846	1147.88
426.068	1141.88
426.291	1124.88
426.513	1130.88
426.735	1099.88
426.958	1109.88
427.18	1051.88
427.402	1109.88
427.625	1066.88
427.847	1030.88
428.069	1041.88
428.292	1044.88
428.514	1061.88
428.736	1051.88
428.958	1059.88
429.181	1030.88
429.403	1015.88
429.625	1004.88
429.847	1007.88
430.069	1038.88
430.292	1050.88
430.514	1040.88
430.736	1048.88
430.958	1022.88
431.18	999.88
431.402	1018.88
431.624	1003.88
431.846	1068.88
432.068	1062.88
432.29	1050.88
432.512	1069.88
432.734	1070.88
432.956	1043.88
433.178	1060.88
433.4	1018.88
433.622	1066.88
433.844	1077.88
434.066	1056.88
434.287	1064.88
434.509	1099.88
434.731	1126.88
434.953	1190.88
435.175	1191.88
435.397	1179.88
435.618	1136.88
435.84	1071.88
436.062	1043.88
436.284	1051.88
436.505	1098.88
436.727	1056.88
436.949	1061.88
437.17	1051.88
437.392	1033.88
437.614	1007.88
437.835	1006.88
438.057	1009.88
438.278	996.88
438.5	998.88
438.721	979.88
438.943	1050.88
439.165	1004.88
439.386	1036.88
439.608	1043.88
439.829	1048.88
440.05	1071.88
440.272	1052.88
440.493	1057.88
440.715	1096.88
440.936	1099.88
441.158	1122.88
441.379	1147.88
441.6	1210.88
441.822	1195.88
442.043	1198.88
442.264	1194.88
442.486	1158.88
442.707	1139.88
442.928	1145.88
443.149	1172.88
443.371	1144.88
443.592	1118.88
443.813	1162.88
444.034	1176.88
444.255	1266.88
444.476	1284.88
444.698	1358.88
444.919	1379.88
445.14	1515.88
445.361	1325.88
445.582	1234.88
445.803	1156.88
446.024	1141.88
446.245	1129.88
446.466	1096.88
446.687	1074.88
446.908	1089.88
447.129	1030.88
447.35	1030.88
447.571	1033.88
447.792	987.88
448.013	984.88
448.234	992.88
448.455	988.88
448.675	983.88
448.896	983.88
449.117	978.88
449.338	956.88
449.559	978.88
449.779	938.88
450	987.88
450.221	968.88
450.442	971.88
450.662	960.88
450.883	1005.88
451.104	1003.88
451.324	982.88
451.545	1035.88
451.766	989.88
451.986	971.88
452.207	956.88
452.428	943.88
452.648	982.88
452.869	939.88
453.089	967.88
453.31	942.88
453.53	948.88
453.751	963.88
453.971	907.88
454.192	912.88
454.412	922.88
454.633	919.88
454.853	902.88
455.073	912.88
455.294	913.88
455.514	898.88
455.734	916.88
455.955	908.88
456.175	890.88
456.395	898.88
456.616	898.88
456.836	915.88
457.056	902.88
457.276	882.88
457.497	924.88
457.717	883.88
457.937	910.88
458.157	927.88
458.377	918.88
458.598	938.88
458.818	973.88
459.038	1001.88
459.258	1007.88
459.478	1057.88
459.698	1092.88
459.918	1109.88
460.138	1146.88
460.358	1215.88
460.578	1207.88
460.798	1253.88
461.018	1240.88
461.238	1246.88
461.458	1213.88
461.678	1203.88
461.898	1256.88
462.118	1252.88
462.338	1375.88
462.558	1338.88
462.777	1390.88
462.997	1523.88
463.217	1682.88
463.437	1690.88
463.657	1525.88
463.876	1453.88
464.096	1456.88
464.316	1429.88
464.536	1482.88
464.755	1408.88
464.975	1366.88
465.195	1286.88
465.414	1202.88
465.634	1123.88
465.854	1094.88
466.073	1057.88
466.293	1055.88
466.512	1032.88
466.732	1008.88
466.951	998.88
467.171	985.88
467.391	1048.88
467.61	1032.88
467.829	984.88
468.049	999.88
468.268	982.88
468.488	954.88
468.707	972.88
468.927	934.88
469.146	962.88
469.365	973.88
469.585	972.88
469.804	1005.88
470.023	1040.88
470.243	1023.88
470.462	1027.88
470.681	1051.88
470.901	1036.88
471.12	1036.88
471.339	996.88
471.558	1022.88
471.777	974.88
471.997	950.88
472.216	949.88
472.435	954.88
472.654	922.88
472.873	927.88
473.092	938.88
473.311	950.88
473.53	931.88
473.749	958.88
473.968	922.88
474.187	928.88
474.406	922.88
474.625	955.88
474.844	921.88
475.063	916.88
475.282	969.88
475.501	952.88
475.72	959.88
475.939	955.88
476.158	980.88
476.377	963.88
476.596	995.88
476.814	997.88
477.033	983.88
477.252	999.88
477.471	1022.88
477.69	1050.88
477.908	1071.88
478.127	1095.88
478.346	1123.88
478.564	1146.88
478.783	1160.88
479.002	1153.88
479.22	1164.88
479.439	1170.88
479.658	1160.88
479.876	1174.88
480.095	1160.88
480.313	1238.88
480.532	1252.88
480.751	1245.88
480.969	1228.88
481.188	1154.88
481.406	1106.88
481.624	1110.88
481.843	1097.88
482.061	1102.88
482.28	1088.88
482.498	1070.88
482.717	1061.88
482.935	1054.88
483.153	1055.88
483.372	1076.88
483.59	1054.88
483.808	1068.88
484.027	1091.88
484.245	1077.88
484.463	1100.88
484.681	1080.88
484.9	1107.88
485.118	1107.88
485.336	1118.88
485.554	1117.88
485.772	1146.88
485.99	1110.88
486.209	1141.88
486.427	1158.88
486.645	1143.88
486.863	1144.88
487.081	1154.88
487.299	1102.88
487.517	1109.88
487.735	1097.88
487.953	1135.88
488.171	1126.88
488.389	1127.88
488.607	1124.88
488.825	1094.88
489.043	1101.88
489.261	1128.88
489.479	1131.88
489.696	1108.88
489.914	1110.88
490.132	1135.88
490.35	1124.88
490.568	1143.88
490.786	1131.88
491.003	1110.88
491.221	1136.88
491.439	1138.88
491.657	1119.88
491.874	1134.88
492.092	1153.88
492.31	1160.88
492.527	1133.88
492.745	1165.88
492.963	1142.88
493.18	1179.88
493.398	1184.88
493.615	1169.88
493.833	1186.88
494.05	1182.88
494.268	1183.88
494.485	1199.88
494.703	1214.88
494.92	1190.88
495.138	1165.88
495.355	1195.88
495.573	1215.88
495.79	1223.88
496.008	1221.88
496.225	1222.88
496.442	1202.88
