Data from NiCl2@0.125M.TitratingCurve.Agarose3%dH2O.NegLispCup.LampEnergy10.LIBS07252019_HRD10591_18-30-07-574.txt Node
Date: Thu Jul 25 18:30:07 EDT 2019
User: cochatt
Spectrometer: HR+D1059
Trigger mode: 1
Integration Time (sec): 1.000000E-1
Scans to average: 1
Electric dark correction enabled: true
Nonlinearity correction enabled: false
Boxcar width: 0
XAxis mode: Wavelengths
Number of Pixels in Spectrum: 2048
>>>>>Begin Spectral Data<<<<<
223.165	-33.38
223.4	-33.38
223.635	-33.38
223.869	-14.38
224.104	-37.38
224.338	-19.38
224.573	-13.38
224.808	-2.38
225.042	0.62
225.277	-0.38
225.511	-2.38
225.746	2.62
225.98	17.62
226.215	1.62
226.449	15.62
226.683	10.62
226.918	36.62
227.152	37.62
227.387	26.62
227.621	33.62
227.856	45.62
228.09	54.62
228.324	47.62
228.559	51.62
228.793	85.62
229.027	97.62
229.262	126.62
229.496	106.62
229.73	121.62
229.964	139.62
230.199	133.62
230.433	125.62
230.667	123.62
230.901	138.62
231.136	145.62
231.37	133.62
231.604	142.62
231.838	143.62
232.072	150.62
232.306	156.62
232.541	153.62
232.775	135.62
233.009	153.62
233.243	140.62
233.477	141.62
233.711	141.62
233.945	153.62
234.179	146.62
234.413	162.62
234.647	152.62
234.881	163.62
235.115	150.62
235.349	154.62
235.583	171.62
235.817	169.62
236.051	150.62
236.285	156.62
236.519	165.62
236.753	157.62
236.987	169.62
237.221	170.62
237.455	174.62
237.689	158.62
237.922	164.62
238.156	165.62
238.39	152.62
238.624	177.62
238.858	182.62
239.091	172.62
239.325	167.62
239.559	175.62
239.793	188.62
240.027	177.62
240.26	173.62
240.494	189.62
240.728	179.62
240.961	186.62
241.195	183.62
241.429	175.62
241.662	203.62
241.896	208.62
242.13	216.62
242.363	187.62
242.597	193.62
242.83	200.62
243.064	204.62
243.298	218.62
243.531	204.62
243.765	212.62
243.998	196.62
244.232	217.62
244.465	217.62
244.699	225.62
244.932	210.62
245.166	221.62
245.399	227.62
245.633	220.62
245.866	231.62
246.099	228.62
246.333	234.62
246.566	206.62
246.8	219.62
247.033	239.62
247.266	229.62
247.5	235.62
247.733	233.62
247.966	245.62
248.2	239.62
248.433	236.62
248.666	257.62
248.899	246.62
249.133	257.62
249.366	249.62
249.599	276.62
249.832	261.62
250.066	247.62
250.299	255.62
250.532	259.62
250.765	269.62
250.998	261.62
251.231	271.62
251.465	275.62
251.698	255.62
251.931	274.62
252.164	266.62
252.397	286.62
252.63	286.62
252.863	282.62
253.096	271.62
253.329	281.62
253.562	288.62
253.795	278.62
254.028	292.62
254.261	287.62
254.494	286.62
254.727	291.62
254.96	299.62
255.193	275.62
255.426	307.62
255.659	300.62
255.892	299.62
256.124	305.62
256.357	305.62
256.59	283.62
256.823	297.62
257.056	312.62
257.289	329.62
257.521	319.62
257.754	308.62
257.987	313.62
258.22	309.62
258.452	307.62
258.685	314.62
258.918	314.62
259.151	317.62
259.383	297.62
259.616	292.62
259.849	329.62
260.081	327.62
260.314	310.62
260.547	313.62
260.779	317.62
261.012	342.62
261.244	334.62
261.477	331.62
261.71	341.62
261.942	333.62
262.175	336.62
262.407	348.62
262.64	318.62
262.872	339.62
263.105	343.62
263.337	348.62
263.57	350.62
263.802	343.62
264.035	345.62
264.267	340.62
264.499	360.62
264.732	366.62
264.964	344.62
265.197	365.62
265.429	366.62
265.661	354.62
265.894	374.62
266.126	367.62
266.358	372.62
266.591	348.62
266.823	388.62
267.055	402.62
267.287	379.62
267.52	381.62
267.752	375.62
267.984	370.62
268.216	371.62
268.448	364.62
268.681	373.62
268.913	372.62
269.145	372.62
269.377	386.62
269.609	387.62
269.841	373.62
270.073	365.62
270.306	366.62
270.538	394.62
270.77	377.62
271.002	389.62
271.234	407.62
271.466	385.62
271.698	407.62
271.93	399.62
272.162	396.62
272.394	411.62
272.626	381.62
272.858	391.62
273.09	404.62
273.322	403.62
273.553	410.62
273.785	412.62
274.017	412.62
274.249	433.62
274.481	414.62
274.713	437.62
274.945	413.62
275.176	428.62
275.408	421.62
275.64	430.62
275.872	426.62
276.104	413.62
276.335	435.62
276.567	426.62
276.799	429.62
277.031	454.62
277.262	459.62
277.494	444.62
277.726	462.62
277.957	442.62
278.189	443.62
278.421	433.62
278.652	433.62
278.884	440.62
279.115	458.62
279.347	438.62
279.579	467.62
279.81	460.62
280.042	450.62
280.273	454.62
280.505	452.62
280.736	468.62
280.968	446.62
281.199	487.62
281.431	473.62
281.662	439.62
281.894	459.62
282.125	487.62
282.356	480.62
282.588	485.62
282.819	481.62
283.051	465.62
283.282	480.62
283.513	462.62
283.745	471.62
283.976	479.62
284.207	492.62
284.439	478.62
284.67	508.62
284.901	503.62
285.132	501.62
285.364	493.62
285.595	519.62
285.826	487.62
286.057	504.62
286.288	517.62
286.52	497.62
286.751	517.62
286.982	518.62
287.213	506.62
287.444	514.62
287.675	522.62
287.906	524.62
288.138	526.62
288.369	518.62
288.6	542.62
288.831	534.62
289.062	547.62
289.293	551.62
289.524	541.62
289.755	534.62
289.986	542.62
290.217	526.62
290.448	530.62
290.679	530.62
290.91	548.62
291.141	554.62
291.371	551.62
291.602	535.62
291.833	526.62
292.064	561.62
292.295	540.62
292.526	571.62
292.757	534.62
292.987	534.62
293.218	517.62
293.449	572.62
293.68	545.62
293.91	534.62
294.141	551.62
294.372	557.62
294.603	561.62
294.833	540.62
295.064	561.62
295.295	538.62
295.525	548.62
295.756	544.62
295.987	552.62
296.217	571.62
296.448	573.62
296.679	575.62
296.909	555.62
297.14	556.62
297.37	571.62
297.601	567.62
297.831	590.62
298.062	585.62
298.292	606.62
298.523	639.62
298.753	612.62
298.984	602.62
299.214	601.62
299.445	599.62
299.675	612.62
299.905	604.62
300.136	587.62
300.366	616.62
300.597	598.62
300.827	635.62
301.057	617.62
301.288	637.62
301.518	621.62
301.748	640.62
301.979	647.62
302.209	627.62
302.439	637.62
302.669	637.62
302.9	626.62
303.13	605.62
303.36	622.62
303.59	597.62
303.82	623.62
304.051	616.62
304.281	598.62
304.511	626.62
304.741	607.62
304.971	617.62
305.201	611.62
305.431	613.62
305.661	610.62
305.891	588.62
306.121	583.62
306.352	594.62
306.582	600.62
306.812	600.62
307.042	591.62
307.272	586.62
307.502	597.62
307.731	581.62
307.961	612.62
308.191	593.62
308.421	594.62
308.651	591.62
308.881	584.62
309.111	593.62
309.341	571.62
309.571	616.62
309.8	607.62
310.03	602.62
310.26	594.62
310.49	585.62
310.72	593.62
310.949	597.62
311.179	596.62
311.409	612.62
311.639	597.62
311.868	592.62
312.098	644.62
312.328	627.62
312.557	614.62
312.787	618.62
313.017	601.62
313.246	630.62
313.476	632.62
313.706	625.62
313.935	606.62
314.165	635.62
314.394	652.62
314.624	644.62
314.853	648.62
315.083	649.62
315.312	627.62
315.542	649.62
315.771	624.62
316.001	649.62
316.23	623.62
316.46	622.62
316.689	627.62
316.919	639.62
317.148	628.62
317.377	649.62
317.607	625.62
317.836	614.62
318.065	641.62
318.295	611.62
318.524	647.62
318.753	615.62
318.983	614.62
319.212	633.62
319.441	613.62
319.67	620.62
319.9	621.62
320.129	617.62
320.358	617.62
320.587	626.62
320.816	609.62
321.046	617.62
321.275	629.62
321.504	631.62
321.733	615.62
321.962	626.62
322.191	632.62
322.42	625.62
322.649	612.62
322.878	641.62
323.108	649.62
323.337	659.62
323.566	633.62
323.795	636.62
324.024	633.62
324.253	626.62
324.482	633.62
324.71	637.62
324.939	621.62
325.168	653.62
325.397	663.62
325.626	655.62
325.855	656.62
326.084	686.62
326.313	705.62
326.542	696.62
326.77	708.62
326.999	679.62
327.228	666.62
327.457	668.62
327.686	681.62
327.914	682.62
328.143	682.62
328.372	712.62
328.6	675.62
328.829	669.62
329.058	665.62
329.287	689.62
329.515	697.62
329.744	695.62
329.972	700.62
330.201	693.62
330.43	687.62
330.658	693.62
330.887	735.62
331.115	696.62
331.344	722.62
331.572	724.62
331.801	738.62
332.03	772.62
332.258	764.62
332.486	823.62
332.715	811.62
332.943	853.62
333.172	887.62
333.4	907.62
333.629	945.62
333.857	947.62
334.085	938.62
334.314	939.62
334.542	916.62
334.771	868.62
334.999	858.62
335.227	861.62
335.455	856.62
335.684	873.62
335.912	836.62
336.14	811.62
336.369	823.62
336.597	858.62
336.825	830.62
337.053	813.62
337.281	813.62
337.51	798.62
337.738	769.62
337.966	761.62
338.194	758.62
338.422	750.62
338.65	727.62
338.878	758.62
339.106	737.62
339.334	753.62
339.562	740.62
339.79	724.62
340.018	692.62
340.246	702.62
340.474	706.62
340.702	707.62
340.93	715.62
341.158	743.62
341.386	723.62
341.614	745.62
341.842	723.62
342.07	694.62
342.298	717.62
342.526	712.62
342.754	708.62
342.981	713.62
343.209	705.62
343.437	735.62
343.665	837.62
343.893	868.62
344.12	906.62
344.348	875.62
344.576	803.62
344.804	791.62
345.031	734.62
345.259	722.62
345.487	717.62
345.714	712.62
345.942	723.62
346.17	731.62
346.397	717.62
346.625	716.62
346.853	689.62
347.08	700.62
347.308	702.62
347.535	697.62
347.763	716.62
347.99	703.62
348.218	721.62
348.445	697.62
348.673	698.62
348.9	689.62
349.128	703.62
349.355	685.62
349.583	684.62
349.81	688.62
350.037	681.62
350.265	685.62
350.492	659.62
350.72	671.62
350.947	659.62
351.174	655.62
351.402	669.62
351.629	651.62
351.856	641.62
352.083	674.62
352.311	665.62
352.538	653.62
352.765	659.62
352.992	668.62
353.22	638.62
353.447	661.62
353.674	648.62
353.901	678.62
354.128	681.62
354.355	682.62
354.583	659.62
354.81	681.62
355.037	676.62
355.264	662.62
355.491	654.62
355.718	680.62
355.945	689.62
356.172	675.62
356.399	699.62
356.626	694.62
356.853	686.62
357.08	704.62
357.307	669.62
357.534	670.62
357.761	670.62
357.988	678.62
358.215	673.62
358.441	647.62
358.668	662.62
358.895	662.62
359.122	671.62
359.349	662.62
359.576	669.62
359.802	661.62
360.029	673.62
360.256	692.62
360.483	678.62
360.709	654.62
360.936	678.62
361.163	665.62
361.39	659.62
361.616	635.62
361.843	668.62
362.07	651.62
362.296	679.62
362.523	676.62
362.749	664.62
362.976	673.62
363.203	657.62
363.429	659.62
363.656	662.62
363.882	677.62
364.109	655.62
364.335	677.62
364.562	653.62
364.788	662.62
365.015	642.62
365.241	665.62
365.468	651.62
365.694	651.62
365.92	676.62
366.147	641.62
366.373	669.62
366.599	677.62
366.826	685.62
367.052	668.62
367.278	665.62
367.505	652.62
367.731	665.62
367.957	650.62
368.184	662.62
368.41	700.62
368.636	677.62
368.862	676.62
369.089	673.62
369.315	689.62
369.541	699.62
369.767	702.62
369.993	681.62
370.219	683.62
370.445	691.62
370.672	721.62
370.898	714.62
371.124	722.62
371.35	721.62
371.576	725.62
371.802	742.62
372.028	748.62
372.254	735.62
372.48	749.62
372.706	735.62
372.932	782.62
373.158	757.62
373.384	743.62
373.61	739.62
373.835	727.62
374.061	715.62
374.287	769.62
374.513	740.62
374.739	788.62
374.965	812.62
375.191	842.62
375.416	807.62
375.642	789.62
375.868	781.62
376.094	750.62
376.319	760.62
376.545	742.62
376.771	742.62
376.997	740.62
377.222	731.62
377.448	769.62
377.674	747.62
377.899	729.62
378.125	720.62
378.35	709.62
378.576	714.62
378.802	720.62
379.027	729.62
379.253	711.62
379.478	689.62
379.704	713.62
379.929	710.62
380.155	707.62
380.38	698.62
380.606	714.62
380.831	726.62
381.057	749.62
381.282	725.62
381.507	749.62
381.733	728.62
381.958	737.62
382.184	767.62
382.409	753.62
382.634	776.62
382.86	765.62
383.085	772.62
383.31	819.62
383.535	826.62
383.761	802.62
383.986	819.62
384.211	844.62
384.436	823.62
384.662	870.62
384.887	909.62
385.112	897.62
385.337	866.62
385.562	895.62
385.787	902.62
386.013	897.62
386.238	899.62
386.463	894.62
386.688	897.62
386.913	871.62
387.138	885.62
387.363	851.62
387.588	864.62
387.813	865.62
388.038	882.62
388.263	909.62
388.488	862.62
388.713	887.62
388.938	857.62
389.163	851.62
389.387	857.62
389.612	829.62
389.837	850.62
390.062	876.62
390.287	894.62
390.512	883.62
390.736	902.62
390.961	898.62
391.186	906.62
391.411	918.62
391.636	963.62
391.86	977.62
392.085	992.62
392.31	994.62
392.534	966.62
392.759	979.62
392.984	955.62
393.208	917.62
393.433	932.62
393.658	908.62
393.882	970.62
394.107	925.62
394.331	933.62
394.556	940.62
394.78	941.62
395.005	933.62
395.229	951.62
395.454	975.62
395.678	994.62
395.903	981.62
396.127	973.62
396.352	941.62
396.576	922.62
396.801	919.62
397.025	948.62
397.249	998.62
397.474	1003.62
397.698	995.62
397.922	983.62
398.147	983.62
398.371	1009.62
398.595	1068.62
398.82	1083.62
399.044	1175.62
399.268	1267.62
399.492	1484.62
399.717	1689.62
399.941	1693.62
400.165	1524.62
400.389	1382.62
400.613	1274.62
400.837	1161.62
401.062	1133.62
401.286	1124.62
401.51	1085.62
401.734	1106.62
401.958	1130.62
402.182	1127.62
402.406	1164.62
402.63	1151.62
402.854	1179.62
403.078	1207.62
403.302	1233.62
403.526	1285.62
403.75	1244.62
403.974	1299.62
404.198	1315.62
404.422	1317.62
404.645	1312.62
404.869	1275.62
405.093	1288.62
405.317	1266.62
405.541	1261.62
405.765	1230.62
405.988	1231.62
406.212	1191.62
406.436	1193.62
406.66	1262.62
406.883	1242.62
407.107	1326.62
407.331	1403.62
407.555	1447.62
407.778	1461.62
408.002	1432.62
408.226	1398.62
408.449	1348.62
408.673	1303.62
408.896	1299.62
409.12	1224.62
409.344	1267.62
409.567	1276.62
409.791	1297.62
410.014	1284.62
410.238	1256.62
410.461	1237.62
410.685	1238.62
410.908	1205.62
411.132	1174.62
411.355	1148.62
411.578	1170.62
411.802	1180.62
412.025	1178.62
412.249	1157.62
412.472	1193.62
412.695	1140.62
412.919	1099.62
413.142	1142.62
413.365	1130.62
413.589	1123.62
413.812	1114.62
414.035	1094.62
414.258	1085.62
414.482	1106.62
414.705	1124.62
414.928	1116.62
415.151	1115.62
415.374	1086.62
415.597	1125.62
415.821	1067.62
416.044	1058.62
416.267	1084.62
416.49	1089.62
416.713	1085.62
416.936	1085.62
417.159	1103.62
417.382	1058.62
417.605	1077.62
417.828	1069.62
418.051	1106.62
418.274	1124.62
418.497	1101.62
418.72	1140.62
418.943	1116.62
419.166	1219.62
419.389	1286.62
419.611	1245.62
419.834	1216.62
420.057	1155.62
420.28	1121.62
420.503	1117.62
420.726	1081.62
420.948	1109.62
421.171	1084.62
421.394	1100.62
421.617	1083.62
421.839	1100.62
422.062	1110.62
422.285	1085.62
422.507	1107.62
422.73	1137.62
422.953	1161.62
423.175	1152.62
423.398	1182.62
423.621	1198.62
423.843	1178.62
424.066	1179.62
424.288	1182.62
424.511	1172.62
424.733	1171.62
424.956	1153.62
425.178	1147.62
425.401	1111.62
425.623	1115.62
425.846	1086.62
426.068	1059.62
426.291	1081.62
426.513	1067.62
426.735	1016.62
426.958	1029.62
427.18	995.62
427.402	1019.62
427.625	1017.62
427.847	989.62
428.069	1010.62
428.292	994.62
428.514	996.62
428.736	987.62
428.958	1022.62
429.181	993.62
429.403	945.62
429.625	1009.62
429.847	964.62
430.069	977.62
430.292	978.62
430.514	961.62
430.736	976.62
430.958	974.62
431.18	930.62
431.402	960.62
431.624	965.62
431.846	1007.62
432.068	1004.62
432.29	1038.62
432.512	965.62
432.734	985.62
432.956	994.62
433.178	986.62
433.4	988.62
433.622	1011.62
433.844	1003.62
434.066	1007.62
434.287	1027.62
434.509	1051.62
434.731	1085.62
434.953	1143.62
435.175	1129.62
435.397	1135.62
435.618	1079.62
435.84	1040.62
436.062	1002.62
436.284	1033.62
436.505	1013.62
436.727	986.62
436.949	990.62
437.17	1016.62
437.392	1007.62
437.614	989.62
437.835	934.62
438.057	983.62
438.278	949.62
438.5	939.62
438.721	945.62
438.943	961.62
439.165	954.62
439.386	1001.62
439.608	1020.62
439.829	985.62
440.05	983.62
440.272	981.62
440.493	1015.62
440.715	1019.62
440.936	991.62
441.158	1045.62
441.379	1042.62
441.6	1125.62
441.822	1142.62
442.043	1125.62
442.264	1108.62
442.486	1090.62
442.707	1104.62
442.928	1098.62
443.149	1109.62
443.371	1100.62
443.592	1124.62
443.813	1140.62
444.034	1174.62
444.255	1182.62
444.476	1229.62
444.698	1285.62
444.919	1367.62
445.14	1462.62
445.361	1291.62
445.582	1181.62
445.803	1112.62
446.024	1074.62
446.245	1070.62
446.466	1035.62
446.687	998.62
446.908	1033.62
447.129	981.62
447.35	982.62
447.571	980.62
447.792	955.62
448.013	945.62
448.234	919.62
448.455	911.62
448.675	927.62
448.896	904.62
449.117	904.62
449.338	897.62
449.559	892.62
449.779	893.62
450	876.62
450.221	897.62
450.442	910.62
450.662	915.62
450.883	917.62
451.104	976.62
451.324	959.62
451.545	950.62
451.766	931.62
451.986	942.62
452.207	940.62
452.428	928.62
452.648	923.62
452.869	876.62
453.089	909.62
453.31	917.62
453.53	882.62
453.751	903.62
453.971	896.62
454.192	891.62
454.412	879.62
454.633	865.62
454.853	885.62
455.073	868.62
455.294	891.62
455.514	880.62
455.734	879.62
455.955	866.62
456.175	854.62
456.395	823.62
456.616	847.62
456.836	855.62
457.056	842.62
457.276	831.62
457.497	893.62
457.717	845.62
457.937	878.62
458.157	886.62
458.377	882.62
458.598	893.62
458.818	925.62
459.038	951.62
459.258	964.62
459.478	993.62
459.698	1049.62
459.918	1057.62
460.138	1104.62
460.358	1197.62
460.578	1214.62
460.798	1186.62
461.018	1214.62
461.238	1165.62
461.458	1184.62
461.678	1153.62
461.898	1198.62
462.118	1210.62
462.338	1262.62
462.558	1287.62
462.777	1378.62
462.997	1476.62
463.217	1626.62
463.437	1617.62
463.657	1512.62
463.876	1467.62
464.096	1427.62
464.316	1417.62
464.536	1403.62
464.755	1346.62
464.975	1302.62
465.195	1214.62
465.414	1172.62
465.634	1139.62
465.854	1059.62
466.073	1036.62
466.293	994.62
466.512	983.62
466.732	982.62
466.951	1004.62
467.171	961.62
467.391	958.62
467.61	977.62
467.829	931.62
468.049	956.62
468.268	932.62
468.488	923.62
468.707	911.62
468.927	933.62
469.146	909.62
469.365	953.62
469.585	942.62
469.804	974.62
470.023	984.62
470.243	1009.62
470.462	1024.62
470.681	1024.62
470.901	1006.62
471.12	983.62
471.339	972.62
471.558	949.62
471.777	899.62
471.997	930.62
472.216	919.62
472.435	917.62
472.654	887.62
472.873	898.62
473.092	903.62
473.311	899.62
473.53	878.62
473.749	892.62
473.968	863.62
474.187	891.62
474.406	887.62
474.625	886.62
474.844	911.62
475.063	917.62
475.282	900.62
475.501	908.62
475.72	883.62
475.939	891.62
476.158	973.62
476.377	958.62
476.596	933.62
476.814	958.62
477.033	940.62
477.252	940.62
477.471	1001.62
477.69	1024.62
477.908	1019.62
478.127	1061.62
478.346	1087.62
478.564	1097.62
478.783	1070.62
479.002	1141.62
479.22	1157.62
479.439	1121.62
479.658	1126.62
479.876	1111.62
480.095	1139.62
480.313	1192.62
480.532	1209.62
480.751	1243.62
480.969	1166.62
481.188	1176.62
481.406	1108.62
481.624	1097.62
481.843	1069.62
482.061	1070.62
482.28	1078.62
482.498	1028.62
482.717	1005.62
482.935	1031.62
483.153	1041.62
483.372	1045.62
483.59	1051.62
483.808	1033.62
484.027	1042.62
484.245	1029.62
484.463	1048.62
484.681	1042.62
484.9	1077.62
485.118	1057.62
485.336	1077.62
485.554	1110.62
485.772	1106.62
485.99	1080.62
486.209	1112.62
486.427	1098.62
486.645	1111.62
486.863	1132.62
487.081	1103.62
487.299	1105.62
487.517	1086.62
487.735	1081.62
487.953	1091.62
488.171	1080.62
488.389	1086.62
488.607	1062.62
488.825	1069.62
489.043	1087.62
489.261	1075.62
489.479	1063.62
489.696	1065.62
489.914	1084.62
490.132	1101.62
490.35	1065.62
490.568	1105.62
490.786	1098.62
491.003	1085.62
491.221	1097.62
491.439	1082.62
491.657	1094.62
491.874	1117.62
492.092	1117.62
492.31	1100.62
492.527	1079.62
492.745	1141.62
492.963	1126.62
493.18	1125.62
493.398	1132.62
493.615	1114.62
493.833	1115.62
494.05	1158.62
494.268	1134.62
494.485	1134.62
494.703	1115.62
494.92	1153.62
495.138	1143.62
495.355	1173.62
495.573	1163.62
495.79	1151.62
496.008	1156.62
496.225	1167.62
496.442	1162.62
496.66	1163.62
496.877	1199.62
497.094	1210.62
497.312	1228.62
