Data from NiCl2@0.5M.TitratingCurve.Agarose3%dH2O.NegLispCup.LampEnergy10.LIBS07252019_HRD10591_18-21-48-573.txt Node
Date: Thu Jul 25 18:21:48 EDT 2019
User: cochatt
Spectrometer: HR+D1059
Trigger mode: 1
Integration Time (sec): 1.000000E-1
Scans to average: 1
Electric dark correction enabled: true
Nonlinearity correction enabled: false
Boxcar width: 0
XAxis mode: Wavelengths
Number of Pixels in Spectrum: 2048
>>>>>Begin Spectral Data<<<<<
223.165	-8.19
223.4	-8.19
223.635	-8.19
223.869	-19.19
224.104	-25.19
224.338	-23.19
224.573	-12.19
224.808	-10.19
225.042	-12.19
225.277	-7.19
225.511	4.81
225.746	12.81
225.98	4.81
226.215	14.81
226.449	9.81
226.683	20.81
226.918	25.81
227.152	23.81
227.387	40.81
227.621	40.81
227.856	63.81
228.09	52.81
228.324	58.81
228.559	40.81
228.793	69.81
229.027	75.81
229.262	101.81
229.496	99.81
229.73	116.81
229.964	119.81
230.199	128.81
230.433	119.81
230.667	121.81
230.901	114.81
231.136	127.81
231.37	127.81
231.604	120.81
231.838	130.81
232.072	129.81
232.306	140.81
232.541	154.81
232.775	128.81
233.009	126.81
233.243	140.81
233.477	122.81
233.711	132.81
233.945	128.81
234.179	132.81
234.413	147.81
234.647	143.81
234.881	140.81
235.115	137.81
235.349	145.81
235.583	139.81
235.817	150.81
236.051	141.81
236.285	132.81
236.519	138.81
236.753	151.81
236.987	143.81
237.221	142.81
237.455	151.81
237.689	155.81
237.922	147.81
238.156	146.81
238.39	144.81
238.624	147.81
238.858	151.81
239.091	158.81
239.325	162.81
239.559	170.81
239.793	159.81
240.027	150.81
240.26	159.81
240.494	161.81
240.728	155.81
240.961	167.81
241.195	169.81
241.429	165.81
241.662	154.81
241.896	171.81
242.13	187.81
242.363	178.81
242.597	168.81
242.83	193.81
243.064	160.81
243.298	198.81
243.531	176.81
243.765	180.81
243.998	186.81
244.232	179.81
244.465	191.81
244.699	184.81
244.932	182.81
245.166	202.81
245.399	192.81
245.633	189.81
245.866	191.81
246.099	207.81
246.333	188.81
246.566	179.81
246.8	182.81
247.033	218.81
247.266	199.81
247.5	204.81
247.733	195.81
247.966	210.81
248.2	214.81
248.433	211.81
248.666	207.81
248.899	219.81
249.133	213.81
249.366	209.81
249.599	221.81
249.832	206.81
250.066	223.81
250.299	221.81
250.532	228.81
250.765	215.81
250.998	207.81
251.231	228.81
251.465	244.81
251.698	233.81
251.931	231.81
252.164	226.81
252.397	234.81
252.63	243.81
252.863	228.81
253.096	239.81
253.329	240.81
253.562	247.81
253.795	261.81
254.028	248.81
254.261	240.81
254.494	249.81
254.727	253.81
254.96	260.81
255.193	240.81
255.426	242.81
255.659	234.81
255.892	239.81
256.124	247.81
256.357	253.81
256.59	259.81
256.823	265.81
257.056	233.81
257.289	251.81
257.521	270.81
257.754	265.81
257.987	250.81
258.22	250.81
258.452	262.81
258.685	256.81
258.918	257.81
259.151	269.81
259.383	266.81
259.616	271.81
259.849	277.81
260.081	275.81
260.314	281.81
260.547	265.81
260.779	272.81
261.012	272.81
261.244	263.81
261.477	283.81
261.71	301.81
261.942	277.81
262.175	270.81
262.407	276.81
262.64	272.81
262.872	296.81
263.105	275.81
263.337	305.81
263.57	277.81
263.802	286.81
264.035	312.81
264.267	309.81
264.499	293.81
264.732	287.81
264.964	294.81
265.197	309.81
265.429	292.81
265.661	288.81
265.894	301.81
266.126	292.81
266.358	308.81
266.591	317.81
266.823	312.81
267.055	306.81
267.287	313.81
267.52	303.81
267.752	303.81
267.984	303.81
268.216	318.81
268.448	313.81
268.681	309.81
268.913	312.81
269.145	312.81
269.377	332.81
269.609	327.81
269.841	328.81
270.073	316.81
270.306	306.81
270.538	330.81
270.77	323.81
271.002	328.81
271.234	335.81
271.466	334.81
271.698	334.81
271.93	331.81
272.162	324.81
272.394	335.81
272.626	340.81
272.858	340.81
273.09	358.81
273.322	356.81
273.553	361.81
273.785	351.81
274.017	367.81
274.249	357.81
274.481	329.81
274.713	364.81
274.945	366.81
275.176	356.81
275.408	347.81
275.64	369.81
275.872	366.81
276.104	384.81
276.335	378.81
276.567	353.81
276.799	353.81
277.031	384.81
277.262	368.81
277.494	380.81
277.726	377.81
277.957	383.81
278.189	352.81
278.421	365.81
278.652	383.81
278.884	377.81
279.115	380.81
279.347	356.81
279.579	369.81
279.81	394.81
280.042	372.81
280.273	387.81
280.505	392.81
280.736	397.81
280.968	380.81
281.199	377.81
281.431	376.81
281.662	401.81
281.894	381.81
282.125	421.81
282.356	417.81
282.588	408.81
282.819	402.81
283.051	419.81
283.282	397.81
283.513	408.81
283.745	417.81
283.976	395.81
284.207	403.81
284.439	410.81
284.67	396.81
284.901	419.81
285.132	410.81
285.364	412.81
285.595	411.81
285.826	424.81
286.057	440.81
286.288	416.81
286.52	419.81
286.751	419.81
286.982	434.81
287.213	449.81
287.444	447.81
287.675	441.81
287.906	451.81
288.138	453.81
288.369	457.81
288.6	451.81
288.831	440.81
289.062	474.81
289.293	436.81
289.524	424.81
289.755	464.81
289.986	438.81
290.217	442.81
290.448	449.81
290.679	460.81
290.91	436.81
291.141	459.81
291.371	443.81
291.602	453.81
291.833	450.81
292.064	452.81
292.295	464.81
292.526	485.81
292.757	450.81
292.987	444.81
293.218	459.81
293.449	450.81
293.68	461.81
293.91	444.81
294.141	467.81
294.372	467.81
294.603	474.81
294.833	465.81
295.064	451.81
295.295	466.81
295.525	464.81
295.756	479.81
295.987	490.81
296.217	475.81
296.448	475.81
296.679	467.81
296.909	470.81
297.14	458.81
297.37	477.81
297.601	487.81
297.831	493.81
298.062	494.81
298.292	513.81
298.523	521.81
298.753	498.81
298.984	507.81
299.214	472.81
299.445	499.81
299.675	481.81
299.905	524.81
300.136	508.81
300.366	519.81
300.597	499.81
300.827	531.81
301.057	534.81
301.288	528.81
301.518	521.81
301.748	538.81
301.979	539.81
302.209	543.81
302.439	535.81
302.669	529.81
302.9	521.81
303.13	521.81
303.36	500.81
303.59	517.81
303.82	536.81
304.051	534.81
304.281	545.81
304.511	535.81
304.741	520.81
304.971	542.81
305.201	537.81
305.431	520.81
305.661	531.81
305.891	527.81
306.121	522.81
306.352	511.81
306.582	532.81
306.812	509.81
307.042	513.81
307.272	523.81
307.502	503.81
307.731	536.81
307.961	520.81
308.191	505.81
308.421	531.81
308.651	527.81
308.881	537.81
309.111	494.81
309.341	509.81
309.571	497.81
309.8	522.81
310.03	524.81
310.26	530.81
310.49	544.81
310.72	530.81
310.949	513.81
311.179	525.81
311.409	508.81
311.639	533.81
311.868	530.81
312.098	532.81
312.328	513.81
312.557	545.81
312.787	556.81
313.017	544.81
313.246	549.81
313.476	538.81
313.706	537.81
313.935	576.81
314.165	552.81
314.394	543.81
314.624	555.81
314.853	574.81
315.083	568.81
315.312	552.81
315.542	546.81
315.771	552.81
316.001	555.81
316.23	564.81
316.46	557.81
316.689	530.81
316.919	543.81
317.148	547.81
317.377	515.81
317.607	520.81
317.836	521.81
318.065	548.81
318.295	553.81
318.524	535.81
318.753	544.81
318.983	559.81
319.212	534.81
319.441	545.81
319.67	567.81
319.9	537.81
320.129	531.81
320.358	557.81
320.587	567.81
320.816	531.81
321.046	535.81
321.275	556.81
321.504	558.81
321.733	551.81
321.962	552.81
322.191	546.81
322.42	547.81
322.649	548.81
322.878	567.81
323.108	549.81
323.337	547.81
323.566	562.81
323.795	554.81
324.024	568.81
324.253	582.81
324.482	592.81
324.71	586.81
324.939	560.81
325.168	573.81
325.397	572.81
325.626	570.81
325.855	596.81
326.084	585.81
326.313	609.81
326.542	598.81
326.77	615.81
326.999	593.81
327.228	587.81
327.457	594.81
327.686	589.81
327.914	595.81
328.143	617.81
328.372	628.81
328.6	589.81
328.829	593.81
329.058	587.81
329.287	607.81
329.515	611.81
329.744	609.81
329.972	603.81
330.201	603.81
330.43	615.81
330.658	613.81
330.887	617.81
331.115	614.81
331.344	626.81
331.572	628.81
331.801	633.81
332.03	649.81
332.258	677.81
332.486	691.81
332.715	689.81
332.943	741.81
333.172	765.81
333.4	796.81
333.629	796.81
333.857	801.81
334.085	797.81
334.314	800.81
334.542	775.81
334.771	768.81
334.999	743.81
335.227	751.81
335.455	756.81
335.684	739.81
335.912	732.81
336.14	720.81
336.369	725.81
336.597	715.81
336.825	725.81
337.053	735.81
337.281	725.81
337.51	704.81
337.738	690.81
337.966	666.81
338.194	679.81
338.422	664.81
338.65	649.81
338.878	651.81
339.106	669.81
339.334	660.81
339.562	657.81
339.79	639.81
340.018	616.81
340.246	609.81
340.474	610.81
340.702	619.81
340.93	614.81
341.158	644.81
341.386	623.81
341.614	658.81
341.842	634.81
342.07	642.81
342.298	598.81
342.526	633.81
342.754	616.81
342.981	607.81
343.209	643.81
343.437	663.81
343.665	703.81
343.893	761.81
344.12	758.81
344.348	713.81
344.576	696.81
344.804	682.81
345.031	665.81
345.259	659.81
345.487	639.81
345.714	624.81
345.942	632.81
346.17	622.81
346.397	618.81
346.625	614.81
346.853	607.81
347.08	612.81
347.308	597.81
347.535	603.81
347.763	593.81
347.99	596.81
348.218	614.81
348.445	595.81
348.673	598.81
348.9	585.81
349.128	591.81
349.355	610.81
349.583	607.81
349.81	598.81
350.037	581.81
350.265	601.81
350.492	584.81
350.72	596.81
350.947	569.81
351.174	601.81
351.402	589.81
351.629	584.81
351.856	596.81
352.083	588.81
352.311	589.81
352.538	583.81
352.765	600.81
352.992	577.81
353.22	557.81
353.447	569.81
353.674	571.81
353.901	595.81
354.128	577.81
354.355	571.81
354.583	588.81
354.81	584.81
355.037	598.81
355.264	603.81
355.491	560.81
355.718	547.81
355.945	577.81
356.172	587.81
356.399	592.81
356.626	579.81
356.853	604.81
357.08	575.81
357.307	584.81
357.534	578.81
357.761	607.81
357.988	573.81
358.215	564.81
358.441	569.81
358.668	586.81
358.895	571.81
359.122	588.81
359.349	577.81
359.576	575.81
359.802	578.81
360.029	588.81
360.256	560.81
360.483	571.81
360.709	577.81
360.936	569.81
361.163	581.81
361.39	552.81
361.616	601.81
361.843	581.81
362.07	596.81
362.296	593.81
362.523	597.81
362.749	572.81
362.976	575.81
363.203	584.81
363.429	569.81
363.656	579.81
363.882	571.81
364.109	549.81
364.335	569.81
364.562	569.81
364.788	584.81
365.015	562.81
365.241	548.81
365.468	546.81
365.694	565.81
365.92	563.81
366.147	564.81
366.373	559.81
366.599	555.81
366.826	564.81
367.052	573.81
367.278	552.81
367.505	568.81
367.731	570.81
367.957	579.81
368.184	564.81
368.41	559.81
368.636	579.81
368.862	562.81
369.089	587.81
369.315	577.81
369.541	584.81
369.767	574.81
369.993	597.81
370.219	567.81
370.445	609.81
370.672	599.81
370.898	583.81
371.124	593.81
371.35	598.81
371.576	598.81
371.802	606.81
372.028	596.81
372.254	603.81
372.48	618.81
372.706	643.81
372.932	637.81
373.158	629.81
373.384	610.81
373.61	610.81
373.835	624.81
374.061	615.81
374.287	633.81
374.513	631.81
374.739	656.81
374.965	661.81
375.191	687.81
375.416	676.81
375.642	656.81
375.868	643.81
376.094	639.81
376.319	634.81
376.545	619.81
376.771	610.81
376.997	627.81
377.222	613.81
377.448	604.81
377.674	602.81
377.899	604.81
378.125	593.81
378.35	584.81
378.576	605.81
378.802	598.81
379.027	600.81
379.253	590.81
379.478	609.81
379.704	617.81
379.929	600.81
380.155	593.81
380.38	599.81
380.606	591.81
380.831	607.81
381.057	624.81
381.282	569.81
381.507	617.81
381.733	615.81
381.958	589.81
382.184	602.81
382.409	640.81
382.634	617.81
382.86	622.81
383.085	659.81
383.31	650.81
383.535	651.81
383.761	645.81
383.986	668.81
384.211	682.81
384.436	690.81
384.662	703.81
384.887	728.81
385.112	720.81
385.337	700.81
385.562	724.81
385.787	706.81
386.013	720.81
386.238	713.81
386.463	709.81
386.688	732.81
386.913	701.81
387.138	738.81
387.363	721.81
387.588	712.81
387.813	713.81
388.038	696.81
388.263	703.81
388.488	712.81
388.713	700.81
388.938	705.81
389.163	704.81
389.387	699.81
389.612	700.81
389.837	689.81
390.062	721.81
390.287	716.81
390.512	712.81
390.736	711.81
390.961	730.81
391.186	753.81
391.411	756.81
391.636	767.81
391.86	782.81
392.085	811.81
392.31	799.81
392.534	788.81
392.759	770.81
392.984	798.81
393.208	760.81
393.433	761.81
393.658	794.81
393.882	771.81
394.107	761.81
394.331	779.81
394.556	763.81
394.78	769.81
395.005	773.81
395.229	776.81
395.454	782.81
395.678	788.81
395.903	822.81
396.127	817.81
396.352	775.81
396.576	768.81
396.801	752.81
397.025	778.81
397.249	823.81
397.474	815.81
397.698	818.81
397.922	810.81
398.147	819.81
398.371	836.81
398.595	856.81
398.82	893.81
399.044	910.81
399.268	1063.81
399.492	1185.81
399.717	1317.81
399.941	1333.81
400.165	1162.81
400.389	1062.81
400.613	983.81
400.837	935.81
401.062	940.81
401.286	907.81
401.51	918.81
401.734	891.81
401.958	909.81
402.182	914.81
402.406	906.81
402.63	930.81
402.854	947.81
403.078	953.81
403.302	996.81
403.526	996.81
403.75	1034.81
403.974	1009.81
404.198	1035.81
404.422	1060.81
404.645	1033.81
404.869	1000.81
405.093	1010.81
405.317	996.81
405.541	993.81
405.765	971.81
405.988	975.81
406.212	1012.81
406.436	976.81
406.66	1021.81
406.883	1032.81
407.107	1113.81
407.331	1124.81
407.555	1159.81
407.778	1158.81
408.002	1120.81
408.226	1103.81
408.449	1077.81
408.673	1040.81
408.896	1015.81
409.12	1035.81
409.344	1047.81
409.567	1020.81
409.791	1019.81
410.014	1018.81
410.238	1017.81
410.461	1020.81
410.685	984.81
410.908	997.81
411.132	951.81
411.355	922.81
411.578	936.81
411.802	938.81
412.025	956.81
412.249	969.81
412.472	952.81
412.695	932.81
412.919	904.81
413.142	928.81
413.365	906.81
413.589	933.81
413.812	925.81
414.035	879.81
414.258	897.81
414.482	946.81
414.705	921.81
414.928	915.81
415.151	919.81
415.374	926.81
415.597	893.81
415.821	895.81
416.044	883.81
416.267	882.81
416.49	881.81
416.713	916.81
416.936	920.81
417.159	887.81
417.382	898.81
417.605	902.81
417.828	923.81
418.051	901.81
418.274	906.81
418.497	917.81
418.72	961.81
418.943	918.81
419.166	977.81
419.389	1045.81
419.611	1005.81
419.834	972.81
420.057	946.81
420.28	903.81
420.503	890.81
420.726	886.81
420.948	901.81
421.171	902.81
421.394	884.81
421.617	910.81
421.839	912.81
422.062	905.81
422.285	907.81
422.507	925.81
422.73	930.81
422.953	943.81
423.175	937.81
423.398	969.81
423.621	943.81
423.843	945.81
424.066	966.81
424.288	981.81
424.511	941.81
424.733	947.81
424.956	930.81
425.178	920.81
425.401	900.81
425.623	910.81
425.846	899.81
426.068	889.81
426.291	870.81
426.513	837.81
426.735	851.81
426.958	861.81
427.18	859.81
427.402	838.81
427.625	847.81
427.847	803.81
428.069	853.81
428.292	841.81
428.514	828.81
428.736	803.81
428.958	810.81
429.181	787.81
429.403	835.81
429.625	835.81
429.847	806.81
430.069	787.81
430.292	786.81
430.514	799.81
430.736	794.81
430.958	815.81
431.18	796.81
431.402	804.81
431.624	815.81
431.846	826.81
432.068	854.81
432.29	853.81
432.512	821.81
432.734	825.81
432.956	838.81
433.178	817.81
433.4	824.81
433.622	865.81
433.844	810.81
434.066	849.81
434.287	818.81
434.509	855.81
434.731	899.81
434.953	906.81
435.175	903.81
435.397	893.81
435.618	892.81
435.84	843.81
436.062	836.81
436.284	821.81
436.505	828.81
436.727	849.81
436.949	818.81
437.17	812.81
437.392	827.81
437.614	831.81
437.835	806.81
438.057	797.81
438.278	805.81
438.5	822.81
438.721	779.81
438.943	800.81
439.165	766.81
439.386	789.81
439.608	848.81
439.829	845.81
440.05	848.81
440.272	833.81
440.493	836.81
440.715	855.81
440.936	881.81
441.158	890.81
441.379	905.81
441.6	939.81
441.822	951.81
442.043	942.81
442.264	931.81
442.486	891.81
442.707	897.81
442.928	898.81
443.149	900.81
443.371	911.81
443.592	915.81
443.813	933.81
444.034	932.81
444.255	935.81
444.476	1005.81
444.698	1072.81
444.919	1115.81
445.14	1133.81
445.361	1043.81
445.582	982.81
445.803	928.81
446.024	909.81
446.245	893.81
446.466	872.81
446.687	831.81
446.908	813.81
447.129	842.81
447.35	805.81
447.571	789.81
447.792	779.81
448.013	809.81
448.234	793.81
448.455	787.81
448.675	788.81
448.896	776.81
449.117	769.81
449.338	757.81
449.559	759.81
449.779	744.81
450	775.81
450.221	744.81
450.442	765.81
450.662	782.81
450.883	806.81
451.104	794.81
451.324	787.81
451.545	779.81
451.766	781.81
451.986	777.81
452.207	765.81
452.428	762.81
452.648	751.81
452.869	745.81
453.089	739.81
453.31	740.81
453.53	752.81
453.751	769.81
453.971	767.81
454.192	745.81
454.412	715.81
454.633	734.81
454.853	735.81
455.073	728.81
455.294	727.81
455.514	733.81
455.734	745.81
455.955	713.81
456.175	724.81
456.395	696.81
456.616	700.81
456.836	712.81
457.056	725.81
457.276	705.81
457.497	720.81
457.717	706.81
457.937	725.81
458.157	716.81
458.377	731.81
458.598	769.81
458.818	770.81
459.038	787.81
459.258	816.81
459.478	839.81
459.698	854.81
459.918	880.81
460.138	899.81
460.358	937.81
460.578	964.81
460.798	974.81
461.018	996.81
461.238	949.81
461.458	972.81
461.678	955.81
461.898	996.81
462.118	956.81
462.338	1055.81
462.558	1055.81
462.777	1109.81
462.997	1195.81
463.217	1263.81
463.437	1311.81
463.657	1207.81
463.876	1164.81
464.096	1155.81
464.316	1143.81
464.536	1153.81
464.755	1093.81
464.975	1055.81
465.195	997.81
465.414	955.81
465.634	919.81
465.854	871.81
466.073	877.81
466.293	865.81
466.512	805.81
466.732	807.81
466.951	836.81
467.171	820.81
467.391	812.81
467.61	796.81
467.829	790.81
468.049	785.81
468.268	787.81
468.488	789.81
468.707	737.81
468.927	781.81
469.146	771.81
469.365	799.81
469.585	796.81
469.804	837.81
470.023	837.81
470.243	838.81
470.462	844.81
470.681	831.81
470.901	836.81
471.12	819.81
471.339	808.81
471.558	815.81
471.777	822.81
471.997	787.81
472.216	801.81
472.435	791.81
472.654	759.81
472.873	782.81
473.092	728.81
473.311	775.81
473.53	754.81
473.749	751.81
473.968	787.81
474.187	769.81
474.406	741.81
474.625	744.81
474.844	757.81
475.063	778.81
475.282	747.81
475.501	749.81
475.72	793.81
475.939	787.81
476.158	783.81
476.377	807.81
476.596	799.81
476.814	799.81
477.033	794.81
477.252	825.81
477.471	835.81
477.69	855.81
477.908	854.81
478.127	874.81
478.346	905.81
478.564	911.81
478.783	934.81
479.002	947.81
479.22	951.81
479.439	967.81
479.658	927.81
479.876	917.81
480.095	965.81
480.313	977.81
480.532	1015.81
480.751	1029.81
480.969	970.81
481.188	940.81
481.406	901.81
481.624	915.81
481.843	883.81
482.061	898.81
482.28	884.81
482.498	868.81
482.717	851.81
482.935	843.81
483.153	853.81
483.372	884.81
483.59	891.81
483.808	873.81
484.027	889.81
484.245	863.81
484.463	899.81
484.681	905.81
484.9	904.81
485.118	905.81
485.336	895.81
485.554	918.81
485.772	922.81
485.99	933.81
486.209	913.81
486.427	932.81
486.645	931.81
486.863	938.81
487.081	888.81
487.299	920.81
487.517	922.81
487.735	914.81
487.953	904.81
488.171	944.81
488.389	904.81
488.607	917.81
488.825	903.81
489.043	884.81
489.261	898.81
489.479	921.81
489.696	932.81
489.914	919.81
490.132	892.81
490.35	891.81
490.568	911.81
490.786	923.81
491.003	892.81
491.221	901.81
491.439	920.81
491.657	901.81
491.874	927.81
492.092	945.81
492.31	945.81
492.527	979.81
492.745	955.81
492.963	955.81
493.18	965.81
493.398	980.81
493.615	969.81
493.833	964.81
494.05	958.81
494.268	977.81
494.485	987.81
494.703	961.81
494.92	959.81
495.138	947.81
495.355	974.81
495.573	967.81
495.79	980.81
496.008	999.81
496.225	979.81
496.442	973.81
496.66	1003.81
496.877	1030.81
497.094	1030.81
497.312	1078.81
497.529	1085.81
497.746	1116.81
497.963	1139.81
498.181	1156.81
498.398	1253.81
498.615	1267.81
498.832	1393.81
499.049	1499.81
499.267	1576.81
499.484	1723.81
499.701	1960.81
499.918	2076.81
500.135	2397.81
500.352	2697.81
500.569	2846.81
