Data from NiCl2@0.5M.TitratingCurve.Agarose3%dH2O.NegLispCup.LampEnergy10.LIBS07252019_HRD10591_18-20-08-571.txt Node
Date: Thu Jul 25 18:20:08 EDT 2019
User: cochatt
Spectrometer: HR+D1059
Trigger mode: 1
Integration Time (sec): 1.000000E-1
Scans to average: 1
Electric dark correction enabled: true
Nonlinearity correction enabled: false
Boxcar width: 0
XAxis mode: Wavelengths
Number of Pixels in Spectrum: 2048
>>>>>Begin Spectral Data<<<<<
223.165	-2.62
223.4	-2.62
223.635	-2.62
223.869	-5.62
224.104	-32.62
224.338	-16.62
224.573	-17.62
224.808	-22.62
225.042	-3.62
225.277	-13.62
225.511	-12.62
225.746	8.38
225.98	9.38
226.215	10.38
226.449	23.38
226.683	26.38
226.918	32.38
227.152	17.38
227.387	38.38
227.621	37.38
227.856	33.38
228.09	54.38
228.324	48.38
228.559	58.38
228.793	79.38
229.027	111.38
229.262	137.38
229.496	137.38
229.73	147.38
229.964	142.38
230.199	163.38
230.433	170.38
230.667	173.38
230.901	179.38
231.136	150.38
231.37	160.38
231.604	168.38
231.838	194.38
232.072	175.38
232.306	184.38
232.541	169.38
232.775	169.38
233.009	182.38
233.243	192.38
233.477	177.38
233.711	177.38
233.945	184.38
234.179	166.38
234.413	173.38
234.647	166.38
234.881	177.38
235.115	170.38
235.349	181.38
235.583	173.38
235.817	172.38
236.051	187.38
236.285	188.38
236.519	175.38
236.753	173.38
236.987	163.38
237.221	180.38
237.455	202.38
237.689	184.38
237.922	193.38
238.156	203.38
238.39	204.38
238.624	196.38
238.858	210.38
239.091	207.38
239.325	183.38
239.559	213.38
239.793	221.38
240.027	212.38
240.26	196.38
240.494	213.38
240.728	203.38
240.961	216.38
241.195	213.38
241.429	220.38
241.662	220.38
241.896	225.38
242.13	253.38
242.363	237.38
242.597	224.38
242.83	237.38
243.064	242.38
243.298	221.38
243.531	239.38
243.765	228.38
243.998	240.38
244.232	255.38
244.465	255.38
244.699	258.38
244.932	243.38
245.166	244.38
245.399	258.38
245.633	265.38
245.866	268.38
246.099	247.38
246.333	246.38
246.566	265.38
246.8	249.38
247.033	256.38
247.266	259.38
247.5	264.38
247.733	269.38
247.966	266.38
248.2	289.38
248.433	285.38
248.666	271.38
248.899	285.38
249.133	298.38
249.366	299.38
249.599	285.38
249.832	294.38
250.066	296.38
250.299	290.38
250.532	299.38
250.765	294.38
250.998	327.38
251.231	310.38
251.465	329.38
251.698	308.38
251.931	338.38
252.164	315.38
252.397	303.38
252.63	311.38
252.863	342.38
253.096	339.38
253.329	340.38
253.562	333.38
253.795	329.38
254.028	337.38
254.261	329.38
254.494	330.38
254.727	330.38
254.96	352.38
255.193	332.38
255.426	328.38
255.659	343.38
255.892	328.38
256.124	355.38
256.357	351.38
256.59	334.38
256.823	353.38
257.056	359.38
257.289	355.38
257.521	357.38
257.754	363.38
257.987	359.38
258.22	355.38
258.452	375.38
258.685	359.38
258.918	371.38
259.151	383.38
259.383	378.38
259.616	370.38
259.849	379.38
260.081	384.38
260.314	378.38
260.547	385.38
260.779	378.38
261.012	383.38
261.244	394.38
261.477	393.38
261.71	388.38
261.942	397.38
262.175	382.38
262.407	400.38
262.64	398.38
262.872	384.38
263.105	397.38
263.337	384.38
263.57	422.38
263.802	425.38
264.035	432.38
264.267	417.38
264.499	409.38
264.732	410.38
264.964	424.38
265.197	408.38
265.429	431.38
265.661	417.38
265.894	423.38
266.126	431.38
266.358	418.38
266.591	427.38
266.823	448.38
267.055	428.38
267.287	433.38
267.52	461.38
267.752	443.38
267.984	433.38
268.216	453.38
268.448	442.38
268.681	450.38
268.913	467.38
269.145	467.38
269.377	434.38
269.609	433.38
269.841	463.38
270.073	452.38
270.306	468.38
270.538	464.38
270.77	458.38
271.002	463.38
271.234	470.38
271.466	479.38
271.698	457.38
271.93	482.38
272.162	498.38
272.394	495.38
272.626	496.38
272.858	467.38
273.09	472.38
273.322	509.38
273.553	485.38
273.785	511.38
274.017	516.38
274.249	540.38
274.481	523.38
274.713	499.38
274.945	497.38
275.176	485.38
275.408	507.38
275.64	535.38
275.872	495.38
276.104	501.38
276.335	511.38
276.567	503.38
276.799	522.38
277.031	524.38
277.262	546.38
277.494	544.38
277.726	530.38
277.957	553.38
278.189	539.38
278.421	548.38
278.652	536.38
278.884	566.38
279.115	519.38
279.347	554.38
279.579	544.38
279.81	535.38
280.042	553.38
280.273	559.38
280.505	569.38
280.736	576.38
280.968	557.38
281.199	563.38
281.431	571.38
281.662	577.38
281.894	568.38
282.125	592.38
282.356	594.38
282.588	568.38
282.819	577.38
283.051	596.38
283.282	570.38
283.513	574.38
283.745	589.38
283.976	593.38
284.207	586.38
284.439	587.38
284.67	598.38
284.901	612.38
285.132	607.38
285.364	618.38
285.595	619.38
285.826	589.38
286.057	598.38
286.288	604.38
286.52	609.38
286.751	623.38
286.982	623.38
287.213	631.38
287.444	641.38
287.675	641.38
287.906	638.38
288.138	640.38
288.369	629.38
288.6	663.38
288.831	633.38
289.062	620.38
289.293	637.38
289.524	639.38
289.755	636.38
289.986	631.38
290.217	644.38
290.448	636.38
290.679	657.38
290.91	641.38
291.141	613.38
291.371	673.38
291.602	642.38
291.833	647.38
292.064	673.38
292.295	631.38
292.526	643.38
292.757	642.38
292.987	646.38
293.218	608.38
293.449	653.38
293.68	639.38
293.91	649.38
294.141	662.38
294.372	631.38
294.603	663.38
294.833	673.38
295.064	667.38
295.295	680.38
295.525	692.38
295.756	685.38
295.987	671.38
296.217	670.38
296.448	670.38
296.679	691.38
296.909	674.38
297.14	677.38
297.37	693.38
297.601	703.38
297.831	708.38
298.062	695.38
298.292	730.38
298.523	709.38
298.753	709.38
298.984	746.38
299.214	726.38
299.445	712.38
299.675	712.38
299.905	712.38
300.136	736.38
300.366	743.38
300.597	779.38
300.827	756.38
301.057	738.38
301.288	756.38
301.518	716.38
301.748	759.38
301.979	761.38
302.209	718.38
302.439	744.38
302.669	720.38
302.9	742.38
303.13	731.38
303.36	753.38
303.59	762.38
303.82	789.38
304.051	756.38
304.281	773.38
304.511	767.38
304.741	768.38
304.971	742.38
305.201	777.38
305.431	781.38
305.661	755.38
305.891	779.38
306.121	761.38
306.352	747.38
306.582	737.38
306.812	737.38
307.042	756.38
307.272	742.38
307.502	724.38
307.731	747.38
307.961	749.38
308.191	767.38
308.421	731.38
308.651	738.38
308.881	728.38
309.111	762.38
309.341	708.38
309.571	765.38
309.8	757.38
310.03	771.38
310.26	772.38
310.49	811.38
310.72	762.38
310.949	748.38
311.179	748.38
311.409	766.38
311.639	773.38
311.868	764.38
312.098	754.38
312.328	781.38
312.557	795.38
312.787	781.38
313.017	786.38
313.246	798.38
313.476	789.38
313.706	797.38
313.935	795.38
314.165	821.38
314.394	777.38
314.624	791.38
314.853	803.38
315.083	818.38
315.312	797.38
315.542	805.38
315.771	782.38
316.001	800.38
316.23	767.38
316.46	803.38
316.689	795.38
316.919	785.38
317.148	794.38
317.377	808.38
317.607	810.38
317.836	821.38
318.065	827.38
318.295	790.38
318.524	791.38
318.753	798.38
318.983	793.38
319.212	800.38
319.441	821.38
319.67	798.38
319.9	783.38
320.129	805.38
320.358	800.38
320.587	781.38
320.816	822.38
321.046	804.38
321.275	819.38
321.504	806.38
321.733	817.38
321.962	797.38
322.191	797.38
322.42	816.38
322.649	828.38
322.878	812.38
323.108	796.38
323.337	860.38
323.566	848.38
323.795	809.38
324.024	821.38
324.253	824.38
324.482	813.38
324.71	838.38
324.939	846.38
325.168	857.38
325.397	841.38
325.626	848.38
325.855	858.38
326.084	872.38
326.313	861.38
326.542	881.38
326.77	903.38
326.999	866.38
327.228	855.38
327.457	881.38
327.686	853.38
327.914	874.38
328.143	865.38
328.372	873.38
328.6	870.38
328.829	897.38
329.058	886.38
329.287	890.38
329.515	854.38
329.744	880.38
329.972	868.38
330.201	861.38
330.43	893.38
330.658	891.38
330.887	904.38
331.115	897.38
331.344	939.38
331.572	909.38
331.801	926.38
332.03	924.38
332.258	933.38
332.486	923.38
332.715	981.38
332.943	1011.38
333.172	1004.38
333.4	1051.38
333.629	1051.38
333.857	1039.38
334.085	1082.38
334.314	1066.38
334.542	1088.38
334.771	1092.38
334.999	1087.38
335.227	1088.38
335.455	1087.38
335.684	1074.38
335.912	1095.38
336.14	1084.38
336.369	1108.38
336.597	1102.38
336.825	1074.38
337.053	1075.38
337.281	1067.38
337.51	1041.38
337.738	1043.38
337.966	1003.38
338.194	990.38
338.422	1023.38
338.65	979.38
338.878	973.38
339.106	978.38
339.334	948.38
339.562	979.38
339.79	956.38
340.018	922.38
340.246	926.38
340.474	923.38
340.702	917.38
340.93	922.38
341.158	920.38
341.386	961.38
341.614	1017.38
341.842	990.38
342.07	918.38
342.298	913.38
342.526	937.38
342.754	940.38
342.981	918.38
343.209	937.38
343.437	951.38
343.665	1034.38
343.893	1054.38
344.12	1084.38
344.348	1035.38
344.576	1045.38
344.804	1042.38
345.031	974.38
345.259	958.38
345.487	952.38
345.714	932.38
345.942	946.38
346.17	969.38
346.397	952.38
346.625	939.38
346.853	876.38
347.08	873.38
347.308	880.38
347.535	925.38
347.763	918.38
347.99	893.38
348.218	892.38
348.445	904.38
348.673	881.38
348.9	891.38
349.128	895.38
349.355	903.38
349.583	901.38
349.81	870.38
350.037	840.38
350.265	881.38
350.492	856.38
350.72	835.38
350.947	868.38
351.174	864.38
351.402	931.38
351.629	898.38
351.856	908.38
352.083	859.38
352.311	881.38
352.538	907.38
352.765	914.38
352.992	853.38
353.22	851.38
353.447	818.38
353.674	816.38
353.901	816.38
354.128	833.38
354.355	824.38
354.583	808.38
354.81	819.38
355.037	841.38
355.264	816.38
355.491	832.38
355.718	844.38
355.945	863.38
356.172	851.38
356.399	846.38
356.626	852.38
356.853	875.38
357.08	879.38
357.307	838.38
357.534	867.38
357.761	839.38
357.988	844.38
358.215	825.38
358.441	810.38
358.668	826.38
358.895	818.38
359.122	811.38
359.349	815.38
359.576	827.38
359.802	860.38
360.029	839.38
360.256	844.38
360.483	849.38
360.709	836.38
360.936	845.38
361.163	848.38
361.39	836.38
361.616	828.38
361.843	824.38
362.07	897.38
362.296	885.38
362.523	817.38
362.749	830.38
362.976	812.38
363.203	844.38
363.429	809.38
363.656	812.38
363.882	807.38
364.109	841.38
364.335	812.38
364.562	832.38
364.788	815.38
365.015	839.38
365.241	817.38
365.468	817.38
365.694	829.38
365.92	818.38
366.147	811.38
366.373	834.38
366.599	836.38
366.826	807.38
367.052	809.38
367.278	828.38
367.505	806.38
367.731	817.38
367.957	837.38
368.184	826.38
368.41	844.38
368.636	850.38
368.862	842.38
369.089	829.38
369.315	833.38
369.541	851.38
369.767	849.38
369.993	848.38
370.219	839.38
370.445	891.38
370.672	876.38
370.898	845.38
371.124	883.38
371.35	901.38
371.576	894.38
371.802	875.38
372.028	887.38
372.254	871.38
372.48	893.38
372.706	892.38
372.932	895.38
373.158	896.38
373.384	873.38
373.61	887.38
373.835	892.38
374.061	870.38
374.287	860.38
374.513	881.38
374.739	922.38
374.965	919.38
375.191	932.38
375.416	930.38
375.642	932.38
375.868	919.38
376.094	904.38
376.319	896.38
376.545	896.38
376.771	869.38
376.997	873.38
377.222	877.38
377.448	873.38
377.674	883.38
377.899	899.38
378.125	855.38
378.35	866.38
378.576	871.38
378.802	851.38
379.027	854.38
379.253	842.38
379.478	871.38
379.704	877.38
379.929	865.38
380.155	844.38
380.38	873.38
380.606	865.38
380.831	851.38
381.057	857.38
381.282	830.38
381.507	868.38
381.733	881.38
381.958	883.38
382.184	900.38
382.409	897.38
382.634	895.38
382.86	877.38
383.085	908.38
383.31	913.38
383.535	919.38
383.761	920.38
383.986	932.38
384.211	928.38
384.436	954.38
384.662	973.38
384.887	979.38
385.112	963.38
385.337	1005.38
385.562	1012.38
385.787	1015.38
386.013	1016.38
386.238	1024.38
386.463	997.38
386.688	1032.38
386.913	1017.38
387.138	996.38
387.363	1010.38
387.588	990.38
387.813	1031.38
388.038	1020.38
388.263	1022.38
388.488	1027.38
388.713	993.38
388.938	1000.38
389.163	999.38
389.387	1024.38
389.612	971.38
389.837	1013.38
390.062	1000.38
390.287	1005.38
390.512	1014.38
390.736	1012.38
390.961	1035.38
391.186	1046.38
391.411	1062.38
391.636	1080.38
391.86	1121.38
392.085	1131.38
392.31	1113.38
392.534	1083.38
392.759	1089.38
392.984	1085.38
393.208	1081.38
393.433	1100.38
393.658	1129.38
393.882	1071.38
394.107	1091.38
394.331	1084.38
394.556	1084.38
394.78	1076.38
395.005	1115.38
395.229	1073.38
395.454	1109.38
395.678	1164.38
395.903	1137.38
396.127	1124.38
396.352	1090.38
396.576	1056.38
396.801	1087.38
397.025	1118.38
397.249	1145.38
397.474	1180.38
397.698	1139.38
397.922	1144.38
398.147	1174.38
398.371	1210.38
398.595	1183.38
398.82	1274.38
399.044	1340.38
399.268	1371.38
399.492	1476.38
399.717	1597.38
399.941	1667.38
400.165	1541.38
400.389	1478.38
400.613	1417.38
400.837	1362.38
401.062	1349.38
401.286	1336.38
401.51	1251.38
401.734	1278.38
401.958	1233.38
402.182	1284.38
402.406	1291.38
402.63	1287.38
402.854	1308.38
403.078	1316.38
403.302	1291.38
403.526	1318.38
403.75	1347.38
403.974	1349.38
404.198	1349.38
404.422	1339.38
404.645	1325.38
404.869	1343.38
405.093	1327.38
405.317	1350.38
405.541	1347.38
405.765	1370.38
405.988	1325.38
406.212	1362.38
406.436	1378.38
406.66	1398.38
406.883	1414.38
407.107	1477.38
407.331	1453.38
407.555	1539.38
407.778	1514.38
408.002	1558.38
408.226	1511.38
408.449	1519.38
408.673	1420.38
408.896	1439.38
409.12	1449.38
409.344	1437.38
409.567	1410.38
409.791	1377.38
410.014	1382.38
410.238	1375.38
410.461	1408.38
410.685	1378.38
410.908	1351.38
411.132	1361.38
411.355	1283.38
411.578	1312.38
411.802	1299.38
412.025	1331.38
412.249	1328.38
412.472	1333.38
412.695	1315.38
412.919	1299.38
413.142	1279.38
413.365	1277.38
413.589	1272.38
413.812	1287.38
414.035	1248.38
414.258	1288.38
414.482	1311.38
414.705	1292.38
414.928	1281.38
415.151	1286.38
415.374	1315.38
415.597	1256.38
415.821	1255.38
416.044	1254.38
416.267	1239.38
416.49	1236.38
416.713	1236.38
416.936	1291.38
417.159	1233.38
417.382	1239.38
417.605	1216.38
417.828	1247.38
418.051	1232.38
418.274	1259.38
418.497	1232.38
418.72	1279.38
418.943	1237.38
419.166	1348.38
419.389	1410.38
419.611	1392.38
419.834	1371.38
420.057	1322.38
420.28	1292.38
420.503	1232.38
420.726	1202.38
420.948	1221.38
421.171	1234.38
421.394	1227.38
421.617	1220.38
421.839	1268.38
422.062	1264.38
422.285	1224.38
422.507	1257.38
422.73	1261.38
422.953	1248.38
423.175	1289.38
423.398	1260.38
423.621	1257.38
423.843	1267.38
424.066	1286.38
424.288	1263.38
424.511	1253.38
424.733	1263.38
424.956	1237.38
425.178	1267.38
425.401	1246.38
425.623	1271.38
425.846	1237.38
426.068	1237.38
426.291	1215.38
426.513	1237.38
426.735	1234.38
426.958	1203.38
427.18	1210.38
427.402	1211.38
427.625	1198.38
427.847	1185.38
428.069	1167.38
428.292	1226.38
428.514	1203.38
428.736	1163.38
428.958	1213.38
429.181	1161.38
429.403	1147.38
429.625	1162.38
429.847	1137.38
430.069	1173.38
430.292	1173.38
430.514	1144.38
430.736	1180.38
430.958	1149.38
431.18	1153.38
431.402	1153.38
431.624	1163.38
431.846	1172.38
432.068	1165.38
432.29	1203.38
432.512	1146.38
432.734	1188.38
432.956	1153.38
433.178	1192.38
433.4	1202.38
433.622	1238.38
433.844	1184.38
434.066	1175.38
434.287	1198.38
434.509	1229.38
434.731	1260.38
434.953	1282.38
435.175	1299.38
435.397	1299.38
435.618	1225.38
435.84	1197.38
436.062	1194.38
436.284	1203.38
436.505	1201.38
436.727	1196.38
436.949	1164.38
437.17	1183.38
437.392	1164.38
437.614	1151.38
437.835	1125.38
438.057	1137.38
438.278	1097.38
438.5	1115.38
438.721	1165.38
438.943	1163.38
439.165	1175.38
439.386	1157.38
439.608	1184.38
439.829	1173.38
440.05	1159.38
440.272	1178.38
440.493	1189.38
440.715	1198.38
440.936	1217.38
441.158	1225.38
441.379	1226.38
441.6	1307.38
441.822	1302.38
442.043	1300.38
442.264	1264.38
442.486	1267.38
442.707	1252.38
442.928	1271.38
443.149	1266.38
443.371	1279.38
443.592	1313.38
443.813	1291.38
444.034	1316.38
444.255	1320.38
444.476	1378.38
444.698	1411.38
444.919	1431.38
445.14	1516.38
445.361	1433.38
445.582	1357.38
445.803	1326.38
446.024	1269.38
446.245	1243.38
446.466	1247.38
446.687	1229.38
446.908	1183.38
447.129	1172.38
447.35	1169.38
447.571	1193.38
447.792	1148.38
448.013	1143.38
448.234	1097.38
448.455	1136.38
448.675	1110.38
448.896	1101.38
449.117	1088.38
449.338	1101.38
449.559	1081.38
449.779	1088.38
450	1079.38
450.221	1088.38
450.442	1103.38
450.662	1123.38
450.883	1131.38
451.104	1125.38
451.324	1113.38
451.545	1104.38
451.766	1110.38
451.986	1085.38
452.207	1059.38
452.428	1064.38
452.648	1076.38
452.869	1051.38
453.089	1057.38
453.31	1067.38
453.53	1042.38
453.751	1042.38
453.971	1059.38
454.192	1097.38
454.412	1056.38
454.633	1052.38
454.853	1037.38
455.073	1023.38
455.294	1052.38
455.514	1025.38
455.734	1073.38
455.955	1015.38
456.175	1074.38
456.395	1026.38
456.616	1003.38
456.836	1011.38
457.056	1041.38
457.276	1031.38
457.497	1048.38
457.717	1052.38
457.937	1047.38
458.157	1065.38
458.377	1079.38
458.598	1109.38
458.818	1088.38
459.038	1104.38
459.258	1162.38
459.478	1217.38
459.698	1255.38
459.918	1273.38
460.138	1285.38
460.358	1341.38
460.578	1346.38
460.798	1373.38
461.018	1392.38
461.238	1367.38
461.458	1365.38
461.678	1344.38
461.898	1410.38
462.118	1366.38
462.338	1425.38
462.558	1460.38
462.777	1509.38
462.997	1563.38
463.217	1647.38
463.437	1700.38
463.657	1622.38
463.876	1553.38
464.096	1602.38
464.316	1554.38
464.536	1545.38
464.755	1475.38
464.975	1448.38
465.195	1411.38
465.414	1342.38
465.634	1293.38
465.854	1234.38
466.073	1233.38
466.293	1205.38
466.512	1192.38
466.732	1182.38
466.951	1193.38
467.171	1174.38
467.391	1165.38
467.61	1156.38
467.829	1151.38
468.049	1143.38
468.268	1125.38
468.488	1107.38
468.707	1107.38
468.927	1096.38
469.146	1124.38
469.365	1118.38
469.585	1146.38
469.804	1146.38
470.023	1174.38
470.243	1177.38
470.462	1166.38
470.681	1186.38
470.901	1165.38
471.12	1172.38
471.339	1152.38
471.558	1164.38
471.777	1170.38
471.997	1133.38
472.216	1098.38
472.435	1122.38
472.654	1108.38
472.873	1133.38
473.092	1108.38
473.311	1110.38
473.53	1094.38
473.749	1104.38
473.968	1105.38
474.187	1113.38
474.406	1114.38
474.625	1107.38
474.844	1136.38
475.063	1119.38
475.282	1129.38
475.501	1139.38
475.72	1143.38
475.939	1157.38
476.158	1146.38
476.377	1142.38
476.596	1161.38
476.814	1180.38
477.033	1188.38
477.252	1184.38
477.471	1211.38
477.69	1219.38
477.908	1270.38
478.127	1301.38
478.346	1278.38
478.564	1331.38
478.783	1292.38
479.002	1380.38
479.22	1380.38
479.439	1379.38
479.658	1369.38
479.876	1409.38
480.095	1361.38
480.313	1392.38
480.532	1409.38
480.751	1436.38
480.969	1369.38
481.188	1324.38
481.406	1339.38
481.624	1335.38
481.843	1298.38
482.061	1305.38
482.28	1271.38
482.498	1312.38
482.717	1276.38
482.935	1296.38
483.153	1293.38
483.372	1337.38
483.59	1362.38
483.808	1295.38
484.027	1246.38
484.245	1306.38
484.463	1325.38
484.681	1329.38
484.9	1340.38
485.118	1319.38
485.336	1331.38
485.554	1339.38
485.772	1376.38
485.99	1342.38
486.209	1336.38
486.427	1357.38
486.645	1354.38
486.863	1365.38
487.081	1349.38
487.299	1338.38
487.517	1363.38
487.735	1344.38
487.953	1355.38
488.171	1348.38
488.389	1323.38
488.607	1327.38
488.825	1358.38
489.043	1353.38
489.261	1358.38
489.479	1347.38
489.696	1332.38
489.914	1349.38
490.132	1324.38
490.35	1333.38
490.568	1359.38
490.786	1369.38
491.003	1365.38
491.221	1367.38
491.439	1397.38
491.657	1400.38
491.874	1379.38
492.092	1390.38
492.31	1389.38
492.527	1393.38
492.745	1401.38
492.963	1382.38
493.18	1431.38
493.398	1395.38
493.615	1404.38
493.833	1415.38
494.05	1463.38
494.268	1435.38
494.485	1417.38
