Data from NiCl2@0.25M.TitratingCurve.Agarose3%dH2O.NegLispCup.LampEnergy10.LIBS07252019_HRD10591_18-25-58-573.txt Node
Date: Thu Jul 25 18:25:58 EDT 2019
User: cochatt
Spectrometer: HR+D1059
Trigger mode: 1
Integration Time (sec): 1.000000E-1
Scans to average: 1
Electric dark correction enabled: true
Nonlinearity correction enabled: false
Boxcar width: 0
XAxis mode: Wavelengths
Number of Pixels in Spectrum: 2048
>>>>>Begin Spectral Data<<<<<
223.165	-13.94
223.4	-13.94
223.635	-13.94
223.869	-19.94
224.104	-25.94
224.338	0.06
224.573	-17.94
224.808	-13.94
225.042	-23.94
225.277	-15.94
225.511	-12.94
225.746	14.06
225.98	6.06
226.215	12.06
226.449	19.06
226.683	20.06
226.918	36.06
227.152	37.06
227.387	28.06
227.621	39.06
227.856	45.06
228.09	36.06
228.324	52.06
228.559	58.06
228.793	71.06
229.027	114.06
229.262	121.06
229.496	118.06
229.73	129.06
229.964	151.06
230.199	146.06
230.433	145.06
230.667	147.06
230.901	175.06
231.136	150.06
231.37	161.06
231.604	159.06
231.838	177.06
232.072	181.06
232.306	185.06
232.541	178.06
232.775	174.06
233.009	163.06
233.243	164.06
233.477	181.06
233.711	163.06
233.945	174.06
234.179	195.06
234.413	178.06
234.647	178.06
234.881	180.06
235.115	176.06
235.349	180.06
235.583	184.06
235.817	166.06
236.051	196.06
236.285	201.06
236.519	189.06
236.753	190.06
236.987	216.06
237.221	194.06
237.455	204.06
237.689	211.06
237.922	209.06
238.156	200.06
238.39	181.06
238.624	206.06
238.858	202.06
239.091	190.06
239.325	207.06
239.559	213.06
239.793	217.06
240.027	234.06
240.26	214.06
240.494	217.06
240.728	212.06
240.961	229.06
241.195	230.06
241.429	217.06
241.662	230.06
241.896	250.06
242.13	246.06
242.363	243.06
242.597	238.06
242.83	236.06
243.064	258.06
243.298	255.06
243.531	243.06
243.765	249.06
243.998	273.06
244.232	256.06
244.465	281.06
244.699	263.06
244.932	260.06
245.166	267.06
245.399	270.06
245.633	272.06
245.866	286.06
246.099	285.06
246.333	284.06
246.566	290.06
246.8	269.06
247.033	291.06
247.266	271.06
247.5	276.06
247.733	297.06
247.966	289.06
248.2	296.06
248.433	294.06
248.666	305.06
248.899	301.06
249.133	309.06
249.366	312.06
249.599	312.06
249.832	316.06
250.066	325.06
250.299	323.06
250.532	298.06
250.765	319.06
250.998	310.06
251.231	326.06
251.465	339.06
251.698	327.06
251.931	328.06
252.164	323.06
252.397	364.06
252.63	346.06
252.863	346.06
253.096	338.06
253.329	345.06
253.562	341.06
253.795	350.06
254.028	340.06
254.261	344.06
254.494	366.06
254.727	379.06
254.96	369.06
255.193	376.06
255.426	383.06
255.659	347.06
255.892	381.06
256.124	358.06
256.357	378.06
256.59	375.06
256.823	382.06
257.056	400.06
257.289	377.06
257.521	404.06
257.754	390.06
257.987	385.06
258.22	376.06
258.452	385.06
258.685	385.06
258.918	399.06
259.151	390.06
259.383	401.06
259.616	392.06
259.849	403.06
260.081	406.06
260.314	403.06
260.547	392.06
260.779	428.06
261.012	430.06
261.244	421.06
261.477	435.06
261.71	418.06
261.942	419.06
262.175	434.06
262.407	412.06
262.64	408.06
262.872	435.06
263.105	447.06
263.337	420.06
263.57	413.06
263.802	451.06
264.035	437.06
264.267	433.06
264.499	455.06
264.732	446.06
264.964	456.06
265.197	459.06
265.429	483.06
265.661	451.06
265.894	452.06
266.126	453.06
266.358	458.06
266.591	456.06
266.823	479.06
267.055	484.06
267.287	474.06
267.52	471.06
267.752	480.06
267.984	471.06
268.216	498.06
268.448	473.06
268.681	482.06
268.913	468.06
269.145	487.06
269.377	477.06
269.609	487.06
269.841	493.06
270.073	489.06
270.306	500.06
270.538	497.06
270.77	500.06
271.002	480.06
271.234	513.06
271.466	520.06
271.698	498.06
271.93	513.06
272.162	525.06
272.394	522.06
272.626	487.06
272.858	489.06
273.09	513.06
273.322	541.06
273.553	522.06
273.785	523.06
274.017	529.06
274.249	518.06
274.481	555.06
274.713	527.06
274.945	537.06
275.176	561.06
275.408	552.06
275.64	531.06
275.872	563.06
276.104	551.06
276.335	530.06
276.567	565.06
276.799	561.06
277.031	582.06
277.262	535.06
277.494	568.06
277.726	573.06
277.957	579.06
278.189	559.06
278.421	561.06
278.652	591.06
278.884	581.06
279.115	566.06
279.347	567.06
279.579	599.06
279.81	588.06
280.042	585.06
280.273	608.06
280.505	617.06
280.736	622.06
280.968	601.06
281.199	591.06
281.431	623.06
281.662	613.06
281.894	591.06
282.125	613.06
282.356	617.06
282.588	614.06
282.819	615.06
283.051	631.06
283.282	624.06
283.513	643.06
283.745	629.06
283.976	634.06
284.207	630.06
284.439	633.06
284.67	647.06
284.901	624.06
285.132	646.06
285.364	637.06
285.595	637.06
285.826	634.06
286.057	642.06
286.288	659.06
286.52	644.06
286.751	637.06
286.982	667.06
287.213	654.06
287.444	658.06
287.675	651.06
287.906	693.06
288.138	665.06
288.369	662.06
288.6	691.06
288.831	662.06
289.062	669.06
289.293	672.06
289.524	664.06
289.755	669.06
289.986	709.06
290.217	679.06
290.448	694.06
290.679	685.06
290.91	694.06
291.141	708.06
291.371	714.06
291.602	717.06
291.833	687.06
292.064	686.06
292.295	698.06
292.526	684.06
292.757	701.06
292.987	682.06
293.218	675.06
293.449	690.06
293.68	689.06
293.91	680.06
294.141	712.06
294.372	693.06
294.603	694.06
294.833	721.06
295.064	690.06
295.295	703.06
295.525	718.06
295.756	723.06
295.987	712.06
296.217	715.06
296.448	709.06
296.679	710.06
296.909	752.06
297.14	731.06
297.37	736.06
297.601	737.06
297.831	754.06
298.062	761.06
298.292	754.06
298.523	769.06
298.753	777.06
298.984	744.06
299.214	745.06
299.445	775.06
299.675	752.06
299.905	791.06
300.136	754.06
300.366	794.06
300.597	781.06
300.827	769.06
301.057	775.06
301.288	810.06
301.518	793.06
301.748	791.06
301.979	815.06
302.209	794.06
302.439	813.06
302.669	797.06
302.9	809.06
303.13	799.06
303.36	799.06
303.59	826.06
303.82	799.06
304.051	792.06
304.281	797.06
304.511	795.06
304.741	822.06
304.971	795.06
305.201	799.06
305.431	768.06
305.661	805.06
305.891	783.06
306.121	771.06
306.352	760.06
306.582	779.06
306.812	798.06
307.042	783.06
307.272	794.06
307.502	767.06
307.731	771.06
307.961	778.06
308.191	785.06
308.421	763.06
308.651	767.06
308.881	760.06
309.111	793.06
309.341	763.06
309.571	797.06
309.8	803.06
310.03	773.06
310.26	782.06
310.49	788.06
310.72	794.06
310.949	777.06
311.179	792.06
311.409	797.06
311.639	757.06
311.868	779.06
312.098	804.06
312.328	804.06
312.557	810.06
312.787	797.06
313.017	805.06
313.246	827.06
313.476	819.06
313.706	822.06
313.935	825.06
314.165	817.06
314.394	842.06
314.624	841.06
314.853	816.06
315.083	851.06
315.312	840.06
315.542	816.06
315.771	827.06
316.001	813.06
316.23	819.06
316.46	828.06
316.689	808.06
316.919	851.06
317.148	819.06
317.377	848.06
317.607	831.06
317.836	833.06
318.065	825.06
318.295	803.06
318.524	826.06
318.753	805.06
318.983	825.06
319.212	789.06
319.441	803.06
319.67	826.06
319.9	794.06
320.129	823.06
320.358	807.06
320.587	814.06
320.816	808.06
321.046	811.06
321.275	818.06
321.504	810.06
321.733	830.06
321.962	847.06
322.191	828.06
322.42	785.06
322.649	830.06
322.878	851.06
323.108	835.06
323.337	848.06
323.566	829.06
323.795	837.06
324.024	850.06
324.253	815.06
324.482	857.06
324.71	831.06
324.939	872.06
325.168	837.06
325.397	860.06
325.626	841.06
325.855	864.06
326.084	867.06
326.313	893.06
326.542	889.06
326.77	913.06
326.999	880.06
327.228	885.06
327.457	885.06
327.686	865.06
327.914	892.06
328.143	890.06
328.372	866.06
328.6	883.06
328.829	882.06
329.058	889.06
329.287	877.06
329.515	909.06
329.744	906.06
329.972	894.06
330.201	908.06
330.43	930.06
330.658	914.06
330.887	927.06
331.115	899.06
331.344	955.06
331.572	952.06
331.801	942.06
332.03	975.06
332.258	1004.06
332.486	1040.06
332.715	1047.06
332.943	1108.06
333.172	1108.06
333.4	1114.06
333.629	1145.06
333.857	1185.06
334.085	1197.06
334.314	1203.06
334.542	1203.06
334.771	1189.06
334.999	1171.06
335.227	1167.06
335.455	1174.06
335.684	1150.06
335.912	1146.06
336.14	1122.06
336.369	1100.06
336.597	1113.06
336.825	1117.06
337.053	1096.06
337.281	1077.06
337.51	1044.06
337.738	1009.06
337.966	1024.06
338.194	983.06
338.422	994.06
338.65	971.06
338.878	977.06
339.106	972.06
339.334	984.06
339.562	985.06
339.79	949.06
340.018	948.06
340.246	955.06
340.474	932.06
340.702	935.06
340.93	947.06
341.158	930.06
341.386	950.06
341.614	952.06
341.842	924.06
342.07	941.06
342.298	916.06
342.526	906.06
342.754	910.06
342.981	948.06
343.209	955.06
343.437	991.06
343.665	1018.06
343.893	1134.06
344.12	1139.06
344.348	1120.06
344.576	1087.06
344.804	1039.06
345.031	977.06
345.259	978.06
345.487	972.06
345.714	969.06
345.942	905.06
346.17	915.06
346.397	934.06
346.625	924.06
346.853	902.06
347.08	887.06
347.308	912.06
347.535	893.06
347.763	911.06
347.99	925.06
348.218	924.06
348.445	907.06
348.673	895.06
348.9	907.06
349.128	906.06
349.355	890.06
349.583	896.06
349.81	887.06
350.037	873.06
350.265	870.06
350.492	877.06
350.72	854.06
350.947	862.06
351.174	871.06
351.402	894.06
351.629	874.06
351.856	871.06
352.083	863.06
352.311	843.06
352.538	855.06
352.765	847.06
352.992	864.06
353.22	862.06
353.447	873.06
353.674	861.06
353.901	866.06
354.128	855.06
354.355	847.06
354.583	878.06
354.81	838.06
355.037	887.06
355.264	891.06
355.491	885.06
355.718	875.06
355.945	881.06
356.172	865.06
356.399	853.06
356.626	858.06
356.853	887.06
357.08	874.06
357.307	888.06
357.534	879.06
357.761	868.06
357.988	870.06
358.215	865.06
358.441	871.06
358.668	860.06
358.895	867.06
359.122	882.06
359.349	872.06
359.576	855.06
359.802	867.06
360.029	871.06
360.256	860.06
360.483	865.06
360.709	855.06
360.936	871.06
361.163	836.06
361.39	842.06
361.616	868.06
361.843	881.06
362.07	885.06
362.296	878.06
362.523	882.06
362.749	859.06
362.976	854.06
363.203	858.06
363.429	866.06
363.656	878.06
363.882	844.06
364.109	872.06
364.335	884.06
364.562	859.06
364.788	879.06
365.015	854.06
365.241	847.06
365.468	881.06
365.694	873.06
365.92	857.06
366.147	842.06
366.373	854.06
366.599	868.06
366.826	886.06
367.052	847.06
367.278	870.06
367.505	868.06
367.731	895.06
367.957	849.06
368.184	872.06
368.41	873.06
368.636	869.06
368.862	893.06
369.089	893.06
369.315	898.06
369.541	910.06
369.767	905.06
369.993	888.06
370.219	917.06
370.445	906.06
370.672	921.06
370.898	904.06
371.124	930.06
371.35	945.06
371.576	969.06
371.802	931.06
372.028	933.06
372.254	942.06
372.48	945.06
372.706	998.06
372.932	980.06
373.158	939.06
373.384	955.06
373.61	978.06
373.835	929.06
374.061	932.06
374.287	959.06
374.513	969.06
374.739	1014.06
374.965	1028.06
375.191	1037.06
375.416	1060.06
375.642	1008.06
375.868	999.06
376.094	975.06
376.319	979.06
376.545	970.06
376.771	933.06
376.997	947.06
377.222	943.06
377.448	967.06
377.674	936.06
377.899	944.06
378.125	920.06
378.35	933.06
378.576	922.06
378.802	914.06
379.027	957.06
379.253	930.06
379.478	974.06
379.704	929.06
379.929	927.06
380.155	945.06
380.38	931.06
380.606	942.06
380.831	952.06
381.057	954.06
381.282	942.06
381.507	952.06
381.733	960.06
381.958	955.06
382.184	952.06
382.409	983.06
382.634	994.06
382.86	967.06
383.085	1002.06
383.31	1039.06
383.535	999.06
383.761	1057.06
383.986	1061.06
384.211	1035.06
384.436	1091.06
384.662	1079.06
384.887	1098.06
385.112	1104.06
385.337	1122.06
385.562	1157.06
385.787	1135.06
386.013	1169.06
386.238	1154.06
386.463	1191.06
386.688	1166.06
386.913	1138.06
387.138	1149.06
387.363	1154.06
387.588	1147.06
387.813	1196.06
388.038	1139.06
388.263	1167.06
388.488	1177.06
388.713	1125.06
388.938	1159.06
389.163	1153.06
389.387	1121.06
389.612	1119.06
389.837	1139.06
390.062	1143.06
390.287	1150.06
390.512	1120.06
390.736	1161.06
390.961	1151.06
391.186	1181.06
391.411	1230.06
391.636	1226.06
391.86	1256.06
392.085	1301.06
392.31	1296.06
392.534	1278.06
392.759	1261.06
392.984	1237.06
393.208	1268.06
393.433	1249.06
393.658	1236.06
393.882	1231.06
394.107	1195.06
394.331	1255.06
394.556	1240.06
394.78	1241.06
395.005	1233.06
395.229	1248.06
395.454	1306.06
395.678	1301.06
395.903	1319.06
396.127	1283.06
396.352	1244.06
396.576	1256.06
396.801	1244.06
397.025	1265.06
397.249	1248.06
397.474	1316.06
397.698	1335.06
397.922	1359.06
398.147	1353.06
398.371	1352.06
398.595	1377.06
398.82	1455.06
399.044	1555.06
399.268	1693.06
399.492	1900.06
399.717	2058.06
399.941	2129.06
400.165	1995.06
400.389	1805.06
400.613	1687.06
400.837	1618.06
401.062	1552.06
401.286	1498.06
401.51	1514.06
401.734	1499.06
401.958	1505.06
402.182	1489.06
402.406	1506.06
402.63	1478.06
402.854	1540.06
403.078	1531.06
403.302	1583.06
403.526	1615.06
403.75	1593.06
403.974	1650.06
404.198	1640.06
404.422	1629.06
404.645	1579.06
404.869	1604.06
405.093	1618.06
405.317	1600.06
405.541	1626.06
405.765	1649.06
405.988	1636.06
406.212	1621.06
406.436	1628.06
406.66	1656.06
406.883	1712.06
407.107	1751.06
407.331	1806.06
407.555	1870.06
407.778	1883.06
408.002	1839.06
408.226	1797.06
408.449	1783.06
408.673	1712.06
408.896	1646.06
409.12	1678.06
409.344	1696.06
409.567	1681.06
409.791	1656.06
410.014	1641.06
410.238	1653.06
410.461	1635.06
410.685	1631.06
410.908	1559.06
411.132	1581.06
411.355	1519.06
411.578	1517.06
411.802	1502.06
412.025	1556.06
412.249	1543.06
412.472	1514.06
412.695	1524.06
412.919	1474.06
413.142	1515.06
413.365	1459.06
413.589	1448.06
413.812	1441.06
414.035	1419.06
414.258	1465.06
414.482	1457.06
414.705	1512.06
414.928	1491.06
415.151	1506.06
415.374	1492.06
415.597	1448.06
415.821	1434.06
416.044	1423.06
416.267	1431.06
416.49	1403.06
416.713	1401.06
416.936	1412.06
417.159	1425.06
417.382	1414.06
417.605	1371.06
417.828	1407.06
418.051	1412.06
418.274	1399.06
418.497	1414.06
418.72	1510.06
418.943	1459.06
419.166	1584.06
419.389	1674.06
419.611	1629.06
419.834	1577.06
420.057	1509.06
420.28	1482.06
420.503	1421.06
420.726	1434.06
420.948	1377.06
421.171	1415.06
421.394	1429.06
421.617	1408.06
421.839	1407.06
422.062	1411.06
422.285	1399.06
422.507	1441.06
422.73	1465.06
422.953	1462.06
423.175	1442.06
423.398	1444.06
423.621	1458.06
423.843	1478.06
424.066	1490.06
424.288	1448.06
424.511	1446.06
424.733	1427.06
424.956	1432.06
425.178	1433.06
425.401	1406.06
425.623	1423.06
425.846	1374.06
426.068	1379.06
426.291	1390.06
426.513	1347.06
426.735	1326.06
426.958	1353.06
427.18	1325.06
427.402	1306.06
427.625	1315.06
427.847	1269.06
428.069	1313.06
428.292	1298.06
428.514	1254.06
428.736	1272.06
428.958	1300.06
429.181	1259.06
429.403	1268.06
429.625	1209.06
429.847	1253.06
430.069	1241.06
430.292	1253.06
430.514	1238.06
430.736	1280.06
430.958	1240.06
431.18	1247.06
431.402	1243.06
431.624	1269.06
431.846	1306.06
432.068	1309.06
432.29	1283.06
432.512	1269.06
432.734	1246.06
432.956	1255.06
433.178	1268.06
433.4	1293.06
433.622	1306.06
433.844	1329.06
434.066	1270.06
434.287	1309.06
434.509	1367.06
434.731	1366.06
434.953	1415.06
435.175	1373.06
435.397	1417.06
435.618	1352.06
435.84	1315.06
436.062	1269.06
436.284	1272.06
436.505	1250.06
436.727	1253.06
436.949	1249.06
437.17	1267.06
437.392	1235.06
437.614	1245.06
437.835	1218.06
438.057	1214.06
438.278	1186.06
438.5	1217.06
438.721	1249.06
438.943	1205.06
439.165	1224.06
439.386	1195.06
439.608	1230.06
439.829	1234.06
440.05	1254.06
440.272	1283.06
440.493	1260.06
440.715	1280.06
440.936	1311.06
441.158	1335.06
441.379	1349.06
441.6	1401.06
441.822	1427.06
442.043	1394.06
442.264	1411.06
442.486	1363.06
442.707	1363.06
442.928	1362.06
443.149	1381.06
443.371	1382.06
443.592	1407.06
443.813	1412.06
444.034	1415.06
444.255	1455.06
444.476	1523.06
444.698	1585.06
444.919	1625.06
445.14	1685.06
445.361	1577.06
445.582	1450.06
445.803	1378.06
446.024	1368.06
446.245	1320.06
446.466	1302.06
446.687	1261.06
446.908	1272.06
447.129	1236.06
447.35	1238.06
447.571	1221.06
447.792	1197.06
448.013	1197.06
448.234	1190.06
448.455	1163.06
448.675	1151.06
448.896	1161.06
449.117	1153.06
449.338	1151.06
449.559	1164.06
449.779	1153.06
450	1134.06
450.221	1147.06
450.442	1178.06
450.662	1165.06
450.883	1167.06
451.104	1189.06
451.324	1180.06
451.545	1165.06
451.766	1158.06
451.986	1149.06
452.207	1144.06
452.428	1133.06
452.648	1112.06
452.869	1134.06
453.089	1114.06
453.31	1118.06
453.53	1123.06
453.751	1125.06
453.971	1087.06
454.192	1118.06
454.412	1089.06
454.633	1079.06
454.853	1088.06
455.073	1106.06
455.294	1081.06
455.514	1063.06
455.734	1082.06
455.955	1095.06
456.175	1071.06
456.395	1098.06
456.616	1081.06
456.836	1053.06
457.056	1085.06
457.276	1068.06
457.497	1076.06
457.717	1090.06
457.937	1096.06
458.157	1136.06
458.377	1104.06
458.598	1143.06
458.818	1175.06
459.038	1206.06
459.258	1250.06
459.478	1313.06
459.698	1309.06
459.918	1351.06
460.138	1399.06
460.358	1447.06
460.578	1476.06
460.798	1478.06
461.018	1504.06
461.238	1485.06
461.458	1472.06
461.678	1471.06
461.898	1551.06
462.118	1531.06
462.338	1567.06
462.558	1673.06
462.777	1702.06
462.997	1809.06
463.217	1947.06
463.437	1941.06
463.657	1906.06
463.876	1821.06
464.096	1778.06
464.316	1724.06
464.536	1741.06
464.755	1691.06
464.975	1648.06
465.195	1525.06
465.414	1484.06
465.634	1367.06
465.854	1337.06
466.073	1301.06
466.293	1286.06
466.512	1237.06
466.732	1222.06
466.951	1251.06
467.171	1224.06
467.391	1249.06
467.61	1202.06
467.829	1199.06
468.049	1217.06
468.268	1160.06
468.488	1166.06
468.707	1182.06
468.927	1155.06
469.146	1161.06
469.365	1169.06
469.585	1182.06
469.804	1219.06
470.023	1244.06
470.243	1246.06
470.462	1246.06
470.681	1226.06
470.901	1228.06
471.12	1254.06
471.339	1219.06
471.558	1209.06
471.777	1197.06
471.997	1202.06
472.216	1171.06
472.435	1191.06
472.654	1153.06
472.873	1141.06
473.092	1135.06
473.311	1123.06
473.53	1146.06
473.749	1150.06
473.968	1136.06
474.187	1128.06
474.406	1165.06
474.625	1146.06
474.844	1153.06
475.063	1168.06
475.282	1123.06
475.501	1158.06
475.72	1148.06
475.939	1186.06
476.158	1145.06
476.377	1155.06
476.596	1178.06
476.814	1217.06
477.033	1216.06
477.252	1220.06
477.471	1268.06
477.69	1305.06
477.908	1315.06
478.127	1354.06
478.346	1373.06
478.564	1410.06
478.783	1410.06
479.002	1457.06
479.22	1431.06
479.439	1410.06
479.658	1450.06
479.876	1448.06
480.095	1409.06
480.313	1522.06
480.532	1510.06
480.751	1499.06
480.969	1482.06
481.188	1414.06
481.406	1380.06
481.624	1390.06
481.843	1340.06
482.061	1325.06
482.28	1309.06
482.498	1318.06
482.717	1303.06
482.935	1336.06
483.153	1299.06
483.372	1322.06
483.59	1307.06
483.808	1305.06
484.027	1327.06
484.245	1306.06
484.463	1326.06
484.681	1346.06
484.9	1359.06
485.118	1355.06
485.336	1395.06
485.554	1371.06
485.772	1395.06
485.99	1353.06
486.209	1399.06
486.427	1395.06
486.645	1410.06
486.863	1399.06
487.081	1407.06
487.299	1383.06
487.517	1369.06
487.735	1365.06
487.953	1385.06
488.171	1403.06
488.389	1369.06
488.607	1373.06
488.825	1346.06
489.043	1353.06
489.261	1377.06
489.479	1401.06
489.696	1379.06
489.914	1385.06
490.132	1398.06
490.35	1407.06
490.568	1428.06
490.786	1400.06
491.003	1350.06
491.221	1399.06
491.439	1390.06
491.657	1397.06
491.874	1376.06
492.092	1409.06
492.31	1411.06
492.527	1429.06
492.745	1410.06
492.963	1443.06
493.18	1440.06
493.398	1424.06
493.615	1432.06
493.833	1446.06
494.05	1484.06
494.268	1455.06
