Data from NiCl2@0.125M.TitratingCurve.Agarose3%dH2O.NegLispCup.LampEnergy10.LIBS07252019_HRD10591_18-28-43-574.txt Node
Date: Thu Jul 25 18:28:43 EDT 2019
User: cochatt
Spectrometer: HR+D1059
Trigger mode: 1
Integration Time (sec): 1.000000E-1
Scans to average: 1
Electric dark correction enabled: true
Nonlinearity correction enabled: false
Boxcar width: 0
XAxis mode: Wavelengths
Number of Pixels in Spectrum: 2048
>>>>>Begin Spectral Data<<<<<
223.165	-13.69
223.4	-13.69
223.635	-13.69
223.869	-11.69
224.104	-26.69
224.338	-21.69
224.573	-5.69
224.808	-22.69
225.042	-11.69
225.277	-5.69
225.511	1.31
225.746	6.31
225.98	3.31
226.215	5.31
226.449	18.31
226.683	30.31
226.918	34.31
227.152	20.31
227.387	26.31
227.621	49.31
227.856	41.31
228.09	46.31
228.324	44.31
228.559	49.31
228.793	64.31
229.027	95.31
229.262	114.31
229.496	124.31
229.73	105.31
229.964	115.31
230.199	138.31
230.433	129.31
230.667	145.31
230.901	151.31
231.136	148.31
231.37	141.31
231.604	136.31
231.838	147.31
232.072	148.31
232.306	162.31
232.541	164.31
232.775	151.31
233.009	162.31
233.243	164.31
233.477	166.31
233.711	168.31
233.945	147.31
234.179	160.31
234.413	173.31
234.647	155.31
234.881	168.31
235.115	170.31
235.349	169.31
235.583	144.31
235.817	152.31
236.051	166.31
236.285	168.31
236.519	176.31
236.753	163.31
236.987	167.31
237.221	206.31
237.455	176.31
237.689	183.31
237.922	175.31
238.156	171.31
238.39	177.31
238.624	188.31
238.858	179.31
239.091	190.31
239.325	162.31
239.559	187.31
239.793	180.31
240.027	198.31
240.26	186.31
240.494	171.31
240.728	199.31
240.961	217.31
241.195	194.31
241.429	194.31
241.662	201.31
241.896	204.31
242.13	204.31
242.363	224.31
242.597	210.31
242.83	222.31
243.064	217.31
243.298	213.31
243.531	207.31
243.765	207.31
243.998	215.31
244.232	223.31
244.465	235.31
244.699	235.31
244.932	244.31
245.166	238.31
245.399	230.31
245.633	246.31
245.866	236.31
246.099	241.31
246.333	245.31
246.566	244.31
246.8	234.31
247.033	254.31
247.266	249.31
247.5	258.31
247.733	269.31
247.966	246.31
248.2	256.31
248.433	268.31
248.666	268.31
248.899	260.31
249.133	266.31
249.366	279.31
249.599	260.31
249.832	290.31
250.066	271.31
250.299	271.31
250.532	272.31
250.765	275.31
250.998	288.31
251.231	292.31
251.465	291.31
251.698	279.31
251.931	291.31
252.164	309.31
252.397	302.31
252.63	292.31
252.863	304.31
253.096	293.31
253.329	314.31
253.562	312.31
253.795	315.31
254.028	305.31
254.261	340.31
254.494	304.31
254.727	322.31
254.96	312.31
255.193	308.31
255.426	320.31
255.659	305.31
255.892	315.31
256.124	315.31
256.357	328.31
256.59	324.31
256.823	316.31
257.056	325.31
257.289	336.31
257.521	327.31
257.754	328.31
257.987	329.31
258.22	332.31
258.452	339.31
258.685	342.31
258.918	341.31
259.151	355.31
259.383	352.31
259.616	336.31
259.849	343.31
260.081	363.31
260.314	370.31
260.547	368.31
260.779	346.31
261.012	358.31
261.244	360.31
261.477	366.31
261.71	374.31
261.942	378.31
262.175	354.31
262.407	371.31
262.64	366.31
262.872	372.31
263.105	367.31
263.337	376.31
263.57	376.31
263.802	378.31
264.035	372.31
264.267	376.31
264.499	395.31
264.732	379.31
264.964	372.31
265.197	399.31
265.429	393.31
265.661	386.31
265.894	394.31
266.126	386.31
266.358	378.31
266.591	394.31
266.823	390.31
267.055	412.31
267.287	394.31
267.52	410.31
267.752	408.31
267.984	415.31
268.216	385.31
268.448	407.31
268.681	411.31
268.913	408.31
269.145	418.31
269.377	391.31
269.609	441.31
269.841	402.31
270.073	416.31
270.306	420.31
270.538	428.31
270.77	401.31
271.002	436.31
271.234	416.31
271.466	417.31
271.698	420.31
271.93	429.31
272.162	427.31
272.394	438.31
272.626	428.31
272.858	452.31
273.09	434.31
273.322	430.31
273.553	432.31
273.785	434.31
274.017	443.31
274.249	457.31
274.481	452.31
274.713	448.31
274.945	464.31
275.176	441.31
275.408	481.31
275.64	478.31
275.872	463.31
276.104	454.31
276.335	462.31
276.567	451.31
276.799	469.31
277.031	483.31
277.262	490.31
277.494	483.31
277.726	463.31
277.957	480.31
278.189	488.31
278.421	460.31
278.652	467.31
278.884	486.31
279.115	493.31
279.347	489.31
279.579	472.31
279.81	487.31
280.042	497.31
280.273	500.31
280.505	500.31
280.736	526.31
280.968	492.31
281.199	528.31
281.431	519.31
281.662	519.31
281.894	514.31
282.125	520.31
282.356	512.31
282.588	528.31
282.819	531.31
283.051	537.31
283.282	522.31
283.513	517.31
283.745	521.31
283.976	531.31
284.207	536.31
284.439	544.31
284.67	561.31
284.901	549.31
285.132	546.31
285.364	532.31
285.595	523.31
285.826	549.31
286.057	547.31
286.288	535.31
286.52	567.31
286.751	556.31
286.982	572.31
287.213	554.31
287.444	549.31
287.675	547.31
287.906	578.31
288.138	575.31
288.369	583.31
288.6	584.31
288.831	583.31
289.062	570.31
289.293	568.31
289.524	568.31
289.755	559.31
289.986	556.31
290.217	577.31
290.448	558.31
290.679	600.31
290.91	591.31
291.141	598.31
291.371	604.31
291.602	603.31
291.833	567.31
292.064	618.31
292.295	593.31
292.526	600.31
292.757	584.31
292.987	580.31
293.218	582.31
293.449	593.31
293.68	608.31
293.91	587.31
294.141	602.31
294.372	576.31
294.603	588.31
294.833	596.31
295.064	607.31
295.295	602.31
295.525	607.31
295.756	603.31
295.987	612.31
296.217	615.31
296.448	625.31
296.679	606.31
296.909	602.31
297.14	612.31
297.37	639.31
297.601	627.31
297.831	639.31
298.062	640.31
298.292	653.31
298.523	665.31
298.753	674.31
298.984	653.31
299.214	656.31
299.445	641.31
299.675	620.31
299.905	654.31
300.136	631.31
300.366	639.31
300.597	675.31
300.827	664.31
301.057	692.31
301.288	704.31
301.518	663.31
301.748	675.31
301.979	688.31
302.209	687.31
302.439	676.31
302.669	666.31
302.9	656.31
303.13	656.31
303.36	693.31
303.59	657.31
303.82	674.31
304.051	663.31
304.281	660.31
304.511	646.31
304.741	653.31
304.971	668.31
305.201	645.31
305.431	659.31
305.661	660.31
305.891	634.31
306.121	657.31
306.352	633.31
306.582	666.31
306.812	635.31
307.042	645.31
307.272	640.31
307.502	639.31
307.731	658.31
307.961	657.31
308.191	643.31
308.421	637.31
308.651	648.31
308.881	635.31
309.111	642.31
309.341	624.31
309.571	646.31
309.8	641.31
310.03	643.31
310.26	671.31
310.49	651.31
310.72	652.31
310.949	658.31
311.179	667.31
311.409	649.31
311.639	667.31
311.868	666.31
312.098	663.31
312.328	667.31
312.557	669.31
312.787	694.31
313.017	666.31
313.246	674.31
313.476	676.31
313.706	677.31
313.935	705.31
314.165	711.31
314.394	695.31
314.624	698.31
314.853	683.31
315.083	659.31
315.312	700.31
315.542	692.31
315.771	683.31
316.001	699.31
316.23	705.31
316.46	686.31
316.689	683.31
316.919	674.31
317.148	672.31
317.377	671.31
317.607	695.31
317.836	681.31
318.065	688.31
318.295	663.31
318.524	657.31
318.753	688.31
318.983	681.31
319.212	660.31
319.441	688.31
319.67	672.31
319.9	650.31
320.129	664.31
320.358	705.31
320.587	713.31
320.816	649.31
321.046	676.31
321.275	667.31
321.504	710.31
321.733	667.31
321.962	702.31
322.191	691.31
322.42	701.31
322.649	691.31
322.878	686.31
323.108	686.31
323.337	698.31
323.566	679.31
323.795	682.31
324.024	699.31
324.253	708.31
324.482	693.31
324.71	715.31
324.939	719.31
325.168	697.31
325.397	729.31
325.626	697.31
325.855	720.31
326.084	723.31
326.313	762.31
326.542	746.31
326.77	770.31
326.999	729.31
327.228	714.31
327.457	731.31
327.686	754.31
327.914	753.31
328.143	731.31
328.372	719.31
328.6	721.31
328.829	728.31
329.058	756.31
329.287	731.31
329.515	747.31
329.744	726.31
329.972	732.31
330.201	763.31
330.43	756.31
330.658	744.31
330.887	762.31
331.115	774.31
331.344	795.31
331.572	795.31
331.801	798.31
332.03	819.31
332.258	839.31
332.486	840.31
332.715	884.31
332.943	907.31
333.172	948.31
333.4	1030.31
333.629	1024.31
333.857	1026.31
334.085	1017.31
334.314	993.31
334.542	984.31
334.771	938.31
334.999	937.31
335.227	954.31
335.455	937.31
335.684	909.31
335.912	912.31
336.14	915.31
336.369	910.31
336.597	891.31
336.825	894.31
337.053	887.31
337.281	870.31
337.51	842.31
337.738	855.31
337.966	854.31
338.194	859.31
338.422	824.31
338.65	811.31
338.878	828.31
339.106	815.31
339.334	826.31
339.562	802.31
339.79	777.31
340.018	775.31
340.246	741.31
340.474	764.31
340.702	790.31
340.93	787.31
341.158	765.31
341.386	782.31
341.614	792.31
341.842	771.31
342.07	754.31
342.298	774.31
342.526	764.31
342.754	760.31
342.981	760.31
343.209	785.31
343.437	830.31
343.665	904.31
343.893	958.31
344.12	963.31
344.348	953.31
344.576	897.31
344.804	848.31
345.031	832.31
345.259	796.31
345.487	811.31
345.714	777.31
345.942	765.31
346.17	766.31
346.397	779.31
346.625	726.31
346.853	734.31
347.08	770.31
347.308	766.31
347.535	780.31
347.763	763.31
347.99	769.31
348.218	770.31
348.445	763.31
348.673	745.31
348.9	770.31
349.128	740.31
349.355	726.31
349.583	731.31
349.81	729.31
350.037	726.31
350.265	719.31
350.492	728.31
350.72	744.31
350.947	737.31
351.174	723.31
351.402	725.31
351.629	715.31
351.856	727.31
352.083	697.31
352.311	708.31
352.538	744.31
352.765	731.31
352.992	724.31
353.22	718.31
353.447	711.31
353.674	718.31
353.901	710.31
354.128	734.31
354.355	722.31
354.583	743.31
354.81	688.31
355.037	731.31
355.264	718.31
355.491	732.31
355.718	732.31
355.945	731.31
356.172	750.31
356.399	707.31
356.626	747.31
356.853	738.31
357.08	744.31
357.307	757.31
357.534	754.31
357.761	739.31
357.988	761.31
358.215	718.31
358.441	743.31
358.668	725.31
358.895	722.31
359.122	732.31
359.349	744.31
359.576	733.31
359.802	742.31
360.029	692.31
360.256	751.31
360.483	731.31
360.709	727.31
360.936	728.31
361.163	718.31
361.39	722.31
361.616	729.31
361.843	728.31
362.07	724.31
362.296	725.31
362.523	724.31
362.749	708.31
362.976	712.31
363.203	719.31
363.429	689.31
363.656	731.31
363.882	708.31
364.109	731.31
364.335	722.31
364.562	719.31
364.788	709.31
365.015	734.31
365.241	710.31
365.468	726.31
365.694	726.31
365.92	722.31
366.147	714.31
366.373	713.31
366.599	731.31
366.826	721.31
367.052	710.31
367.278	720.31
367.505	711.31
367.731	719.31
367.957	724.31
368.184	738.31
368.41	729.31
368.636	737.31
368.862	750.31
369.089	731.31
369.315	756.31
369.541	727.31
369.767	728.31
369.993	743.31
370.219	741.31
370.445	774.31
370.672	756.31
370.898	781.31
371.124	786.31
371.35	816.31
371.576	795.31
371.802	806.31
372.028	785.31
372.254	795.31
372.48	771.31
372.706	821.31
372.932	811.31
373.158	830.31
373.384	822.31
373.61	779.31
373.835	792.31
374.061	755.31
374.287	801.31
374.513	802.31
374.739	832.31
374.965	859.31
375.191	859.31
375.416	887.31
375.642	844.31
375.868	844.31
376.094	818.31
376.319	812.31
376.545	774.31
376.771	779.31
376.997	772.31
377.222	825.31
377.448	803.31
377.674	789.31
377.899	778.31
378.125	759.31
378.35	775.31
378.576	753.31
378.802	776.31
379.027	779.31
379.253	794.31
379.478	773.31
379.704	767.31
379.929	777.31
380.155	758.31
380.38	788.31
380.606	777.31
380.831	781.31
381.057	784.31
381.282	795.31
381.507	791.31
381.733	771.31
381.958	800.31
382.184	807.31
382.409	780.31
382.634	822.31
382.86	824.31
383.085	814.31
383.31	817.31
383.535	865.31
383.761	880.31
383.986	904.31
384.211	904.31
384.436	914.31
384.662	923.31
384.887	961.31
385.112	957.31
385.337	944.31
385.562	928.31
385.787	922.31
386.013	968.31
386.238	1009.31
386.463	935.31
386.688	968.31
386.913	932.31
387.138	931.31
387.363	911.31
387.588	952.31
387.813	927.31
388.038	931.31
388.263	943.31
388.488	942.31
388.713	940.31
388.938	915.31
389.163	919.31
389.387	928.31
389.612	924.31
389.837	958.31
390.062	932.31
390.287	908.31
390.512	928.31
390.736	944.31
390.961	972.31
391.186	964.31
391.411	981.31
391.636	1045.31
391.86	1082.31
392.085	1078.31
392.31	1067.31
392.534	1043.31
392.759	1007.31
392.984	1003.31
393.208	1006.31
393.433	997.31
393.658	1001.31
393.882	1011.31
394.107	984.31
394.331	1008.31
394.556	1018.31
394.78	1022.31
395.005	1031.31
395.229	1018.31
395.454	1065.31
395.678	1088.31
395.903	1084.31
396.127	1073.31
396.352	1011.31
396.576	971.31
396.801	993.31
397.025	1022.31
397.249	1029.31
397.474	1042.31
397.698	1054.31
397.922	1030.31
398.147	1034.31
398.371	1081.31
398.595	1128.31
398.82	1175.31
399.044	1263.31
399.268	1355.31
399.492	1602.31
399.717	1842.31
399.941	1869.31
400.165	1616.31
400.389	1477.31
400.613	1334.31
400.837	1254.31
401.062	1223.31
401.286	1196.31
401.51	1219.31
401.734	1206.31
401.958	1264.31
402.182	1244.31
402.406	1235.31
402.63	1271.31
402.854	1296.31
403.078	1320.31
403.302	1314.31
403.526	1353.31
403.75	1375.31
403.974	1371.31
404.198	1399.31
404.422	1408.31
404.645	1395.31
404.869	1345.31
405.093	1356.31
405.317	1324.31
405.541	1334.31
405.765	1295.31
405.988	1318.31
406.212	1306.31
406.436	1318.31
406.66	1322.31
406.883	1349.31
407.107	1416.31
407.331	1492.31
407.555	1550.31
407.778	1584.31
408.002	1552.31
408.226	1476.31
408.449	1418.31
408.673	1380.31
408.896	1359.31
409.12	1359.31
409.344	1394.31
409.567	1350.31
409.791	1378.31
410.014	1379.31
410.238	1358.31
410.461	1361.31
410.685	1337.31
410.908	1330.31
411.132	1273.31
411.355	1223.31
411.578	1236.31
411.802	1223.31
412.025	1257.31
412.249	1263.31
412.472	1266.31
412.695	1213.31
412.919	1221.31
413.142	1206.31
413.365	1159.31
413.589	1168.31
413.812	1219.31
414.035	1192.31
414.258	1171.31
414.482	1198.31
414.705	1232.31
414.928	1182.31
415.151	1157.31
415.374	1210.31
415.597	1180.31
415.821	1167.31
416.044	1156.31
416.267	1160.31
416.49	1164.31
416.713	1177.31
416.936	1160.31
417.159	1173.31
417.382	1139.31
417.605	1154.31
417.828	1187.31
418.051	1200.31
418.274	1168.31
418.497	1152.31
418.72	1215.31
418.943	1230.31
419.166	1282.31
419.389	1406.31
419.611	1368.31
419.834	1304.31
420.057	1243.31
420.28	1207.31
420.503	1158.31
420.726	1141.31
420.948	1162.31
421.171	1153.31
421.394	1164.31
421.617	1186.31
421.839	1189.31
422.062	1201.31
422.285	1154.31
422.507	1198.31
422.73	1235.31
422.953	1208.31
423.175	1206.31
423.398	1251.31
423.621	1240.31
423.843	1286.31
424.066	1266.31
424.288	1244.31
424.511	1230.31
424.733	1250.31
424.956	1200.31
425.178	1200.31
425.401	1189.31
425.623	1226.31
425.846	1152.31
426.068	1178.31
426.291	1129.31
426.513	1147.31
426.735	1108.31
426.958	1152.31
427.18	1091.31
427.402	1089.31
427.625	1054.31
427.847	1051.31
428.069	1052.31
428.292	1062.31
428.514	1064.31
428.736	1068.31
428.958	1062.31
429.181	1010.31
429.403	1045.31
429.625	1033.31
429.847	1010.31
430.069	1012.31
430.292	1036.31
430.514	1011.31
430.736	1047.31
430.958	1031.31
431.18	1063.31
431.402	1042.31
431.624	1037.31
431.846	1063.31
432.068	1087.31
432.29	1088.31
432.512	1084.31
432.734	1071.31
432.956	1080.31
433.178	1052.31
433.4	1060.31
433.622	1081.31
433.844	1098.31
434.066	1086.31
434.287	1098.31
434.509	1134.31
434.731	1178.31
434.953	1198.31
435.175	1218.31
435.397	1219.31
435.618	1139.31
435.84	1104.31
436.062	1068.31
436.284	1089.31
436.505	1073.31
436.727	1065.31
436.949	1067.31
437.17	1066.31
437.392	1049.31
437.614	1031.31
437.835	1014.31
438.057	1031.31
438.278	990.31
438.5	1000.31
438.721	1030.31
438.943	1033.31
439.165	1032.31
439.386	1026.31
439.608	1056.31
439.829	1049.31
440.05	1060.31
440.272	1070.31
440.493	1056.31
440.715	1096.31
440.936	1123.31
441.158	1122.31
441.379	1136.31
441.6	1200.31
441.822	1225.31
442.043	1226.31
442.264	1171.31
442.486	1174.31
442.707	1185.31
442.928	1169.31
443.149	1184.31
443.371	1188.31
443.592	1154.31
443.813	1214.31
444.034	1228.31
444.255	1267.31
444.476	1298.31
444.698	1382.31
444.919	1454.31
445.14	1540.31
445.361	1395.31
445.582	1254.31
445.803	1161.31
446.024	1118.31
446.245	1166.31
446.466	1096.31
446.687	1105.31
446.908	1097.31
447.129	1069.31
447.35	1051.31
447.571	1051.31
447.792	994.31
448.013	1014.31
448.234	990.31
448.455	1010.31
448.675	998.31
448.896	1008.31
449.117	975.31
449.338	1001.31
449.559	967.31
449.779	981.31
450	930.31
450.221	976.31
450.442	965.31
450.662	1012.31
450.883	1031.31
451.104	1026.31
451.324	1017.31
451.545	1023.31
451.766	1003.31
451.986	1010.31
452.207	989.31
452.428	977.31
452.648	979.31
452.869	943.31
453.089	953.31
453.31	981.31
453.53	967.31
453.751	951.31
453.971	935.31
454.192	945.31
454.412	908.31
454.633	970.31
454.853	916.31
455.073	915.31
455.294	925.31
455.514	901.31
455.734	927.31
455.955	907.31
456.175	913.31
456.395	927.31
456.616	907.31
456.836	918.31
457.056	919.31
457.276	917.31
457.497	954.31
457.717	942.31
457.937	938.31
458.157	956.31
458.377	934.31
458.598	969.31
458.818	986.31
459.038	1008.31
459.258	1053.31
459.478	1109.31
459.698	1112.31
459.918	1132.31
460.138	1201.31
460.358	1292.31
460.578	1275.31
460.798	1294.31
461.018	1323.31
461.238	1274.31
461.458	1249.31
461.678	1288.31
461.898	1288.31
462.118	1266.31
462.338	1371.31
462.558	1410.31
462.777	1466.31
462.997	1592.31
463.217	1725.31
463.437	1749.31
463.657	1579.31
463.876	1530.31
464.096	1496.31
464.316	1503.31
464.536	1511.31
464.755	1445.31
464.975	1363.31
465.195	1330.31
465.414	1264.31
465.634	1174.31
465.854	1117.31
466.073	1125.31
466.293	1113.31
466.512	1067.31
466.732	1042.31
466.951	1058.31
467.171	1034.31
467.391	1023.31
467.61	1028.31
467.829	1017.31
468.049	1060.31
468.268	971.31
468.488	998.31
468.707	971.31
468.927	995.31
469.146	978.31
469.365	983.31
469.585	1016.31
469.804	1025.31
470.023	1035.31
470.243	1057.31
470.462	1070.31
470.681	1099.31
470.901	1070.31
471.12	1055.31
471.339	1037.31
471.558	984.31
471.777	1004.31
471.997	987.31
472.216	1009.31
472.435	977.31
472.654	966.31
472.873	964.31
473.092	979.31
473.311	938.31
473.53	958.31
473.749	988.31
473.968	971.31
474.187	954.31
474.406	950.31
474.625	959.31
474.844	959.31
475.063	959.31
475.282	956.31
475.501	969.31
475.72	968.31
475.939	977.31
476.158	983.31
476.377	1020.31
476.596	1003.31
476.814	1008.31
477.033	1014.31
477.252	1044.31
477.471	1086.31
477.69	1082.31
477.908	1122.31
478.127	1151.31
478.346	1148.31
478.564	1153.31
478.783	1184.31
479.002	1210.31
479.22	1192.31
479.439	1174.31
479.658	1168.31
479.876	1198.31
480.095	1235.31
480.313	1247.31
480.532	1305.31
480.751	1322.31
480.969	1207.31
481.188	1190.31
481.406	1161.31
481.624	1139.31
481.843	1097.31
482.061	1081.31
482.28	1106.31
482.498	1075.31
482.717	1098.31
482.935	1102.31
483.153	1110.31
483.372	1097.31
483.59	1104.31
483.808	1118.31
484.027	1103.31
484.245	1105.31
484.463	1102.31
484.681	1150.31
484.9	1125.31
485.118	1144.31
485.336	1133.31
485.554	1143.31
485.772	1163.31
485.99	1156.31
486.209	1180.31
486.427	1188.31
486.645	1194.31
486.863	1185.31
487.081	1176.31
487.299	1135.31
487.517	1167.31
487.735	1188.31
487.953	1153.31
488.171	1175.31
488.389	1136.31
488.607	1146.31
488.825	1128.31
489.043	1142.31
489.261	1127.31
489.479	1159.31
489.696	1147.31
489.914	1155.31
490.132	1170.31
490.35	1180.31
490.568	1130.31
490.786	1156.31
491.003	1161.31
491.221	1205.31
491.439	1151.31
491.657	1183.31
491.874	1183.31
492.092	1170.31
492.31	1175.31
492.527	1174.31
492.745	1184.31
492.963	1196.31
493.18	1180.31
493.398	1195.31
493.615	1184.31
493.833	1181.31
494.05	1223.31
494.268	1226.31
494.485	1244.31
494.703	1236.31
494.92	1232.31
495.138	1244.31
495.355	1251.31
495.573	1240.31
495.79	1250.31
496.008	1246.31
