Data from NiCl2@0.25M.TitratingCurve.Agarose3%dH2O.NegLispCup.LampEnergy10.LIBS07252019_HRD10591_18-23-44-575.txt Node
Date: Thu Jul 25 18:23:44 EDT 2019
User: cochatt
Spectrometer: HR+D1059
Trigger mode: 1
Integration Time (sec): 1.000000E-1
Scans to average: 1
Electric dark correction enabled: true
Nonlinearity correction enabled: false
Boxcar width: 0
XAxis mode: Wavelengths
Number of Pixels in Spectrum: 2048
>>>>>Begin Spectral Data<<<<<
223.165	-12.38
223.4	-12.38
223.635	-12.38
223.869	-15.38
224.104	-12.38
224.338	-15.38
224.573	-20.38
224.808	-10.38
225.042	-17.38
225.277	-19.38
225.511	-8.38
225.746	7.62
225.98	16.62
226.215	20.62
226.449	14.62
226.683	24.62
226.918	17.62
227.152	29.62
227.387	37.62
227.621	28.62
227.856	43.62
228.09	43.62
228.324	61.62
228.559	62.62
228.793	88.62
229.027	133.62
229.262	130.62
229.496	136.62
229.73	151.62
229.964	151.62
230.199	160.62
230.433	172.62
230.667	170.62
230.901	172.62
231.136	186.62
231.37	191.62
231.604	176.62
231.838	179.62
232.072	169.62
232.306	172.62
232.541	176.62
232.775	181.62
233.009	200.62
233.243	172.62
233.477	201.62
233.711	192.62
233.945	198.62
234.179	201.62
234.413	196.62
234.647	197.62
234.881	205.62
235.115	203.62
235.349	186.62
235.583	201.62
235.817	201.62
236.051	203.62
236.285	211.62
236.519	208.62
236.753	210.62
236.987	220.62
237.221	210.62
237.455	209.62
237.689	198.62
237.922	221.62
238.156	208.62
238.39	228.62
238.624	236.62
238.858	222.62
239.091	236.62
239.325	231.62
239.559	249.62
239.793	255.62
240.027	231.62
240.26	250.62
240.494	234.62
240.728	253.62
240.961	266.62
241.195	263.62
241.429	245.62
241.662	255.62
241.896	270.62
242.13	262.62
242.363	282.62
242.597	271.62
242.83	259.62
243.064	261.62
243.298	260.62
243.531	279.62
243.765	275.62
243.998	280.62
244.232	276.62
244.465	290.62
244.699	295.62
244.932	289.62
245.166	283.62
245.399	293.62
245.633	315.62
245.866	293.62
246.099	287.62
246.333	304.62
246.566	301.62
246.8	304.62
247.033	314.62
247.266	317.62
247.5	324.62
247.733	327.62
247.966	331.62
248.2	325.62
248.433	311.62
248.666	326.62
248.899	330.62
249.133	330.62
249.366	349.62
249.599	329.62
249.832	344.62
250.066	333.62
250.299	336.62
250.532	356.62
250.765	374.62
250.998	377.62
251.231	353.62
251.465	345.62
251.698	372.62
251.931	352.62
252.164	369.62
252.397	387.62
252.63	374.62
252.863	381.62
253.096	380.62
253.329	391.62
253.562	360.62
253.795	391.62
254.028	389.62
254.261	392.62
254.494	383.62
254.727	389.62
254.96	400.62
255.193	397.62
255.426	401.62
255.659	404.62
255.892	423.62
256.124	413.62
256.357	402.62
256.59	392.62
256.823	409.62
257.056	432.62
257.289	408.62
257.521	424.62
257.754	416.62
257.987	445.62
258.22	431.62
258.452	428.62
258.685	432.62
258.918	431.62
259.151	437.62
259.383	431.62
259.616	427.62
259.849	449.62
260.081	434.62
260.314	432.62
260.547	460.62
260.779	449.62
261.012	459.62
261.244	475.62
261.477	458.62
261.71	465.62
261.942	452.62
262.175	447.62
262.407	482.62
262.64	470.62
262.872	472.62
263.105	455.62
263.337	462.62
263.57	469.62
263.802	484.62
264.035	502.62
264.267	479.62
264.499	485.62
264.732	457.62
264.964	491.62
265.197	488.62
265.429	493.62
265.661	509.62
265.894	512.62
266.126	506.62
266.358	529.62
266.591	495.62
266.823	521.62
267.055	533.62
267.287	513.62
267.52	509.62
267.752	528.62
267.984	537.62
268.216	547.62
268.448	510.62
268.681	511.62
268.913	516.62
269.145	535.62
269.377	521.62
269.609	538.62
269.841	555.62
270.073	524.62
270.306	532.62
270.538	533.62
270.77	546.62
271.002	551.62
271.234	548.62
271.466	559.62
271.698	563.62
271.93	573.62
272.162	564.62
272.394	552.62
272.626	540.62
272.858	560.62
273.09	573.62
273.322	581.62
273.553	559.62
273.785	571.62
274.017	583.62
274.249	581.62
274.481	579.62
274.713	558.62
274.945	603.62
275.176	602.62
275.408	590.62
275.64	590.62
275.872	590.62
276.104	608.62
276.335	612.62
276.567	598.62
276.799	593.62
277.031	623.62
277.262	608.62
277.494	606.62
277.726	605.62
277.957	615.62
278.189	609.62
278.421	610.62
278.652	621.62
278.884	625.62
279.115	669.62
279.347	663.62
279.579	637.62
279.81	630.62
280.042	650.62
280.273	639.62
280.505	660.62
280.736	647.62
280.968	675.62
281.199	669.62
281.431	670.62
281.662	679.62
281.894	656.62
282.125	661.62
282.356	715.62
282.588	674.62
282.819	686.62
283.051	657.62
283.282	683.62
283.513	683.62
283.745	686.62
283.976	694.62
284.207	699.62
284.439	708.62
284.67	698.62
284.901	693.62
285.132	704.62
285.364	704.62
285.595	703.62
285.826	715.62
286.057	696.62
286.288	703.62
286.52	706.62
286.751	736.62
286.982	748.62
287.213	736.62
287.444	745.62
287.675	735.62
287.906	735.62
288.138	743.62
288.369	745.62
288.6	748.62
288.831	755.62
289.062	752.62
289.293	743.62
289.524	757.62
289.755	759.62
289.986	756.62
290.217	752.62
290.448	771.62
290.679	758.62
290.91	761.62
291.141	742.62
291.371	780.62
291.602	785.62
291.833	731.62
292.064	784.62
292.295	763.62
292.526	776.62
292.757	752.62
292.987	745.62
293.218	765.62
293.449	782.62
293.68	803.62
293.91	771.62
294.141	748.62
294.372	777.62
294.603	773.62
294.833	786.62
295.064	775.62
295.295	784.62
295.525	761.62
295.756	774.62
295.987	787.62
296.217	793.62
296.448	792.62
296.679	803.62
296.909	806.62
297.14	799.62
297.37	833.62
297.601	822.62
297.831	803.62
298.062	814.62
298.292	838.62
298.523	850.62
298.753	847.62
298.984	865.62
299.214	844.62
299.445	812.62
299.675	814.62
299.905	830.62
300.136	829.62
300.366	835.62
300.597	864.62
300.827	880.62
301.057	861.62
301.288	898.62
301.518	875.62
301.748	894.62
301.979	888.62
302.209	903.62
302.439	905.62
302.669	895.62
302.9	902.62
303.13	904.62
303.36	871.62
303.59	869.62
303.82	872.62
304.051	885.62
304.281	859.62
304.511	884.62
304.741	867.62
304.971	871.62
305.201	883.62
305.431	880.62
305.661	878.62
305.891	876.62
306.121	872.62
306.352	872.62
306.582	857.62
306.812	845.62
307.042	863.62
307.272	858.62
307.502	860.62
307.731	884.62
307.961	837.62
308.191	860.62
308.421	844.62
308.651	860.62
308.881	848.62
309.111	848.62
309.341	855.62
309.571	875.62
309.8	858.62
310.03	860.62
310.26	878.62
310.49	869.62
310.72	880.62
310.949	855.62
311.179	849.62
311.409	866.62
311.639	860.62
311.868	876.62
312.098	884.62
312.328	903.62
312.557	896.62
312.787	864.62
313.017	899.62
313.246	911.62
313.476	925.62
313.706	909.62
313.935	957.62
314.165	930.62
314.394	899.62
314.624	931.62
314.853	908.62
315.083	922.62
315.312	929.62
315.542	910.62
315.771	915.62
316.001	931.62
316.23	908.62
316.46	898.62
316.689	936.62
316.919	890.62
317.148	892.62
317.377	886.62
317.607	920.62
317.836	897.62
318.065	892.62
318.295	892.62
318.524	900.62
318.753	917.62
318.983	879.62
319.212	917.62
319.441	921.62
319.67	926.62
319.9	889.62
320.129	913.62
320.358	923.62
320.587	921.62
320.816	900.62
321.046	912.62
321.275	917.62
321.504	940.62
321.733	929.62
321.962	896.62
322.191	917.62
322.42	920.62
322.649	944.62
322.878	920.62
323.108	930.62
323.337	907.62
323.566	904.62
323.795	927.62
324.024	936.62
324.253	938.62
324.482	934.62
324.71	955.62
324.939	955.62
325.168	943.62
325.397	972.62
325.626	961.62
325.855	968.62
326.084	984.62
326.313	1007.62
326.542	974.62
326.77	1009.62
326.999	1001.62
327.228	981.62
327.457	975.62
327.686	979.62
327.914	970.62
328.143	992.62
328.372	975.62
328.6	993.62
328.829	969.62
329.058	1016.62
329.287	1023.62
329.515	995.62
329.744	1007.62
329.972	1001.62
330.201	1034.62
330.43	1007.62
330.658	1022.62
330.887	1035.62
331.115	1035.62
331.344	1057.62
331.572	1027.62
331.801	1086.62
332.03	1109.62
332.258	1099.62
332.486	1154.62
332.715	1176.62
332.943	1225.62
333.172	1287.62
333.4	1340.62
333.629	1374.62
333.857	1364.62
334.085	1389.62
334.314	1317.62
334.542	1292.62
334.771	1299.62
334.999	1261.62
335.227	1283.62
335.455	1256.62
335.684	1225.62
335.912	1216.62
336.14	1216.62
336.369	1204.62
336.597	1203.62
336.825	1196.62
337.053	1213.62
337.281	1188.62
337.51	1173.62
337.738	1155.62
337.966	1144.62
338.194	1124.62
338.422	1122.62
338.65	1111.62
338.878	1074.62
339.106	1067.62
339.334	1079.62
339.562	1104.62
339.79	1056.62
340.018	1040.62
340.246	1032.62
340.474	1036.62
340.702	1060.62
340.93	1056.62
341.158	1075.62
341.386	1061.62
341.614	1070.62
341.842	1052.62
342.07	1062.62
342.298	1011.62
342.526	1034.62
342.754	1029.62
342.981	1038.62
343.209	1059.62
343.437	1104.62
343.665	1180.62
343.893	1230.62
344.12	1326.62
344.348	1252.62
344.576	1185.62
344.804	1185.62
345.031	1102.62
345.259	1053.62
345.487	1043.62
345.714	1079.62
345.942	1036.62
346.17	1013.62
346.397	1016.62
346.625	1003.62
346.853	987.62
347.08	998.62
347.308	1049.62
347.535	1019.62
347.763	1024.62
347.99	1013.62
348.218	1006.62
348.445	1011.62
348.673	986.62
348.9	998.62
349.128	996.62
349.355	985.62
349.583	1007.62
349.81	980.62
350.037	980.62
350.265	967.62
350.492	945.62
350.72	956.62
350.947	951.62
351.174	941.62
351.402	978.62
351.629	991.62
351.856	952.62
352.083	940.62
352.311	973.62
352.538	955.62
352.765	984.62
352.992	931.62
353.22	950.62
353.447	943.62
353.674	943.62
353.901	971.62
354.128	966.62
354.355	955.62
354.583	957.62
354.81	941.62
355.037	930.62
355.264	942.62
355.491	954.62
355.718	941.62
355.945	972.62
356.172	967.62
356.399	966.62
356.626	984.62
356.853	968.62
357.08	964.62
357.307	977.62
357.534	977.62
357.761	964.62
357.988	978.62
358.215	973.62
358.441	966.62
358.668	931.62
358.895	973.62
359.122	943.62
359.349	939.62
359.576	958.62
359.802	977.62
360.029	957.62
360.256	940.62
360.483	976.62
360.709	968.62
360.936	980.62
361.163	970.62
361.39	973.62
361.616	973.62
361.843	972.62
362.07	996.62
362.296	953.62
362.523	969.62
362.749	981.62
362.976	968.62
363.203	931.62
363.429	943.62
363.656	953.62
363.882	947.62
364.109	972.62
364.335	944.62
364.562	952.62
364.788	928.62
365.015	944.62
365.241	950.62
365.468	947.62
365.694	959.62
365.92	971.62
366.147	952.62
366.373	948.62
366.599	960.62
366.826	965.62
367.052	956.62
367.278	948.62
367.505	973.62
367.731	972.62
367.957	948.62
368.184	973.62
368.41	972.62
368.636	969.62
368.862	948.62
369.089	984.62
369.315	971.62
369.541	969.62
369.767	991.62
369.993	955.62
370.219	982.62
370.445	1007.62
370.672	995.62
370.898	1012.62
371.124	991.62
371.35	1033.62
371.576	1050.62
371.802	1044.62
372.028	1036.62
372.254	1026.62
372.48	1028.62
372.706	1096.62
372.932	1110.62
373.158	1088.62
373.384	1057.62
373.61	1058.62
373.835	1032.62
374.061	1007.62
374.287	1064.62
374.513	1057.62
374.739	1113.62
374.965	1156.62
375.191	1147.62
375.416	1129.62
375.642	1091.62
375.868	1108.62
376.094	1105.62
376.319	1080.62
376.545	1067.62
376.771	1039.62
376.997	1062.62
377.222	1019.62
377.448	1012.62
377.674	1051.62
377.899	1051.62
378.125	1023.62
378.35	1004.62
378.576	1027.62
378.802	1013.62
379.027	1034.62
379.253	1055.62
379.478	1008.62
379.704	1046.62
379.929	1029.62
380.155	1023.62
380.38	1039.62
380.606	1033.62
380.831	1008.62
381.057	1042.62
381.282	1046.62
381.507	1051.62
381.733	1028.62
381.958	1043.62
382.184	1067.62
382.409	1076.62
382.634	1063.62
382.86	1069.62
383.085	1095.62
383.31	1104.62
383.535	1133.62
383.761	1153.62
383.986	1165.62
384.211	1186.62
384.436	1172.62
384.662	1218.62
384.887	1247.62
385.112	1238.62
385.337	1269.62
385.562	1273.62
385.787	1287.62
386.013	1294.62
386.238	1269.62
386.463	1276.62
386.688	1248.62
386.913	1235.62
387.138	1241.62
387.363	1251.62
387.588	1254.62
387.813	1220.62
388.038	1235.62
388.263	1214.62
388.488	1241.62
388.713	1240.62
388.938	1226.62
389.163	1232.62
389.387	1211.62
389.612	1207.62
389.837	1189.62
390.062	1219.62
390.287	1211.62
390.512	1200.62
390.736	1264.62
390.961	1270.62
391.186	1277.62
391.411	1327.62
391.636	1360.62
391.86	1384.62
392.085	1402.62
392.31	1445.62
392.534	1385.62
392.759	1354.62
392.984	1349.62
393.208	1325.62
393.433	1350.62
393.658	1341.62
393.882	1333.62
394.107	1309.62
394.331	1346.62
394.556	1349.62
394.78	1350.62
395.005	1328.62
395.229	1352.62
395.454	1400.62
395.678	1411.62
395.903	1403.62
396.127	1401.62
396.352	1363.62
396.576	1332.62
396.801	1300.62
397.025	1354.62
397.249	1386.62
397.474	1413.62
397.698	1402.62
397.922	1438.62
398.147	1406.62
398.371	1445.62
398.595	1515.62
398.82	1595.62
399.044	1680.62
399.268	1892.62
399.492	2144.62
399.717	2438.62
399.941	2395.62
400.165	2162.62
400.389	1927.62
400.613	1801.62
400.837	1666.62
401.062	1630.62
401.286	1595.62
401.51	1588.62
401.734	1599.62
401.958	1605.62
402.182	1576.62
402.406	1626.62
402.63	1669.62
402.854	1684.62
403.078	1733.62
403.302	1763.62
403.526	1798.62
403.75	1797.62
403.974	1804.62
404.198	1865.62
404.422	1821.62
404.645	1825.62
404.869	1786.62
405.093	1767.62
405.317	1766.62
405.541	1763.62
405.765	1689.62
405.988	1682.62
406.212	1736.62
406.436	1721.62
406.66	1764.62
406.883	1801.62
407.107	1925.62
407.331	2033.62
407.555	2064.62
407.778	2059.62
408.002	1968.62
408.226	1904.62
408.449	1857.62
408.673	1833.62
408.896	1788.62
409.12	1733.62
409.344	1771.62
409.567	1717.62
409.791	1785.62
410.014	1744.62
410.238	1688.62
410.461	1755.62
410.685	1693.62
410.908	1660.62
411.132	1655.62
411.355	1626.62
411.578	1621.62
411.802	1636.62
412.025	1639.62
412.249	1706.62
412.472	1653.62
412.695	1585.62
412.919	1555.62
413.142	1566.62
413.365	1569.62
413.589	1562.62
413.812	1561.62
414.035	1560.62
414.258	1571.62
414.482	1607.62
414.705	1614.62
414.928	1640.62
415.151	1581.62
415.374	1545.62
415.597	1543.62
415.821	1525.62
416.044	1517.62
416.267	1516.62
416.49	1506.62
416.713	1523.62
416.936	1571.62
417.159	1509.62
417.382	1487.62
417.605	1542.62
417.828	1557.62
418.051	1568.62
418.274	1565.62
418.497	1548.62
418.72	1604.62
418.943	1580.62
419.166	1702.62
419.389	1829.62
419.611	1725.62
419.834	1697.62
420.057	1616.62
420.28	1588.62
420.503	1518.62
420.726	1531.62
420.948	1556.62
421.171	1527.62
421.394	1535.62
421.617	1517.62
421.839	1536.62
422.062	1572.62
422.285	1514.62
422.507	1585.62
422.73	1554.62
422.953	1580.62
423.175	1631.62
423.398	1632.62
423.621	1656.62
423.843	1637.62
424.066	1629.62
424.288	1606.62
424.511	1599.62
424.733	1611.62
424.956	1616.62
425.178	1589.62
425.401	1551.62
425.623	1553.62
425.846	1547.62
426.068	1495.62
426.291	1471.62
426.513	1454.62
426.735	1442.62
426.958	1448.62
427.18	1407.62
427.402	1420.62
427.625	1435.62
427.847	1388.62
428.069	1386.62
428.292	1378.62
428.514	1355.62
428.736	1345.62
428.958	1386.62
429.181	1333.62
429.403	1324.62
429.625	1353.62
429.847	1317.62
430.069	1305.62
430.292	1318.62
430.514	1339.62
430.736	1352.62
430.958	1331.62
431.18	1352.62
431.402	1375.62
431.624	1333.62
431.846	1347.62
432.068	1399.62
432.29	1397.62
432.512	1380.62
432.734	1389.62
432.956	1349.62
433.178	1364.62
433.4	1331.62
433.622	1364.62
433.844	1351.62
434.066	1382.62
434.287	1404.62
434.509	1435.62
434.731	1484.62
434.953	1524.62
435.175	1541.62
435.397	1519.62
435.618	1417.62
435.84	1383.62
436.062	1339.62
436.284	1348.62
436.505	1337.62
436.727	1334.62
436.949	1357.62
437.17	1367.62
437.392	1347.62
437.614	1314.62
437.835	1287.62
438.057	1312.62
438.278	1303.62
438.5	1299.62
438.721	1280.62
438.943	1305.62
439.165	1318.62
439.386	1324.62
439.608	1329.62
439.829	1349.62
440.05	1343.62
440.272	1344.62
440.493	1348.62
440.715	1384.62
440.936	1417.62
441.158	1440.62
441.379	1463.62
441.6	1531.62
441.822	1528.62
442.043	1584.62
442.264	1507.62
442.486	1472.62
442.707	1516.62
442.928	1509.62
443.149	1499.62
443.371	1477.62
443.592	1513.62
443.813	1546.62
444.034	1570.62
444.255	1589.62
444.476	1676.62
444.698	1771.62
444.919	1809.62
445.14	1912.62
445.361	1723.62
445.582	1572.62
445.803	1529.62
446.024	1429.62
446.245	1445.62
446.466	1425.62
446.687	1342.62
446.908	1355.62
447.129	1342.62
447.35	1311.62
447.571	1295.62
447.792	1270.62
448.013	1281.62
448.234	1241.62
448.455	1245.62
448.675	1252.62
448.896	1227.62
449.117	1211.62
449.338	1224.62
449.559	1185.62
449.779	1217.62
450	1207.62
450.221	1219.62
450.442	1212.62
450.662	1237.62
450.883	1240.62
451.104	1271.62
451.324	1258.62
451.545	1238.62
451.766	1257.62
451.986	1243.62
452.207	1227.62
452.428	1225.62
452.648	1210.62
452.869	1204.62
453.089	1212.62
453.31	1213.62
453.53	1230.62
453.751	1199.62
453.971	1177.62
454.192	1175.62
454.412	1149.62
454.633	1136.62
454.853	1141.62
455.073	1136.62
455.294	1177.62
455.514	1149.62
455.734	1126.62
455.955	1132.62
456.175	1112.62
456.395	1131.62
456.616	1150.62
456.836	1149.62
457.056	1153.62
457.276	1140.62
457.497	1174.62
457.717	1154.62
457.937	1165.62
458.157	1164.62
458.377	1163.62
458.598	1175.62
458.818	1233.62
459.038	1305.62
459.258	1319.62
459.478	1387.62
459.698	1422.62
459.918	1407.62
460.138	1507.62
460.358	1572.62
460.578	1607.62
460.798	1663.62
461.018	1617.62
461.238	1589.62
461.458	1612.62
461.678	1583.62
461.898	1644.62
462.118	1648.62
462.338	1741.62
462.558	1781.62
462.777	1873.62
462.997	1987.62
463.217	2149.62
463.437	2185.62
463.657	2000.62
463.876	1902.62
464.096	1877.62
464.316	1856.62
464.536	1904.62
464.755	1823.62
464.975	1785.62
465.195	1617.62
465.414	1571.62
465.634	1464.62
465.854	1429.62
466.073	1390.62
466.293	1369.62
466.512	1272.62
466.732	1307.62
466.951	1310.62
467.171	1294.62
467.391	1294.62
467.61	1242.62
467.829	1288.62
468.049	1260.62
468.268	1199.62
468.488	1220.62
468.707	1237.62
468.927	1228.62
469.146	1239.62
469.365	1262.62
469.585	1244.62
469.804	1265.62
470.023	1328.62
470.243	1353.62
470.462	1343.62
470.681	1331.62
470.901	1351.62
471.12	1322.62
471.339	1288.62
471.558	1254.62
471.777	1262.62
471.997	1248.62
472.216	1230.62
472.435	1239.62
472.654	1213.62
472.873	1188.62
473.092	1201.62
473.311	1223.62
473.53	1197.62
473.749	1198.62
473.968	1186.62
474.187	1161.62
474.406	1209.62
474.625	1212.62
474.844	1173.62
475.063	1218.62
475.282	1214.62
475.501	1244.62
475.72	1241.62
475.939	1233.62
476.158	1259.62
476.377	1253.62
476.596	1273.62
476.814	1285.62
477.033	1311.62
477.252	1296.62
477.471	1326.62
477.69	1339.62
477.908	1409.62
478.127	1415.62
478.346	1440.62
478.564	1484.62
478.783	1499.62
479.002	1514.62
479.22	1523.62
479.439	1527.62
479.658	1535.62
479.876	1495.62
480.095	1542.62
480.313	1633.62
480.532	1646.62
480.751	1633.62
480.969	1585.62
481.188	1510.62
481.406	1457.62
481.624	1437.62
481.843	1407.62
482.061	1408.62
482.28	1389.62
482.498	1359.62
482.717	1360.62
482.935	1370.62
483.153	1367.62
483.372	1359.62
483.59	1385.62
483.808	1420.62
484.027	1403.62
484.245	1412.62
484.463	1365.62
484.681	1418.62
484.9	1395.62
485.118	1429.62
485.336	1435.62
485.554	1416.62
485.772	1449.62
485.99	1437.62
486.209	1483.62
486.427	1455.62
486.645	1440.62
486.863	1447.62
487.081	1413.62
487.299	1446.62
487.517	1446.62
487.735	1406.62
487.953	1482.62
488.171	1471.62
488.389	1464.62
488.607	1409.62
488.825	1416.62
489.043	1414.62
489.261	1435.62
489.479	1414.62
489.696	1443.62
489.914	1460.62
490.132	1425.62
490.35	1468.62
490.568	1420.62
490.786	1480.62
491.003	1473.62
491.221	1464.62
491.439	1457.62
491.657	1448.62
491.874	1433.62
492.092	1477.62
492.31	1473.62
492.527	1444.62
492.745	1472.62
