Data from NiCl2@0.5M.TitratingCurve.Agarose3%dH2O.NegLispCup.LampEnergy10.LIBS07252019_HRD10591_18-20-20-571.txt Node
Date: Thu Jul 25 18:20:20 EDT 2019
User: cochatt
Spectrometer: HR+D1059
Trigger mode: 1
Integration Time (sec): 1.000000E-1
Scans to average: 1
Electric dark correction enabled: true
Nonlinearity correction enabled: false
Boxcar width: 0
XAxis mode: Wavelengths
Number of Pixels in Spectrum: 2048
>>>>>Begin Spectral Data<<<<<
223.165	-13.81
223.4	-13.81
223.635	-13.81
223.869	-10.81
224.104	-16.81
224.338	1.19
224.573	-11.81
224.808	-1.81
225.042	-1.81
225.277	-7.81
225.511	-4.81
225.746	3.19
225.98	-4.81
226.215	16.19
226.449	7.19
226.683	14.19
226.918	12.19
227.152	20.19
227.387	41.19
227.621	56.19
227.856	49.19
228.09	45.19
228.324	47.19
228.559	59.19
228.793	79.19
229.027	106.19
229.262	113.19
229.496	121.19
229.73	127.19
229.964	121.19
230.199	136.19
230.433	143.19
230.667	124.19
230.901	124.19
231.136	144.19
231.37	136.19
231.604	147.19
231.838	136.19
232.072	163.19
232.306	163.19
232.541	158.19
232.775	153.19
233.009	157.19
233.243	177.19
233.477	158.19
233.711	146.19
233.945	143.19
234.179	140.19
234.413	160.19
234.647	155.19
234.881	168.19
235.115	157.19
235.349	155.19
235.583	160.19
235.817	155.19
236.051	152.19
236.285	138.19
236.519	167.19
236.753	163.19
236.987	153.19
237.221	151.19
237.455	152.19
237.689	153.19
237.922	168.19
238.156	172.19
238.39	187.19
238.624	180.19
238.858	170.19
239.091	171.19
239.325	181.19
239.559	191.19
239.793	175.19
240.027	195.19
240.26	180.19
240.494	183.19
240.728	180.19
240.961	186.19
241.195	196.19
241.429	188.19
241.662	205.19
241.896	210.19
242.13	195.19
242.363	208.19
242.597	180.19
242.83	194.19
243.064	192.19
243.298	221.19
243.531	212.19
243.765	219.19
243.998	210.19
244.232	212.19
244.465	205.19
244.699	223.19
244.932	208.19
245.166	230.19
245.399	229.19
245.633	240.19
245.866	231.19
246.099	239.19
246.333	223.19
246.566	228.19
246.8	228.19
247.033	223.19
247.266	228.19
247.5	221.19
247.733	234.19
247.966	240.19
248.2	240.19
248.433	264.19
248.666	248.19
248.899	247.19
249.133	233.19
249.366	231.19
249.599	254.19
249.832	256.19
250.066	257.19
250.299	241.19
250.532	267.19
250.765	270.19
250.998	263.19
251.231	270.19
251.465	263.19
251.698	271.19
251.931	279.19
252.164	263.19
252.397	260.19
252.63	284.19
252.863	273.19
253.096	281.19
253.329	288.19
253.562	299.19
253.795	283.19
254.028	296.19
254.261	283.19
254.494	298.19
254.727	306.19
254.96	296.19
255.193	295.19
255.426	284.19
255.659	287.19
255.892	308.19
256.124	305.19
256.357	284.19
256.59	283.19
256.823	298.19
257.056	329.19
257.289	294.19
257.521	317.19
257.754	306.19
257.987	288.19
258.22	315.19
258.452	307.19
258.685	340.19
258.918	342.19
259.151	321.19
259.383	343.19
259.616	341.19
259.849	321.19
260.081	347.19
260.314	328.19
260.547	327.19
260.779	316.19
261.012	337.19
261.244	316.19
261.477	342.19
261.71	331.19
261.942	343.19
262.175	340.19
262.407	341.19
262.64	349.19
262.872	328.19
263.105	337.19
263.337	370.19
263.57	339.19
263.802	350.19
264.035	368.19
264.267	367.19
264.499	353.19
264.732	360.19
264.964	339.19
265.197	339.19
265.429	378.19
265.661	355.19
265.894	358.19
266.126	359.19
266.358	355.19
266.591	368.19
266.823	370.19
267.055	374.19
267.287	382.19
267.52	388.19
267.752	389.19
267.984	404.19
268.216	379.19
268.448	401.19
268.681	376.19
268.913	377.19
269.145	388.19
269.377	395.19
269.609	383.19
269.841	376.19
270.073	383.19
270.306	382.19
270.538	392.19
270.77	396.19
271.002	403.19
271.234	383.19
271.466	403.19
271.698	415.19
271.93	381.19
272.162	398.19
272.394	425.19
272.626	401.19
272.858	426.19
273.09	412.19
273.322	424.19
273.553	433.19
273.785	435.19
274.017	429.19
274.249	438.19
274.481	444.19
274.713	434.19
274.945	433.19
275.176	431.19
275.408	412.19
275.64	431.19
275.872	431.19
276.104	448.19
276.335	437.19
276.567	449.19
276.799	442.19
277.031	460.19
277.262	457.19
277.494	445.19
277.726	460.19
277.957	437.19
278.189	447.19
278.421	451.19
278.652	458.19
278.884	468.19
279.115	441.19
279.347	474.19
279.579	455.19
279.81	465.19
280.042	458.19
280.273	451.19
280.505	453.19
280.736	460.19
280.968	471.19
281.199	487.19
281.431	490.19
281.662	480.19
281.894	483.19
282.125	487.19
282.356	498.19
282.588	476.19
282.819	501.19
283.051	488.19
283.282	499.19
283.513	479.19
283.745	503.19
283.976	491.19
284.207	481.19
284.439	503.19
284.67	505.19
284.901	516.19
285.132	525.19
285.364	499.19
285.595	505.19
285.826	524.19
286.057	515.19
286.288	524.19
286.52	536.19
286.751	522.19
286.982	515.19
287.213	532.19
287.444	515.19
287.675	515.19
287.906	545.19
288.138	539.19
288.369	520.19
288.6	517.19
288.831	533.19
289.062	552.19
289.293	541.19
289.524	548.19
289.755	548.19
289.986	553.19
290.217	526.19
290.448	538.19
290.679	554.19
290.91	553.19
291.141	546.19
291.371	559.19
291.602	542.19
291.833	542.19
292.064	559.19
292.295	555.19
292.526	557.19
292.757	540.19
292.987	575.19
293.218	554.19
293.449	554.19
293.68	562.19
293.91	551.19
294.141	552.19
294.372	554.19
294.603	563.19
294.833	577.19
295.064	559.19
295.295	577.19
295.525	568.19
295.756	577.19
295.987	575.19
296.217	575.19
296.448	561.19
296.679	603.19
296.909	585.19
297.14	562.19
297.37	580.19
297.601	608.19
297.831	606.19
298.062	602.19
298.292	616.19
298.523	605.19
298.753	604.19
298.984	613.19
299.214	600.19
299.445	620.19
299.675	595.19
299.905	604.19
300.136	603.19
300.366	613.19
300.597	635.19
300.827	634.19
301.057	637.19
301.288	638.19
301.518	646.19
301.748	642.19
301.979	639.19
302.209	659.19
302.439	642.19
302.669	660.19
302.9	618.19
303.13	627.19
303.36	655.19
303.59	637.19
303.82	623.19
304.051	673.19
304.281	646.19
304.511	638.19
304.741	617.19
304.971	638.19
305.201	625.19
305.431	662.19
305.661	661.19
305.891	636.19
306.121	633.19
306.352	624.19
306.582	630.19
306.812	633.19
307.042	633.19
307.272	621.19
307.502	611.19
307.731	622.19
307.961	637.19
308.191	620.19
308.421	634.19
308.651	650.19
308.881	596.19
309.111	634.19
309.341	611.19
309.571	626.19
309.8	633.19
310.03	643.19
310.26	638.19
310.49	649.19
310.72	660.19
310.949	654.19
311.179	647.19
311.409	652.19
311.639	663.19
311.868	635.19
312.098	654.19
312.328	671.19
312.557	661.19
312.787	654.19
313.017	662.19
313.246	673.19
313.476	659.19
313.706	674.19
313.935	698.19
314.165	705.19
314.394	698.19
314.624	681.19
314.853	684.19
315.083	699.19
315.312	684.19
315.542	663.19
315.771	689.19
316.001	679.19
316.23	689.19
316.46	660.19
316.689	654.19
316.919	668.19
317.148	697.19
317.377	664.19
317.607	648.19
317.836	649.19
318.065	653.19
318.295	671.19
318.524	695.19
318.753	689.19
318.983	665.19
319.212	642.19
319.441	667.19
319.67	662.19
319.9	664.19
320.129	676.19
320.358	676.19
320.587	672.19
320.816	680.19
321.046	680.19
321.275	688.19
321.504	687.19
321.733	669.19
321.962	680.19
322.191	705.19
322.42	678.19
322.649	672.19
322.878	684.19
323.108	677.19
323.337	696.19
323.566	687.19
323.795	693.19
324.024	706.19
324.253	684.19
324.482	689.19
324.71	709.19
324.939	713.19
325.168	696.19
325.397	711.19
325.626	696.19
325.855	735.19
326.084	726.19
326.313	736.19
326.542	720.19
326.77	733.19
326.999	727.19
327.228	723.19
327.457	729.19
327.686	711.19
327.914	732.19
328.143	731.19
328.372	724.19
328.6	762.19
328.829	754.19
329.058	776.19
329.287	736.19
329.515	746.19
329.744	769.19
329.972	732.19
330.201	746.19
330.43	757.19
330.658	757.19
330.887	747.19
331.115	754.19
331.344	752.19
331.572	770.19
331.801	823.19
332.03	801.19
332.258	811.19
332.486	831.19
332.715	853.19
332.943	891.19
333.172	907.19
333.4	952.19
333.629	962.19
333.857	966.19
334.085	947.19
334.314	972.19
334.542	931.19
334.771	903.19
334.999	907.19
335.227	922.19
335.455	903.19
335.684	901.19
335.912	893.19
336.14	892.19
336.369	866.19
336.597	913.19
336.825	887.19
337.053	872.19
337.281	870.19
337.51	846.19
337.738	851.19
337.966	822.19
338.194	845.19
338.422	817.19
338.65	825.19
338.878	787.19
339.106	805.19
339.334	836.19
339.562	810.19
339.79	777.19
340.018	776.19
340.246	753.19
340.474	800.19
340.702	769.19
340.93	778.19
341.158	787.19
341.386	777.19
341.614	795.19
341.842	754.19
342.07	763.19
342.298	757.19
342.526	770.19
342.754	794.19
342.981	787.19
343.209	782.19
343.437	827.19
343.665	902.19
343.893	898.19
344.12	972.19
344.348	900.19
344.576	854.19
344.804	829.19
345.031	823.19
345.259	791.19
345.487	807.19
345.714	775.19
345.942	765.19
346.17	789.19
346.397	757.19
346.625	745.19
346.853	723.19
347.08	734.19
347.308	747.19
347.535	743.19
347.763	733.19
347.99	765.19
348.218	737.19
348.445	748.19
348.673	736.19
348.9	711.19
349.128	757.19
349.355	751.19
349.583	747.19
349.81	716.19
350.037	717.19
350.265	725.19
350.492	717.19
350.72	718.19
350.947	726.19
351.174	730.19
351.402	715.19
351.629	745.19
351.856	724.19
352.083	719.19
352.311	723.19
352.538	741.19
352.765	732.19
352.992	693.19
353.22	724.19
353.447	704.19
353.674	696.19
353.901	704.19
354.128	711.19
354.355	699.19
354.583	697.19
354.81	718.19
355.037	720.19
355.264	689.19
355.491	722.19
355.718	688.19
355.945	708.19
356.172	713.19
356.399	710.19
356.626	745.19
356.853	743.19
357.08	711.19
357.307	703.19
357.534	708.19
357.761	698.19
357.988	716.19
358.215	734.19
358.441	716.19
358.668	708.19
358.895	710.19
359.122	710.19
359.349	695.19
359.576	714.19
359.802	711.19
360.029	713.19
360.256	706.19
360.483	691.19
360.709	688.19
360.936	711.19
361.163	712.19
361.39	736.19
361.616	725.19
361.843	737.19
362.07	747.19
362.296	732.19
362.523	707.19
362.749	731.19
362.976	681.19
363.203	691.19
363.429	683.19
363.656	684.19
363.882	680.19
364.109	715.19
364.335	707.19
364.562	682.19
364.788	712.19
365.015	697.19
365.241	677.19
365.468	692.19
365.694	697.19
365.92	694.19
366.147	712.19
366.373	691.19
366.599	689.19
366.826	689.19
367.052	694.19
367.278	704.19
367.505	713.19
367.731	707.19
367.957	706.19
368.184	721.19
368.41	712.19
368.636	709.19
368.862	711.19
369.089	727.19
369.315	717.19
369.541	731.19
369.767	711.19
369.993	757.19
370.219	721.19
370.445	749.19
370.672	749.19
370.898	730.19
371.124	741.19
371.35	722.19
371.576	758.19
371.802	771.19
372.028	755.19
372.254	734.19
372.48	757.19
372.706	772.19
372.932	771.19
373.158	792.19
373.384	775.19
373.61	773.19
373.835	753.19
374.061	756.19
374.287	791.19
374.513	785.19
374.739	817.19
374.965	818.19
375.191	807.19
375.416	810.19
375.642	827.19
375.868	784.19
376.094	791.19
376.319	747.19
376.545	757.19
376.771	749.19
376.997	728.19
377.222	735.19
377.448	752.19
377.674	744.19
377.899	745.19
378.125	730.19
378.35	727.19
378.576	732.19
378.802	731.19
379.027	743.19
379.253	726.19
379.478	744.19
379.704	722.19
379.929	736.19
380.155	736.19
380.38	727.19
380.606	732.19
380.831	753.19
381.057	743.19
381.282	752.19
381.507	749.19
381.733	753.19
381.958	772.19
382.184	757.19
382.409	770.19
382.634	772.19
382.86	769.19
383.085	758.19
383.31	786.19
383.535	789.19
383.761	817.19
383.986	841.19
384.211	850.19
384.436	841.19
384.662	869.19
384.887	868.19
385.112	839.19
385.337	890.19
385.562	899.19
385.787	904.19
386.013	885.19
386.238	900.19
386.463	905.19
386.688	900.19
386.913	881.19
387.138	900.19
387.363	864.19
387.588	856.19
387.813	888.19
388.038	906.19
388.263	873.19
388.488	889.19
388.713	875.19
388.938	887.19
389.163	864.19
389.387	859.19
389.612	872.19
389.837	856.19
390.062	843.19
390.287	862.19
390.512	861.19
390.736	882.19
390.961	892.19
391.186	912.19
391.411	949.19
391.636	946.19
391.86	989.19
392.085	976.19
392.31	1001.19
392.534	953.19
392.759	921.19
392.984	924.19
393.208	929.19
393.433	917.19
393.658	930.19
393.882	945.19
394.107	933.19
394.331	903.19
394.556	914.19
394.78	933.19
395.005	961.19
395.229	905.19
395.454	968.19
395.678	993.19
395.903	991.19
396.127	948.19
396.352	937.19
396.576	973.19
396.801	915.19
397.025	967.19
397.249	957.19
397.474	971.19
397.698	993.19
397.922	992.19
398.147	992.19
398.371	1000.19
398.595	1036.19
398.82	1109.19
399.044	1183.19
399.268	1268.19
399.492	1435.19
399.717	1614.19
399.941	1633.19
400.165	1427.19
400.389	1319.19
400.613	1211.19
400.837	1166.19
401.062	1147.19
401.286	1106.19
401.51	1088.19
401.734	1096.19
401.958	1109.19
402.182	1107.19
402.406	1079.19
402.63	1140.19
402.854	1184.19
403.078	1160.19
403.302	1212.19
403.526	1231.19
403.75	1208.19
403.974	1286.19
404.198	1232.19
404.422	1229.19
404.645	1255.19
404.869	1225.19
405.093	1238.19
405.317	1237.19
405.541	1195.19
405.765	1177.19
405.988	1202.19
406.212	1218.19
406.436	1220.19
406.66	1259.19
406.883	1266.19
407.107	1330.19
407.331	1380.19
407.555	1437.19
407.778	1395.19
408.002	1368.19
408.226	1325.19
408.449	1341.19
408.673	1251.19
408.896	1280.19
409.12	1236.19
409.344	1219.19
409.567	1236.19
409.791	1262.19
410.014	1225.19
410.238	1207.19
410.461	1215.19
410.685	1214.19
410.908	1159.19
411.132	1179.19
411.355	1169.19
411.578	1139.19
411.802	1139.19
412.025	1158.19
412.249	1148.19
412.472	1169.19
412.695	1116.19
412.919	1099.19
413.142	1087.19
413.365	1128.19
413.589	1135.19
413.812	1101.19
414.035	1093.19
414.258	1102.19
414.482	1122.19
414.705	1127.19
414.928	1147.19
415.151	1123.19
415.374	1096.19
415.597	1087.19
415.821	1096.19
416.044	1102.19
416.267	1100.19
416.49	1064.19
416.713	1099.19
416.936	1113.19
417.159	1095.19
417.382	1068.19
417.605	1075.19
417.828	1077.19
418.051	1114.19
418.274	1141.19
418.497	1091.19
418.72	1139.19
418.943	1101.19
419.166	1178.19
419.389	1271.19
419.611	1236.19
419.834	1180.19
420.057	1152.19
420.28	1136.19
420.503	1113.19
420.726	1092.19
420.948	1082.19
421.171	1089.19
421.394	1098.19
421.617	1107.19
421.839	1063.19
422.062	1103.19
422.285	1065.19
422.507	1139.19
422.73	1121.19
422.953	1118.19
423.175	1109.19
423.398	1127.19
423.621	1131.19
423.843	1175.19
424.066	1172.19
424.288	1170.19
424.511	1145.19
424.733	1153.19
424.956	1128.19
425.178	1079.19
425.401	1099.19
425.623	1102.19
425.846	1088.19
426.068	1059.19
426.291	1028.19
426.513	1053.19
426.735	1079.19
426.958	1072.19
427.18	1004.19
427.402	1007.19
427.625	1034.19
427.847	999.19
428.069	984.19
428.292	1011.19
428.514	988.19
428.736	996.19
428.958	998.19
429.181	986.19
429.403	971.19
429.625	983.19
429.847	992.19
430.069	984.19
430.292	984.19
430.514	972.19
430.736	984.19
430.958	993.19
431.18	960.19
431.402	987.19
431.624	988.19
431.846	992.19
432.068	998.19
432.29	1053.19
432.512	974.19
432.734	1009.19
432.956	984.19
433.178	1013.19
433.4	1010.19
433.622	1022.19
433.844	1053.19
434.066	1017.19
434.287	1020.19
434.509	1049.19
434.731	1121.19
434.953	1116.19
435.175	1101.19
435.397	1122.19
435.618	1077.19
435.84	1041.19
436.062	1003.19
436.284	995.19
436.505	999.19
436.727	1021.19
436.949	1025.19
437.17	1008.19
437.392	988.19
437.614	976.19
437.835	954.19
438.057	979.19
438.278	968.19
438.5	955.19
438.721	978.19
438.943	986.19
439.165	970.19
439.386	991.19
439.608	1012.19
439.829	1021.19
440.05	1023.19
440.272	1015.19
440.493	1012.19
440.715	1021.19
440.936	1046.19
441.158	1069.19
441.379	1063.19
441.6	1141.19
441.822	1137.19
442.043	1136.19
442.264	1152.19
442.486	1063.19
442.707	1139.19
442.928	1107.19
443.149	1092.19
443.371	1093.19
443.592	1105.19
443.813	1120.19
444.034	1106.19
444.255	1172.19
444.476	1189.19
444.698	1275.19
444.919	1314.19
445.14	1395.19
445.361	1261.19
445.582	1171.19
445.803	1101.19
446.024	1065.19
446.245	1043.19
446.466	1053.19
446.687	1011.19
446.908	1041.19
447.129	999.19
447.35	979.19
447.571	965.19
447.792	957.19
448.013	946.19
448.234	921.19
448.455	967.19
448.675	924.19
448.896	937.19
449.117	930.19
449.338	907.19
449.559	922.19
449.779	914.19
450	931.19
450.221	899.19
450.442	930.19
450.662	909.19
450.883	950.19
451.104	919.19
451.324	952.19
451.545	950.19
451.766	894.19
451.986	907.19
452.207	899.19
452.428	900.19
452.648	902.19
452.869	909.19
453.089	901.19
453.31	882.19
453.53	895.19
453.751	891.19
453.971	906.19
454.192	881.19
454.412	902.19
454.633	897.19
454.853	891.19
455.073	867.19
455.294	869.19
455.514	887.19
455.734	899.19
455.955	861.19
456.175	876.19
456.395	867.19
456.616	841.19
456.836	858.19
457.056	868.19
457.276	840.19
457.497	881.19
457.717	869.19
457.937	883.19
458.157	860.19
458.377	879.19
458.598	921.19
458.818	914.19
459.038	939.19
459.258	994.19
459.478	1010.19
459.698	1059.19
459.918	1076.19
460.138	1091.19
460.358	1147.19
460.578	1163.19
460.798	1175.19
461.018	1184.19
461.238	1160.19
461.458	1163.19
461.678	1152.19
461.898	1164.19
462.118	1204.19
462.338	1267.19
462.558	1269.19
462.777	1343.19
462.997	1389.19
463.217	1530.19
463.437	1545.19
463.657	1450.19
463.876	1387.19
464.096	1372.19
464.316	1351.19
464.536	1353.19
464.755	1334.19
464.975	1287.19
465.195	1235.19
465.414	1165.19
465.634	1100.19
465.854	1075.19
466.073	1040.19
466.293	1057.19
466.512	999.19
466.732	981.19
466.951	972.19
467.171	960.19
467.391	981.19
467.61	950.19
467.829	977.19
468.049	933.19
468.268	935.19
468.488	949.19
468.707	957.19
468.927	948.19
469.146	940.19
469.365	959.19
469.585	922.19
469.804	963.19
470.023	1001.19
470.243	1017.19
470.462	1024.19
470.681	1029.19
470.901	1047.19
471.12	998.19
471.339	963.19
471.558	992.19
471.777	949.19
471.997	941.19
472.216	935.19
472.435	932.19
472.654	905.19
472.873	927.19
473.092	922.19
473.311	901.19
473.53	899.19
473.749	907.19
473.968	939.19
474.187	932.19
474.406	912.19
474.625	939.19
474.844	940.19
475.063	935.19
475.282	937.19
475.501	950.19
475.72	947.19
475.939	957.19
476.158	972.19
476.377	986.19
476.596	967.19
476.814	985.19
477.033	969.19
477.252	983.19
477.471	1049.19
477.69	1041.19
477.908	1063.19
478.127	1097.19
478.346	1075.19
478.564	1132.19
478.783	1146.19
479.002	1182.19
479.22	1173.19
479.439	1171.19
479.658	1146.19
479.876	1155.19
480.095	1184.19
480.313	1204.19
480.532	1232.19
480.751	1223.19
480.969	1174.19
481.188	1148.19
481.406	1131.19
481.624	1101.19
481.843	1078.19
482.061	1120.19
482.28	1074.19
482.498	1073.19
482.717	1080.19
482.935	1066.19
483.153	1087.19
483.372	1087.19
483.59	1077.19
483.808	1099.19
484.027	1083.19
484.245	1124.19
484.463	1153.19
484.681	1153.19
484.9	1123.19
485.118	1152.19
485.336	1109.19
485.554	1126.19
485.772	1160.19
485.99	1125.19
486.209	1145.19
486.427	1121.19
486.645	1135.19
486.863	1149.19
487.081	1166.19
487.299	1126.19
487.517	1179.19
487.735	1135.19
487.953	1175.19
488.171	1131.19
488.389	1147.19
488.607	1139.19
488.825	1098.19
489.043	1109.19
489.261	1130.19
489.479	1141.19
489.696	1147.19
489.914	1146.19
490.132	1147.19
490.35	1129.19
490.568	1167.19
490.786	1123.19
491.003	1148.19
491.221	1169.19
491.439	1170.19
491.657	1130.19
491.874	1185.19
492.092	1172.19
492.31	1186.19
492.527	1153.19
492.745	1178.19
492.963	1179.19
493.18	1165.19
493.398	1166.19
493.615	1191.19
493.833	1192.19
494.05	1179.19
494.268	1209.19
494.485	1201.19
494.703	1188.19
494.92	1217.19
495.138	1196.19
495.355	1217.19
495.573	1224.19
495.79	1191.19
496.008	1217.19
496.225	1199.19
496.442	1242.19
496.66	1241.19
496.877	1236.19
497.094	1256.19
497.312	1302.19
