Data from NiCl2@0.0625M.TitratingCurve.Agarose3%dH2O.NegLispCup.LampEnergy10.LIBS07252019_HRD10591_18-32-34-575.txt Node
Date: Thu Jul 25 18:32:34 EDT 2019
User: cochatt
Spectrometer: HR+D1059
Trigger mode: 1
Integration Time (sec): 1.000000E-1
Scans to average: 1
Electric dark correction enabled: true
Nonlinearity correction enabled: false
Boxcar width: 0
XAxis mode: Wavelengths
Number of Pixels in Spectrum: 2048
>>>>>Begin Spectral Data<<<<<
223.165	-21.12
223.4	-21.12
223.635	-21.12
223.869	-9.12
224.104	-9.12
224.338	-9.12
224.573	-33.12
224.808	-2.12
225.042	1.88
225.277	-14.12
225.511	2.88
225.746	-6.12
225.98	8.88
226.215	2.88
226.449	4.88
226.683	23.88
226.918	21.88
227.152	36.88
227.387	47.88
227.621	32.88
227.856	27.88
228.09	30.88
228.324	53.88
228.559	48.88
228.793	72.88
229.027	141.88
229.262	167.88
229.496	158.88
229.73	150.88
229.964	192.88
230.199	178.88
230.433	190.88
230.667	190.88
230.901	185.88
231.136	182.88
231.37	199.88
231.604	191.88
231.838	204.88
232.072	215.88
232.306	209.88
232.541	194.88
232.775	215.88
233.009	194.88
233.243	199.88
233.477	216.88
233.711	215.88
233.945	219.88
234.179	223.88
234.413	213.88
234.647	230.88
234.881	242.88
235.115	226.88
235.349	201.88
235.583	209.88
235.817	231.88
236.051	234.88
236.285	241.88
236.519	222.88
236.753	222.88
236.987	230.88
237.221	232.88
237.455	244.88
237.689	238.88
237.922	261.88
238.156	258.88
238.39	258.88
238.624	252.88
238.858	247.88
239.091	264.88
239.325	270.88
239.559	267.88
239.793	269.88
240.027	282.88
240.26	271.88
240.494	291.88
240.728	303.88
240.961	267.88
241.195	290.88
241.429	288.88
241.662	305.88
241.896	314.88
242.13	331.88
242.363	319.88
242.597	303.88
242.83	290.88
243.064	324.88
243.298	317.88
243.531	319.88
243.765	331.88
243.998	356.88
244.232	320.88
244.465	357.88
244.699	330.88
244.932	361.88
245.166	353.88
245.399	364.88
245.633	344.88
245.866	356.88
246.099	342.88
246.333	364.88
246.566	373.88
246.8	363.88
247.033	370.88
247.266	370.88
247.5	360.88
247.733	378.88
247.966	398.88
248.2	424.88
248.433	430.88
248.666	423.88
248.899	403.88
249.133	401.88
249.366	402.88
249.599	422.88
249.832	394.88
250.066	434.88
250.299	426.88
250.532	425.88
250.765	423.88
250.998	431.88
251.231	415.88
251.465	444.88
251.698	440.88
251.931	450.88
252.164	462.88
252.397	464.88
252.63	458.88
252.863	456.88
253.096	473.88
253.329	462.88
253.562	449.88
253.795	456.88
254.028	453.88
254.261	462.88
254.494	478.88
254.727	480.88
254.96	470.88
255.193	492.88
255.426	498.88
255.659	467.88
255.892	511.88
256.124	475.88
256.357	501.88
256.59	508.88
256.823	479.88
257.056	496.88
257.289	491.88
257.521	516.88
257.754	533.88
257.987	523.88
258.22	507.88
258.452	507.88
258.685	528.88
258.918	528.88
259.151	513.88
259.383	524.88
259.616	522.88
259.849	527.88
260.081	524.88
260.314	558.88
260.547	540.88
260.779	544.88
261.012	568.88
261.244	571.88
261.477	545.88
261.71	555.88
261.942	568.88
262.175	567.88
262.407	568.88
262.64	571.88
262.872	565.88
263.105	558.88
263.337	571.88
263.57	554.88
263.802	592.88
264.035	580.88
264.267	566.88
264.499	596.88
264.732	598.88
264.964	594.88
265.197	604.88
265.429	635.88
265.661	610.88
265.894	619.88
266.126	618.88
266.358	608.88
266.591	594.88
266.823	624.88
267.055	604.88
267.287	626.88
267.52	614.88
267.752	638.88
267.984	614.88
268.216	638.88
268.448	628.88
268.681	639.88
268.913	651.88
269.145	633.88
269.377	647.88
269.609	679.88
269.841	642.88
270.073	627.88
270.306	632.88
270.538	645.88
270.77	659.88
271.002	667.88
271.234	668.88
271.466	686.88
271.698	675.88
271.93	688.88
272.162	702.88
272.394	695.88
272.626	705.88
272.858	679.88
273.09	699.88
273.322	690.88
273.553	688.88
273.785	690.88
274.017	706.88
274.249	722.88
274.481	714.88
274.713	719.88
274.945	730.88
275.176	729.88
275.408	743.88
275.64	738.88
275.872	744.88
276.104	755.88
276.335	724.88
276.567	731.88
276.799	750.88
277.031	730.88
277.262	734.88
277.494	762.88
277.726	766.88
277.957	759.88
278.189	746.88
278.421	752.88
278.652	756.88
278.884	753.88
279.115	799.88
279.347	777.88
279.579	790.88
279.81	802.88
280.042	792.88
280.273	809.88
280.505	828.88
280.736	828.88
280.968	830.88
281.199	793.88
281.431	831.88
281.662	803.88
281.894	804.88
282.125	843.88
282.356	824.88
282.588	826.88
282.819	838.88
283.051	830.88
283.282	842.88
283.513	848.88
283.745	832.88
283.976	826.88
284.207	850.88
284.439	849.88
284.67	871.88
284.901	855.88
285.132	851.88
285.364	862.88
285.595	867.88
285.826	864.88
286.057	875.88
286.288	888.88
286.52	890.88
286.751	895.88
286.982	884.88
287.213	884.88
287.444	901.88
287.675	865.88
287.906	907.88
288.138	893.88
288.369	921.88
288.6	914.88
288.831	909.88
289.062	884.88
289.293	899.88
289.524	896.88
289.755	916.88
289.986	918.88
290.217	915.88
290.448	927.88
290.679	906.88
290.91	933.88
291.141	952.88
291.371	922.88
291.602	930.88
291.833	905.88
292.064	926.88
292.295	911.88
292.526	944.88
292.757	938.88
292.987	934.88
293.218	916.88
293.449	949.88
293.68	940.88
293.91	956.88
294.141	957.88
294.372	920.88
294.603	954.88
294.833	916.88
295.064	966.88
295.295	958.88
295.525	970.88
295.756	960.88
295.987	944.88
296.217	972.88
296.448	967.88
296.679	977.88
296.909	961.88
297.14	967.88
297.37	981.88
297.601	995.88
297.831	990.88
298.062	1011.88
298.292	978.88
298.523	989.88
298.753	1035.88
298.984	1012.88
299.214	1007.88
299.445	987.88
299.675	1011.88
299.905	1032.88
300.136	1012.88
300.366	1013.88
300.597	1040.88
300.827	1030.88
301.057	1047.88
301.288	1030.88
301.518	1051.88
301.748	1015.88
301.979	1074.88
302.209	1090.88
302.439	1077.88
302.669	1060.88
302.9	1064.88
303.13	1038.88
303.36	1082.88
303.59	1016.88
303.82	1027.88
304.051	1073.88
304.281	1087.88
304.511	1066.88
304.741	1089.88
304.971	1095.88
305.201	1064.88
305.431	1056.88
305.661	1036.88
305.891	1074.88
306.121	1041.88
306.352	1081.88
306.582	1055.88
306.812	1040.88
307.042	1056.88
307.272	1057.88
307.502	1044.88
307.731	1049.88
307.961	1039.88
308.191	1061.88
308.421	1063.88
308.651	1046.88
308.881	1040.88
309.111	1054.88
309.341	1048.88
309.571	1075.88
309.8	1072.88
310.03	1050.88
310.26	1063.88
310.49	1043.88
310.72	1067.88
310.949	1046.88
311.179	1059.88
311.409	1073.88
311.639	1097.88
311.868	1105.88
312.098	1099.88
312.328	1105.88
312.557	1091.88
312.787	1113.88
313.017	1111.88
313.246	1092.88
313.476	1110.88
313.706	1121.88
313.935	1103.88
314.165	1150.88
314.394	1162.88
314.624	1109.88
314.853	1121.88
315.083	1138.88
315.312	1153.88
315.542	1136.88
315.771	1139.88
316.001	1145.88
316.23	1131.88
316.46	1156.88
316.689	1121.88
316.919	1119.88
317.148	1138.88
317.377	1141.88
317.607	1134.88
317.836	1112.88
318.065	1160.88
318.295	1146.88
318.524	1139.88
318.753	1114.88
318.983	1140.88
319.212	1115.88
319.441	1114.88
319.67	1136.88
319.9	1117.88
320.129	1125.88
320.358	1123.88
320.587	1135.88
320.816	1109.88
321.046	1140.88
321.275	1140.88
321.504	1163.88
321.733	1154.88
321.962	1124.88
322.191	1142.88
322.42	1148.88
322.649	1169.88
322.878	1130.88
323.108	1129.88
323.337	1143.88
323.566	1153.88
323.795	1193.88
324.024	1177.88
324.253	1146.88
324.482	1165.88
324.71	1153.88
324.939	1161.88
325.168	1185.88
325.397	1186.88
325.626	1179.88
325.855	1209.88
326.084	1247.88
326.313	1234.88
326.542	1198.88
326.77	1246.88
326.999	1202.88
327.228	1238.88
327.457	1211.88
327.686	1210.88
327.914	1276.88
328.143	1238.88
328.372	1251.88
328.6	1217.88
328.829	1235.88
329.058	1254.88
329.287	1233.88
329.515	1235.88
329.744	1231.88
329.972	1235.88
330.201	1255.88
330.43	1232.88
330.658	1281.88
330.887	1270.88
331.115	1291.88
331.344	1282.88
331.572	1302.88
331.801	1322.88
332.03	1346.88
332.258	1401.88
332.486	1382.88
332.715	1449.88
332.943	1485.88
333.172	1555.88
333.4	1580.88
333.629	1583.88
333.857	1608.88
334.085	1592.88
334.314	1576.88
334.542	1571.88
334.771	1566.88
334.999	1507.88
335.227	1526.88
335.455	1550.88
335.684	1512.88
335.912	1496.88
336.14	1520.88
336.369	1496.88
336.597	1502.88
336.825	1459.88
337.053	1453.88
337.281	1478.88
337.51	1396.88
337.738	1420.88
337.966	1402.88
338.194	1396.88
338.422	1362.88
338.65	1350.88
338.878	1366.88
339.106	1350.88
339.334	1349.88
339.562	1351.88
339.79	1310.88
340.018	1321.88
340.246	1293.88
340.474	1271.88
340.702	1308.88
340.93	1334.88
341.158	1295.88
341.386	1292.88
341.614	1320.88
341.842	1308.88
342.07	1266.88
342.298	1283.88
342.526	1301.88
342.754	1319.88
342.981	1313.88
343.209	1337.88
343.437	1367.88
343.665	1409.88
343.893	1476.88
344.12	1536.88
344.348	1504.88
344.576	1449.88
344.804	1424.88
345.031	1347.88
345.259	1327.88
345.487	1330.88
345.714	1288.88
345.942	1316.88
346.17	1293.88
346.397	1293.88
346.625	1218.88
346.853	1247.88
347.08	1222.88
347.308	1234.88
347.535	1215.88
347.763	1236.88
347.99	1234.88
348.218	1215.88
348.445	1205.88
348.673	1200.88
348.9	1248.88
349.128	1239.88
349.355	1224.88
349.583	1229.88
349.81	1218.88
350.037	1243.88
350.265	1162.88
350.492	1203.88
350.72	1211.88
350.947	1206.88
351.174	1195.88
351.402	1228.88
351.629	1234.88
351.856	1207.88
352.083	1170.88
352.311	1208.88
352.538	1190.88
352.765	1203.88
352.992	1159.88
353.22	1183.88
353.447	1188.88
353.674	1196.88
353.901	1173.88
354.128	1175.88
354.355	1185.88
354.583	1160.88
354.81	1171.88
355.037	1223.88
355.264	1195.88
355.491	1209.88
355.718	1232.88
355.945	1191.88
356.172	1202.88
356.399	1178.88
356.626	1219.88
356.853	1210.88
357.08	1180.88
357.307	1212.88
357.534	1225.88
357.761	1214.88
357.988	1220.88
358.215	1183.88
358.441	1202.88
358.668	1175.88
358.895	1156.88
359.122	1202.88
359.349	1188.88
359.576	1186.88
359.802	1200.88
360.029	1193.88
360.256	1201.88
360.483	1204.88
360.709	1179.88
360.936	1205.88
361.163	1198.88
361.39	1219.88
361.616	1204.88
361.843	1204.88
362.07	1206.88
362.296	1200.88
362.523	1205.88
362.749	1213.88
362.976	1187.88
363.203	1201.88
363.429	1204.88
363.656	1183.88
363.882	1186.88
364.109	1207.88
364.335	1182.88
364.562	1190.88
364.788	1170.88
365.015	1211.88
365.241	1190.88
365.468	1202.88
365.694	1166.88
365.92	1181.88
366.147	1204.88
366.373	1205.88
366.599	1200.88
366.826	1222.88
367.052	1198.88
367.278	1213.88
367.505	1192.88
367.731	1201.88
367.957	1198.88
368.184	1208.88
368.41	1239.88
368.636	1220.88
368.862	1230.88
369.089	1216.88
369.315	1200.88
369.541	1235.88
369.767	1241.88
369.993	1234.88
370.219	1234.88
370.445	1227.88
370.672	1260.88
370.898	1266.88
371.124	1326.88
371.35	1284.88
371.576	1251.88
371.802	1292.88
372.028	1284.88
372.254	1295.88
372.48	1317.88
372.706	1354.88
372.932	1320.88
373.158	1353.88
373.384	1323.88
373.61	1307.88
373.835	1306.88
374.061	1311.88
374.287	1352.88
374.513	1327.88
374.739	1382.88
374.965	1403.88
375.191	1417.88
375.416	1426.88
375.642	1425.88
375.868	1374.88
376.094	1348.88
376.319	1306.88
376.545	1328.88
376.771	1319.88
376.997	1318.88
377.222	1306.88
377.448	1288.88
377.674	1294.88
377.899	1305.88
378.125	1302.88
378.35	1254.88
378.576	1280.88
378.802	1270.88
379.027	1275.88
379.253	1282.88
379.478	1296.88
379.704	1284.88
379.929	1318.88
380.155	1272.88
380.38	1265.88
380.606	1278.88
380.831	1296.88
381.057	1270.88
381.282	1292.88
381.507	1291.88
381.733	1311.88
381.958	1339.88
382.184	1339.88
382.409	1363.88
382.634	1396.88
382.86	1338.88
383.085	1350.88
383.31	1397.88
383.535	1415.88
383.761	1403.88
383.986	1400.88
384.211	1478.88
384.436	1490.88
384.662	1499.88
384.887	1503.88
385.112	1497.88
385.337	1524.88
385.562	1564.88
385.787	1564.88
386.013	1580.88
386.238	1560.88
386.463	1589.88
386.688	1602.88
386.913	1557.88
387.138	1507.88
387.363	1567.88
387.588	1515.88
387.813	1532.88
388.038	1521.88
388.263	1563.88
388.488	1583.88
388.713	1571.88
388.938	1541.88
389.163	1491.88
389.387	1491.88
389.612	1539.88
389.837	1520.88
390.062	1508.88
390.287	1586.88
390.512	1519.88
390.736	1582.88
390.961	1620.88
391.186	1577.88
391.411	1623.88
391.636	1674.88
391.86	1705.88
392.085	1727.88
392.31	1696.88
392.534	1690.88
392.759	1695.88
392.984	1640.88
393.208	1671.88
393.433	1786.88
393.658	1833.88
393.882	1707.88
394.107	1631.88
394.331	1652.88
394.556	1669.88
394.78	1666.88
395.005	1695.88
395.229	1676.88
395.454	1703.88
395.678	1750.88
395.903	1762.88
396.127	1744.88
396.352	1721.88
396.576	1678.88
396.801	1733.88
397.025	1830.88
397.249	1812.88
397.474	1760.88
397.698	1732.88
397.922	1791.88
398.147	1795.88
398.371	1782.88
398.595	1887.88
398.82	1910.88
399.044	2050.88
399.268	2257.88
399.492	2471.88
399.717	2693.88
399.941	2724.88
400.165	2520.88
400.389	2344.88
400.613	2151.88
400.837	2045.88
401.062	1996.88
401.286	1907.88
401.51	1945.88
401.734	1923.88
401.958	1956.88
402.182	1963.88
402.406	1975.88
402.63	1970.88
402.854	2009.88
403.078	2032.88
403.302	2057.88
403.526	2113.88
403.75	2108.88
403.974	2134.88
404.198	2107.88
404.422	2138.88
404.645	2121.88
404.869	2121.88
405.093	2113.88
405.317	2105.88
405.541	2116.88
405.765	2090.88
405.988	2087.88
406.212	2083.88
406.436	2100.88
406.66	2119.88
406.883	2135.88
407.107	2270.88
407.331	2369.88
407.555	2439.88
407.778	2404.88
408.002	2366.88
408.226	2319.88
408.449	2376.88
408.673	2202.88
408.896	2182.88
409.12	2126.88
409.344	2163.88
409.567	2131.88
409.791	2158.88
410.014	2135.88
410.238	2108.88
410.461	2155.88
410.685	2078.88
410.908	2063.88
411.132	2057.88
411.355	1986.88
411.578	2051.88
411.802	2016.88
412.025	2038.88
412.249	2050.88
412.472	2043.88
412.695	1993.88
412.919	1931.88
413.142	1954.88
413.365	2006.88
413.589	1936.88
413.812	1923.88
414.035	1864.88
414.258	1922.88
414.482	1919.88
414.705	1928.88
414.928	1923.88
415.151	1904.88
415.374	1877.88
415.597	1928.88
415.821	1863.88
416.044	1855.88
416.267	1839.88
416.49	1855.88
416.713	1844.88
416.936	1855.88
417.159	1865.88
417.382	1859.88
417.605	1819.88
417.828	1871.88
418.051	1867.88
418.274	1839.88
418.497	1849.88
418.72	1909.88
418.943	1904.88
419.166	1996.88
419.389	2143.88
419.611	2061.88
419.834	2038.88
420.057	1947.88
420.28	1901.88
420.503	1876.88
420.726	1850.88
420.948	1830.88
421.171	1839.88
421.394	1902.88
421.617	1847.88
421.839	1831.88
422.062	1870.88
422.285	1822.88
422.507	1874.88
422.73	1885.88
422.953	1900.88
423.175	1882.88
423.398	1936.88
423.621	1902.88
423.843	1924.88
424.066	1930.88
424.288	1920.88
424.511	1911.88
424.733	1915.88
424.956	1894.88
425.178	1889.88
425.401	1871.88
425.623	1893.88
425.846	1804.88
426.068	1790.88
426.291	1804.88
426.513	1804.88
426.735	1785.88
426.958	1759.88
427.18	1751.88
427.402	1733.88
427.625	1718.88
427.847	1730.88
428.069	1705.88
428.292	1670.88
428.514	1668.88
428.736	1693.88
428.958	1694.88
429.181	1680.88
429.403	1657.88
429.625	1668.88
429.847	1671.88
430.069	1657.88
430.292	1656.88
430.514	1642.88
430.736	1668.88
430.958	1686.88
431.18	1674.88
431.402	1712.88
431.624	1669.88
431.846	1681.88
432.068	1723.88
432.29	1714.88
432.512	1702.88
432.734	1695.88
432.956	1655.88
433.178	1726.88
433.4	1702.88
433.622	1722.88
433.844	1760.88
434.066	1708.88
434.287	1765.88
434.509	1770.88
434.731	1856.88
434.953	1873.88
435.175	1883.88
435.397	1890.88
435.618	1782.88
435.84	1738.88
436.062	1737.88
436.284	1727.88
436.505	1660.88
436.727	1669.88
436.949	1678.88
437.17	1684.88
437.392	1664.88
437.614	1651.88
437.835	1629.88
438.057	1618.88
438.278	1621.88
438.5	1619.88
438.721	1609.88
438.943	1636.88
439.165	1602.88
439.386	1618.88
439.608	1631.88
439.829	1680.88
440.05	1671.88
440.272	1710.88
440.493	1684.88
440.715	1682.88
440.936	1717.88
441.158	1751.88
441.379	1782.88
441.6	1846.88
441.822	1864.88
442.043	1844.88
442.264	1866.88
442.486	1798.88
442.707	1835.88
442.928	1800.88
443.149	1822.88
443.371	1783.88
443.592	1848.88
443.813	1867.88
444.034	1823.88
444.255	1915.88
444.476	1994.88
444.698	2064.88
444.919	2138.88
445.14	2111.88
445.361	2002.88
445.582	1886.88
445.803	1812.88
446.024	1744.88
446.245	1760.88
446.466	1754.88
446.687	1666.88
446.908	1689.88
447.129	1656.88
447.35	1623.88
447.571	1566.88
447.792	1531.88
448.013	1588.88
448.234	1556.88
448.455	1551.88
448.675	1543.88
448.896	1511.88
449.117	1536.88
449.338	1574.88
449.559	1515.88
449.779	1491.88
450	1477.88
450.221	1495.88
450.442	1488.88
450.662	1515.88
450.883	1540.88
451.104	1554.88
451.324	1576.88
451.545	1549.88
451.766	1544.88
451.986	1481.88
452.207	1503.88
452.428	1489.88
452.648	1473.88
452.869	1454.88
453.089	1470.88
453.31	1473.88
453.53	1475.88
453.751	1463.88
453.971	1460.88
454.192	1439.88
454.412	1396.88
454.633	1451.88
454.853	1417.88
455.073	1438.88
455.294	1450.88
455.514	1460.88
455.734	1430.88
455.955	1394.88
456.175	1403.88
456.395	1416.88
456.616	1410.88
456.836	1415.88
457.056	1412.88
457.276	1401.88
457.497	1438.88
457.717	1444.88
457.937	1477.88
458.157	1476.88
458.377	1492.88
458.598	1518.88
458.818	1516.88
459.038	1586.88
459.258	1634.88
459.478	1644.88
459.698	1724.88
459.918	1762.88
460.138	1808.88
460.358	1881.88
460.578	1931.88
460.798	1938.88
461.018	1912.88
461.238	1894.88
461.458	1946.88
461.678	1912.88
461.898	1920.88
462.118	1986.88
462.338	2021.88
462.558	2120.88
462.777	2146.88
462.997	2302.88
463.217	2432.88
463.437	2448.88
463.657	2320.88
463.876	2244.88
464.096	2229.88
464.316	2195.88
464.536	2190.88
464.755	2076.88
464.975	2081.88
465.195	1978.88
465.414	1910.88
465.634	1767.88
465.854	1742.88
466.073	1716.88
466.293	1666.88
466.512	1625.88
466.732	1606.88
466.951	1618.88
467.171	1582.88
467.391	1589.88
467.61	1619.88
467.829	1578.88
468.049	1582.88
468.268	1541.88
468.488	1505.88
468.707	1523.88
468.927	1524.88
469.146	1521.88
469.365	1549.88
469.585	1582.88
469.804	1608.88
470.023	1606.88
470.243	1605.88
470.462	1601.88
470.681	1648.88
470.901	1620.88
471.12	1600.88
471.339	1600.88
471.558	1550.88
471.777	1568.88
471.997	1564.88
472.216	1534.88
472.435	1536.88
472.654	1489.88
472.873	1512.88
473.092	1513.88
473.311	1480.88
473.53	1534.88
473.749	1482.88
473.968	1481.88
474.187	1532.88
474.406	1508.88
474.625	1528.88
474.844	1512.88
475.063	1537.88
475.282	1513.88
475.501	1526.88
475.72	1555.88
475.939	1541.88
476.158	1575.88
476.377	1583.88
476.596	1579.88
476.814	1638.88
477.033	1605.88
477.252	1651.88
477.471	1701.88
477.69	1714.88
477.908	1790.88
478.127	1768.88
478.346	1782.88
478.564	1813.88
478.783	1826.88
479.002	1897.88
479.22	1894.88
479.439	1908.88
479.658	1915.88
479.876	1912.88
480.095	1935.88
480.313	1988.88
480.532	2023.88
480.751	2023.88
480.969	1959.88
481.188	1892.88
481.406	1903.88
481.624	1845.88
481.843	1856.88
482.061	1802.88
482.28	1845.88
482.498	1825.88
482.717	1793.88
482.935	1803.88
483.153	1823.88
483.372	1834.88
483.59	1804.88
483.808	1827.88
484.027	1881.88
484.245	1858.88
484.463	1899.88
484.681	1920.88
484.9	1880.88
485.118	1924.88
485.336	1976.88
485.554	1940.88
485.772	1959.88
485.99	1970.88
486.209	1934.88
486.427	1953.88
486.645	1960.88
486.863	1936.88
487.081	1920.88
487.299	1914.88
487.517	1950.88
487.735	1946.88
487.953	1917.88
488.171	1942.88
488.389	1916.88
488.607	1880.88
488.825	1884.88
489.043	1913.88
489.261	1922.88
489.479	1878.88
489.696	1905.88
489.914	1866.88
