Data from NiCl2@0.0625M.TitratingCurve.Agarose3%dH2O.NegLispCup.LampEnergy10.LIBS07252019_HRD10591_18-32-50-576.txt Node
Date: Thu Jul 25 18:32:50 EDT 2019
User: cochatt
Spectrometer: HR+D1059
Trigger mode: 1
Integration Time (sec): 1.000000E-1
Scans to average: 1
Electric dark correction enabled: true
Nonlinearity correction enabled: false
Boxcar width: 0
XAxis mode: Wavelengths
Number of Pixels in Spectrum: 2048
>>>>>Begin Spectral Data<<<<<
223.165	-17.62
223.4	-17.62
223.635	-17.62
223.869	-9.62
224.104	-15.62
224.338	1.38
224.573	-20.62
224.808	-13.62
225.042	-15.62
225.277	-19.62
225.511	-1.62
225.746	9.38
225.98	3.38
226.215	22.38
226.449	25.38
226.683	8.38
226.918	24.38
227.152	19.38
227.387	37.38
227.621	46.38
227.856	52.38
228.09	37.38
228.324	48.38
228.559	44.38
228.793	77.38
229.027	160.38
229.262	177.38
229.496	146.38
229.73	184.38
229.964	194.38
230.199	175.38
230.433	192.38
230.667	166.38
230.901	183.38
231.136	199.38
231.37	210.38
231.604	198.38
231.838	194.38
232.072	200.38
232.306	214.38
232.541	223.38
232.775	212.38
233.009	218.38
233.243	212.38
233.477	209.38
233.711	206.38
233.945	209.38
234.179	212.38
234.413	231.38
234.647	234.38
234.881	220.38
235.115	235.38
235.349	225.38
235.583	232.38
235.817	229.38
236.051	229.38
236.285	230.38
236.519	242.38
236.753	250.38
236.987	255.38
237.221	256.38
237.455	255.38
237.689	261.38
237.922	262.38
238.156	280.38
238.39	258.38
238.624	292.38
238.858	299.38
239.091	289.38
239.325	277.38
239.559	273.38
239.793	292.38
240.027	287.38
240.26	285.38
240.494	306.38
240.728	304.38
240.961	292.38
241.195	294.38
241.429	306.38
241.662	298.38
241.896	316.38
242.13	313.38
242.363	317.38
242.597	322.38
242.83	329.38
243.064	339.38
243.298	333.38
243.531	341.38
243.765	346.38
243.998	338.38
244.232	340.38
244.465	346.38
244.699	346.38
244.932	356.38
245.166	359.38
245.399	368.38
245.633	370.38
245.866	353.38
246.099	362.38
246.333	376.38
246.566	361.38
246.8	366.38
247.033	387.38
247.266	386.38
247.5	396.38
247.733	398.38
247.966	408.38
248.2	416.38
248.433	424.38
248.666	409.38
248.899	397.38
249.133	438.38
249.366	401.38
249.599	417.38
249.832	429.38
250.066	435.38
250.299	438.38
250.532	429.38
250.765	422.38
250.998	437.38
251.231	459.38
251.465	450.38
251.698	453.38
251.931	478.38
252.164	492.38
252.397	474.38
252.63	450.38
252.863	477.38
253.096	493.38
253.329	464.38
253.562	480.38
253.795	463.38
254.028	489.38
254.261	475.38
254.494	474.38
254.727	486.38
254.96	489.38
255.193	508.38
255.426	504.38
255.659	492.38
255.892	519.38
256.124	502.38
256.357	512.38
256.59	507.38
256.823	512.38
257.056	516.38
257.289	521.38
257.521	541.38
257.754	535.38
257.987	527.38
258.22	534.38
258.452	540.38
258.685	550.38
258.918	560.38
259.151	531.38
259.383	557.38
259.616	536.38
259.849	570.38
260.081	558.38
260.314	577.38
260.547	538.38
260.779	568.38
261.012	568.38
261.244	593.38
261.477	569.38
261.71	586.38
261.942	599.38
262.175	582.38
262.407	594.38
262.64	584.38
262.872	587.38
263.105	595.38
263.337	606.38
263.57	604.38
263.802	615.38
264.035	603.38
264.267	628.38
264.499	608.38
264.732	617.38
264.964	605.38
265.197	620.38
265.429	644.38
265.661	626.38
265.894	609.38
266.126	614.38
266.358	635.38
266.591	638.38
266.823	634.38
267.055	644.38
267.287	634.38
267.52	658.38
267.752	640.38
267.984	698.38
268.216	664.38
268.448	655.38
268.681	652.38
268.913	696.38
269.145	685.38
269.377	668.38
269.609	696.38
269.841	689.38
270.073	674.38
270.306	674.38
270.538	716.38
270.77	663.38
271.002	688.38
271.234	682.38
271.466	722.38
271.698	700.38
271.93	696.38
272.162	721.38
272.394	712.38
272.626	698.38
272.858	710.38
273.09	738.38
273.322	708.38
273.553	753.38
273.785	746.38
274.017	762.38
274.249	753.38
274.481	757.38
274.713	774.38
274.945	770.38
275.176	791.38
275.408	760.38
275.64	781.38
275.872	786.38
276.104	795.38
276.335	790.38
276.567	800.38
276.799	764.38
277.031	785.38
277.262	773.38
277.494	808.38
277.726	780.38
277.957	797.38
278.189	787.38
278.421	788.38
278.652	778.38
278.884	778.38
279.115	812.38
279.347	820.38
279.579	846.38
279.81	842.38
280.042	827.38
280.273	826.38
280.505	846.38
280.736	837.38
280.968	833.38
281.199	804.38
281.431	844.38
281.662	854.38
281.894	860.38
282.125	866.38
282.356	873.38
282.588	859.38
282.819	854.38
283.051	868.38
283.282	861.38
283.513	861.38
283.745	875.38
283.976	892.38
284.207	893.38
284.439	882.38
284.67	877.38
284.901	886.38
285.132	890.38
285.364	908.38
285.595	898.38
285.826	918.38
286.057	917.38
286.288	927.38
286.52	934.38
286.751	916.38
286.982	947.38
287.213	906.38
287.444	906.38
287.675	921.38
287.906	928.38
288.138	926.38
288.369	909.38
288.6	918.38
288.831	941.38
289.062	948.38
289.293	956.38
289.524	935.38
289.755	946.38
289.986	946.38
290.217	978.38
290.448	958.38
290.679	954.38
290.91	942.38
291.141	940.38
291.371	951.38
291.602	975.38
291.833	929.38
292.064	957.38
292.295	964.38
292.526	958.38
292.757	965.38
292.987	937.38
293.218	953.38
293.449	953.38
293.68	965.38
293.91	965.38
294.141	953.38
294.372	952.38
294.603	983.38
294.833	1006.38
295.064	993.38
295.295	990.38
295.525	988.38
295.756	1000.38
295.987	962.38
296.217	1013.38
296.448	989.38
296.679	977.38
296.909	996.38
297.14	1001.38
297.37	1048.38
297.601	1013.38
297.831	1032.38
298.062	1049.38
298.292	1024.38
298.523	1056.38
298.753	1070.38
298.984	1047.38
299.214	1046.38
299.445	1054.38
299.675	1036.38
299.905	1074.38
300.136	1065.38
300.366	1061.38
300.597	1073.38
300.827	1048.38
301.057	1094.38
301.288	1105.38
301.518	1098.38
301.748	1108.38
301.979	1138.38
302.209	1121.38
302.439	1114.38
302.669	1112.38
302.9	1083.38
303.13	1079.38
303.36	1072.38
303.59	1080.38
303.82	1076.38
304.051	1111.38
304.281	1110.38
304.511	1113.38
304.741	1096.38
304.971	1116.38
305.201	1084.38
305.431	1065.38
305.661	1090.38
305.891	1121.38
306.121	1077.38
306.352	1102.38
306.582	1083.38
306.812	1090.38
307.042	1122.38
307.272	1076.38
307.502	1106.38
307.731	1086.38
307.961	1081.38
308.191	1090.38
308.421	1112.38
308.651	1094.38
308.881	1075.38
309.111	1084.38
309.341	1070.38
309.571	1102.38
309.8	1113.38
310.03	1120.38
310.26	1102.38
310.49	1102.38
310.72	1084.38
310.949	1098.38
311.179	1121.38
311.409	1097.38
311.639	1104.38
311.868	1118.38
312.098	1144.38
312.328	1140.38
312.557	1162.38
312.787	1162.38
313.017	1138.38
313.246	1145.38
313.476	1146.38
313.706	1160.38
313.935	1179.38
314.165	1183.38
314.394	1137.38
314.624	1191.38
314.853	1154.38
315.083	1139.38
315.312	1217.38
315.542	1209.38
315.771	1182.38
316.001	1180.38
316.23	1181.38
316.46	1172.38
316.689	1183.38
316.919	1182.38
317.148	1168.38
317.377	1193.38
317.607	1178.38
317.836	1152.38
318.065	1162.38
318.295	1189.38
318.524	1173.38
318.753	1162.38
318.983	1158.38
319.212	1165.38
319.441	1173.38
319.67	1170.38
319.9	1151.38
320.129	1157.38
320.358	1178.38
320.587	1172.38
320.816	1150.38
321.046	1182.38
321.275	1172.38
321.504	1162.38
321.733	1201.38
321.962	1176.38
322.191	1200.38
322.42	1202.38
322.649	1209.38
322.878	1196.38
323.108	1173.38
323.337	1212.38
323.566	1216.38
323.795	1204.38
324.024	1192.38
324.253	1204.38
324.482	1229.38
324.71	1246.38
324.939	1237.38
325.168	1226.38
325.397	1236.38
325.626	1252.38
325.855	1245.38
326.084	1236.38
326.313	1275.38
326.542	1295.38
326.77	1314.38
326.999	1288.38
327.228	1231.38
327.457	1254.38
327.686	1279.38
327.914	1277.38
328.143	1278.38
328.372	1319.38
328.6	1309.38
328.829	1280.38
329.058	1255.38
329.287	1280.38
329.515	1292.38
329.744	1296.38
329.972	1285.38
330.201	1315.38
330.43	1306.38
330.658	1325.38
330.887	1333.38
331.115	1342.38
331.344	1310.38
331.572	1337.38
331.801	1385.38
332.03	1410.38
332.258	1389.38
332.486	1462.38
332.715	1466.38
332.943	1444.38
333.172	1564.38
333.4	1602.38
333.629	1652.38
333.857	1662.38
334.085	1638.38
334.314	1627.38
334.542	1600.38
334.771	1656.38
334.999	1577.38
335.227	1615.38
335.455	1593.38
335.684	1568.38
335.912	1597.38
336.14	1537.38
336.369	1509.38
336.597	1562.38
336.825	1524.38
337.053	1501.38
337.281	1480.38
337.51	1476.38
337.738	1458.38
337.966	1441.38
338.194	1440.38
338.422	1419.38
338.65	1404.38
338.878	1389.38
339.106	1381.38
339.334	1414.38
339.562	1374.38
339.79	1358.38
340.018	1341.38
340.246	1357.38
340.474	1374.38
340.702	1350.38
340.93	1342.38
341.158	1362.38
341.386	1336.38
341.614	1354.38
341.842	1359.38
342.07	1328.38
342.298	1346.38
342.526	1316.38
342.754	1361.38
342.981	1354.38
343.209	1410.38
343.437	1464.38
343.665	1433.38
343.893	1564.38
344.12	1576.38
344.348	1564.38
344.576	1473.38
344.804	1450.38
345.031	1419.38
345.259	1362.38
345.487	1354.38
345.714	1356.38
345.942	1331.38
346.17	1323.38
346.397	1304.38
346.625	1304.38
346.853	1260.38
347.08	1252.38
347.308	1277.38
347.535	1293.38
347.763	1295.38
347.99	1271.38
348.218	1269.38
348.445	1313.38
348.673	1286.38
348.9	1282.38
349.128	1261.38
349.355	1267.38
349.583	1298.38
349.81	1278.38
350.037	1255.38
350.265	1238.38
350.492	1256.38
350.72	1290.38
350.947	1248.38
351.174	1266.38
351.402	1257.38
351.629	1243.38
351.856	1255.38
352.083	1242.38
352.311	1226.38
352.538	1242.38
352.765	1249.38
352.992	1256.38
353.22	1214.38
353.447	1214.38
353.674	1227.38
353.901	1224.38
354.128	1249.38
354.355	1249.38
354.583	1242.38
354.81	1226.38
355.037	1258.38
355.264	1266.38
355.491	1251.38
355.718	1204.38
355.945	1236.38
356.172	1275.38
356.399	1254.38
356.626	1267.38
356.853	1237.38
357.08	1265.38
357.307	1238.38
357.534	1258.38
357.761	1244.38
357.988	1282.38
358.215	1269.38
358.441	1246.38
358.668	1216.38
358.895	1267.38
359.122	1206.38
359.349	1228.38
359.576	1228.38
359.802	1264.38
360.029	1240.38
360.256	1243.38
360.483	1213.38
360.709	1250.38
360.936	1245.38
361.163	1260.38
361.39	1242.38
361.616	1219.38
361.843	1252.38
362.07	1234.38
362.296	1238.38
362.523	1267.38
362.749	1302.38
362.976	1245.38
363.203	1257.38
363.429	1219.38
363.656	1266.38
363.882	1250.38
364.109	1259.38
364.335	1250.38
364.562	1222.38
364.788	1267.38
365.015	1240.38
365.241	1244.38
365.468	1258.38
365.694	1234.38
365.92	1242.38
366.147	1256.38
366.373	1262.38
366.599	1251.38
366.826	1221.38
367.052	1267.38
367.278	1258.38
367.505	1230.38
367.731	1268.38
367.957	1246.38
368.184	1284.38
368.41	1311.38
368.636	1307.38
368.862	1278.38
369.089	1269.38
369.315	1301.38
369.541	1296.38
369.767	1285.38
369.993	1319.38
370.219	1297.38
370.445	1285.38
370.672	1320.38
370.898	1361.38
371.124	1382.38
371.35	1356.38
371.576	1356.38
371.802	1347.38
372.028	1372.38
372.254	1366.38
372.48	1368.38
372.706	1394.38
372.932	1402.38
373.158	1417.38
373.384	1351.38
373.61	1364.38
373.835	1387.38
374.061	1340.38
374.287	1357.38
374.513	1383.38
374.739	1432.38
374.965	1450.38
375.191	1492.38
375.416	1492.38
375.642	1411.38
375.868	1438.38
376.094	1390.38
376.319	1371.38
376.545	1384.38
376.771	1386.38
376.997	1353.38
377.222	1349.38
377.448	1348.38
377.674	1344.38
377.899	1331.38
378.125	1333.38
378.35	1320.38
378.576	1341.38
378.802	1346.38
379.027	1358.38
379.253	1357.38
379.478	1356.38
379.704	1331.38
379.929	1331.38
380.155	1335.38
380.38	1339.38
380.606	1353.38
380.831	1326.38
381.057	1310.38
381.282	1357.38
381.507	1354.38
381.733	1376.38
381.958	1378.38
382.184	1398.38
382.409	1378.38
382.634	1406.38
382.86	1415.38
383.085	1427.38
383.31	1435.38
383.535	1469.38
383.761	1456.38
383.986	1488.38
384.211	1487.38
384.436	1529.38
384.662	1546.38
384.887	1566.38
385.112	1556.38
385.337	1594.38
385.562	1596.38
385.787	1602.38
386.013	1624.38
386.238	1639.38
386.463	1614.38
386.688	1643.38
386.913	1616.38
387.138	1600.38
387.363	1591.38
387.588	1584.38
387.813	1586.38
388.038	1577.38
388.263	1632.38
388.488	1629.38
388.713	1568.38
388.938	1605.38
389.163	1581.38
389.387	1626.38
389.612	1588.38
389.837	1598.38
390.062	1611.38
390.287	1607.38
390.512	1597.38
390.736	1607.38
390.961	1659.38
391.186	1638.38
391.411	1670.38
391.636	1732.38
391.86	1746.38
392.085	1792.38
392.31	1810.38
392.534	1760.38
392.759	1726.38
392.984	1725.38
393.208	1747.38
393.433	1754.38
393.658	1826.38
393.882	1696.38
394.107	1686.38
394.331	1680.38
394.556	1704.38
394.78	1720.38
395.005	1734.38
395.229	1721.38
395.454	1714.38
395.678	1783.38
395.903	1821.38
396.127	1784.38
396.352	1762.38
396.576	1706.38
396.801	1766.38
397.025	1830.38
397.249	1800.38
397.474	1854.38
397.698	1796.38
397.922	1843.38
398.147	1815.38
398.371	1885.38
398.595	1919.38
398.82	1966.38
399.044	2090.38
399.268	2330.38
399.492	2525.38
399.717	2711.38
399.941	2746.38
400.165	2545.38
400.389	2329.38
400.613	2223.38
400.837	2124.38
401.062	2077.38
401.286	2052.38
401.51	2016.38
401.734	1976.38
401.958	1998.38
402.182	2000.38
402.406	1995.38
402.63	2048.38
402.854	2108.38
403.078	2119.38
403.302	2107.38
403.526	2163.38
403.75	2131.38
403.974	2196.38
404.198	2169.38
404.422	2158.38
404.645	2166.38
404.869	2147.38
405.093	2200.38
405.317	2135.38
405.541	2190.38
405.765	2138.38
405.988	2139.38
406.212	2151.38
406.436	2177.38
406.66	2231.38
406.883	2220.38
407.107	2365.38
407.331	2454.38
407.555	2491.38
407.778	2458.38
408.002	2442.38
408.226	2408.38
408.449	2359.38
408.673	2276.38
408.896	2228.38
409.12	2236.38
409.344	2251.38
409.567	2172.38
409.791	2184.38
410.014	2181.38
410.238	2185.38
410.461	2169.38
410.685	2150.38
410.908	2110.38
411.132	2097.38
411.355	2061.38
411.578	2056.38
411.802	2096.38
412.025	2074.38
412.249	2061.38
412.472	2078.38
412.695	2026.38
412.919	1980.38
413.142	2006.38
413.365	1966.38
413.589	2023.38
413.812	1995.38
414.035	1981.38
414.258	1953.38
414.482	2006.38
414.705	2017.38
414.928	2068.38
415.151	1984.38
415.374	2000.38
415.597	1991.38
415.821	1924.38
416.044	1944.38
416.267	1930.38
416.49	1924.38
416.713	1914.38
416.936	1912.38
417.159	1916.38
417.382	1923.38
417.605	1883.38
417.828	1894.38
418.051	1937.38
418.274	1920.38
418.497	1924.38
418.72	1970.38
418.943	1955.38
419.166	1995.38
419.389	2266.38
419.611	2132.38
419.834	2062.38
420.057	2012.38
420.28	1952.38
420.503	1874.38
420.726	1897.38
420.948	1905.38
421.171	1886.38
421.394	1932.38
421.617	1914.38
421.839	1900.38
422.062	1928.38
422.285	1892.38
422.507	1957.38
422.73	1941.38
422.953	1976.38
423.175	1949.38
423.398	1988.38
423.621	1987.38
423.843	1994.38
424.066	1999.38
424.288	1994.38
424.511	1968.38
424.733	1929.38
424.956	1963.38
425.178	1925.38
425.401	1910.38
425.623	1923.38
425.846	1869.38
426.068	1918.38
426.291	1840.38
426.513	1850.38
426.735	1820.38
426.958	1833.38
427.18	1832.38
427.402	1811.38
427.625	1802.38
427.847	1744.38
428.069	1816.38
428.292	1805.38
428.514	1678.38
428.736	1739.38
428.958	1756.38
429.181	1741.38
429.403	1748.38
429.625	1774.38
429.847	1701.38
430.069	1735.38
430.292	1733.38
430.514	1727.38
430.736	1713.38
430.958	1743.38
431.18	1749.38
431.402	1776.38
431.624	1732.38
431.846	1772.38
432.068	1720.38
432.29	1765.38
432.512	1756.38
432.734	1792.38
432.956	1769.38
433.178	1768.38
433.4	1793.38
433.622	1802.38
433.844	1803.38
434.066	1796.38
434.287	1786.38
434.509	1872.38
434.731	1879.38
434.953	1885.38
435.175	1935.38
435.397	1906.38
435.618	1866.38
435.84	1828.38
436.062	1759.38
436.284	1773.38
436.505	1754.38
436.727	1773.38
436.949	1764.38
437.17	1750.38
437.392	1747.38
437.614	1708.38
437.835	1684.38
438.057	1703.38
438.278	1653.38
438.5	1649.38
438.721	1678.38
438.943	1663.38
439.165	1668.38
439.386	1695.38
439.608	1685.38
439.829	1725.38
440.05	1712.38
440.272	1717.38
440.493	1698.38
440.715	1736.38
440.936	1748.38
441.158	1818.38
441.379	1841.38
441.6	1918.38
441.822	1884.38
442.043	1908.38
442.264	1885.38
442.486	1879.38
442.707	1846.38
442.928	1856.38
443.149	1877.38
443.371	1839.38
443.592	1878.38
443.813	1899.38
444.034	1914.38
444.255	1968.38
444.476	2032.38
444.698	2092.38
444.919	2146.38
445.14	2244.38
445.361	2052.38
445.582	1958.38
445.803	1884.38
446.024	1840.38
446.245	1821.38
446.466	1757.38
446.687	1722.38
446.908	1736.38
447.129	1698.38
447.35	1662.38
447.571	1665.38
447.792	1623.38
448.013	1598.38
448.234	1610.38
448.455	1603.38
448.675	1588.38
448.896	1578.38
449.117	1546.38
449.338	1557.38
449.559	1531.38
449.779	1535.38
450	1522.38
450.221	1542.38
450.442	1589.38
450.662	1548.38
450.883	1547.38
451.104	1609.38
451.324	1568.38
451.545	1580.38
451.766	1555.38
451.986	1525.38
452.207	1549.38
452.428	1549.38
452.648	1516.38
452.869	1499.38
453.089	1500.38
453.31	1521.38
453.53	1502.38
453.751	1474.38
453.971	1508.38
454.192	1510.38
454.412	1490.38
454.633	1503.38
454.853	1492.38
455.073	1426.38
455.294	1465.38
455.514	1448.38
455.734	1494.38
455.955	1443.38
456.175	1477.38
456.395	1484.38
456.616	1424.38
456.836	1429.38
457.056	1480.38
457.276	1462.38
457.497	1496.38
457.717	1492.38
457.937	1494.38
458.157	1509.38
458.377	1551.38
458.598	1548.38
458.818	1596.38
459.038	1591.38
459.258	1660.38
459.478	1718.38
459.698	1792.38
459.918	1798.38
460.138	1860.38
460.358	1904.38
460.578	1902.38
460.798	1957.38
461.018	1990.38
461.238	2002.38
461.458	1931.38
461.678	1912.38
461.898	1966.38
462.118	2002.38
462.338	2089.38
462.558	2116.38
462.777	2223.38
462.997	2334.38
463.217	2457.38
463.437	2482.38
463.657	2356.38
463.876	2236.38
464.096	2296.38
464.316	2260.38
464.536	2246.38
464.755	2161.38
464.975	2103.38
465.195	1977.38
465.414	1929.38
465.634	1842.38
465.854	1788.38
466.073	1765.38
466.293	1723.38
466.512	1671.38
466.732	1684.38
466.951	1678.38
467.171	1656.38
467.391	1664.38
467.61	1626.38
467.829	1642.38
468.049	1595.38
468.268	1587.38
468.488	1581.38
468.707	1566.38
468.927	1579.38
469.146	1580.38
469.365	1610.38
469.585	1606.38
469.804	1603.38
470.023	1685.38
470.243	1690.38
470.462	1647.38
470.681	1697.38
470.901	1668.38
471.12	1700.38
471.339	1655.38
471.558	1603.38
471.777	1653.38
471.997	1604.38
472.216	1609.38
472.435	1566.38
472.654	1598.38
472.873	1554.38
473.092	1572.38
473.311	1568.38
473.53	1579.38
473.749	1547.38
473.968	1571.38
474.187	1547.38
474.406	1544.38
474.625	1540.38
474.844	1600.38
475.063	1583.38
475.282	1552.38
475.501	1589.38
475.72	1641.38
475.939	1623.38
476.158	1651.38
476.377	1637.38
476.596	1658.38
476.814	1686.38
477.033	1677.38
477.252	1684.38
477.471	1727.38
477.69	1792.38
477.908	1828.38
478.127	1835.38
478.346	1882.38
478.564	1893.38
478.783	1916.38
479.002	1961.38
479.22	1975.38
479.439	1999.38
479.658	1979.38
479.876	2008.38
480.095	2026.38
480.313	2085.38
480.532	2034.38
480.751	2068.38
480.969	2070.38
481.188	1985.38
481.406	1934.38
481.624	1932.38
481.843	1905.38
482.061	1915.38
482.28	1875.38
482.498	1906.38
482.717	1886.38
482.935	1932.38
483.153	1914.38
483.372	1908.38
483.59	1952.38
483.808	1945.38
484.027	1940.38
484.245	1952.38
484.463	1960.38
484.681	1967.38
484.9	1984.38
485.118	2000.38
485.336	2011.38
485.554	2015.38
485.772	2028.38
485.99	1999.38
486.209	2018.38
486.427	1954.38
486.645	2044.38
486.863	1970.38
487.081	2008.38
487.299	1996.38
487.517	2023.38
487.735	1975.38
487.953	2003.38
488.171	1981.38
488.389	1936.38
488.607	1960.38
488.825	1980.38
489.043	1957.38
489.261	1975.38
489.479	1965.38
489.696	1947.38
