Data from NiCl2@0.5M.TitratingCurve.Agarose3%dH2O.NegLispCup.LampEnergy10.LIBS07252019_HRD10591_18-20-15-571.txt Node
Date: Thu Jul 25 18:20:15 EDT 2019
User: cochatt
Spectrometer: HR+D1059
Trigger mode: 1
Integration Time (sec): 1.000000E-1
Scans to average: 1
Electric dark correction enabled: true
Nonlinearity correction enabled: false
Boxcar width: 0
XAxis mode: Wavelengths
Number of Pixels in Spectrum: 2048
>>>>>Begin Spectral Data<<<<<
223.165	-20.81
223.4	-20.81
223.635	-20.81
223.869	-26.81
224.104	-22.81
224.338	-12.81
224.573	-23.81
224.808	-2.81
225.042	-2.81
225.277	-0.81
225.511	8.19
225.746	-4.81
225.98	1.19
226.215	19.19
226.449	4.19
226.683	30.19
226.918	28.19
227.152	27.19
227.387	41.19
227.621	46.19
227.856	44.19
228.09	53.19
228.324	59.19
228.559	77.19
228.793	86.19
229.027	108.19
229.262	111.19
229.496	119.19
229.73	117.19
229.964	131.19
230.199	122.19
230.433	141.19
230.667	124.19
230.901	132.19
231.136	129.19
231.37	144.19
231.604	140.19
231.838	145.19
232.072	149.19
232.306	138.19
232.541	145.19
232.775	145.19
233.009	138.19
233.243	163.19
233.477	149.19
233.711	157.19
233.945	159.19
234.179	161.19
234.413	165.19
234.647	155.19
234.881	159.19
235.115	150.19
235.349	150.19
235.583	149.19
235.817	152.19
236.051	149.19
236.285	153.19
236.519	143.19
236.753	154.19
236.987	153.19
237.221	153.19
237.455	155.19
237.689	177.19
237.922	160.19
238.156	164.19
238.39	173.19
238.624	170.19
238.858	171.19
239.091	181.19
239.325	172.19
239.559	158.19
239.793	167.19
240.027	195.19
240.26	187.19
240.494	172.19
240.728	166.19
240.961	186.19
241.195	176.19
241.429	181.19
241.662	174.19
241.896	193.19
242.13	181.19
242.363	204.19
242.597	177.19
242.83	191.19
243.064	185.19
243.298	191.19
243.531	197.19
243.765	215.19
243.998	213.19
244.232	204.19
244.465	204.19
244.699	197.19
244.932	204.19
245.166	203.19
245.399	223.19
245.633	210.19
245.866	209.19
246.099	216.19
246.333	215.19
246.566	213.19
246.8	210.19
247.033	218.19
247.266	230.19
247.5	228.19
247.733	219.19
247.966	219.19
248.2	225.19
248.433	224.19
248.666	228.19
248.899	243.19
249.133	230.19
249.366	258.19
249.599	249.19
249.832	241.19
250.066	250.19
250.299	246.19
250.532	247.19
250.765	230.19
250.998	234.19
251.231	257.19
251.465	249.19
251.698	277.19
251.931	236.19
252.164	272.19
252.397	258.19
252.63	261.19
252.863	282.19
253.096	285.19
253.329	274.19
253.562	268.19
253.795	262.19
254.028	274.19
254.261	273.19
254.494	269.19
254.727	258.19
254.96	265.19
255.193	273.19
255.426	287.19
255.659	289.19
255.892	267.19
256.124	265.19
256.357	272.19
256.59	277.19
256.823	273.19
257.056	301.19
257.289	271.19
257.521	287.19
257.754	314.19
257.987	297.19
258.22	289.19
258.452	269.19
258.685	306.19
258.918	283.19
259.151	299.19
259.383	310.19
259.616	302.19
259.849	301.19
260.081	308.19
260.314	308.19
260.547	322.19
260.779	310.19
261.012	301.19
261.244	313.19
261.477	321.19
261.71	336.19
261.942	325.19
262.175	326.19
262.407	318.19
262.64	310.19
262.872	331.19
263.105	315.19
263.337	338.19
263.57	334.19
263.802	334.19
264.035	324.19
264.267	324.19
264.499	323.19
264.732	335.19
264.964	345.19
265.197	347.19
265.429	343.19
265.661	353.19
265.894	329.19
266.126	321.19
266.358	346.19
266.591	342.19
266.823	350.19
267.055	348.19
267.287	350.19
267.52	366.19
267.752	353.19
267.984	343.19
268.216	364.19
268.448	377.19
268.681	349.19
268.913	356.19
269.145	353.19
269.377	358.19
269.609	360.19
269.841	353.19
270.073	365.19
270.306	365.19
270.538	368.19
270.77	351.19
271.002	367.19
271.234	362.19
271.466	376.19
271.698	385.19
271.93	386.19
272.162	380.19
272.394	381.19
272.626	389.19
272.858	376.19
273.09	385.19
273.322	387.19
273.553	399.19
273.785	392.19
274.017	389.19
274.249	398.19
274.481	371.19
274.713	389.19
274.945	389.19
275.176	391.19
275.408	399.19
275.64	394.19
275.872	406.19
276.104	400.19
276.335	398.19
276.567	394.19
276.799	412.19
277.031	406.19
277.262	399.19
277.494	411.19
277.726	418.19
277.957	420.19
278.189	428.19
278.421	412.19
278.652	414.19
278.884	429.19
279.115	424.19
279.347	415.19
279.579	436.19
279.81	429.19
280.042	426.19
280.273	432.19
280.505	455.19
280.736	433.19
280.968	438.19
281.199	441.19
281.431	461.19
281.662	459.19
281.894	443.19
282.125	436.19
282.356	445.19
282.588	448.19
282.819	458.19
283.051	464.19
283.282	453.19
283.513	467.19
283.745	454.19
283.976	466.19
284.207	458.19
284.439	456.19
284.67	474.19
284.901	490.19
285.132	477.19
285.364	477.19
285.595	487.19
285.826	468.19
286.057	478.19
286.288	453.19
286.52	471.19
286.751	484.19
286.982	496.19
287.213	507.19
287.444	479.19
287.675	485.19
287.906	501.19
288.138	489.19
288.369	489.19
288.6	507.19
288.831	491.19
289.062	489.19
289.293	494.19
289.524	527.19
289.755	507.19
289.986	496.19
290.217	499.19
290.448	521.19
290.679	525.19
290.91	517.19
291.141	484.19
291.371	509.19
291.602	506.19
291.833	499.19
292.064	500.19
292.295	497.19
292.526	534.19
292.757	531.19
292.987	491.19
293.218	515.19
293.449	511.19
293.68	522.19
293.91	525.19
294.141	521.19
294.372	523.19
294.603	535.19
294.833	543.19
295.064	535.19
295.295	510.19
295.525	515.19
295.756	515.19
295.987	539.19
296.217	532.19
296.448	538.19
296.679	548.19
296.909	535.19
297.14	544.19
297.37	541.19
297.601	552.19
297.831	553.19
298.062	564.19
298.292	557.19
298.523	564.19
298.753	544.19
298.984	561.19
299.214	548.19
299.445	547.19
299.675	571.19
299.905	555.19
300.136	564.19
300.366	581.19
300.597	562.19
300.827	562.19
301.057	593.19
301.288	598.19
301.518	610.19
301.748	591.19
301.979	611.19
302.209	574.19
302.439	573.19
302.669	577.19
302.9	605.19
303.13	585.19
303.36	588.19
303.59	576.19
303.82	607.19
304.051	589.19
304.281	557.19
304.511	602.19
304.741	598.19
304.971	565.19
305.201	591.19
305.431	598.19
305.661	595.19
305.891	587.19
306.121	589.19
306.352	575.19
306.582	578.19
306.812	553.19
307.042	569.19
307.272	588.19
307.502	563.19
307.731	573.19
307.961	564.19
308.191	583.19
308.421	582.19
308.651	575.19
308.881	564.19
309.111	565.19
309.341	572.19
309.571	571.19
309.8	599.19
310.03	587.19
310.26	580.19
310.49	576.19
310.72	585.19
310.949	587.19
311.179	607.19
311.409	575.19
311.639	582.19
311.868	592.19
312.098	588.19
312.328	596.19
312.557	624.19
312.787	603.19
313.017	618.19
313.246	614.19
313.476	622.19
313.706	637.19
313.935	655.19
314.165	604.19
314.394	609.19
314.624	625.19
314.853	614.19
315.083	620.19
315.312	615.19
315.542	636.19
315.771	601.19
316.001	609.19
316.23	610.19
316.46	636.19
316.689	624.19
316.919	610.19
317.148	625.19
317.377	630.19
317.607	603.19
317.836	592.19
318.065	610.19
318.295	615.19
318.524	605.19
318.753	603.19
318.983	606.19
319.212	585.19
319.441	629.19
319.67	597.19
319.9	618.19
320.129	605.19
320.358	636.19
320.587	611.19
320.816	612.19
321.046	617.19
321.275	635.19
321.504	616.19
321.733	603.19
321.962	636.19
322.191	635.19
322.42	607.19
322.649	640.19
322.878	635.19
323.108	644.19
323.337	651.19
323.566	620.19
323.795	623.19
324.024	652.19
324.253	647.19
324.482	640.19
324.71	659.19
324.939	657.19
325.168	643.19
325.397	652.19
325.626	677.19
325.855	659.19
326.084	672.19
326.313	677.19
326.542	681.19
326.77	676.19
326.999	669.19
327.228	652.19
327.457	667.19
327.686	683.19
327.914	685.19
328.143	683.19
328.372	674.19
328.6	652.19
328.829	675.19
329.058	703.19
329.287	673.19
329.515	688.19
329.744	693.19
329.972	686.19
330.201	709.19
330.43	707.19
330.658	702.19
330.887	694.19
331.115	676.19
331.344	731.19
331.572	742.19
331.801	706.19
332.03	753.19
332.258	754.19
332.486	799.19
332.715	797.19
332.943	826.19
333.172	851.19
333.4	903.19
333.629	894.19
333.857	906.19
334.085	872.19
334.314	874.19
334.542	845.19
334.771	842.19
334.999	835.19
335.227	836.19
335.455	834.19
335.684	812.19
335.912	815.19
336.14	825.19
336.369	799.19
336.597	827.19
336.825	796.19
337.053	807.19
337.281	810.19
337.51	797.19
337.738	759.19
337.966	761.19
338.194	733.19
338.422	748.19
338.65	717.19
338.878	730.19
339.106	705.19
339.334	738.19
339.562	711.19
339.79	714.19
340.018	728.19
340.246	693.19
340.474	706.19
340.702	717.19
340.93	707.19
341.158	709.19
341.386	716.19
341.614	718.19
341.842	703.19
342.07	720.19
342.298	705.19
342.526	707.19
342.754	701.19
342.981	709.19
343.209	718.19
343.437	751.19
343.665	783.19
343.893	808.19
344.12	873.19
344.348	803.19
344.576	774.19
344.804	739.19
345.031	717.19
345.259	708.19
345.487	702.19
345.714	702.19
345.942	672.19
346.17	709.19
346.397	691.19
346.625	675.19
346.853	666.19
347.08	687.19
347.308	677.19
347.535	669.19
347.763	656.19
347.99	665.19
348.218	682.19
348.445	688.19
348.673	671.19
348.9	694.19
349.128	665.19
349.355	657.19
349.583	663.19
349.81	662.19
350.037	659.19
350.265	677.19
350.492	667.19
350.72	644.19
350.947	656.19
351.174	668.19
351.402	661.19
351.629	659.19
351.856	653.19
352.083	655.19
352.311	654.19
352.538	675.19
352.765	671.19
352.992	665.19
353.22	655.19
353.447	647.19
353.674	627.19
353.901	643.19
354.128	641.19
354.355	622.19
354.583	643.19
354.81	643.19
355.037	656.19
355.264	663.19
355.491	658.19
355.718	663.19
355.945	640.19
356.172	656.19
356.399	676.19
356.626	655.19
356.853	646.19
357.08	651.19
357.307	634.19
357.534	659.19
357.761	651.19
357.988	643.19
358.215	643.19
358.441	629.19
358.668	636.19
358.895	633.19
359.122	643.19
359.349	646.19
359.576	658.19
359.802	649.19
360.029	642.19
360.256	621.19
360.483	641.19
360.709	638.19
360.936	643.19
361.163	645.19
361.39	663.19
361.616	663.19
361.843	649.19
362.07	672.19
362.296	662.19
362.523	612.19
362.749	651.19
362.976	626.19
363.203	632.19
363.429	675.19
363.656	640.19
363.882	626.19
364.109	655.19
364.335	637.19
364.562	648.19
364.788	644.19
365.015	640.19
365.241	634.19
365.468	621.19
365.694	628.19
365.92	650.19
366.147	624.19
366.373	613.19
366.599	638.19
366.826	617.19
367.052	605.19
367.278	631.19
367.505	640.19
367.731	662.19
367.957	642.19
368.184	634.19
368.41	627.19
368.636	647.19
368.862	657.19
369.089	650.19
369.315	655.19
369.541	652.19
369.767	657.19
369.993	656.19
370.219	667.19
370.445	676.19
370.672	692.19
370.898	665.19
371.124	689.19
371.35	682.19
371.576	692.19
371.802	705.19
372.028	671.19
372.254	676.19
372.48	678.19
372.706	695.19
372.932	710.19
373.158	713.19
373.384	696.19
373.61	690.19
373.835	697.19
374.061	682.19
374.287	705.19
374.513	719.19
374.739	717.19
374.965	740.19
375.191	764.19
375.416	749.19
375.642	731.19
375.868	747.19
376.094	719.19
376.319	705.19
376.545	690.19
376.771	685.19
376.997	705.19
377.222	701.19
377.448	677.19
377.674	701.19
377.899	706.19
378.125	663.19
378.35	662.19
378.576	677.19
378.802	662.19
379.027	674.19
379.253	686.19
379.478	663.19
379.704	659.19
379.929	654.19
380.155	674.19
380.38	668.19
380.606	682.19
380.831	682.19
381.057	702.19
381.282	669.19
381.507	672.19
381.733	675.19
381.958	679.19
382.184	703.19
382.409	710.19
382.634	725.19
382.86	713.19
383.085	733.19
383.31	719.19
383.535	723.19
383.761	749.19
383.986	777.19
384.211	754.19
384.436	768.19
384.662	774.19
384.887	806.19
385.112	814.19
385.337	835.19
385.562	797.19
385.787	811.19
386.013	829.19
386.238	802.19
386.463	833.19
386.688	814.19
386.913	819.19
387.138	806.19
387.363	791.19
387.588	803.19
387.813	794.19
388.038	783.19
388.263	787.19
388.488	789.19
388.713	803.19
388.938	768.19
389.163	775.19
389.387	790.19
389.612	779.19
389.837	783.19
390.062	779.19
390.287	774.19
390.512	794.19
390.736	785.19
390.961	814.19
391.186	820.19
391.411	857.19
391.636	847.19
391.86	896.19
392.085	924.19
392.31	905.19
392.534	877.19
392.759	863.19
392.984	852.19
393.208	844.19
393.433	861.19
393.658	862.19
393.882	860.19
394.107	858.19
394.331	867.19
394.556	853.19
394.78	851.19
395.005	851.19
395.229	853.19
395.454	907.19
395.678	905.19
395.903	927.19
396.127	882.19
396.352	882.19
396.576	844.19
396.801	854.19
397.025	854.19
397.249	882.19
397.474	891.19
397.698	889.19
397.922	897.19
398.147	929.19
398.371	922.19
398.595	979.19
398.82	986.19
399.044	1040.19
399.268	1157.19
399.492	1373.19
399.717	1511.19
399.941	1469.19
400.165	1334.19
400.389	1209.19
400.613	1101.19
400.837	1037.19
401.062	1017.19
401.286	998.19
401.51	1023.19
401.734	997.19
401.958	1002.19
402.182	1029.19
402.406	1001.19
402.63	1024.19
402.854	1099.19
403.078	1087.19
403.302	1096.19
403.526	1120.19
403.75	1153.19
403.974	1135.19
404.198	1159.19
404.422	1179.19
404.645	1158.19
404.869	1149.19
405.093	1111.19
405.317	1101.19
405.541	1108.19
405.765	1114.19
405.988	1091.19
406.212	1095.19
406.436	1103.19
406.66	1117.19
406.883	1109.19
407.107	1215.19
407.331	1256.19
407.555	1293.19
407.778	1275.19
408.002	1262.19
408.226	1207.19
408.449	1194.19
408.673	1171.19
408.896	1143.19
409.12	1139.19
409.344	1152.19
409.567	1133.19
409.791	1131.19
410.014	1132.19
410.238	1153.19
410.461	1131.19
410.685	1093.19
410.908	1097.19
411.132	1070.19
411.355	1049.19
411.578	1059.19
411.802	1037.19
412.025	1038.19
412.249	1079.19
412.472	1043.19
412.695	1014.19
412.919	1026.19
413.142	1004.19
413.365	1027.19
413.589	1022.19
413.812	991.19
414.035	1001.19
414.258	1035.19
414.482	1026.19
414.705	1037.19
414.928	1033.19
415.151	1019.19
415.374	1019.19
415.597	1007.19
415.821	996.19
416.044	993.19
416.267	981.19
416.49	999.19
416.713	967.19
416.936	992.19
417.159	980.19
417.382	1011.19
417.605	1005.19
417.828	990.19
418.051	1035.19
418.274	1014.19
418.497	1011.19
418.72	1010.19
418.943	1012.19
419.166	1072.19
419.389	1134.19
419.611	1097.19
419.834	1089.19
420.057	1039.19
420.28	1023.19
420.503	1012.19
420.726	1005.19
420.948	988.19
421.171	988.19
421.394	998.19
421.617	1029.19
421.839	993.19
422.062	1017.19
422.285	982.19
422.507	1017.19
422.73	1010.19
422.953	1061.19
423.175	1047.19
423.398	1084.19
423.621	1096.19
423.843	1093.19
424.066	1077.19
424.288	1073.19
424.511	1041.19
424.733	1050.19
424.956	1025.19
425.178	1024.19
425.401	1035.19
425.623	1033.19
425.846	951.19
426.068	992.19
426.291	949.19
426.513	965.19
426.735	925.19
426.958	966.19
427.18	929.19
427.402	929.19
427.625	952.19
427.847	950.19
428.069	902.19
428.292	927.19
428.514	914.19
428.736	864.19
428.958	901.19
429.181	893.19
429.403	885.19
429.625	888.19
429.847	913.19
430.069	904.19
430.292	880.19
430.514	874.19
430.736	892.19
430.958	872.19
431.18	852.19
431.402	901.19
431.624	875.19
431.846	926.19
432.068	921.19
432.29	941.19
432.512	904.19
432.734	903.19
432.956	906.19
433.178	908.19
433.4	929.19
433.622	960.19
433.844	949.19
434.066	932.19
434.287	926.19
434.509	963.19
434.731	975.19
434.953	1024.19
435.175	1004.19
435.397	994.19
435.618	967.19
435.84	966.19
436.062	910.19
436.284	909.19
436.505	898.19
436.727	927.19
436.949	921.19
437.17	909.19
437.392	889.19
437.614	877.19
437.835	872.19
438.057	868.19
438.278	849.19
438.5	866.19
438.721	874.19
438.943	876.19
439.165	895.19
439.386	905.19
439.608	913.19
439.829	933.19
440.05	891.19
440.272	927.19
440.493	932.19
440.715	929.19
440.936	941.19
441.158	993.19
441.379	984.19
441.6	1037.19
441.822	1064.19
442.043	1051.19
442.264	1005.19
442.486	1004.19
442.707	1036.19
442.928	1007.19
443.149	1025.19
443.371	995.19
443.592	1033.19
443.813	1047.19
444.034	1049.19
444.255	1041.19
444.476	1101.19
444.698	1198.19
444.919	1222.19
445.14	1243.19
445.361	1142.19
445.582	1063.19
445.803	990.19
446.024	979.19
446.245	931.19
446.466	957.19
446.687	950.19
446.908	937.19
447.129	945.19
447.35	904.19
447.571	911.19
447.792	887.19
448.013	884.19
448.234	854.19
448.455	866.19
448.675	853.19
448.896	851.19
449.117	839.19
449.338	832.19
449.559	845.19
449.779	835.19
450	866.19
450.221	847.19
450.442	854.19
450.662	860.19
450.883	850.19
451.104	870.19
451.324	895.19
451.545	851.19
451.766	861.19
451.986	843.19
452.207	849.19
452.428	857.19
452.648	835.19
452.869	844.19
453.089	861.19
453.31	851.19
453.53	820.19
453.751	819.19
453.971	828.19
454.192	795.19
454.412	830.19
454.633	795.19
454.853	838.19
455.073	809.19
455.294	785.19
455.514	792.19
455.734	791.19
455.955	777.19
456.175	774.19
456.395	797.19
456.616	796.19
456.836	799.19
457.056	794.19
457.276	807.19
457.497	789.19
457.717	795.19
457.937	801.19
458.157	819.19
458.377	830.19
458.598	831.19
458.818	861.19
459.038	874.19
459.258	902.19
459.478	924.19
459.698	930.19
459.918	988.19
460.138	1019.19
460.358	1097.19
460.578	1092.19
460.798	1090.19
461.018	1120.19
461.238	1067.19
461.458	1053.19
461.678	1079.19
461.898	1110.19
462.118	1073.19
462.338	1169.19
462.558	1214.19
462.777	1241.19
462.997	1304.19
463.217	1436.19
463.437	1441.19
463.657	1317.19
463.876	1253.19
464.096	1254.19
464.316	1211.19
464.536	1247.19
464.755	1210.19
464.975	1151.19
465.195	1119.19
465.414	1078.19
465.634	1002.19
465.854	953.19
466.073	940.19
466.293	935.19
466.512	899.19
466.732	908.19
466.951	887.19
467.171	916.19
467.391	909.19
467.61	845.19
467.829	890.19
468.049	881.19
468.268	879.19
468.488	872.19
468.707	844.19
468.927	870.19
469.146	834.19
469.365	855.19
469.585	869.19
469.804	905.19
470.023	897.19
470.243	917.19
470.462	925.19
470.681	914.19
470.901	929.19
471.12	932.19
471.339	889.19
471.558	879.19
471.777	879.19
471.997	870.19
472.216	864.19
472.435	873.19
472.654	835.19
472.873	856.19
473.092	845.19
473.311	817.19
473.53	827.19
473.749	842.19
473.968	807.19
474.187	819.19
474.406	849.19
474.625	847.19
474.844	840.19
475.063	855.19
475.282	830.19
475.501	851.19
475.72	880.19
475.939	866.19
476.158	882.19
476.377	878.19
476.596	896.19
476.814	877.19
477.033	870.19
477.252	912.19
477.471	925.19
477.69	941.19
477.908	1002.19
478.127	1012.19
478.346	983.19
478.564	1023.19
478.783	1038.19
479.002	1044.19
479.22	1065.19
479.439	1057.19
479.658	1069.19
479.876	1046.19
480.095	1070.19
480.313	1116.19
480.532	1158.19
480.751	1117.19
480.969	1059.19
481.188	1010.19
481.406	1020.19
481.624	996.19
481.843	936.19
482.061	985.19
482.28	971.19
482.498	992.19
482.717	948.19
482.935	989.19
483.153	989.19
483.372	993.19
483.59	962.19
483.808	987.19
484.027	984.19
484.245	981.19
484.463	949.19
484.681	976.19
484.9	1011.19
485.118	989.19
485.336	1009.19
485.554	1012.19
485.772	1001.19
485.99	1025.19
486.209	997.19
486.427	1021.19
486.645	1008.19
486.863	1043.19
487.081	1015.19
487.299	1005.19
487.517	1037.19
487.735	1018.19
487.953	1013.19
488.171	1037.19
488.389	1009.19
488.607	1004.19
488.825	985.19
489.043	1006.19
489.261	997.19
489.479	1018.19
489.696	1034.19
489.914	1024.19
490.132	1033.19
490.35	1004.19
490.568	986.19
490.786	1046.19
491.003	1045.19
491.221	1044.19
491.439	1043.19
491.657	1046.19
491.874	1034.19
492.092	1020.19
492.31	1044.19
492.527	1028.19
492.745	1058.19
492.963	1052.19
493.18	1034.19
493.398	1057.19
493.615	1055.19
493.833	1062.19
494.05	1032.19
494.268	1058.19
494.485	1072.19
494.703	1063.19
494.92	1086.19
495.138	1095.19
495.355	1106.19
495.573	1084.19
495.79	1092.19
496.008	1125.19
496.225	1097.19
496.442	1123.19
496.66	1101.19
496.877	1154.19
497.094	1140.19
497.312	1152.19
497.529	1194.19
497.746	1225.19
497.963	1228.19
498.181	1300.19
498.398	1358.19
498.615	1445.19
