Data from NiCl2@0.5M.TitratingCurve.Agarose3%dH2O.NegLispCup.LampEnergy10.LIBS07252019_HRD10591_18-18-34-571.txt Node
Date: Thu Jul 25 18:18:34 EDT 2019
User: cochatt
Spectrometer: HR+D1059
Trigger mode: 1
Integration Time (sec): 1.000000E-1
Scans to average: 1
Electric dark correction enabled: true
Nonlinearity correction enabled: false
Boxcar width: 0
XAxis mode: Wavelengths
Number of Pixels in Spectrum: 2048
>>>>>Begin Spectral Data<<<<<
223.165	-23.69
223.4	-23.69
223.635	-23.69
223.869	-13.69
224.104	-22.69
224.338	-19.69
224.573	-18.69
224.808	-11.69
225.042	-7.69
225.277	0.31
225.511	-5.69
225.746	6.31
225.98	12.31
226.215	14.31
226.449	21.31
226.683	11.31
226.918	29.31
227.152	28.31
227.387	43.31
227.621	61.31
227.856	48.31
228.09	45.31
228.324	46.31
228.559	59.31
228.793	80.31
229.027	175.31
229.262	187.31
229.496	206.31
229.73	196.31
229.964	235.31
230.199	290.31
230.433	291.31
230.667	268.31
230.901	271.31
231.136	227.31
231.37	229.31
231.604	243.31
231.838	300.31
232.072	313.31
232.306	273.31
232.541	251.31
232.775	243.31
233.009	223.31
233.243	238.31
233.477	234.31
233.711	229.31
233.945	253.31
234.179	262.31
234.413	250.31
234.647	237.31
234.881	262.31
235.115	244.31
235.349	238.31
235.583	235.31
235.817	231.31
236.051	238.31
236.285	235.31
236.519	255.31
236.753	227.31
236.987	246.31
237.221	263.31
237.455	252.31
237.689	264.31
237.922	267.31
238.156	282.31
238.39	268.31
238.624	287.31
238.858	282.31
239.091	275.31
239.325	312.31
239.559	328.31
239.793	352.31
240.027	365.31
240.26	294.31
240.494	279.31
240.728	297.31
240.961	295.31
241.195	310.31
241.429	303.31
241.662	331.31
241.896	378.31
242.13	394.31
242.363	324.31
242.597	322.31
242.83	303.31
243.064	317.31
243.298	330.31
243.531	334.31
243.765	336.31
243.998	382.31
244.232	375.31
244.465	377.31
244.699	360.31
244.932	340.31
245.166	351.31
245.399	368.31
245.633	345.31
245.866	358.31
246.099	374.31
246.333	360.31
246.566	368.31
246.8	358.31
247.033	387.31
247.266	384.31
247.5	377.31
247.733	386.31
247.966	378.31
248.2	406.31
248.433	400.31
248.666	411.31
248.899	399.31
249.133	412.31
249.366	406.31
249.599	409.31
249.832	431.31
250.066	410.31
250.299	401.31
250.532	429.31
250.765	420.31
250.998	434.31
251.231	478.31
251.465	502.31
251.698	478.31
251.931	461.31
252.164	452.31
252.397	454.31
252.63	459.31
252.863	453.31
253.096	470.31
253.329	444.31
253.562	446.31
253.795	463.31
254.028	482.31
254.261	486.31
254.494	481.31
254.727	499.31
254.96	496.31
255.193	478.31
255.426	491.31
255.659	486.31
255.892	498.31
256.124	494.31
256.357	522.31
256.59	507.31
256.823	524.31
257.056	523.31
257.289	521.31
257.521	532.31
257.754	528.31
257.987	520.31
258.22	538.31
258.452	542.31
258.685	532.31
258.918	534.31
259.151	542.31
259.383	525.31
259.616	528.31
259.849	547.31
260.081	568.31
260.314	548.31
260.547	552.31
260.779	563.31
261.012	549.31
261.244	577.31
261.477	584.31
261.71	591.31
261.942	575.31
262.175	583.31
262.407	590.31
262.64	601.31
262.872	590.31
263.105	604.31
263.337	597.31
263.57	600.31
263.802	620.31
264.035	616.31
264.267	603.31
264.499	619.31
264.732	590.31
264.964	614.31
265.197	638.31
265.429	628.31
265.661	621.31
265.894	662.31
266.126	616.31
266.358	631.31
266.591	650.31
266.823	685.31
267.055	646.31
267.287	678.31
267.52	652.31
267.752	636.31
267.984	657.31
268.216	652.31
268.448	660.31
268.681	683.31
268.913	666.31
269.145	668.31
269.377	688.31
269.609	676.31
269.841	688.31
270.073	678.31
270.306	660.31
270.538	685.31
270.77	698.31
271.002	688.31
271.234	702.31
271.466	702.31
271.698	704.31
271.93	708.31
272.162	731.31
272.394	709.31
272.626	702.31
272.858	728.31
273.09	727.31
273.322	741.31
273.553	736.31
273.785	722.31
274.017	723.31
274.249	768.31
274.481	733.31
274.713	736.31
274.945	778.31
275.176	775.31
275.408	760.31
275.64	750.31
275.872	755.31
276.104	772.31
276.335	786.31
276.567	769.31
276.799	788.31
277.031	799.31
277.262	774.31
277.494	815.31
277.726	799.31
277.957	799.31
278.189	798.31
278.421	801.31
278.652	833.31
278.884	806.31
279.115	827.31
279.347	809.31
279.579	808.31
279.81	828.31
280.042	814.31
280.273	814.31
280.505	844.31
280.736	826.31
280.968	838.31
281.199	855.31
281.431	830.31
281.662	833.31
281.894	836.31
282.125	842.31
282.356	864.31
282.588	866.31
282.819	875.31
283.051	864.31
283.282	858.31
283.513	870.31
283.745	875.31
283.976	854.31
284.207	872.31
284.439	880.31
284.67	887.31
284.901	911.31
285.132	916.31
285.364	908.31
285.595	909.31
285.826	899.31
286.057	917.31
286.288	895.31
286.52	933.31
286.751	921.31
286.982	919.31
287.213	902.31
287.444	911.31
287.675	919.31
287.906	943.31
288.138	941.31
288.369	927.31
288.6	932.31
288.831	940.31
289.062	956.31
289.293	944.31
289.524	937.31
289.755	962.31
289.986	941.31
290.217	947.31
290.448	976.31
290.679	968.31
290.91	965.31
291.141	985.31
291.371	959.31
291.602	962.31
291.833	979.31
292.064	977.31
292.295	976.31
292.526	978.31
292.757	1000.31
292.987	952.31
293.218	959.31
293.449	985.31
293.68	992.31
293.91	972.31
294.141	961.31
294.372	966.31
294.603	971.31
294.833	983.31
295.064	966.31
295.295	994.31
295.525	996.31
295.756	971.31
295.987	957.31
296.217	1005.31
296.448	986.31
296.679	991.31
296.909	1006.31
297.14	1017.31
297.37	1042.31
297.601	1018.31
297.831	1014.31
298.062	1014.31
298.292	1063.31
298.523	1087.31
298.753	1083.31
298.984	1036.31
299.214	1046.31
299.445	1074.31
299.675	1061.31
299.905	1049.31
300.136	1112.31
300.366	1143.31
300.597	1164.31
300.827	1133.31
301.057	1110.31
301.288	1140.31
301.518	1120.31
301.748	1111.31
301.979	1103.31
302.209	1120.31
302.439	1110.31
302.669	1106.31
302.9	1082.31
303.13	1096.31
303.36	1134.31
303.59	1104.31
303.82	1158.31
304.051	1179.31
304.281	1170.31
304.511	1117.31
304.741	1123.31
304.971	1125.31
305.201	1188.31
305.431	1186.31
305.661	1165.31
305.891	1176.31
306.121	1172.31
306.352	1160.31
306.582	1108.31
306.812	1095.31
307.042	1122.31
307.272	1122.31
307.502	1119.31
307.731	1099.31
307.961	1136.31
308.191	1143.31
308.421	1107.31
308.651	1115.31
308.881	1110.31
309.111	1112.31
309.341	1108.31
309.571	1128.31
309.8	1150.31
310.03	1149.31
310.26	1243.31
310.49	1254.31
310.72	1164.31
310.949	1118.31
311.179	1116.31
311.409	1142.31
311.639	1135.31
311.868	1150.31
312.098	1171.31
312.328	1196.31
312.557	1175.31
312.787	1179.31
313.017	1171.31
313.246	1229.31
313.476	1255.31
313.706	1258.31
313.935	1208.31
314.165	1215.31
314.394	1219.31
314.624	1208.31
314.853	1162.31
315.083	1195.31
315.312	1239.31
315.542	1197.31
315.771	1198.31
316.001	1208.31
316.23	1180.31
316.46	1223.31
316.689	1215.31
316.919	1212.31
317.148	1195.31
317.377	1235.31
317.607	1190.31
317.836	1177.31
318.065	1205.31
318.295	1233.31
318.524	1232.31
318.753	1223.31
318.983	1238.31
319.212	1220.31
319.441	1195.31
319.67	1204.31
319.9	1199.31
320.129	1220.31
320.358	1234.31
320.587	1248.31
320.816	1253.31
321.046	1206.31
321.275	1221.31
321.504	1229.31
321.733	1257.31
321.962	1245.31
322.191	1228.31
322.42	1258.31
322.649	1255.31
322.878	1240.31
323.108	1261.31
323.337	1253.31
323.566	1306.31
323.795	1276.31
324.024	1282.31
324.253	1274.31
324.482	1293.31
324.71	1266.31
324.939	1306.31
325.168	1322.31
325.397	1287.31
325.626	1295.31
325.855	1308.31
326.084	1282.31
326.313	1327.31
326.542	1297.31
326.77	1302.31
326.999	1301.31
327.228	1327.31
327.457	1309.31
327.686	1317.31
327.914	1285.31
328.143	1340.31
328.372	1322.31
328.6	1335.31
328.829	1313.31
329.058	1348.31
329.287	1330.31
329.515	1340.31
329.744	1332.31
329.972	1354.31
330.201	1326.31
330.43	1372.31
330.658	1362.31
330.887	1365.31
331.115	1358.31
331.344	1387.31
331.572	1406.31
331.801	1412.31
332.03	1416.31
332.258	1441.31
332.486	1451.31
332.715	1501.31
332.943	1486.31
333.172	1508.31
333.4	1523.31
333.629	1571.31
333.857	1611.31
334.085	1616.31
334.314	1625.31
334.542	1611.31
334.771	1609.31
334.999	1538.31
335.227	1575.31
335.455	1621.31
335.684	1596.31
335.912	1580.31
336.14	1595.31
336.369	1608.31
336.597	1593.31
336.825	1551.31
337.053	1638.31
337.281	1599.31
337.51	1554.31
337.738	1550.31
337.966	1546.31
338.194	1593.31
338.422	1556.31
338.65	1487.31
338.878	1468.31
339.106	1470.31
339.334	1528.31
339.562	1486.31
339.79	1434.31
340.018	1430.31
340.246	1413.31
340.474	1426.31
340.702	1419.31
340.93	1384.31
341.158	1444.31
341.386	1497.31
341.614	1578.31
341.842	1508.31
342.07	1458.31
342.298	1408.31
342.526	1446.31
342.754	1410.31
342.981	1429.31
343.209	1428.31
343.437	1488.31
343.665	1559.31
343.893	1545.31
344.12	1599.31
344.348	1601.31
344.576	1543.31
344.804	1585.31
345.031	1512.31
345.259	1471.31
345.487	1464.31
345.714	1475.31
345.942	1534.31
346.17	1559.31
346.397	1511.31
346.625	1378.31
346.853	1383.31
347.08	1349.31
347.308	1391.31
347.535	1415.31
347.763	1325.31
347.99	1328.31
348.218	1355.31
348.445	1353.31
348.673	1362.31
348.9	1355.31
349.128	1370.31
349.355	1416.31
349.583	1441.31
349.81	1363.31
350.037	1357.31
350.265	1302.31
350.492	1327.31
350.72	1326.31
350.947	1310.31
351.174	1396.31
351.402	1420.31
351.629	1434.31
351.856	1429.31
352.083	1352.31
352.311	1390.31
352.538	1465.31
352.765	1470.31
352.992	1322.31
353.22	1285.31
353.447	1276.31
353.674	1227.31
353.901	1300.31
354.128	1274.31
354.355	1278.31
354.583	1241.31
354.81	1274.31
355.037	1296.31
355.264	1270.31
355.491	1263.31
355.718	1254.31
355.945	1290.31
356.172	1260.31
356.399	1337.31
356.626	1332.31
356.853	1400.31
357.08	1362.31
357.307	1293.31
357.534	1314.31
357.761	1284.31
357.988	1302.31
358.215	1266.31
358.441	1245.31
358.668	1305.31
358.895	1281.31
359.122	1261.31
359.349	1296.31
359.576	1289.31
359.802	1311.31
360.029	1289.31
360.256	1262.31
360.483	1262.31
360.709	1255.31
360.936	1311.31
361.163	1347.31
361.39	1319.31
361.616	1312.31
361.843	1327.31
362.07	1446.31
362.296	1406.31
362.523	1288.31
362.749	1294.31
362.976	1268.31
363.203	1276.31
363.429	1251.31
363.656	1288.31
363.882	1275.31
364.109	1261.31
364.335	1262.31
364.562	1282.31
364.788	1275.31
365.015	1269.31
365.241	1259.31
365.468	1284.31
365.694	1227.31
365.92	1280.31
366.147	1265.31
366.373	1264.31
366.599	1290.31
366.826	1261.31
367.052	1254.31
367.278	1268.31
367.505	1272.31
367.731	1284.31
367.957	1276.31
368.184	1251.31
368.41	1274.31
368.636	1310.31
368.862	1314.31
369.089	1306.31
369.315	1313.31
369.541	1264.31
369.767	1273.31
369.993	1276.31
370.219	1305.31
370.445	1301.31
370.672	1308.31
370.898	1334.31
371.124	1332.31
371.35	1350.31
371.576	1368.31
371.802	1356.31
372.028	1332.31
372.254	1325.31
372.48	1347.31
372.706	1359.31
372.932	1385.31
373.158	1371.31
373.384	1368.31
373.61	1378.31
373.835	1369.31
374.061	1348.31
374.287	1404.31
374.513	1392.31
374.739	1426.31
374.965	1416.31
375.191	1451.31
375.416	1452.31
375.642	1410.31
375.868	1388.31
376.094	1359.31
376.319	1347.31
376.545	1367.31
376.771	1353.31
376.997	1349.31
377.222	1322.31
377.448	1336.31
377.674	1345.31
377.899	1339.31
378.125	1352.31
378.35	1309.31
378.576	1338.31
378.802	1327.31
379.027	1342.31
379.253	1342.31
379.478	1322.31
379.704	1339.31
379.929	1305.31
380.155	1312.31
380.38	1308.31
380.606	1313.31
380.831	1330.31
381.057	1378.31
381.282	1329.31
381.507	1319.31
381.733	1351.31
381.958	1350.31
382.184	1366.31
382.409	1380.31
382.634	1369.31
382.86	1347.31
383.085	1437.31
383.31	1424.31
383.535	1416.31
383.761	1399.31
383.986	1418.31
384.211	1405.31
384.436	1461.31
384.662	1471.31
384.887	1514.31
385.112	1517.31
385.337	1490.31
385.562	1544.31
385.787	1551.31
386.013	1623.31
386.238	1583.31
386.463	1550.31
386.688	1571.31
386.913	1549.31
387.138	1562.31
387.363	1565.31
387.588	1543.31
387.813	1572.31
388.038	1508.31
388.263	1544.31
388.488	1562.31
388.713	1575.31
388.938	1576.31
389.163	1544.31
389.387	1530.31
389.612	1515.31
389.837	1559.31
390.062	1540.31
390.287	1589.31
390.512	1557.31
390.736	1591.31
390.961	1581.31
391.186	1597.31
391.411	1621.31
391.636	1628.31
391.86	1636.31
392.085	1654.31
392.31	1701.31
392.534	1683.31
392.759	1638.31
392.984	1635.31
393.208	1635.31
393.433	1680.31
393.658	1659.31
393.882	1598.31
394.107	1572.31
394.331	1644.31
394.556	1640.31
394.78	1623.31
395.005	1650.31
395.229	1620.31
395.454	1690.31
395.678	1685.31
395.903	1700.31
396.127	1698.31
396.352	1670.31
396.576	1700.31
396.801	1683.31
397.025	1690.31
397.249	1728.31
397.474	1758.31
397.698	1759.31
397.922	1796.31
398.147	1749.31
398.371	1830.31
398.595	1848.31
398.82	1887.31
399.044	1987.31
399.268	2070.31
399.492	2255.31
399.717	2373.31
399.941	2394.31
400.165	2320.31
400.389	2237.31
400.613	2115.31
400.837	2039.31
401.062	2001.31
401.286	1908.31
401.51	1895.31
401.734	1916.31
401.958	1955.31
402.182	1902.31
402.406	1886.31
402.63	1938.31
402.854	1966.31
403.078	1919.31
403.302	1931.31
403.526	1994.31
403.75	2003.31
403.974	1984.31
404.198	1980.31
404.422	1996.31
404.645	2005.31
404.869	2025.31
405.093	2032.31
405.317	1992.31
405.541	2010.31
405.765	2027.31
405.988	2000.31
406.212	2045.31
406.436	1983.31
406.66	2063.31
406.883	2088.31
407.107	2178.31
407.331	2234.31
407.555	2294.31
407.778	2265.31
408.002	2246.31
408.226	2230.31
408.449	2203.31
408.673	2122.31
408.896	2123.31
409.12	2099.31
409.344	2089.31
409.567	2056.31
409.791	2063.31
410.014	2025.31
410.238	2039.31
410.461	2006.31
410.685	2008.31
410.908	1991.31
411.132	1992.31
411.355	1907.31
411.578	1983.31
411.802	1973.31
412.025	1977.31
412.249	2000.31
412.472	1987.31
412.695	1944.31
412.919	1963.31
413.142	1919.31
413.365	1888.31
413.589	1896.31
413.812	1906.31
414.035	1912.31
414.258	1900.31
414.482	1920.31
414.705	1897.31
414.928	1919.31
415.151	1862.31
415.374	1883.31
415.597	1854.31
415.821	1872.31
416.044	1829.31
416.267	1860.31
416.49	1849.31
416.713	1830.31
416.936	1836.31
417.159	1846.31
417.382	1807.31
417.605	1800.31
417.828	1803.31
418.051	1835.31
418.274	1846.31
418.497	1812.31
418.72	1858.31
418.943	1833.31
419.166	1961.31
419.389	2117.31
419.611	2029.31
419.834	1987.31
420.057	1924.31
420.28	1859.31
420.503	1856.31
420.726	1832.31
420.948	1826.31
421.171	1824.31
421.394	1825.31
421.617	1853.31
421.839	1815.31
422.062	1815.31
422.285	1812.31
422.507	1875.31
422.73	1864.31
422.953	1874.31
423.175	1871.31
423.398	1890.31
423.621	1882.31
423.843	1858.31
424.066	1853.31
424.288	1869.31
424.511	1861.31
424.733	1841.31
424.956	1782.31
425.178	1832.31
425.401	1850.31
425.623	1834.31
425.846	1773.31
426.068	1845.31
426.291	1820.31
426.513	1806.31
426.735	1771.31
426.958	1798.31
427.18	1759.31
427.402	1720.31
427.625	1798.31
427.847	1766.31
428.069	1726.31
428.292	1766.31
428.514	1732.31
428.736	1716.31
428.958	1740.31
429.181	1739.31
429.403	1725.31
429.625	1696.31
429.847	1722.31
430.069	1709.31
430.292	1726.31
430.514	1716.31
430.736	1691.31
430.958	1692.31
431.18	1725.31
431.402	1696.31
431.624	1718.31
431.846	1735.31
432.068	1748.31
432.29	1766.31
432.512	1714.31
432.734	1778.31
432.956	1744.31
433.178	1811.31
433.4	1831.31
433.622	1787.31
433.844	1821.31
434.066	1796.31
434.287	1824.31
434.509	1842.31
434.731	1861.31
434.953	1869.31
435.175	1947.31
435.397	1934.31
435.618	1814.31
435.84	1815.31
436.062	1798.31
436.284	1759.31
436.505	1777.31
436.727	1755.31
436.949	1716.31
437.17	1779.31
437.392	1730.31
437.614	1746.31
437.835	1656.31
438.057	1711.31
438.278	1675.31
438.5	1664.31
438.721	1674.31
438.943	1707.31
439.165	1652.31
439.386	1677.31
439.608	1722.31
439.829	1705.31
440.05	1728.31
440.272	1742.31
440.493	1770.31
440.715	1783.31
440.936	1787.31
441.158	1763.31
441.379	1844.31
441.6	1877.31
441.822	1837.31
442.043	1884.31
442.264	1885.31
442.486	1835.31
442.707	1844.31
442.928	1832.31
443.149	1895.31
443.371	1902.31
443.592	1992.31
443.813	1950.31
444.034	1889.31
444.255	1934.31
444.476	1982.31
444.698	2010.31
444.919	2162.31
445.14	2172.31
445.361	2106.31
445.582	1978.31
445.803	1887.31
446.024	1835.31
446.245	1835.31
446.466	1774.31
446.687	1771.31
446.908	1743.31
447.129	1696.31
447.35	1706.31
447.571	1694.31
447.792	1668.31
448.013	1670.31
448.234	1602.31
448.455	1622.31
448.675	1607.31
448.896	1616.31
449.117	1603.31
449.338	1598.31
449.559	1565.31
449.779	1530.31
450	1571.31
450.221	1599.31
450.442	1568.31
450.662	1577.31
450.883	1616.31
451.104	1706.31
451.324	1607.31
451.545	1599.31
451.766	1570.31
451.986	1540.31
452.207	1585.31
452.428	1577.31
452.648	1588.31
452.869	1574.31
453.089	1586.31
453.31	1607.31
453.53	1543.31
453.751	1555.31
453.971	1535.31
454.192	1579.31
454.412	1629.31
454.633	1566.31
454.853	1563.31
455.073	1516.31
455.294	1522.31
455.514	1515.31
455.734	1602.31
455.955	1618.31
456.175	1628.31
456.395	1536.31
456.616	1479.31
456.836	1498.31
457.056	1507.31
457.276	1499.31
457.497	1587.31
457.717	1610.31
457.937	1605.31
458.157	1594.31
458.377	1605.31
458.598	1590.31
458.818	1633.31
459.038	1695.31
459.258	1732.31
459.478	1833.31
459.698	1988.31
459.918	2006.31
460.138	1930.31
460.358	2001.31
460.578	2020.31
460.798	2100.31
461.018	2130.31
461.238	2003.31
461.458	2040.31
461.678	1963.31
461.898	2003.31
462.118	1989.31
462.338	2072.31
462.558	2125.31
462.777	2262.31
462.997	2349.31
463.217	2421.31
463.437	2480.31
463.657	2382.31
463.876	2308.31
464.096	2309.31
464.316	2216.31
464.536	2211.31
464.755	2162.31
464.975	2093.31
465.195	2040.31
465.414	1960.31
465.634	1902.31
465.854	1834.31
466.073	1806.31
466.293	1759.31
466.512	1736.31
466.732	1735.31
466.951	1750.31
467.171	1745.31
467.391	1703.31
467.61	1736.31
467.829	1719.31
468.049	1680.31
468.268	1619.31
468.488	1666.31
468.707	1658.31
468.927	1690.31
469.146	1683.31
469.365	1755.31
469.585	1737.31
469.804	1701.31
470.023	1716.31
470.243	1698.31
470.462	1736.31
470.681	1702.31
470.901	1760.31
471.12	1749.31
471.339	1705.31
471.558	1752.31
471.777	1738.31
471.997	1700.31
472.216	1702.31
472.435	1684.31
472.654	1693.31
472.873	1672.31
473.092	1624.31
473.311	1616.31
473.53	1637.31
473.749	1634.31
473.968	1667.31
474.187	1653.31
474.406	1679.31
474.625	1712.31
474.844	1678.31
475.063	1693.31
475.282	1711.31
475.501	1737.31
475.72	1753.31
475.939	1727.31
476.158	1728.31
476.377	1740.31
476.596	1735.31
476.814	1765.31
477.033	1759.31
477.252	1801.31
477.471	1833.31
477.69	1861.31
477.908	1880.31
478.127	1873.31
478.346	1930.31
478.564	2002.31
478.783	2020.31
479.002	2055.31
479.22	2169.31
479.439	2120.31
479.658	2058.31
479.876	2054.31
480.095	2075.31
480.313	2116.31
480.532	2095.31
480.751	2073.31
480.969	2098.31
481.188	2056.31
481.406	2032.31
481.624	2023.31
481.843	1982.31
482.061	2026.31
482.28	1965.31
482.498	1963.31
482.717	1968.31
482.935	1981.31
483.153	2043.31
483.372	2052.31
483.59	2136.31
483.808	2062.31
484.027	2012.31
484.245	2027.31
484.463	2050.31
484.681	2069.31
484.9	2014.31
485.118	2038.31
485.336	2082.31
485.554	2057.31
485.772	2124.31
485.99	2100.31
486.209	2064.31
486.427	2076.31
486.645	2049.31
486.863	2132.31
487.081	2055.31
487.299	2098.31
487.517	2117.31
487.735	2122.31
487.953	2139.31
488.171	2078.31
488.389	2086.31
488.607	2074.31
488.825	2049.31
489.043	2008.31
489.261	2063.31
489.479	2051.31
489.696	2030.31
