Data from NiCl2@0.0625M.TitratingCurve.Agarose3%dH2O.NegLispCup.LampEnergy10.LIBS07252019_HRD10591_18-34-14-576.txt Node
Date: Thu Jul 25 18:34:14 EDT 2019
User: cochatt
Spectrometer: HR+D1059
Trigger mode: 1
Integration Time (sec): 1.000000E-1
Scans to average: 1
Electric dark correction enabled: true
Nonlinearity correction enabled: false
Boxcar width: 0
XAxis mode: Wavelengths
Number of Pixels in Spectrum: 2048
>>>>>Begin Spectral Data<<<<<
223.165	-13.06
223.4	-13.06
223.635	-13.06
223.869	-32.06
224.104	-20.06
224.338	-10.06
224.573	-9.06
224.808	-24.06
225.042	-6.06
225.277	-17.06
225.511	-7.06
225.746	8.94
225.98	2.94
226.215	2.94
226.449	37.94
226.683	10.94
226.918	27.94
227.152	46.94
227.387	26.94
227.621	41.94
227.856	56.94
228.09	41.94
228.324	40.94
228.559	50.94
228.793	80.94
229.027	126.94
229.262	142.94
229.496	157.94
229.73	154.94
229.964	157.94
230.199	179.94
230.433	178.94
230.667	178.94
230.901	181.94
231.136	188.94
231.37	178.94
231.604	182.94
231.838	184.94
232.072	204.94
232.306	193.94
232.541	191.94
232.775	200.94
233.009	198.94
233.243	212.94
233.477	212.94
233.711	201.94
233.945	213.94
234.179	197.94
234.413	215.94
234.647	218.94
234.881	212.94
235.115	218.94
235.349	231.94
235.583	213.94
235.817	223.94
236.051	217.94
236.285	225.94
236.519	233.94
236.753	230.94
236.987	215.94
237.221	235.94
237.455	224.94
237.689	254.94
237.922	255.94
238.156	241.94
238.39	236.94
238.624	250.94
238.858	268.94
239.091	260.94
239.325	268.94
239.559	244.94
239.793	262.94
240.027	278.94
240.26	277.94
240.494	287.94
240.728	278.94
240.961	287.94
241.195	288.94
241.429	284.94
241.662	282.94
241.896	298.94
242.13	304.94
242.363	306.94
242.597	279.94
242.83	299.94
243.064	289.94
243.298	323.94
243.531	292.94
243.765	311.94
243.998	324.94
244.232	304.94
244.465	313.94
244.699	342.94
244.932	353.94
245.166	344.94
245.399	350.94
245.633	335.94
245.866	340.94
246.099	334.94
246.333	354.94
246.566	346.94
246.8	350.94
247.033	354.94
247.266	351.94
247.5	340.94
247.733	358.94
247.966	379.94
248.2	376.94
248.433	400.94
248.666	374.94
248.899	394.94
249.133	396.94
249.366	384.94
249.599	391.94
249.832	393.94
250.066	398.94
250.299	381.94
250.532	406.94
250.765	398.94
250.998	417.94
251.231	423.94
251.465	421.94
251.698	438.94
251.931	419.94
252.164	415.94
252.397	455.94
252.63	422.94
252.863	436.94
253.096	448.94
253.329	437.94
253.562	462.94
253.795	470.94
254.028	450.94
254.261	444.94
254.494	446.94
254.727	464.94
254.96	438.94
255.193	459.94
255.426	462.94
255.659	461.94
255.892	469.94
256.124	445.94
256.357	472.94
256.59	459.94
256.823	459.94
257.056	465.94
257.289	490.94
257.521	484.94
257.754	489.94
257.987	482.94
258.22	499.94
258.452	528.94
258.685	502.94
258.918	474.94
259.151	504.94
259.383	501.94
259.616	491.94
259.849	530.94
260.081	521.94
260.314	514.94
260.547	524.94
260.779	502.94
261.012	552.94
261.244	543.94
261.477	528.94
261.71	545.94
261.942	534.94
262.175	535.94
262.407	554.94
262.64	553.94
262.872	573.94
263.105	555.94
263.337	569.94
263.57	566.94
263.802	568.94
264.035	554.94
264.267	560.94
264.499	563.94
264.732	556.94
264.964	586.94
265.197	588.94
265.429	567.94
265.661	586.94
265.894	569.94
266.126	592.94
266.358	586.94
266.591	596.94
266.823	585.94
267.055	584.94
267.287	614.94
267.52	610.94
267.752	589.94
267.984	591.94
268.216	619.94
268.448	600.94
268.681	590.94
268.913	602.94
269.145	623.94
269.377	615.94
269.609	601.94
269.841	632.94
270.073	636.94
270.306	671.94
270.538	633.94
270.77	628.94
271.002	614.94
271.234	630.94
271.466	653.94
271.698	652.94
271.93	656.94
272.162	676.94
272.394	647.94
272.626	656.94
272.858	664.94
273.09	639.94
273.322	660.94
273.553	641.94
273.785	685.94
274.017	678.94
274.249	681.94
274.481	681.94
274.713	682.94
274.945	728.94
275.176	686.94
275.408	703.94
275.64	682.94
275.872	686.94
276.104	714.94
276.335	707.94
276.567	719.94
276.799	710.94
277.031	718.94
277.262	705.94
277.494	728.94
277.726	734.94
277.957	716.94
278.189	736.94
278.421	726.94
278.652	727.94
278.884	729.94
279.115	756.94
279.347	717.94
279.579	756.94
279.81	770.94
280.042	762.94
280.273	760.94
280.505	785.94
280.736	801.94
280.968	755.94
281.199	763.94
281.431	768.94
281.662	798.94
281.894	794.94
282.125	816.94
282.356	830.94
282.588	816.94
282.819	806.94
283.051	784.94
283.282	796.94
283.513	831.94
283.745	798.94
283.976	808.94
284.207	835.94
284.439	807.94
284.67	815.94
284.901	827.94
285.132	837.94
285.364	845.94
285.595	845.94
285.826	853.94
286.057	825.94
286.288	858.94
286.52	830.94
286.751	862.94
286.982	842.94
287.213	860.94
287.444	875.94
287.675	863.94
287.906	853.94
288.138	870.94
288.369	852.94
288.6	854.94
288.831	885.94
289.062	873.94
289.293	882.94
289.524	884.94
289.755	885.94
289.986	870.94
290.217	889.94
290.448	890.94
290.679	886.94
290.91	889.94
291.141	891.94
291.371	910.94
291.602	892.94
291.833	890.94
292.064	888.94
292.295	900.94
292.526	900.94
292.757	898.94
292.987	911.94
293.218	861.94
293.449	906.94
293.68	920.94
293.91	901.94
294.141	901.94
294.372	887.94
294.603	892.94
294.833	920.94
295.064	881.94
295.295	903.94
295.525	903.94
295.756	920.94
295.987	906.94
296.217	966.94
296.448	918.94
296.679	928.94
296.909	927.94
297.14	932.94
297.37	955.94
297.601	1004.94
297.831	971.94
298.062	957.94
298.292	953.94
298.523	974.94
298.753	942.94
298.984	952.94
299.214	971.94
299.445	963.94
299.675	955.94
299.905	1001.94
300.136	962.94
300.366	967.94
300.597	974.94
300.827	988.94
301.057	989.94
301.288	1006.94
301.518	1021.94
301.748	1025.94
301.979	1025.94
302.209	1019.94
302.439	1027.94
302.669	1044.94
302.9	1016.94
303.13	1034.94
303.36	1046.94
303.59	975.94
303.82	1015.94
304.051	1024.94
304.281	1055.94
304.511	1004.94
304.741	1040.94
304.971	1057.94
305.201	986.94
305.431	1027.94
305.661	1011.94
305.891	1034.94
306.121	1031.94
306.352	982.94
306.582	1015.94
306.812	997.94
307.042	1038.94
307.272	1040.94
307.502	996.94
307.731	988.94
307.961	1011.94
308.191	990.94
308.421	1012.94
308.651	1027.94
308.881	1008.94
309.111	1010.94
309.341	995.94
309.571	1018.94
309.8	1019.94
310.03	987.94
310.26	1034.94
310.49	1025.94
310.72	1018.94
310.949	1028.94
311.179	1034.94
311.409	1034.94
311.639	1051.94
311.868	1050.94
312.098	1062.94
312.328	1062.94
312.557	1077.94
312.787	1070.94
313.017	1040.94
313.246	1081.94
313.476	1030.94
313.706	1102.94
313.935	1099.94
314.165	1098.94
314.394	1106.94
314.624	1112.94
314.853	1113.94
315.083	1076.94
315.312	1094.94
315.542	1106.94
315.771	1069.94
316.001	1078.94
316.23	1092.94
316.46	1074.94
316.689	1100.94
316.919	1087.94
317.148	1082.94
317.377	1081.94
317.607	1084.94
317.836	1061.94
318.065	1089.94
318.295	1069.94
318.524	1054.94
318.753	1091.94
318.983	1072.94
319.212	1064.94
319.441	1099.94
319.67	1091.94
319.9	1076.94
320.129	1062.94
320.358	1087.94
320.587	1082.94
320.816	1087.94
321.046	1095.94
321.275	1084.94
321.504	1108.94
321.733	1110.94
321.962	1064.94
322.191	1103.94
322.42	1094.94
322.649	1115.94
322.878	1085.94
323.108	1069.94
323.337	1087.94
323.566	1115.94
323.795	1109.94
324.024	1087.94
324.253	1136.94
324.482	1150.94
324.71	1150.94
324.939	1134.94
325.168	1164.94
325.397	1128.94
325.626	1146.94
325.855	1182.94
326.084	1191.94
326.313	1176.94
326.542	1168.94
326.77	1218.94
326.999	1181.94
327.228	1161.94
327.457	1177.94
327.686	1167.94
327.914	1188.94
328.143	1158.94
328.372	1175.94
328.6	1208.94
328.829	1170.94
329.058	1171.94
329.287	1178.94
329.515	1193.94
329.744	1183.94
329.972	1211.94
330.201	1243.94
330.43	1232.94
330.658	1229.94
330.887	1222.94
331.115	1215.94
331.344	1215.94
331.572	1247.94
331.801	1302.94
332.03	1290.94
332.258	1350.94
332.486	1345.94
332.715	1359.94
332.943	1399.94
333.172	1430.94
333.4	1489.94
333.629	1506.94
333.857	1520.94
334.085	1516.94
334.314	1501.94
334.542	1507.94
334.771	1509.94
334.999	1482.94
335.227	1478.94
335.455	1483.94
335.684	1460.94
335.912	1461.94
336.14	1465.94
336.369	1415.94
336.597	1452.94
336.825	1456.94
337.053	1389.94
337.281	1379.94
337.51	1351.94
337.738	1363.94
337.966	1368.94
338.194	1313.94
338.422	1294.94
338.65	1274.94
338.878	1288.94
339.106	1289.94
339.334	1297.94
339.562	1283.94
339.79	1268.94
340.018	1239.94
340.246	1210.94
340.474	1221.94
340.702	1282.94
340.93	1240.94
341.158	1222.94
341.386	1199.94
341.614	1259.94
341.842	1244.94
342.07	1218.94
342.298	1214.94
342.526	1255.94
342.754	1251.94
342.981	1245.94
343.209	1274.94
343.437	1311.94
343.665	1399.94
343.893	1432.94
344.12	1493.94
344.348	1415.94
344.576	1392.94
344.804	1364.94
345.031	1308.94
345.259	1249.94
345.487	1258.94
345.714	1240.94
345.942	1206.94
346.17	1235.94
346.397	1202.94
346.625	1227.94
346.853	1208.94
347.08	1199.94
347.308	1174.94
347.535	1210.94
347.763	1205.94
347.99	1202.94
348.218	1206.94
348.445	1197.94
348.673	1181.94
348.9	1154.94
349.128	1213.94
349.355	1196.94
349.583	1166.94
349.81	1138.94
350.037	1152.94
350.265	1171.94
350.492	1150.94
350.72	1132.94
350.947	1150.94
351.174	1154.94
351.402	1168.94
351.629	1141.94
351.856	1160.94
352.083	1141.94
352.311	1166.94
352.538	1152.94
352.765	1134.94
352.992	1147.94
353.22	1122.94
353.447	1148.94
353.674	1138.94
353.901	1134.94
354.128	1136.94
354.355	1155.94
354.583	1163.94
354.81	1132.94
355.037	1140.94
355.264	1148.94
355.491	1135.94
355.718	1133.94
355.945	1143.94
356.172	1178.94
356.399	1126.94
356.626	1170.94
356.853	1168.94
357.08	1156.94
357.307	1154.94
357.534	1133.94
357.761	1161.94
357.988	1153.94
358.215	1142.94
358.441	1156.94
358.668	1145.94
358.895	1152.94
359.122	1183.94
359.349	1173.94
359.576	1162.94
359.802	1138.94
360.029	1158.94
360.256	1165.94
360.483	1145.94
360.709	1139.94
360.936	1123.94
361.163	1138.94
361.39	1146.94
361.616	1159.94
361.843	1152.94
362.07	1132.94
362.296	1135.94
362.523	1176.94
362.749	1176.94
362.976	1170.94
363.203	1166.94
363.429	1146.94
363.656	1141.94
363.882	1144.94
364.109	1173.94
364.335	1163.94
364.562	1172.94
364.788	1138.94
365.015	1135.94
365.241	1158.94
365.468	1139.94
365.694	1130.94
365.92	1160.94
366.147	1165.94
366.373	1131.94
366.599	1159.94
366.826	1140.94
367.052	1132.94
367.278	1129.94
367.505	1147.94
367.731	1182.94
367.957	1147.94
368.184	1167.94
368.41	1190.94
368.636	1199.94
368.862	1167.94
369.089	1194.94
369.315	1170.94
369.541	1196.94
369.767	1170.94
369.993	1192.94
370.219	1193.94
370.445	1247.94
370.672	1216.94
370.898	1224.94
371.124	1202.94
371.35	1267.94
371.576	1232.94
371.802	1253.94
372.028	1242.94
372.254	1268.94
372.48	1282.94
372.706	1295.94
372.932	1321.94
373.158	1293.94
373.384	1262.94
373.61	1257.94
373.835	1246.94
374.061	1284.94
374.287	1259.94
374.513	1281.94
374.739	1315.94
374.965	1347.94
375.191	1326.94
375.416	1365.94
375.642	1323.94
375.868	1342.94
376.094	1310.94
376.319	1282.94
376.545	1295.94
376.771	1254.94
376.997	1286.94
377.222	1253.94
377.448	1239.94
377.674	1266.94
377.899	1245.94
378.125	1241.94
378.35	1224.94
378.576	1259.94
378.802	1225.94
379.027	1245.94
379.253	1225.94
379.478	1266.94
379.704	1242.94
379.929	1246.94
380.155	1244.94
380.38	1239.94
380.606	1242.94
380.831	1229.94
381.057	1250.94
381.282	1236.94
381.507	1221.94
381.733	1248.94
381.958	1278.94
382.184	1246.94
382.409	1262.94
382.634	1295.94
382.86	1310.94
383.085	1314.94
383.31	1358.94
383.535	1387.94
383.761	1358.94
383.986	1392.94
384.211	1383.94
384.436	1414.94
384.662	1411.94
384.887	1455.94
385.112	1467.94
385.337	1472.94
385.562	1467.94
385.787	1480.94
386.013	1535.94
386.238	1500.94
386.463	1510.94
386.688	1494.94
386.913	1472.94
387.138	1487.94
387.363	1486.94
387.588	1495.94
387.813	1494.94
388.038	1505.94
388.263	1495.94
388.488	1499.94
388.713	1499.94
388.938	1512.94
389.163	1483.94
389.387	1496.94
389.612	1461.94
389.837	1489.94
390.062	1453.94
390.287	1455.94
390.512	1445.94
390.736	1500.94
390.961	1503.94
391.186	1525.94
391.411	1605.94
391.636	1592.94
391.86	1636.94
392.085	1663.94
392.31	1622.94
392.534	1641.94
392.759	1578.94
392.984	1571.94
393.208	1540.94
393.433	1569.94
393.658	1558.94
393.882	1580.94
394.107	1554.94
394.331	1572.94
394.556	1578.94
394.78	1569.94
395.005	1605.94
395.229	1613.94
395.454	1649.94
395.678	1676.94
395.903	1646.94
396.127	1626.94
396.352	1623.94
396.576	1598.94
396.801	1582.94
397.025	1631.94
397.249	1658.94
397.474	1706.94
397.698	1681.94
397.922	1708.94
398.147	1688.94
398.371	1746.94
398.595	1778.94
398.82	1866.94
399.044	1946.94
399.268	2102.94
399.492	2343.94
399.717	2527.94
399.941	2553.94
400.165	2360.94
400.389	2208.94
400.613	2100.94
400.837	1958.94
401.062	1903.94
401.286	1846.94
401.51	1850.94
401.734	1874.94
401.958	1869.94
402.182	1830.94
402.406	1882.94
402.63	1899.94
402.854	1907.94
403.078	1930.94
403.302	1970.94
403.526	1975.94
403.75	2010.94
403.974	2054.94
404.198	2034.94
404.422	2044.94
404.645	2051.94
404.869	2004.94
405.093	2038.94
405.317	1950.94
405.541	1988.94
405.765	2027.94
405.988	1992.94
406.212	2023.94
406.436	2004.94
406.66	2061.94
406.883	2090.94
407.107	2163.94
407.331	2282.94
407.555	2358.94
407.778	2337.94
408.002	2265.94
408.226	2227.94
408.449	2183.94
408.673	2159.94
408.896	2112.94
409.12	2050.94
409.344	2086.94
409.567	2059.94
409.791	2072.94
410.014	2015.94
410.238	2046.94
410.461	2033.94
410.685	2021.94
410.908	1996.94
411.132	1970.94
411.355	1942.94
411.578	1964.94
411.802	1932.94
412.025	1928.94
412.249	1934.94
412.472	1996.94
412.695	1874.94
412.919	1873.94
413.142	1865.94
413.365	1885.94
413.589	1904.94
413.812	1852.94
414.035	1844.94
414.258	1855.94
414.482	1887.94
414.705	1849.94
414.928	1899.94
415.151	1859.94
415.374	1835.94
415.597	1856.94
415.821	1793.94
416.044	1771.94
416.267	1827.94
416.49	1782.94
416.713	1759.94
416.936	1779.94
417.159	1766.94
417.382	1770.94
417.605	1760.94
417.828	1783.94
418.051	1798.94
418.274	1797.94
418.497	1753.94
418.72	1837.94
418.943	1834.94
419.166	1951.94
419.389	2064.94
419.611	2007.94
419.834	1927.94
420.057	1919.94
420.28	1852.94
420.503	1787.94
420.726	1768.94
420.948	1798.94
421.171	1807.94
421.394	1768.94
421.617	1750.94
421.839	1778.94
422.062	1822.94
422.285	1731.94
422.507	1804.94
422.73	1789.94
422.953	1792.94
423.175	1808.94
423.398	1816.94
423.621	1812.94
423.843	1858.94
424.066	1828.94
424.288	1823.94
424.511	1823.94
424.733	1807.94
424.956	1789.94
425.178	1755.94
425.401	1789.94
425.623	1811.94
425.846	1739.94
426.068	1771.94
426.291	1748.94
426.513	1687.94
426.735	1726.94
426.958	1707.94
427.18	1630.94
427.402	1638.94
427.625	1674.94
427.847	1647.94
428.069	1629.94
428.292	1667.94
428.514	1640.94
428.736	1615.94
428.958	1589.94
429.181	1572.94
429.403	1586.94
429.625	1562.94
429.847	1606.94
430.069	1580.94
430.292	1594.94
430.514	1586.94
430.736	1635.94
430.958	1652.94
431.18	1608.94
431.402	1610.94
431.624	1619.94
431.846	1651.94
432.068	1639.94
432.29	1679.94
432.512	1641.94
432.734	1665.94
432.956	1624.94
433.178	1672.94
433.4	1655.94
433.622	1716.94
433.844	1710.94
434.066	1659.94
434.287	1700.94
434.509	1760.94
434.731	1804.94
434.953	1775.94
435.175	1824.94
435.397	1764.94
435.618	1732.94
435.84	1690.94
436.062	1640.94
436.284	1666.94
436.505	1645.94
436.727	1663.94
436.949	1615.94
437.17	1625.94
437.392	1599.94
437.614	1580.94
437.835	1534.94
438.057	1567.94
438.278	1549.94
438.5	1570.94
438.721	1551.94
438.943	1572.94
439.165	1579.94
439.386	1598.94
439.608	1586.94
439.829	1602.94
440.05	1587.94
440.272	1583.94
440.493	1634.94
440.715	1634.94
440.936	1652.94
441.158	1674.94
441.379	1718.94
441.6	1758.94
441.822	1755.94
442.043	1765.94
442.264	1750.94
442.486	1719.94
442.707	1743.94
442.928	1708.94
443.149	1762.94
443.371	1733.94
443.592	1765.94
443.813	1750.94
444.034	1725.94
444.255	1807.94
444.476	1882.94
444.698	1974.94
444.919	2003.94
445.14	2077.94
445.361	1926.94
445.582	1813.94
445.803	1764.94
446.024	1693.94
446.245	1670.94
446.466	1650.94
446.687	1622.94
446.908	1631.94
447.129	1560.94
447.35	1569.94
447.571	1560.94
447.792	1484.94
448.013	1479.94
448.234	1470.94
448.455	1448.94
448.675	1458.94
448.896	1450.94
449.117	1432.94
449.338	1466.94
449.559	1463.94
449.779	1424.94
450	1433.94
450.221	1441.94
450.442	1450.94
450.662	1441.94
450.883	1452.94
451.104	1467.94
451.324	1450.94
451.545	1437.94
451.766	1475.94
451.986	1470.94
452.207	1432.94
452.428	1406.94
452.648	1418.94
452.869	1408.94
453.089	1366.94
453.31	1406.94
453.53	1390.94
453.751	1376.94
453.971	1375.94
454.192	1351.94
454.412	1350.94
454.633	1338.94
454.853	1350.94
455.073	1349.94
455.294	1396.94
455.514	1378.94
455.734	1352.94
455.955	1313.94
456.175	1340.94
456.395	1332.94
456.616	1356.94
456.836	1363.94
457.056	1380.94
457.276	1338.94
457.497	1416.94
457.717	1375.94
457.937	1367.94
458.157	1369.94
458.377	1428.94
458.598	1432.94
458.818	1489.94
459.038	1492.94
459.258	1561.94
459.478	1576.94
459.698	1642.94
459.918	1684.94
460.138	1711.94
460.358	1783.94
460.578	1828.94
460.798	1852.94
461.018	1844.94
461.238	1821.94
461.458	1835.94
461.678	1796.94
461.898	1843.94
462.118	1841.94
462.338	1972.94
462.558	1959.94
462.777	2072.94
462.997	2160.94
463.217	2247.94
463.437	2326.94
463.657	2188.94
463.876	2091.94
464.096	2097.94
464.316	2063.94
464.536	2027.94
464.755	1991.94
464.975	1964.94
465.195	1887.94
465.414	1790.94
465.634	1676.94
465.854	1660.94
466.073	1633.94
466.293	1579.94
466.512	1584.94
466.732	1570.94
466.951	1534.94
467.171	1538.94
467.391	1537.94
467.61	1518.94
467.829	1505.94
468.049	1506.94
468.268	1486.94
468.488	1458.94
468.707	1491.94
468.927	1463.94
469.146	1476.94
469.365	1479.94
469.585	1478.94
469.804	1539.94
470.023	1525.94
470.243	1604.94
470.462	1540.94
470.681	1583.94
470.901	1563.94
471.12	1523.94
471.339	1489.94
471.558	1491.94
471.777	1490.94
471.997	1477.94
472.216	1500.94
472.435	1446.94
472.654	1435.94
472.873	1474.94
473.092	1486.94
473.311	1447.94
473.53	1434.94
473.749	1466.94
473.968	1424.94
474.187	1420.94
474.406	1464.94
474.625	1451.94
474.844	1446.94
475.063	1466.94
475.282	1505.94
475.501	1493.94
475.72	1497.94
475.939	1503.94
476.158	1519.94
476.377	1539.94
476.596	1547.94
476.814	1554.94
477.033	1585.94
477.252	1590.94
477.471	1592.94
477.69	1647.94
477.908	1668.94
478.127	1690.94
478.346	1727.94
478.564	1765.94
478.783	1790.94
479.002	1834.94
479.22	1834.94
479.439	1808.94
479.658	1818.94
479.876	1866.94
480.095	1898.94
480.313	1896.94
480.532	1944.94
480.751	1948.94
480.969	1879.94
481.188	1854.94
481.406	1819.94
481.624	1768.94
481.843	1762.94
482.061	1760.94
482.28	1786.94
482.498	1743.94
482.717	1724.94
482.935	1755.94
483.153	1801.94
483.372	1767.94
483.59	1836.94
483.808	1802.94
484.027	1783.94
484.245	1883.94
484.463	1815.94
484.681	1919.94
484.9	1892.94
485.118	1890.94
485.336	1934.94
485.554	1946.94
485.772	1992.94
485.99	1939.94
486.209	1916.94
486.427	1957.94
486.645	1935.94
486.863	1926.94
487.081	1952.94
487.299	1922.94
487.517	1934.94
487.735	1887.94
487.953	1922.94
488.171	1946.94
488.389	1895.94
488.607	1837.94
488.825	1847.94
489.043	1832.94
489.261	1842.94
489.479	1829.94
489.696	1828.94
489.914	1882.94
490.132	1858.94
