Data from NiCl2@0.5M.TitratingCurve.Agarose3%dH2O.NegLispCup.LampEnergy10.LIBS07252019_HRD10591_18-18-57-571.txt Node
Date: Thu Jul 25 18:18:57 EDT 2019
User: cochatt
Spectrometer: HR+D1059
Trigger mode: 1
Integration Time (sec): 1.000000E-1
Scans to average: 1
Electric dark correction enabled: true
Nonlinearity correction enabled: false
Boxcar width: 0
XAxis mode: Wavelengths
Number of Pixels in Spectrum: 2048
>>>>>Begin Spectral Data<<<<<
223.165	-21.69
223.4	-21.69
223.635	-21.69
223.869	-22.69
224.104	-11.69
224.338	-23.69
224.573	-18.69
224.808	-9.69
225.042	-20.69
225.277	-11.69
225.511	2.31
225.746	6.31
225.98	14.31
226.215	12.31
226.449	21.31
226.683	29.31
226.918	34.31
227.152	20.31
227.387	34.31
227.621	33.31
227.856	47.31
228.09	62.31
228.324	52.31
228.559	59.31
228.793	70.31
229.027	100.31
229.262	118.31
229.496	118.31
229.73	135.31
229.964	131.31
230.199	151.31
230.433	172.31
230.667	146.31
230.901	144.31
231.136	133.31
231.37	146.31
231.604	155.31
231.838	168.31
232.072	155.31
232.306	162.31
232.541	157.31
232.775	158.31
233.009	165.31
233.243	150.31
233.477	159.31
233.711	147.31
233.945	164.31
234.179	150.31
234.413	162.31
234.647	171.31
234.881	160.31
235.115	168.31
235.349	156.31
235.583	146.31
235.817	151.31
236.051	167.31
236.285	151.31
236.519	147.31
236.753	170.31
236.987	155.31
237.221	165.31
237.455	162.31
237.689	174.31
237.922	173.31
238.156	184.31
238.39	157.31
238.624	168.31
238.858	187.31
239.091	169.31
239.325	166.31
239.559	178.31
239.793	185.31
240.027	202.31
240.26	191.31
240.494	175.31
240.728	180.31
240.961	196.31
241.195	180.31
241.429	181.31
241.662	199.31
241.896	212.31
242.13	202.31
242.363	189.31
242.597	188.31
242.83	207.31
243.064	208.31
243.298	180.31
243.531	190.31
243.765	207.31
243.998	203.31
244.232	207.31
244.465	213.31
244.699	206.31
244.932	215.31
245.166	226.31
245.399	220.31
245.633	207.31
245.866	205.31
246.099	216.31
246.333	223.31
246.566	218.31
246.8	217.31
247.033	215.31
247.266	218.31
247.5	223.31
247.733	217.31
247.966	230.31
248.2	214.31
248.433	234.31
248.666	233.31
248.899	230.31
249.133	244.31
249.366	229.31
249.599	237.31
249.832	228.31
250.066	236.31
250.299	243.31
250.532	240.31
250.765	239.31
250.998	251.31
251.231	242.31
251.465	274.31
251.698	271.31
251.931	250.31
252.164	245.31
252.397	278.31
252.63	266.31
252.863	268.31
253.096	263.31
253.329	268.31
253.562	269.31
253.795	268.31
254.028	259.31
254.261	275.31
254.494	267.31
254.727	262.31
254.96	266.31
255.193	277.31
255.426	286.31
255.659	279.31
255.892	278.31
256.124	272.31
256.357	287.31
256.59	278.31
256.823	277.31
257.056	303.31
257.289	285.31
257.521	277.31
257.754	286.31
257.987	289.31
258.22	302.31
258.452	288.31
258.685	308.31
258.918	309.31
259.151	294.31
259.383	299.31
259.616	307.31
259.849	303.31
260.081	301.31
260.314	298.31
260.547	311.31
260.779	312.31
261.012	320.31
261.244	291.31
261.477	336.31
261.71	314.31
261.942	329.31
262.175	335.31
262.407	329.31
262.64	343.31
262.872	314.31
263.105	327.31
263.337	339.31
263.57	342.31
263.802	330.31
264.035	349.31
264.267	333.31
264.499	338.31
264.732	352.31
264.964	332.31
265.197	341.31
265.429	337.31
265.661	338.31
265.894	348.31
266.126	357.31
266.358	359.31
266.591	351.31
266.823	359.31
267.055	356.31
267.287	367.31
267.52	356.31
267.752	367.31
267.984	367.31
268.216	357.31
268.448	370.31
268.681	370.31
268.913	354.31
269.145	368.31
269.377	382.31
269.609	352.31
269.841	360.31
270.073	375.31
270.306	372.31
270.538	366.31
270.77	364.31
271.002	377.31
271.234	382.31
271.466	396.31
271.698	394.31
271.93	394.31
272.162	379.31
272.394	398.31
272.626	383.31
272.858	376.31
273.09	383.31
273.322	405.31
273.553	398.31
273.785	406.31
274.017	393.31
274.249	397.31
274.481	398.31
274.713	416.31
274.945	404.31
275.176	395.31
275.408	399.31
275.64	396.31
275.872	421.31
276.104	439.31
276.335	413.31
276.567	410.31
276.799	432.31
277.031	419.31
277.262	446.31
277.494	442.31
277.726	422.31
277.957	434.31
278.189	428.31
278.421	419.31
278.652	408.31
278.884	436.31
279.115	440.31
279.347	425.31
279.579	445.31
279.81	449.31
280.042	441.31
280.273	440.31
280.505	447.31
280.736	437.31
280.968	441.31
281.199	459.31
281.431	460.31
281.662	451.31
281.894	460.31
282.125	449.31
282.356	470.31
282.588	454.31
282.819	476.31
283.051	462.31
283.282	479.31
283.513	469.31
283.745	460.31
283.976	472.31
284.207	485.31
284.439	467.31
284.67	483.31
284.901	470.31
285.132	481.31
285.364	476.31
285.595	483.31
285.826	478.31
286.057	470.31
286.288	476.31
286.52	476.31
286.751	502.31
286.982	494.31
287.213	484.31
287.444	495.31
287.675	500.31
287.906	501.31
288.138	486.31
288.369	504.31
288.6	492.31
288.831	484.31
289.062	516.31
289.293	505.31
289.524	502.31
289.755	524.31
289.986	514.31
290.217	495.31
290.448	498.31
290.679	517.31
290.91	514.31
291.141	508.31
291.371	517.31
291.602	526.31
291.833	500.31
292.064	516.31
292.295	505.31
292.526	516.31
292.757	528.31
292.987	516.31
293.218	509.31
293.449	538.31
293.68	548.31
293.91	517.31
294.141	519.31
294.372	522.31
294.603	520.31
294.833	528.31
295.064	529.31
295.295	527.31
295.525	524.31
295.756	517.31
295.987	519.31
296.217	529.31
296.448	558.31
296.679	539.31
296.909	534.31
297.14	562.31
297.37	560.31
297.601	566.31
297.831	556.31
298.062	558.31
298.292	564.31
298.523	576.31
298.753	558.31
298.984	581.31
299.214	569.31
299.445	567.31
299.675	556.31
299.905	581.31
300.136	596.31
300.366	604.31
300.597	620.31
300.827	609.31
301.057	603.31
301.288	619.31
301.518	616.31
301.748	611.31
301.979	611.31
302.209	580.31
302.439	591.31
302.669	582.31
302.9	600.31
303.13	584.31
303.36	605.31
303.59	594.31
303.82	614.31
304.051	628.31
304.281	612.31
304.511	572.31
304.741	602.31
304.971	610.31
305.201	631.31
305.431	634.31
305.661	594.31
305.891	594.31
306.121	647.31
306.352	598.31
306.582	578.31
306.812	592.31
307.042	598.31
307.272	599.31
307.502	572.31
307.731	598.31
307.961	606.31
308.191	599.31
308.421	602.31
308.651	596.31
308.881	578.31
309.111	608.31
309.341	582.31
309.571	603.31
309.8	606.31
310.03	606.31
310.26	633.31
310.49	613.31
310.72	634.31
310.949	608.31
311.179	599.31
311.409	619.31
311.639	599.31
311.868	596.31
312.098	622.31
312.328	619.31
312.557	640.31
312.787	622.31
313.017	633.31
313.246	637.31
313.476	637.31
313.706	646.31
313.935	643.31
314.165	645.31
314.394	631.31
314.624	653.31
314.853	655.31
315.083	629.31
315.312	652.31
315.542	616.31
315.771	624.31
316.001	626.31
316.23	637.31
316.46	653.31
316.689	639.31
316.919	627.31
317.148	628.31
317.377	644.31
317.607	644.31
317.836	630.31
318.065	624.31
318.295	642.31
318.524	639.31
318.753	619.31
318.983	655.31
319.212	639.31
319.441	664.31
319.67	652.31
319.9	640.31
320.129	675.31
320.358	671.31
320.587	667.31
320.816	644.31
321.046	640.31
321.275	649.31
321.504	663.31
321.733	667.31
321.962	667.31
322.191	660.31
322.42	649.31
322.649	644.31
322.878	654.31
323.108	666.31
323.337	664.31
323.566	672.31
323.795	646.31
324.024	678.31
324.253	682.31
324.482	688.31
324.71	674.31
324.939	668.31
325.168	672.31
325.397	676.31
325.626	672.31
325.855	685.31
326.084	702.31
326.313	691.31
326.542	698.31
326.77	690.31
326.999	698.31
327.228	701.31
327.457	674.31
327.686	674.31
327.914	695.31
328.143	719.31
328.372	712.31
328.6	722.31
328.829	688.31
329.058	693.31
329.287	674.31
329.515	680.31
329.744	705.31
329.972	700.31
330.201	701.31
330.43	708.31
330.658	712.31
330.887	712.31
331.115	737.31
331.344	710.31
331.572	728.31
331.801	733.31
332.03	756.31
332.258	755.31
332.486	754.31
332.715	756.31
332.943	799.31
333.172	792.31
333.4	810.31
333.629	843.31
333.857	858.31
334.085	837.31
334.314	830.31
334.542	818.31
334.771	835.31
334.999	797.31
335.227	845.31
335.455	839.31
335.684	824.31
335.912	840.31
336.14	803.31
336.369	818.31
336.597	848.31
336.825	823.31
337.053	853.31
337.281	823.31
337.51	781.31
337.738	807.31
337.966	804.31
338.194	808.31
338.422	803.31
338.65	754.31
338.878	748.31
339.106	786.31
339.334	788.31
339.562	800.31
339.79	763.31
340.018	730.31
340.246	734.31
340.474	744.31
340.702	734.31
340.93	735.31
341.158	743.31
341.386	755.31
341.614	798.31
341.842	756.31
342.07	741.31
342.298	747.31
342.526	726.31
342.754	729.31
342.981	743.31
343.209	741.31
343.437	772.31
343.665	802.31
343.893	832.31
344.12	848.31
344.348	812.31
344.576	790.31
344.804	818.31
345.031	758.31
345.259	746.31
345.487	733.31
345.714	738.31
345.942	759.31
346.17	797.31
346.397	774.31
346.625	739.31
346.853	701.31
347.08	702.31
347.308	705.31
347.535	715.31
347.763	711.31
347.99	723.31
348.218	697.31
348.445	709.31
348.673	714.31
348.9	712.31
349.128	725.31
349.355	725.31
349.583	710.31
349.81	702.31
350.037	692.31
350.265	678.31
350.492	678.31
350.72	682.31
350.947	701.31
351.174	724.31
351.402	730.31
351.629	734.31
351.856	715.31
352.083	706.31
352.311	711.31
352.538	724.31
352.765	750.31
352.992	694.31
353.22	672.31
353.447	658.31
353.674	674.31
353.901	664.31
354.128	678.31
354.355	661.31
354.583	661.31
354.81	675.31
355.037	674.31
355.264	665.31
355.491	690.31
355.718	671.31
355.945	692.31
356.172	690.31
356.399	681.31
356.626	687.31
356.853	726.31
357.08	691.31
357.307	680.31
357.534	664.31
357.761	663.31
357.988	692.31
358.215	671.31
358.441	660.31
358.668	686.31
358.895	650.31
359.122	670.31
359.349	671.31
359.576	673.31
359.802	684.31
360.029	699.31
360.256	675.31
360.483	694.31
360.709	656.31
360.936	670.31
361.163	672.31
361.39	657.31
361.616	684.31
361.843	703.31
362.07	724.31
362.296	724.31
362.523	664.31
362.749	652.31
362.976	674.31
363.203	660.31
363.429	657.31
363.656	639.31
363.882	643.31
364.109	669.31
364.335	670.31
364.562	680.31
364.788	656.31
365.015	670.31
365.241	657.31
365.468	664.31
365.694	647.31
365.92	684.31
366.147	670.31
366.373	682.31
366.599	672.31
366.826	681.31
367.052	664.31
367.278	662.31
367.505	670.31
367.731	668.31
367.957	670.31
368.184	653.31
368.41	648.31
368.636	674.31
368.862	685.31
369.089	696.31
369.315	690.31
369.541	674.31
369.767	682.31
369.993	663.31
370.219	694.31
370.445	663.31
370.672	694.31
370.898	662.31
371.124	690.31
371.35	677.31
371.576	701.31
371.802	707.31
372.028	707.31
372.254	707.31
372.48	709.31
372.706	716.31
372.932	711.31
373.158	736.31
373.384	705.31
373.61	705.31
373.835	686.31
374.061	707.31
374.287	709.31
374.513	708.31
374.739	711.31
374.965	719.31
375.191	750.31
375.416	746.31
375.642	708.31
375.868	724.31
376.094	717.31
376.319	707.31
376.545	708.31
376.771	684.31
376.997	714.31
377.222	701.31
377.448	678.31
377.674	694.31
377.899	704.31
378.125	679.31
378.35	677.31
378.576	687.31
378.802	673.31
379.027	674.31
379.253	670.31
379.478	679.31
379.704	688.31
379.929	662.31
380.155	670.31
380.38	659.31
380.606	691.31
380.831	690.31
381.057	695.31
381.282	690.31
381.507	698.31
381.733	710.31
381.958	716.31
382.184	691.31
382.409	717.31
382.634	719.31
382.86	725.31
383.085	708.31
383.31	703.31
383.535	731.31
383.761	758.31
383.986	736.31
384.211	745.31
384.436	736.31
384.662	768.31
384.887	749.31
385.112	763.31
385.337	790.31
385.562	788.31
385.787	784.31
386.013	813.31
386.238	807.31
386.463	798.31
386.688	796.31
386.913	790.31
387.138	773.31
387.363	813.31
387.588	790.31
387.813	791.31
388.038	790.31
388.263	772.31
388.488	804.31
388.713	791.31
388.938	811.31
389.163	780.31
389.387	798.31
389.612	788.31
389.837	791.31
390.062	789.31
390.287	768.31
390.512	797.31
390.736	803.31
390.961	794.31
391.186	818.31
391.411	808.31
391.636	845.31
391.86	858.31
392.085	860.31
392.31	846.31
392.534	826.31
392.759	830.31
392.984	815.31
393.208	844.31
393.433	838.31
393.658	837.31
393.882	842.31
394.107	845.31
394.331	816.31
394.556	838.31
394.78	849.31
395.005	839.31
395.229	857.31
395.454	861.31
395.678	870.31
395.903	871.31
396.127	859.31
396.352	843.31
396.576	856.31
396.801	848.31
397.025	839.31
397.249	863.31
397.474	911.31
397.698	876.31
397.922	886.31
398.147	856.31
398.371	899.31
398.595	925.31
398.82	960.31
399.044	1009.31
399.268	1060.31
399.492	1137.31
399.717	1234.31
399.941	1229.31
400.165	1141.31
400.389	1111.31
400.613	1069.31
400.837	991.31
401.062	999.31
401.286	972.31
401.51	972.31
401.734	973.31
401.958	1010.31
402.182	1001.31
402.406	980.31
402.63	1007.31
402.854	962.31
403.078	998.31
403.302	1039.31
403.526	1023.31
403.75	1011.31
403.974	1052.31
404.198	1032.31
404.422	1027.31
404.645	1035.31
404.869	1004.31
405.093	1025.31
405.317	1026.31
405.541	1031.31
405.765	1021.31
405.988	1034.31
406.212	1045.31
406.436	1032.31
406.66	1034.31
406.883	1069.31
407.107	1128.31
407.331	1132.31
407.555	1158.31
407.778	1156.31
408.002	1162.31
408.226	1150.31
408.449	1138.31
408.673	1078.31
408.896	1088.31
409.12	1079.31
409.344	1103.31
409.567	1090.31
409.791	1058.31
410.014	1086.31
410.238	1071.31
410.461	1042.31
410.685	1040.31
410.908	1052.31
411.132	1071.31
411.355	1018.31
411.578	1017.31
411.802	1034.31
412.025	1030.31
412.249	1046.31
412.472	1045.31
412.695	1035.31
412.919	991.31
413.142	1021.31
413.365	988.31
413.589	1004.31
413.812	979.31
414.035	988.31
414.258	966.31
414.482	985.31
414.705	1003.31
414.928	1014.31
415.151	984.31
415.374	977.31
415.597	986.31
415.821	991.31
416.044	951.31
416.267	942.31
416.49	952.31
416.713	947.31
416.936	973.31
417.159	980.31
417.382	963.31
417.605	941.31
417.828	971.31
418.051	991.31
418.274	956.31
418.497	969.31
418.72	992.31
418.943	970.31
419.166	1026.31
419.389	1076.31
419.611	1048.31
419.834	1012.31
420.057	1013.31
420.28	999.31
420.503	946.31
420.726	939.31
420.948	964.31
421.171	958.31
421.394	951.31
421.617	956.31
421.839	941.31
422.062	979.31
422.285	947.31
422.507	969.31
422.73	966.31
422.953	977.31
423.175	991.31
423.398	1010.31
423.621	986.31
423.843	975.31
424.066	981.31
424.288	979.31
424.511	981.31
424.733	968.31
424.956	965.31
425.178	965.31
425.401	961.31
425.623	977.31
425.846	946.31
426.068	956.31
426.291	964.31
426.513	941.31
426.735	916.31
426.958	959.31
427.18	882.31
427.402	931.31
427.625	897.31
427.847	956.31
428.069	918.31
428.292	931.31
428.514	918.31
428.736	932.31
428.958	935.31
429.181	889.31
429.403	918.31
429.625	924.31
429.847	908.31
430.069	927.31
430.292	891.31
430.514	890.31
430.736	920.31
430.958	902.31
431.18	882.31
431.402	932.31
431.624	920.31
431.846	906.31
432.068	916.31
432.29	930.31
432.512	909.31
432.734	929.31
432.956	930.31
433.178	952.31
433.4	957.31
433.622	929.31
433.844	949.31
434.066	946.31
434.287	941.31
434.509	955.31
434.731	997.31
434.953	990.31
435.175	1030.31
435.397	1026.31
435.618	971.31
435.84	966.31
436.062	928.31
436.284	904.31
436.505	923.31
436.727	921.31
436.949	946.31
437.17	926.31
437.392	920.31
437.614	929.31
437.835	892.31
438.057	895.31
438.278	872.31
438.5	906.31
438.721	885.31
438.943	914.31
439.165	920.31
439.386	892.31
439.608	888.31
439.829	905.31
440.05	963.31
440.272	945.31
440.493	948.31
440.715	967.31
440.936	945.31
441.158	950.31
441.379	969.31
441.6	981.31
441.822	1039.31
442.043	995.31
442.264	984.31
442.486	961.31
442.707	1020.31
442.928	1011.31
443.149	1002.31
443.371	1020.31
443.592	1049.31
443.813	1043.31
444.034	1032.31
444.255	1059.31
444.476	1102.31
444.698	1088.31
444.919	1146.31
445.14	1211.31
445.361	1118.31
445.582	1066.31
445.803	1016.31
446.024	986.31
446.245	975.31
446.466	979.31
446.687	966.31
446.908	982.31
447.129	927.31
447.35	949.31
447.571	903.31
447.792	891.31
448.013	901.31
448.234	900.31
448.455	869.31
448.675	847.31
448.896	848.31
449.117	862.31
449.338	845.31
449.559	854.31
449.779	865.31
450	856.31
450.221	871.31
450.442	873.31
450.662	891.31
450.883	879.31
451.104	915.31
451.324	875.31
451.545	898.31
451.766	874.31
451.986	870.31
452.207	874.31
452.428	857.31
452.648	857.31
452.869	847.31
453.089	834.31
453.31	868.31
453.53	868.31
453.751	843.31
453.971	861.31
454.192	863.31
454.412	850.31
454.633	842.31
454.853	847.31
455.073	823.31
455.294	830.31
455.514	834.31
455.734	850.31
455.955	863.31
456.175	866.31
456.395	847.31
456.616	826.31
456.836	832.31
457.056	819.31
457.276	806.31
457.497	832.31
457.717	845.31
457.937	838.31
458.157	849.31
458.377	875.31
458.598	884.31
458.818	878.31
459.038	911.31
459.258	927.31
459.478	947.31
459.698	1045.31
459.918	1015.31
460.138	1044.31
460.358	1069.31
460.578	1052.31
460.798	1095.31
461.018	1109.31
461.238	1070.31
461.458	1082.31
461.678	1090.31
461.898	1066.31
462.118	1073.31
462.338	1110.31
462.558	1151.31
462.777	1212.31
462.997	1267.31
463.217	1371.31
463.437	1338.31
463.657	1273.31
463.876	1198.31
464.096	1204.31
464.316	1205.31
464.536	1183.31
464.755	1162.31
464.975	1134.31
465.195	1098.31
465.414	1063.31
465.634	1004.31
465.854	982.31
466.073	972.31
466.293	964.31
466.512	988.31
466.732	928.31
466.951	957.31
467.171	932.31
467.391	935.31
467.61	928.31
467.829	923.31
468.049	916.31
468.268	884.31
468.488	895.31
468.707	895.31
468.927	925.31
469.146	904.31
469.365	923.31
469.585	935.31
469.804	950.31
470.023	926.31
470.243	904.31
470.462	922.31
470.681	898.31
470.901	937.31
471.12	957.31
471.339	910.31
471.558	942.31
471.777	956.31
471.997	921.31
472.216	918.31
472.435	920.31
472.654	907.31
472.873	906.31
473.092	853.31
473.311	860.31
473.53	910.31
473.749	888.31
473.968	890.31
474.187	903.31
474.406	900.31
474.625	899.31
474.844	902.31
475.063	918.31
475.282	911.31
475.501	921.31
475.72	918.31
475.939	930.31
476.158	926.31
476.377	957.31
476.596	940.31
476.814	930.31
477.033	931.31
477.252	938.31
477.471	962.31
477.69	987.31
477.908	1008.31
478.127	1030.31
478.346	1024.31
478.564	1046.31
478.783	1055.31
479.002	1095.31
479.22	1103.31
479.439	1068.31
479.658	1092.31
479.876	1065.31
480.095	1099.31
480.313	1098.31
480.532	1130.31
480.751	1096.31
480.969	1087.31
481.188	1076.31
481.406	1080.31
481.624	1042.31
481.843	1044.31
482.061	1058.31
482.28	1045.31
482.498	1075.31
482.717	1040.31
482.935	1053.31
483.153	1044.31
483.372	1076.31
483.59	1078.31
483.808	1050.31
484.027	1063.31
484.245	1026.31
484.463	1069.31
484.681	1054.31
484.9	1039.31
485.118	1053.31
485.336	1102.31
485.554	1068.31
485.772	1085.31
485.99	1063.31
486.209	1076.31
486.427	1083.31
486.645	1103.31
486.863	1096.31
487.081	1077.31
487.299	1083.31
487.517	1109.31
487.735	1100.31
487.953	1146.31
488.171	1130.31
488.389	1056.31
488.607	1058.31
488.825	1101.31
489.043	1064.31
489.261	1096.31
489.479	1093.31
489.696	1105.31
489.914	1072.31
490.132	1062.31
490.35	1072.31
490.568	1095.31
490.786	1109.31
491.003	1093.31
491.221	1075.31
491.439	1107.31
491.657	1114.31
491.874	1146.31
492.092	1122.31
492.31	1164.31
492.527	1152.31
492.745	1140.31
492.963	1143.31
493.18	1142.31
493.398	1156.31
493.615	1159.31
493.833	1146.31
494.05	1146.31
494.268	1151.31
494.485	1132.31
494.703	1148.31
494.92	1164.31
495.138	1164.31
495.355	1164.31
495.573	1182.31
495.79	1176.31
496.008	1174.31
496.225	1172.31
496.442	1201.31
496.66	1204.31
496.877	1197.31
497.094	1231.31
497.312	1225.31
497.529	1278.31
497.746	1260.31
497.963	1316.31
498.181	1343.31
498.398	1386.31
498.615	1463.31
498.832	1524.31
