Data from NiCl2@0.25M.TitratingCurve.Agarose3%dH2O.NegLispCup.LampEnergy10.LIBS07252019_HRD10591_18-24-42-572.txt Node
Date: Thu Jul 25 18:24:42 EDT 2019
User: cochatt
Spectrometer: HR+D1059
Trigger mode: 1
Integration Time (sec): 1.000000E-1
Scans to average: 1
Electric dark correction enabled: true
Nonlinearity correction enabled: false
Boxcar width: 0
XAxis mode: Wavelengths
Number of Pixels in Spectrum: 2048
>>>>>Begin Spectral Data<<<<<
223.165	-17
223.4	-17
223.635	-17
223.869	-24
224.104	-18
224.338	0
224.573	-18
224.808	-3
225.042	-2
225.277	-17
225.511	4
225.746	12
225.98	0
226.215	8
226.449	4
226.683	22
226.918	18
227.152	31
227.387	47
227.621	40
227.856	46
228.09	48
228.324	67
228.559	62
228.793	72
229.027	107
229.262	111
229.496	123
229.73	127
229.964	110
230.199	132
230.433	136
230.667	128
230.901	144
231.136	120
231.37	127
231.604	144
231.838	133
232.072	138
232.306	147
232.541	150
232.775	141
233.009	143
233.243	149
233.477	155
233.711	144
233.945	136
234.179	149
234.413	164
234.647	148
234.881	152
235.115	146
235.349	159
235.583	139
235.817	143
236.051	160
236.285	153
236.519	146
236.753	154
236.987	147
237.221	157
237.455	145
237.689	166
237.922	148
238.156	157
238.39	154
238.624	174
238.858	161
239.091	162
239.325	173
239.559	187
239.793	178
240.027	174
240.26	179
240.494	179
240.728	178
240.961	186
241.195	167
241.429	182
241.662	199
241.896	184
242.13	180
242.363	189
242.597	180
242.83	200
243.064	186
243.298	197
243.531	175
243.765	196
243.998	218
244.232	197
244.465	190
244.699	202
244.932	216
245.166	207
245.399	201
245.633	226
245.866	216
246.099	207
246.333	194
246.566	230
246.8	219
247.033	226
247.266	214
247.5	228
247.733	205
247.966	223
248.2	219
248.433	232
248.666	232
248.899	229
249.133	229
249.366	251
249.599	226
249.832	247
250.066	229
250.299	233
250.532	267
250.765	233
250.998	262
251.231	237
251.465	240
251.698	259
251.931	244
252.164	237
252.397	272
252.63	267
252.863	262
253.096	264
253.329	271
253.562	258
253.795	267
254.028	273
254.261	288
254.494	285
254.727	275
254.96	266
255.193	264
255.426	274
255.659	274
255.892	269
256.124	279
256.357	287
256.59	297
256.823	281
257.056	299
257.289	286
257.521	295
257.754	288
257.987	306
258.22	284
258.452	295
258.685	279
258.918	277
259.151	308
259.383	310
259.616	287
259.849	301
260.081	309
260.314	293
260.547	300
260.779	310
261.012	312
261.244	303
261.477	314
261.71	308
261.942	312
262.175	322
262.407	319
262.64	319
262.872	320
263.105	339
263.337	321
263.57	336
263.802	333
264.035	335
264.267	328
264.499	334
264.732	333
264.964	330
265.197	333
265.429	339
265.661	355
265.894	322
266.126	352
266.358	353
266.591	340
266.823	335
267.055	332
267.287	362
267.52	348
267.752	362
267.984	358
268.216	331
268.448	363
268.681	356
268.913	346
269.145	358
269.377	342
269.609	373
269.841	378
270.073	372
270.306	366
270.538	356
270.77	365
271.002	368
271.234	379
271.466	382
271.698	378
271.93	389
272.162	384
272.394	365
272.626	377
272.858	382
273.09	360
273.322	366
273.553	382
273.785	384
274.017	370
274.249	367
274.481	392
274.713	408
274.945	392
275.176	376
275.408	418
275.64	424
275.872	420
276.104	396
276.335	399
276.567	393
276.799	406
277.031	405
277.262	411
277.494	412
277.726	403
277.957	419
278.189	407
278.421	422
278.652	425
278.884	415
279.115	427
279.347	425
279.579	426
279.81	439
280.042	420
280.273	432
280.505	437
280.736	428
280.968	431
281.199	449
281.431	466
281.662	448
281.894	441
282.125	448
282.356	463
282.588	455
282.819	449
283.051	446
283.282	437
283.513	451
283.745	432
283.976	450
284.207	458
284.439	474
284.67	471
284.901	483
285.132	471
285.364	459
285.595	443
285.826	458
286.057	459
286.288	479
286.52	494
286.751	482
286.982	480
287.213	515
287.444	487
287.675	490
287.906	477
288.138	489
288.369	504
288.6	501
288.831	503
289.062	507
289.293	491
289.524	488
289.755	511
289.986	502
290.217	502
290.448	521
290.679	500
290.91	532
291.141	510
291.371	504
291.602	484
291.833	486
292.064	518
292.295	527
292.526	503
292.757	491
292.987	517
293.218	520
293.449	508
293.68	516
293.91	489
294.141	495
294.372	487
294.603	521
294.833	535
295.064	516
295.295	522
295.525	486
295.756	528
295.987	508
296.217	521
296.448	528
296.679	529
296.909	533
297.14	533
297.37	544
297.601	530
297.831	526
298.062	546
298.292	536
298.523	558
298.753	591
298.984	579
299.214	548
299.445	537
299.675	551
299.905	550
300.136	541
300.366	555
300.597	550
300.827	552
301.057	577
301.288	580
301.518	580
301.748	594
301.979	613
302.209	594
302.439	579
302.669	575
302.9	565
303.13	567
303.36	550
303.59	578
303.82	551
304.051	599
304.281	593
304.511	582
304.741	572
304.971	580
305.201	585
305.431	569
305.661	550
305.891	568
306.121	564
306.352	561
306.582	558
306.812	562
307.042	551
307.272	584
307.502	570
307.731	555
307.961	582
308.191	568
308.421	567
308.651	559
308.881	566
309.111	554
309.341	561
309.571	578
309.8	539
310.03	551
310.26	578
310.49	581
310.72	585
310.949	568
311.179	557
311.409	583
311.639	578
311.868	578
312.098	572
312.328	576
312.557	589
312.787	599
313.017	589
313.246	613
313.476	618
313.706	606
313.935	595
314.165	638
314.394	605
314.624	630
314.853	623
315.083	622
315.312	602
315.542	589
315.771	614
316.001	580
316.23	628
316.46	589
316.689	608
316.919	598
317.148	577
317.377	603
317.607	586
317.836	581
318.065	588
318.295	595
318.524	586
318.753	579
318.983	595
319.212	595
319.441	600
319.67	593
319.9	586
320.129	603
320.358	595
320.587	611
320.816	595
321.046	592
321.275	586
321.504	588
321.733	593
321.962	613
322.191	613
322.42	608
322.649	613
322.878	613
323.108	584
323.337	602
323.566	581
323.795	619
324.024	610
324.253	617
324.482	612
324.71	638
324.939	646
325.168	635
325.397	642
325.626	616
325.855	638
326.084	637
326.313	648
326.542	651
326.77	659
326.999	650
327.228	652
327.457	646
327.686	656
327.914	673
328.143	646
328.372	662
328.6	646
328.829	647
329.058	650
329.287	658
329.515	638
329.744	672
329.972	667
330.201	666
330.43	671
330.658	690
330.887	676
331.115	682
331.344	703
331.572	683
331.801	710
332.03	732
332.258	751
332.486	770
332.715	794
332.943	807
333.172	870
333.4	888
333.629	912
333.857	910
334.085	876
334.314	873
334.542	888
334.771	839
334.999	841
335.227	850
335.455	832
335.684	814
335.912	819
336.14	798
336.369	788
336.597	806
336.825	804
337.053	784
337.281	790
337.51	752
337.738	743
337.966	744
338.194	726
338.422	694
338.65	716
338.878	720
339.106	734
339.334	701
339.562	694
339.79	665
340.018	706
340.246	692
340.474	681
340.702	710
340.93	687
341.158	696
341.386	671
341.614	694
341.842	691
342.07	692
342.298	668
342.526	683
342.754	690
342.981	712
343.209	701
343.437	748
343.665	764
343.893	826
344.12	878
344.348	813
344.576	796
344.804	728
345.031	702
345.259	712
345.487	709
345.714	679
345.942	677
346.17	682
346.397	670
346.625	644
346.853	675
347.08	678
347.308	661
347.535	672
347.763	677
347.99	682
348.218	666
348.445	636
348.673	653
348.9	654
349.128	661
349.355	676
349.583	673
349.81	647
350.037	638
350.265	652
350.492	646
350.72	656
350.947	635
351.174	638
351.402	646
351.629	636
351.856	630
352.083	628
352.311	641
352.538	637
352.765	640
352.992	638
353.22	615
353.447	638
353.674	622
353.901	650
354.128	629
354.355	633
354.583	647
354.81	624
355.037	646
355.264	670
355.491	621
355.718	660
355.945	666
356.172	655
356.399	666
356.626	648
356.853	670
357.08	628
357.307	633
357.534	646
357.761	664
357.988	653
358.215	641
358.441	660
358.668	640
358.895	632
359.122	646
359.349	644
359.576	648
359.802	664
360.029	664
360.256	649
360.483	657
360.709	648
360.936	634
361.163	630
361.39	649
361.616	641
361.843	640
362.07	660
362.296	634
362.523	658
362.749	619
362.976	640
363.203	640
363.429	638
363.656	637
363.882	646
364.109	636
364.335	627
364.562	620
364.788	634
365.015	652
365.241	638
365.468	653
365.694	640
365.92	632
366.147	635
366.373	640
366.599	633
366.826	654
367.052	642
367.278	658
367.505	648
367.731	649
367.957	630
368.184	633
368.41	627
368.636	661
368.862	682
369.089	631
369.315	646
369.541	659
369.767	675
369.993	678
370.219	659
370.445	663
370.672	687
370.898	696
371.124	676
371.35	714
371.576	698
371.802	710
372.028	705
372.254	714
372.48	700
372.706	690
372.932	720
373.158	703
373.384	681
373.61	700
373.835	710
374.061	696
374.287	720
374.513	711
374.739	732
374.965	770
375.191	786
375.416	765
375.642	731
375.868	757
376.094	721
376.319	731
376.545	711
376.771	701
376.997	719
377.222	702
377.448	707
377.674	698
377.899	718
378.125	694
378.35	718
378.576	679
378.802	677
379.027	710
379.253	686
379.478	676
379.704	707
379.929	715
380.155	710
380.38	692
380.606	693
380.831	696
381.057	692
381.282	693
381.507	697
381.733	723
381.958	707
382.184	703
382.409	727
382.634	741
382.86	715
383.085	762
383.31	754
383.535	768
383.761	772
383.986	820
384.211	808
384.436	820
384.662	827
384.887	855
385.112	844
385.337	855
385.562	878
385.787	853
386.013	872
386.238	858
386.463	839
386.688	852
386.913	828
387.138	833
387.363	822
387.588	840
387.813	834
388.038	836
388.263	825
388.488	825
388.713	849
388.938	841
389.163	796
389.387	801
389.612	799
389.837	835
390.062	818
390.287	812
390.512	839
390.736	850
390.961	830
391.186	869
391.411	863
391.636	932
391.86	940
392.085	948
392.31	964
392.534	908
392.759	911
392.984	883
393.208	897
393.433	869
393.658	882
393.882	881
394.107	892
394.331	917
394.556	904
394.78	913
395.005	906
395.229	914
395.454	942
395.678	967
395.903	932
396.127	943
396.352	904
396.576	884
396.801	862
397.025	898
397.249	922
397.474	954
397.698	963
397.922	962
398.147	945
398.371	964
398.595	1003
398.82	1056
399.044	1116
399.268	1254
399.492	1496
399.717	1632
399.941	1655
400.165	1451
400.389	1306
400.613	1221
400.837	1126
401.062	1079
401.286	1071
401.51	1062
401.734	1088
401.958	1085
402.182	1068
402.406	1086
402.63	1082
402.854	1130
403.078	1142
403.302	1197
403.526	1204
403.75	1242
403.974	1226
404.198	1222
404.422	1263
404.645	1247
404.869	1203
405.093	1189
405.317	1174
405.541	1170
405.765	1214
405.988	1168
406.212	1166
406.436	1158
406.66	1184
406.883	1218
407.107	1249
407.331	1364
407.555	1386
407.778	1386
408.002	1368
408.226	1311
408.449	1285
408.673	1239
408.896	1207
409.12	1173
409.344	1218
409.567	1186
409.791	1190
410.014	1146
410.238	1149
410.461	1179
410.685	1148
410.908	1119
411.132	1119
411.355	1132
411.578	1125
411.802	1095
412.025	1103
412.249	1099
412.472	1127
412.695	1066
412.919	1056
413.142	1058
413.365	1062
413.589	1066
413.812	1067
414.035	1058
414.258	1067
414.482	1059
414.705	1084
414.928	1073
415.151	1060
415.374	1062
415.597	1071
415.821	1050
416.044	1032
416.267	1055
416.49	1069
416.713	1016
416.936	1040
417.159	1059
417.382	1014
417.605	1056
417.828	1045
418.051	1081
418.274	1068
418.497	1033
418.72	1084
418.943	1087
419.166	1140
419.389	1174
419.611	1192
419.834	1149
420.057	1078
420.28	1076
420.503	1025
420.726	1029
420.948	1036
421.171	1057
421.394	1074
421.617	1058
421.839	1059
422.062	1052
422.285	1052
422.507	1084
422.73	1073
422.953	1091
423.175	1087
423.398	1122
423.621	1101
423.843	1142
424.066	1134
424.288	1108
424.511	1120
424.733	1098
424.956	1068
425.178	1046
425.401	1077
425.623	1036
425.846	1019
426.068	1014
426.291	989
426.513	990
426.735	985
426.958	966
427.18	955
427.402	975
427.625	944
427.847	943
428.069	935
428.292	963
428.514	939
428.736	923
428.958	925
429.181	908
429.403	928
429.625	916
429.847	877
430.069	910
430.292	900
430.514	884
430.736	917
430.958	890
431.18	878
431.402	897
431.624	900
431.846	925
432.068	960
432.29	961
432.512	936
432.734	923
432.956	918
433.178	922
433.4	953
433.622	932
433.844	972
434.066	939
434.287	974
434.509	975
434.731	1017
434.953	1021
435.175	1042
435.397	1021
435.618	980
435.84	965
436.062	920
436.284	943
436.505	913
436.727	932
436.949	961
437.17	921
437.392	920
437.614	902
437.835	861
438.057	891
438.278	878
438.5	855
438.721	890
438.943	895
439.165	921
439.386	900
439.608	905
439.829	915
440.05	912
440.272	950
440.493	915
440.715	945
440.936	943
441.158	965
441.379	970
441.6	1031
441.822	1051
442.043	1057
442.264	992
442.486	998
442.707	1022
442.928	1020
443.149	1012
443.371	1018
443.592	993
443.813	1018
444.034	1044
444.255	1037
444.476	1124
444.698	1215
444.919	1255
445.14	1353
445.361	1213
445.582	1065
445.803	1004
446.024	1002
446.245	935
446.466	967
446.687	923
446.908	942
447.129	883
447.35	883
447.571	855
447.792	886
448.013	865
448.234	854
448.455	854
448.675	859
448.896	840
449.117	821
449.338	818
449.559	844
449.779	848
450	838
450.221	859
450.442	853
450.662	852
450.883	850
451.104	875
451.324	828
451.545	838
451.766	866
451.986	857
452.207	822
452.428	873
452.648	832
452.869	813
453.089	822
453.31	852
453.53	823
453.751	804
453.971	836
454.192	828
454.412	793
454.633	828
454.853	799
455.073	792
455.294	784
455.514	792
455.734	794
455.955	789
456.175	796
456.395	793
456.616	809
456.836	774
457.056	768
457.276	751
457.497	803
457.717	800
457.937	795
458.157	816
458.377	776
458.598	834
458.818	884
459.038	878
459.258	935
459.478	924
459.698	932
459.918	997
460.138	992
460.358	1072
460.578	1081
460.798	1108
461.018	1082
461.238	1096
461.458	1087
461.678	1076
461.898	1092
462.118	1134
462.338	1167
462.558	1199
462.777	1284
462.997	1370
463.217	1513
463.437	1495
463.657	1342
463.876	1283
464.096	1265
464.316	1278
464.536	1286
464.755	1233
464.975	1172
465.195	1109
465.414	1070
465.634	1016
465.854	963
466.073	928
466.293	925
466.512	917
466.732	899
466.951	882
467.171	915
467.391	874
467.61	877
467.829	862
468.049	860
468.268	873
468.488	833
468.707	856
468.927	859
469.146	857
469.365	846
469.585	873
469.804	890
470.023	890
470.243	927
470.462	911
470.681	902
470.901	937
471.12	900
471.339	892
471.558	894
471.777	900
471.997	858
472.216	860
472.435	847
472.654	814
472.873	797
473.092	831
473.311	844
473.53	821
473.749	815
473.968	812
474.187	814
474.406	804
474.625	813
474.844	814
475.063	836
475.282	822
475.501	853
475.72	855
475.939	887
476.158	838
476.377	859
476.596	861
476.814	855
477.033	868
477.252	918
477.471	890
477.69	926
477.908	953
478.127	986
478.346	994
478.564	990
478.783	1005
479.002	1024
479.22	1032
479.439	1027
479.658	1026
479.876	1035
480.095	1043
480.313	1108
480.532	1134
480.751	1100
480.969	1076
481.188	1016
481.406	1021
481.624	979
481.843	951
482.061	922
482.28	947
482.498	939
482.717	915
482.935	931
483.153	936
483.372	949
483.59	934
483.808	950
484.027	929
484.245	946
484.463	955
484.681	957
484.9	978
485.118	970
485.336	959
485.554	950
485.772	979
485.99	987
486.209	992
486.427	990
486.645	979
486.863	1002
487.081	1000
487.299	989
487.517	994
487.735	1004
487.953	979
488.171	989
488.389	972
488.607	957
488.825	969
489.043	968
489.261	938
489.479	966
489.696	975
489.914	993
490.132	993
490.35	1004
490.568	982
490.786	983
491.003	996
491.221	990
491.439	970
491.657	997
491.874	1016
492.092	1014
492.31	1038
492.527	1006
492.745	1006
492.963	1028
493.18	1030
493.398	1041
493.615	1037
493.833	1063
494.05	1063
494.268	1043
494.485	1028
494.703	1064
494.92	1044
495.138	1062
495.355	1053
495.573	1071
495.79	1061
496.008	1047
496.225	1074
496.442	1082
496.66	1099
496.877	1120
497.094	1133
497.312	1148
497.529	1178
497.746	1194
497.963	1225
498.181	1307
498.398	1341
498.615	1446
498.832	1517
499.049	1674
499.267	1803
499.484	1974
499.701	2205
499.918	2402
500.135	2802
500.352	3245
500.569	3398
500.786	3310
501.003	3024
501.22	2721
501.437	2361
501.654	2127
501.871	1916
502.088	1738
502.305	1630
502.522	1542
502.739	1488
502.956	1393
503.172	1340
503.389	1310
503.606	1266
503.823	1224
504.04	1260
504.256	1281
504.473	1281
504.69	1311
504.907	1281
505.123	1176
505.34	1122
505.557	1054
505.773	1030
505.99	1043
506.207	976
506.423	969
506.64	964
506.856	946
507.073	931
507.289	944
507.506	944
507.722	950
507.939	941
508.155	919
508.372	897
508.588	909
508.805	922
509.021	870
509.238	904
509.454	863
509.67	871
509.887	853
510.103	860
510.319	872
510.536	857
510.752	875
510.968	839
511.184	845
511.401	861
511.617	866
511.833	840
512.049	846
512.265	834
512.481	841
512.698	845
512.914	858
513.13	844
513.346	864
513.562	850
513.778	842
513.994	844
514.21	859
514.426	845
514.642	877
514.858	850
515.074	862
515.29	894
515.506	898
515.721	889
515.937	915
516.153	948
516.369	950
516.585	973
516.801	1000
517.016	1067
517.232	1133
517.448	1162
517.664	1192
517.879	1219
518.095	1206
518.311	1186
518.527	1140
518.742	1060
518.958	1012
519.173	1019
519.389	971
519.605	934
519.82	916
520.036	886
520.251	888
520.467	876
520.682	870
520.898	870
521.113	840
521.329	835
521.544	827
521.76	819
521.975	815
522.19	808
522.406	802
522.621	823
522.836	798
523.052	826
523.267	780
523.482	788
523.698	788
523.913	782
524.128	775
524.343	793
524.559	767
524.774	759
524.989	788
525.204	790
525.419	770
525.634	777
525.849	768
526.064	782
526.28	783
526.495	761
526.71	750
526.925	783
527.14	776
527.355	777
527.57	760
527.785	779
527.999	777
528.214	778
528.429	784
528.644	772
528.859	766
529.074	778
529.289	754
529.503	762
529.718	756
529.933	777
530.148	764
530.363	754
530.577	749
530.792	742
531.007	766
531.221	767
531.436	797
531.651	766
531.865	751
532.08	790
532.295	765
532.509	763
532.724	756
532.938	771
533.153	770
533.367	756
533.582	768
533.796	752
534.011	773
534.225	740
534.44	770
534.654	734
534.868	730
535.083	741
535.297	770
535.511	732
535.726	734
535.94	744
536.154	735
536.369	726
536.583	700
536.797	727
537.011	714
537.225	697
537.44	709
537.654	706
537.868	691
538.082	696
538.296	710
538.51	698
538.724	716
538.938	683
539.153	678
539.367	702
539.581	691
539.795	712
540.009	677
540.222	695
540.436	708
540.65	678
540.864	676
541.078	661
541.292	672
541.506	682
541.72	712
541.934	672
542.147	723
542.361	692
542.575	698
542.789	674
543.002	693
543.216	668
543.43	687
543.644	637
543.857	682
544.071	675
544.285	674
544.498	692
544.712	688
544.925	694
545.139	692
545.352	692
545.566	717
545.779	694
545.993	713
546.206	705
546.42	709
546.633	718
546.847	704
547.06	683
547.274	712
547.487	725
547.7	710
547.914	708
548.127	714
548.34	719
548.554	709
548.767	693
548.98	725
549.193	717
549.407	745
549.62	739
549.833	725
550.046	720
550.259	728
550.473	698
550.686	696
550.899	688
551.112	679
551.325	694
551.538	690
551.751	688
551.964	698
552.177	687
552.39	714
552.603	728
552.816	731
553.029	763
553.242	765
553.455	778
553.667	770
553.88	779
554.093	752
554.306	734
554.519	701
554.732	688
554.944	681
555.157	703
555.37	654
555.583	671
555.795	629
556.008	639
556.221	631
556.433	630
556.646	642
556.859	614
557.071	614
557.284	627
557.496	600
557.709	609
557.921	607
558.134	593
558.346	589
558.559	602
558.771	601
558.984	598
