Data from NiCl2@0.0625M.TitratingCurve.Agarose3%dH2O.NegLispCup.LampEnergy10.LIBS07252019_HRD10591_18-34-16-576.txt Node
Date: Thu Jul 25 18:34:16 EDT 2019
User: cochatt
Spectrometer: HR+D1059
Trigger mode: 1
Integration Time (sec): 1.000000E-1
Scans to average: 1
Electric dark correction enabled: true
Nonlinearity correction enabled: false
Boxcar width: 0
XAxis mode: Wavelengths
Number of Pixels in Spectrum: 2048
>>>>>Begin Spectral Data<<<<<
223.165	-18
223.4	-18
223.635	-18
223.869	-22
224.104	-13
224.338	-26
224.573	-17
224.808	-10
225.042	-9
225.277	1
225.511	-9
225.746	1
225.98	7
226.215	17
226.449	18
226.683	20
226.918	25
227.152	35
227.387	34
227.621	38
227.856	34
228.09	43
228.324	55
228.559	50
228.793	63
229.027	114
229.262	131
229.496	149
229.73	152
229.964	156
230.199	161
230.433	182
230.667	184
230.901	164
231.136	168
231.37	194
231.604	173
231.838	183
232.072	204
232.306	182
232.541	197
232.775	177
233.009	185
233.243	200
233.477	189
233.711	188
233.945	193
234.179	183
234.413	176
234.647	203
234.881	210
235.115	209
235.349	212
235.583	180
235.817	197
236.051	216
236.285	212
236.519	202
236.753	212
236.987	211
237.221	213
237.455	206
237.689	218
237.922	218
238.156	214
238.39	227
238.624	223
238.858	253
239.091	234
239.325	235
239.559	251
239.793	252
240.027	258
240.26	248
240.494	255
240.728	262
240.961	262
241.195	250
241.429	264
241.662	255
241.896	269
242.13	280
242.363	259
242.597	266
242.83	286
243.064	275
243.298	285
243.531	298
243.765	301
243.998	314
244.232	295
244.465	292
244.699	309
244.932	322
245.166	321
245.399	327
245.633	317
245.866	328
246.099	327
246.333	315
246.566	323
246.8	334
247.033	326
247.266	338
247.5	325
247.733	328
247.966	334
248.2	354
248.433	328
248.666	336
248.899	352
249.133	361
249.366	353
249.599	360
249.832	374
250.066	354
250.299	342
250.532	356
250.765	349
250.998	375
251.231	367
251.465	375
251.698	399
251.931	389
252.164	382
252.397	401
252.63	392
252.863	379
253.096	401
253.329	391
253.562	397
253.795	412
254.028	427
254.261	424
254.494	414
254.727	412
254.96	415
255.193	417
255.426	438
255.659	414
255.892	444
256.124	425
256.357	448
256.59	428
256.823	453
257.056	435
257.289	421
257.521	431
257.754	445
257.987	444
258.22	438
258.452	450
258.685	458
258.918	475
259.151	476
259.383	459
259.616	469
259.849	469
260.081	469
260.314	489
260.547	480
260.779	472
261.012	469
261.244	501
261.477	491
261.71	491
261.942	510
262.175	499
262.407	497
262.64	489
262.872	509
263.105	505
263.337	497
263.57	496
263.802	529
264.035	520
264.267	505
264.499	521
264.732	512
264.964	522
265.197	543
265.429	540
265.661	553
265.894	552
266.126	541
266.358	524
266.591	548
266.823	561
267.055	567
267.287	542
267.52	545
267.752	580
267.984	569
268.216	561
268.448	563
268.681	577
268.913	565
269.145	569
269.377	556
269.609	565
269.841	583
270.073	579
270.306	572
270.538	561
270.77	605
271.002	595
271.234	581
271.466	592
271.698	611
271.93	600
272.162	581
272.394	609
272.626	608
272.858	604
273.09	631
273.322	607
273.553	625
273.785	601
274.017	624
274.249	639
274.481	633
274.713	636
274.945	619
275.176	640
275.408	661
275.64	641
275.872	648
276.104	660
276.335	646
276.567	651
276.799	644
277.031	665
277.262	659
277.494	643
277.726	680
277.957	663
278.189	681
278.421	681
278.652	682
278.884	685
279.115	697
279.347	658
279.579	689
279.81	697
280.042	702
280.273	688
280.505	701
280.736	683
280.968	731
281.199	723
281.431	737
281.662	722
281.894	719
282.125	710
282.356	743
282.588	734
282.819	754
283.051	733
283.282	735
283.513	717
283.745	734
283.976	729
284.207	736
284.439	724
284.67	742
284.901	787
285.132	777
285.364	761
285.595	732
285.826	745
286.057	796
286.288	778
286.52	782
286.751	771
286.982	774
287.213	794
287.444	791
287.675	772
287.906	760
288.138	787
288.369	789
288.6	778
288.831	771
289.062	791
289.293	768
289.524	805
289.755	781
289.986	807
290.217	804
290.448	817
290.679	815
290.91	785
291.141	800
291.371	809
291.602	778
291.833	824
292.064	809
292.295	805
292.526	835
292.757	827
292.987	831
293.218	833
293.449	868
293.68	818
293.91	820
294.141	810
294.372	799
294.603	815
294.833	836
295.064	818
295.295	835
295.525	814
295.756	847
295.987	831
296.217	855
296.448	826
296.679	841
296.909	834
297.14	870
297.37	858
297.601	853
297.831	895
298.062	892
298.292	880
298.523	896
298.753	913
298.984	883
299.214	892
299.445	899
299.675	897
299.905	863
300.136	898
300.366	883
300.597	925
300.827	931
301.057	894
301.288	925
301.518	901
301.748	929
301.979	936
302.209	956
302.439	929
302.669	933
302.9	937
303.13	931
303.36	939
303.59	945
303.82	919
304.051	931
304.281	911
304.511	917
304.741	915
304.971	927
305.201	898
305.431	933
305.661	941
305.891	909
306.121	897
306.352	917
306.582	884
306.812	905
307.042	936
307.272	906
307.502	905
307.731	945
307.961	920
308.191	903
308.421	893
308.651	895
308.881	894
309.111	919
309.341	914
309.571	935
309.8	952
310.03	910
310.26	940
310.49	922
310.72	947
310.949	938
311.179	930
311.409	974
311.639	935
311.868	911
312.098	970
312.328	968
312.557	961
312.787	968
313.017	976
313.246	975
313.476	993
313.706	988
313.935	985
314.165	972
314.394	1022
314.624	1015
314.853	964
315.083	980
315.312	992
315.542	993
315.771	970
316.001	973
316.23	983
316.46	994
316.689	969
316.919	992
317.148	981
317.377	959
317.607	980
317.836	976
318.065	971
318.295	1011
318.524	1025
318.753	991
318.983	961
319.212	956
319.441	996
319.67	992
319.9	972
320.129	996
320.358	968
320.587	985
320.816	968
321.046	966
321.275	990
321.504	985
321.733	966
321.962	975
322.191	983
322.42	989
322.649	990
322.878	1011
323.108	992
323.337	1008
323.566	1031
323.795	1019
324.024	1059
324.253	1015
324.482	1033
324.71	1016
324.939	1028
325.168	1031
325.397	1047
325.626	1049
325.855	1041
326.084	1077
326.313	1057
326.542	1039
326.77	1065
326.999	1066
327.228	1071
327.457	1064
327.686	1049
327.914	1064
328.143	1073
328.372	1071
328.6	1081
328.829	1074
329.058	1068
329.287	1083
329.515	1078
329.744	1091
329.972	1100
330.201	1089
330.43	1091
330.658	1114
330.887	1117
331.115	1118
331.344	1147
331.572	1140
331.801	1137
332.03	1162
332.258	1180
332.486	1194
332.715	1226
332.943	1259
333.172	1309
333.4	1375
333.629	1357
333.857	1339
334.085	1365
334.314	1365
334.542	1330
334.771	1356
334.999	1327
335.227	1333
335.455	1316
335.684	1339
335.912	1292
336.14	1290
336.369	1339
336.597	1327
336.825	1249
337.053	1290
337.281	1268
337.51	1224
337.738	1210
337.966	1212
338.194	1215
338.422	1204
338.65	1176
338.878	1168
339.106	1156
339.334	1191
339.562	1155
339.79	1123
340.018	1136
340.246	1113
340.474	1129
340.702	1130
340.93	1144
341.158	1143
341.386	1161
341.614	1114
341.842	1139
342.07	1106
342.298	1115
342.526	1140
342.754	1123
342.981	1144
343.209	1157
343.437	1223
343.665	1234
343.893	1291
344.12	1324
344.348	1308
344.576	1248
344.804	1224
345.031	1159
345.259	1166
345.487	1121
345.714	1139
345.942	1114
346.17	1125
346.397	1105
346.625	1110
346.853	1081
347.08	1069
347.308	1070
347.535	1072
347.763	1111
347.99	1042
348.218	1075
348.445	1069
348.673	1051
348.9	1087
349.128	1111
349.355	1088
349.583	1058
349.81	1053
350.037	1041
350.265	1064
350.492	1055
350.72	1037
350.947	1044
351.174	1048
351.402	1038
351.629	1040
351.856	996
352.083	1032
352.311	1027
352.538	1034
352.765	1045
352.992	1019
353.22	1029
353.447	1043
353.674	1031
353.901	1036
354.128	1046
354.355	1023
354.583	1039
354.81	1033
355.037	1046
355.264	1042
355.491	1042
355.718	1024
355.945	1040
356.172	1068
356.399	1052
356.626	1050
356.853	1069
357.08	1055
357.307	1029
357.534	1067
357.761	1032
357.988	1045
358.215	1035
358.441	1059
358.668	1024
358.895	1062
359.122	1057
359.349	1042
359.576	1043
359.802	1044
360.029	1042
360.256	1051
360.483	1058
360.709	1045
360.936	1051
361.163	1056
361.39	1058
361.616	1040
361.843	1053
362.07	1052
362.296	1057
362.523	1085
362.749	1037
362.976	1041
363.203	1060
363.429	1023
363.656	1040
363.882	1055
364.109	1045
364.335	1028
364.562	1041
364.788	1043
365.015	1047
365.241	1031
365.468	1054
365.694	1052
365.92	1064
366.147	1034
366.373	1051
366.599	1044
366.826	1044
367.052	1047
367.278	1026
367.505	1051
367.731	1035
367.957	1042
368.184	1036
368.41	1046
368.636	1103
368.862	1076
369.089	1083
369.315	1083
369.541	1091
369.767	1084
369.993	1121
370.219	1085
370.445	1125
370.672	1147
370.898	1079
371.124	1116
371.35	1101
371.576	1153
371.802	1150
372.028	1133
372.254	1162
372.48	1148
372.706	1152
372.932	1185
373.158	1168
373.384	1151
373.61	1151
373.835	1131
374.061	1180
374.287	1178
374.513	1151
374.739	1177
374.965	1247
375.191	1243
375.416	1221
375.642	1193
375.868	1192
376.094	1171
376.319	1165
376.545	1158
376.771	1147
376.997	1121
377.222	1159
377.448	1157
377.674	1160
377.899	1128
378.125	1123
378.35	1161
378.576	1118
378.802	1105
379.027	1077
379.253	1088
379.478	1105
379.704	1098
379.929	1138
380.155	1140
380.38	1116
380.606	1148
380.831	1095
381.057	1145
381.282	1125
381.507	1128
381.733	1163
381.958	1127
382.184	1161
382.409	1162
382.634	1174
382.86	1178
383.085	1176
383.31	1210
383.535	1199
383.761	1252
383.986	1215
384.211	1258
384.436	1254
384.662	1302
384.887	1326
385.112	1304
385.337	1299
385.562	1339
385.787	1339
386.013	1361
386.238	1362
386.463	1386
386.688	1359
386.913	1348
387.138	1354
387.363	1344
387.588	1356
387.813	1371
388.038	1347
388.263	1379
388.488	1403
388.713	1325
388.938	1372
389.163	1316
389.387	1344
389.612	1294
389.837	1331
390.062	1299
390.287	1306
390.512	1310
390.736	1333
390.961	1337
391.186	1369
391.411	1371
391.636	1432
391.86	1489
392.085	1478
392.31	1492
392.534	1481
392.759	1440
392.984	1383
393.208	1404
393.433	1409
393.658	1422
393.882	1394
394.107	1387
394.331	1411
394.556	1402
394.78	1436
395.005	1426
395.229	1439
395.454	1460
395.678	1479
395.903	1464
396.127	1476
396.352	1444
396.576	1451
396.801	1423
397.025	1473
397.249	1459
397.474	1473
397.698	1519
397.922	1522
398.147	1521
398.371	1551
398.595	1619
398.82	1620
399.044	1777
399.268	1883
399.492	2057
399.717	2268
399.941	2282
400.165	2137
400.389	1979
400.613	1852
400.837	1789
401.062	1719
401.286	1668
401.51	1706
401.734	1676
401.958	1673
402.182	1678
402.406	1694
402.63	1693
402.854	1718
403.078	1731
403.302	1751
403.526	1794
403.75	1803
403.974	1796
404.198	1793
404.422	1798
404.645	1817
404.869	1812
405.093	1799
405.317	1778
405.541	1809
405.765	1767
405.988	1817
406.212	1776
406.436	1821
406.66	1839
406.883	1907
407.107	1948
407.331	2060
407.555	2122
407.778	2105
408.002	2051
408.226	1958
408.449	2016
408.673	1892
408.896	1842
409.12	1835
409.344	1882
409.567	1820
409.791	1851
410.014	1837
410.238	1863
410.461	1810
410.685	1831
410.908	1780
411.132	1769
411.355	1743
411.578	1764
411.802	1750
412.025	1715
412.249	1769
412.472	1762
412.695	1664
412.919	1632
413.142	1674
413.365	1667
413.589	1705
413.812	1634
414.035	1659
414.258	1663
414.482	1684
414.705	1709
414.928	1663
415.151	1675
415.374	1660
415.597	1693
415.821	1639
416.044	1626
416.267	1585
416.49	1601
416.713	1598
416.936	1629
417.159	1578
417.382	1575
417.605	1579
417.828	1592
418.051	1618
418.274	1632
418.497	1579
418.72	1633
418.943	1628
419.166	1763
419.389	1839
419.611	1802
419.834	1739
420.057	1633
420.28	1629
420.503	1600
420.726	1582
420.948	1596
421.171	1591
421.394	1607
421.617	1576
421.839	1577
422.062	1589
422.285	1563
422.507	1631
422.73	1658
422.953	1614
423.175	1612
423.398	1660
423.621	1596
423.843	1639
424.066	1661
424.288	1673
424.511	1641
424.733	1626
424.956	1598
425.178	1614
425.401	1622
425.623	1573
425.846	1565
426.068	1553
426.291	1570
426.513	1545
426.735	1528
426.958	1521
427.18	1495
427.402	1507
427.625	1548
427.847	1451
428.069	1447
428.292	1496
428.514	1503
428.736	1451
428.958	1496
429.181	1411
429.403	1379
429.625	1416
429.847	1434
430.069	1449
430.292	1433
430.514	1420
430.736	1453
430.958	1463
431.18	1460
431.402	1467
431.624	1461
431.846	1444
432.068	1467
432.29	1509
432.512	1438
432.734	1495
432.956	1446
433.178	1484
433.4	1497
433.622	1517
433.844	1515
434.066	1529
434.287	1511
434.509	1593
434.731	1608
434.953	1571
435.175	1607
435.397	1612
435.618	1547
435.84	1533
436.062	1491
436.284	1441
436.505	1447
436.727	1473
436.949	1466
437.17	1472
437.392	1414
437.614	1428
437.835	1389
438.057	1415
438.278	1401
438.5	1390
438.721	1443
438.943	1399
439.165	1414
439.386	1386
439.608	1411
439.829	1439
440.05	1453
440.272	1444
440.493	1455
440.715	1429
440.936	1475
441.158	1480
441.379	1488
441.6	1575
441.822	1561
442.043	1584
442.264	1561
442.486	1514
442.707	1531
442.928	1523
443.149	1556
443.371	1573
443.592	1556
443.813	1572
444.034	1597
444.255	1621
444.476	1685
444.698	1741
444.919	1746
445.14	1883
445.361	1716
445.582	1617
445.803	1510
446.024	1537
446.245	1521
446.466	1515
446.687	1423
446.908	1448
447.129	1399
447.35	1382
447.571	1385
447.792	1357
448.013	1363
448.234	1284
448.455	1337
448.675	1331
448.896	1323
449.117	1319
449.338	1307
449.559	1313
449.779	1340
450	1337
450.221	1306
450.442	1317
450.662	1300
450.883	1300
451.104	1301
451.324	1333
451.545	1293
451.766	1303
451.986	1269
452.207	1299
452.428	1265
452.648	1265
452.869	1260
453.089	1214
453.31	1287
453.53	1254
453.751	1244
453.971	1232
454.192	1253
454.412	1237
454.633	1247
454.853	1224
455.073	1210
455.294	1266
455.514	1235
455.734	1238
455.955	1192
456.175	1228
456.395	1196
456.616	1189
456.836	1209
457.056	1225
457.276	1215
457.497	1255
457.717	1267
457.937	1246
458.157	1258
458.377	1277
458.598	1293
458.818	1320
459.038	1344
459.258	1354
459.478	1455
459.698	1485
459.918	1454
460.138	1541
460.358	1554
460.578	1579
460.798	1649
461.018	1653
461.238	1630
461.458	1625
461.678	1634
461.898	1656
462.118	1648
462.338	1715
462.558	1812
462.777	1813
462.997	1910
463.217	2058
463.437	2073
463.657	1925
463.876	1845
464.096	1889
464.316	1871
464.536	1893
464.755	1823
464.975	1771
465.195	1708
465.414	1612
465.634	1560
465.854	1497
466.073	1488
466.293	1435
466.512	1366
466.732	1388
466.951	1394
467.171	1373
467.391	1403
467.61	1373
467.829	1363
468.049	1365
468.268	1312
468.488	1307
468.707	1319
468.927	1316
469.146	1323
469.365	1366
469.585	1341
469.804	1363
470.023	1350
470.243	1394
470.462	1407
470.681	1443
470.901	1397
471.12	1404
471.339	1384
471.558	1379
471.777	1366
471.997	1336
472.216	1307
472.435	1365
472.654	1326
472.873	1299
473.092	1312
473.311	1334
473.53	1322
473.749	1271
473.968	1297
474.187	1295
474.406	1319
474.625	1315
474.844	1307
475.063	1313
475.282	1355
475.501	1324
475.72	1345
475.939	1359
476.158	1390
476.377	1348
476.596	1362
476.814	1407
477.033	1420
477.252	1418
477.471	1453
477.69	1505
477.908	1511
478.127	1548
478.346	1543
478.564	1555
478.783	1626
479.002	1660
479.22	1625
479.439	1619
479.658	1608
479.876	1637
480.095	1657
480.313	1698
480.532	1712
480.751	1745
480.969	1698
481.188	1667
481.406	1631
481.624	1599
481.843	1605
482.061	1597
482.28	1578
482.498	1627
482.717	1576
482.935	1578
483.153	1612
483.372	1600
483.59	1618
483.808	1616
484.027	1652
484.245	1656
484.463	1663
484.681	1711
484.9	1698
485.118	1708
485.336	1703
485.554	1708
485.772	1711
485.99	1747
486.209	1749
486.427	1720
486.645	1716
486.863	1726
487.081	1704
487.299	1708
487.517	1687
487.735	1719
487.953	1707
488.171	1681
488.389	1681
488.607	1658
488.825	1675
489.043	1647
489.261	1667
489.479	1637
489.696	1658
489.914	1648
490.132	1633
490.35	1659
490.568	1633
490.786	1649
491.003	1639
491.221	1641
491.439	1636
491.657	1670
491.874	1663
492.092	1645
492.31	1679
492.527	1654
492.745	1626
492.963	1658
493.18	1667
493.398	1660
493.615	1671
493.833	1634
494.05	1647
494.268	1683
494.485	1680
494.703	1662
494.92	1732
495.138	1688
495.355	1682
495.573	1693
495.79	1691
496.008	1706
496.225	1730
496.442	1751
496.66	1744
496.877	1756
497.094	1804
497.312	1833
497.529	1857
497.746	1865
497.963	1971
498.181	2015
498.398	2054
498.615	2218
498.832	2343
499.049	2463
499.267	2607
499.484	2878
499.701	3034
499.918	3301
500.135	3664
500.352	3975
500.569	4166
500.786	4107
501.003	3868
501.22	3632
501.437	3285
501.654	2963
501.871	2799
502.088	2573
502.305	2459
502.522	2307
502.739	2229
502.956	2107
503.172	2117
503.389	1973
503.606	1905
503.823	1853
504.04	1892
504.256	1850
504.473	1889
504.69	1891
504.907	1869
505.123	1747
505.34	1703
505.557	1639
505.773	1610
505.99	1610
506.207	1559
506.423	1533
506.64	1545
506.856	1455
507.073	1478
507.289	1470
507.506	1464
507.722	1429
507.939	1432
508.155	1399
508.372	1385
508.588	1350
508.805	1347
509.021	1357
509.238	1370
509.454	1344
509.67	1335
509.887	1321
510.103	1309
510.319	1315
510.536	1318
510.752	1343
510.968	1327
511.184	1289
511.401	1310
511.617	1281
511.833	1341
512.049	1288
512.265	1291
512.481	1312
512.698	1303
512.914	1301
513.13	1344
513.346	1315
513.562	1317
513.778	1303
513.994	1308
514.21	1333
514.426	1351
514.642	1352
514.858	1350
515.074	1334
515.29	1325
515.506	1317
515.721	1365
515.937	1411
516.153	1407
516.369	1443
516.585	1467
516.801	1495
517.016	1543
517.232	1634
517.448	1695
517.664	1701
517.879	1698
518.095	1691
518.311	1672
518.527	1635
518.742	1557
518.958	1519
519.173	1469
519.389	1459
519.605	1427
519.82	1395
520.036	1385
520.251	1326
520.467	1323
520.682	1337
520.898	1300
521.113	1265
521.329	1269
521.544	1247
521.76	1209
521.975	1240
522.19	1221
522.406	1244
522.621	1235
522.836	1206
523.052	1197
523.267	1203
523.482	1203
523.698	1180
523.913	1207
524.128	1208
524.343	1189
524.559	1201
524.774	1168
524.989	1162
525.204	1210
525.419	1185
525.634	1175
525.849	1175
526.064	1183
526.28	1175
526.495	1170
526.71	1176
526.925	1168
527.14	1153
527.355	1142
527.57	1142
527.785	1152
527.999	1183
528.214	1149
528.429	1175
528.644	1137
528.859	1165
529.074	1138
529.289	1158
529.503	1135
529.718	1132
529.933	1119
530.148	1120
530.363	1129
530.577	1171
530.792	1131
531.007	1124
531.221	1147
531.436	1150
531.651	1138
531.865	1147
532.08	1120
532.295	1119
532.509	1122
532.724	1116
532.938	1130
533.153	1132
533.367	1137
533.582	1114
533.796	1145
534.011	1128
534.225	1128
534.44	1126
534.654	1128
534.868	1116
535.083	1104
535.297	1106
535.511	1094
535.726	1106
535.94	1081
536.154	1027
536.369	1068
536.583	1064
536.797	1086
537.011	1078
537.225	1032
537.44	1056
537.654	1052
537.868	1032
538.082	1001
538.296	1040
538.51	1053
538.724	1055
538.938	1031
539.153	1012
539.367	1043
539.581	1028
539.795	984
540.009	1029
540.222	1011
540.436	997
540.65	999
540.864	993
541.078	1014
541.292	1026
541.506	1017
541.72	1000
541.934	997
542.147	1034
542.361	1034
542.575	1022
542.789	999
543.002	988
543.216	1013
543.43	1025
543.644	990
543.857	973
544.071	973
544.285	991
544.498	1023
544.712	990
544.925	989
545.139	1043
545.352	1033
545.566	1023
545.779	1030
545.993	997
546.206	999
546.42	1015
546.633	1031
