Data from NiCl2@0.25M.TitratingCurve.Agarose3%dH2O.NegLispCup.LampEnergy10.LIBS07252019_HRD10591_18-25-59-574.txt Node
Date: Thu Jul 25 18:25:59 EDT 2019
User: cochatt
Spectrometer: HR+D1059
Trigger mode: 1
Integration Time (sec): 1.000000E-1
Scans to average: 1
Electric dark correction enabled: true
Nonlinearity correction enabled: false
Boxcar width: 0
XAxis mode: Wavelengths
Number of Pixels in Spectrum: 2048
>>>>>Begin Spectral Data<<<<<
223.165	-9.38
223.4	-9.38
223.635	-9.38
223.869	-13.38
224.104	-15.38
224.338	-12.38
224.573	-9.38
224.808	-20.38
225.042	-27.38
225.277	-20.38
225.511	0.62
225.746	13.62
225.98	7.62
226.215	10.62
226.449	10.62
226.683	21.62
226.918	41.62
227.152	21.62
227.387	28.62
227.621	27.62
227.856	48.62
228.09	42.62
228.324	57.62
228.559	60.62
228.793	85.62
229.027	117.62
229.262	123.62
229.496	132.62
229.73	123.62
229.964	140.62
230.199	147.62
230.433	147.62
230.667	150.62
230.901	152.62
231.136	143.62
231.37	157.62
231.604	145.62
231.838	173.62
232.072	155.62
232.306	175.62
232.541	160.62
232.775	155.62
233.009	174.62
233.243	179.62
233.477	173.62
233.711	166.62
233.945	178.62
234.179	180.62
234.413	165.62
234.647	184.62
234.881	176.62
235.115	179.62
235.349	188.62
235.583	193.62
235.817	177.62
236.051	178.62
236.285	192.62
236.519	196.62
236.753	187.62
236.987	181.62
237.221	195.62
237.455	195.62
237.689	200.62
237.922	196.62
238.156	189.62
238.39	202.62
238.624	190.62
238.858	188.62
239.091	191.62
239.325	205.62
239.559	210.62
239.793	216.62
240.027	203.62
240.26	220.62
240.494	222.62
240.728	239.62
240.961	210.62
241.195	219.62
241.429	231.62
241.662	233.62
241.896	221.62
242.13	231.62
242.363	233.62
242.597	235.62
242.83	244.62
243.064	223.62
243.298	226.62
243.531	243.62
243.765	250.62
243.998	255.62
244.232	255.62
244.465	265.62
244.699	250.62
244.932	266.62
245.166	250.62
245.399	252.62
245.633	272.62
245.866	255.62
246.099	268.62
246.333	263.62
246.566	260.62
246.8	265.62
247.033	284.62
247.266	279.62
247.5	273.62
247.733	273.62
247.966	274.62
248.2	284.62
248.433	284.62
248.666	290.62
248.899	294.62
249.133	295.62
249.366	310.62
249.599	283.62
249.832	302.62
250.066	305.62
250.299	287.62
250.532	307.62
250.765	326.62
250.998	321.62
251.231	325.62
251.465	336.62
251.698	328.62
251.931	308.62
252.164	313.62
252.397	325.62
252.63	330.62
252.863	319.62
253.096	333.62
253.329	335.62
253.562	338.62
253.795	334.62
254.028	344.62
254.261	340.62
254.494	340.62
254.727	347.62
254.96	332.62
255.193	353.62
255.426	343.62
255.659	334.62
255.892	351.62
256.124	354.62
256.357	355.62
256.59	351.62
256.823	351.62
257.056	368.62
257.289	369.62
257.521	355.62
257.754	372.62
257.987	367.62
258.22	384.62
258.452	384.62
258.685	389.62
258.918	390.62
259.151	405.62
259.383	401.62
259.616	375.62
259.849	378.62
260.081	389.62
260.314	385.62
260.547	384.62
260.779	393.62
261.012	375.62
261.244	408.62
261.477	379.62
261.71	411.62
261.942	411.62
262.175	428.62
262.407	382.62
262.64	404.62
262.872	424.62
263.105	412.62
263.337	398.62
263.57	418.62
263.802	421.62
264.035	419.62
264.267	426.62
264.499	405.62
264.732	434.62
264.964	428.62
265.197	449.62
265.429	427.62
265.661	422.62
265.894	425.62
266.126	422.62
266.358	448.62
266.591	423.62
266.823	452.62
267.055	460.62
267.287	458.62
267.52	456.62
267.752	474.62
267.984	464.62
268.216	467.62
268.448	465.62
268.681	461.62
268.913	470.62
269.145	456.62
269.377	460.62
269.609	461.62
269.841	455.62
270.073	447.62
270.306	477.62
270.538	477.62
270.77	451.62
271.002	488.62
271.234	473.62
271.466	513.62
271.698	486.62
271.93	477.62
272.162	483.62
272.394	484.62
272.626	485.62
272.858	475.62
273.09	498.62
273.322	500.62
273.553	491.62
273.785	504.62
274.017	482.62
274.249	513.62
274.481	532.62
274.713	490.62
274.945	522.62
275.176	525.62
275.408	524.62
275.64	485.62
275.872	514.62
276.104	552.62
276.335	504.62
276.567	528.62
276.799	523.62
277.031	529.62
277.262	539.62
277.494	517.62
277.726	538.62
277.957	538.62
278.189	556.62
278.421	520.62
278.652	547.62
278.884	569.62
279.115	563.62
279.347	554.62
279.579	552.62
279.81	566.62
280.042	561.62
280.273	568.62
280.505	563.62
280.736	595.62
280.968	569.62
281.199	579.62
281.431	577.62
281.662	594.62
281.894	595.62
282.125	603.62
282.356	600.62
282.588	576.62
282.819	595.62
283.051	602.62
283.282	593.62
283.513	601.62
283.745	609.62
283.976	585.62
284.207	603.62
284.439	621.62
284.67	620.62
284.901	603.62
285.132	608.62
285.364	600.62
285.595	606.62
285.826	609.62
286.057	616.62
286.288	648.62
286.52	619.62
286.751	635.62
286.982	611.62
287.213	623.62
287.444	645.62
287.675	641.62
287.906	634.62
288.138	639.62
288.369	667.62
288.6	661.62
288.831	652.62
289.062	634.62
289.293	644.62
289.524	626.62
289.755	622.62
289.986	635.62
290.217	655.62
290.448	662.62
290.679	648.62
290.91	656.62
291.141	646.62
291.371	663.62
291.602	646.62
291.833	681.62
292.064	639.62
292.295	639.62
292.526	654.62
292.757	648.62
292.987	658.62
293.218	663.62
293.449	649.62
293.68	661.62
293.91	650.62
294.141	670.62
294.372	681.62
294.603	680.62
294.833	647.62
295.064	676.62
295.295	682.62
295.525	673.62
295.756	660.62
295.987	653.62
296.217	705.62
296.448	668.62
296.679	671.62
296.909	705.62
297.14	685.62
297.37	687.62
297.601	731.62
297.831	700.62
298.062	715.62
298.292	701.62
298.523	727.62
298.753	723.62
298.984	712.62
299.214	731.62
299.445	716.62
299.675	731.62
299.905	722.62
300.136	732.62
300.366	744.62
300.597	730.62
300.827	757.62
301.057	759.62
301.288	738.62
301.518	751.62
301.748	757.62
301.979	782.62
302.209	773.62
302.439	796.62
302.669	785.62
302.9	747.62
303.13	729.62
303.36	754.62
303.59	731.62
303.82	761.62
304.051	759.62
304.281	746.62
304.511	772.62
304.741	770.62
304.971	744.62
305.201	759.62
305.431	763.62
305.661	755.62
305.891	746.62
306.121	732.62
306.352	744.62
306.582	725.62
306.812	734.62
307.042	744.62
307.272	747.62
307.502	696.62
307.731	717.62
307.961	748.62
308.191	724.62
308.421	735.62
308.651	748.62
308.881	708.62
309.111	723.62
309.341	730.62
309.571	732.62
309.8	731.62
310.03	714.62
310.26	741.62
310.49	744.62
310.72	739.62
310.949	731.62
311.179	747.62
311.409	736.62
311.639	766.62
311.868	760.62
312.098	746.62
312.328	757.62
312.557	787.62
312.787	779.62
313.017	783.62
313.246	775.62
313.476	813.62
313.706	817.62
313.935	795.62
314.165	789.62
314.394	786.62
314.624	812.62
314.853	810.62
315.083	793.62
315.312	802.62
315.542	776.62
315.771	796.62
316.001	771.62
316.23	775.62
316.46	772.62
316.689	772.62
316.919	793.62
317.148	761.62
317.377	796.62
317.607	755.62
317.836	740.62
318.065	776.62
318.295	778.62
318.524	774.62
318.753	764.62
318.983	774.62
319.212	776.62
319.441	761.62
319.67	778.62
319.9	773.62
320.129	781.62
320.358	777.62
320.587	775.62
320.816	794.62
321.046	771.62
321.275	771.62
321.504	796.62
321.733	767.62
321.962	793.62
322.191	778.62
322.42	775.62
322.649	775.62
322.878	780.62
323.108	800.62
323.337	811.62
323.566	788.62
323.795	788.62
324.024	818.62
324.253	794.62
324.482	802.62
324.71	803.62
324.939	812.62
325.168	816.62
325.397	835.62
325.626	835.62
325.855	823.62
326.084	835.62
326.313	859.62
326.542	854.62
326.77	895.62
326.999	865.62
327.228	816.62
327.457	854.62
327.686	863.62
327.914	873.62
328.143	860.62
328.372	863.62
328.6	884.62
328.829	858.62
329.058	857.62
329.287	872.62
329.515	839.62
329.744	879.62
329.972	879.62
330.201	865.62
330.43	883.62
330.658	870.62
330.887	863.62
331.115	878.62
331.344	899.62
331.572	907.62
331.801	913.62
332.03	954.62
332.258	999.62
332.486	996.62
332.715	1039.62
332.943	1026.62
333.172	1096.62
333.4	1135.62
333.629	1142.62
333.857	1204.62
334.085	1176.62
334.314	1120.62
334.542	1154.62
334.771	1127.62
334.999	1047.62
335.227	1083.62
335.455	1079.62
335.684	1094.62
335.912	1087.62
336.14	1054.62
336.369	1044.62
336.597	1022.62
336.825	992.62
337.053	1035.62
337.281	1023.62
337.51	994.62
337.738	988.62
337.966	971.62
338.194	956.62
338.422	937.62
338.65	943.62
338.878	935.62
339.106	933.62
339.334	954.62
339.562	909.62
339.79	898.62
340.018	889.62
340.246	890.62
340.474	906.62
340.702	889.62
340.93	910.62
341.158	891.62
341.386	927.62
341.614	903.62
341.842	917.62
342.07	871.62
342.298	866.62
342.526	896.62
342.754	893.62
342.981	896.62
343.209	913.62
343.437	979.62
343.665	1032.62
343.893	1065.62
344.12	1115.62
344.348	1069.62
344.576	987.62
344.804	988.62
345.031	935.62
345.259	929.62
345.487	914.62
345.714	900.62
345.942	883.62
346.17	905.62
346.397	890.62
346.625	899.62
346.853	871.62
347.08	883.62
347.308	891.62
347.535	896.62
347.763	861.62
347.99	847.62
348.218	859.62
348.445	861.62
348.673	886.62
348.9	891.62
349.128	876.62
349.355	857.62
349.583	856.62
349.81	823.62
350.037	862.62
350.265	837.62
350.492	837.62
350.72	861.62
350.947	835.62
351.174	810.62
351.402	828.62
351.629	829.62
351.856	853.62
352.083	819.62
352.311	827.62
352.538	820.62
352.765	852.62
352.992	827.62
353.22	823.62
353.447	818.62
353.674	806.62
353.901	835.62
354.128	815.62
354.355	837.62
354.583	810.62
354.81	818.62
355.037	805.62
355.264	835.62
355.491	836.62
355.718	832.62
355.945	824.62
356.172	840.62
356.399	837.62
356.626	838.62
356.853	851.62
357.08	827.62
357.307	836.62
357.534	818.62
357.761	831.62
357.988	805.62
358.215	829.62
358.441	845.62
358.668	828.62
358.895	831.62
359.122	805.62
359.349	811.62
359.576	833.62
359.802	837.62
360.029	851.62
360.256	811.62
360.483	843.62
360.709	820.62
360.936	835.62
361.163	842.62
361.39	840.62
361.616	829.62
361.843	849.62
362.07	843.62
362.296	837.62
362.523	843.62
362.749	849.62
362.976	815.62
363.203	820.62
363.429	825.62
363.656	823.62
363.882	826.62
364.109	842.62
364.335	814.62
364.562	817.62
364.788	822.62
365.015	832.62
365.241	832.62
365.468	831.62
365.694	842.62
365.92	825.62
366.147	844.62
366.373	853.62
366.599	850.62
366.826	827.62
367.052	836.62
367.278	819.62
367.505	832.62
367.731	854.62
367.957	841.62
368.184	834.62
368.41	827.62
368.636	849.62
368.862	865.62
369.089	828.62
369.315	855.62
369.541	846.62
369.767	880.62
369.993	843.62
370.219	891.62
370.445	885.62
370.672	865.62
370.898	882.62
371.124	865.62
371.35	895.62
371.576	891.62
371.802	899.62
372.028	951.62
372.254	893.62
372.48	890.62
372.706	908.62
372.932	932.62
373.158	917.62
373.384	918.62
373.61	909.62
373.835	917.62
374.061	920.62
374.287	928.62
374.513	917.62
374.739	959.62
374.965	972.62
375.191	1005.62
375.416	1000.62
375.642	977.62
375.868	931.62
376.094	937.62
376.319	932.62
376.545	937.62
376.771	874.62
376.997	885.62
377.222	883.62
377.448	919.62
377.674	899.62
377.899	884.62
378.125	886.62
378.35	894.62
378.576	930.62
378.802	906.62
379.027	916.62
379.253	920.62
379.478	887.62
379.704	894.62
379.929	908.62
380.155	900.62
380.38	882.62
380.606	896.62
380.831	897.62
381.057	908.62
381.282	912.62
381.507	921.62
381.733	913.62
381.958	934.62
382.184	962.62
382.409	933.62
382.634	965.62
382.86	957.62
383.085	964.62
383.31	965.62
383.535	1002.62
383.761	1008.62
383.986	1001.62
384.211	1058.62
384.436	1057.62
384.662	1063.62
384.887	1092.62
385.112	1088.62
385.337	1106.62
385.562	1083.62
385.787	1090.62
386.013	1123.62
386.238	1091.62
386.463	1134.62
386.688	1115.62
386.913	1122.62
387.138	1096.62
387.363	1092.62
387.588	1088.62
387.813	1093.62
388.038	1110.62
388.263	1116.62
388.488	1124.62
388.713	1064.62
388.938	1073.62
389.163	1072.62
389.387	1097.62
389.612	1064.62
389.837	1049.62
390.062	1058.62
390.287	1100.62
390.512	1055.62
390.736	1106.62
390.961	1097.62
391.186	1129.62
391.411	1181.62
391.636	1180.62
391.86	1225.62
392.085	1299.62
392.31	1255.62
392.534	1244.62
392.759	1209.62
392.984	1185.62
393.208	1151.62
393.433	1149.62
393.658	1162.62
393.882	1155.62
394.107	1159.62
394.331	1146.62
394.556	1180.62
394.78	1186.62
395.005	1164.62
395.229	1202.62
395.454	1217.62
395.678	1217.62
395.903	1246.62
396.127	1212.62
396.352	1174.62
396.576	1140.62
396.801	1148.62
397.025	1165.62
397.249	1201.62
397.474	1240.62
397.698	1257.62
397.922	1233.62
398.147	1224.62
398.371	1265.62
398.595	1331.62
398.82	1378.62
399.044	1496.62
399.268	1664.62
399.492	1839.62
399.717	2088.62
399.941	2056.62
400.165	1972.62
400.389	1698.62
400.613	1593.62
400.837	1470.62
401.062	1478.62
401.286	1437.62
401.51	1427.62
401.734	1393.62
401.958	1396.62
402.182	1435.62
402.406	1466.62
402.63	1437.62
402.854	1488.62
403.078	1476.62
403.302	1503.62
403.526	1543.62
403.75	1599.62
403.974	1614.62
404.198	1597.62
404.422	1622.62
404.645	1585.62
404.869	1585.62
405.093	1608.62
405.317	1558.62
405.541	1593.62
405.765	1552.62
405.988	1506.62
406.212	1543.62
406.436	1528.62
406.66	1571.62
406.883	1578.62
407.107	1694.62
407.331	1803.62
407.555	1836.62
407.778	1804.62
408.002	1769.62
408.226	1716.62
408.449	1676.62
408.673	1618.62
408.896	1567.62
409.12	1536.62
409.344	1543.62
409.567	1545.62
409.791	1585.62
410.014	1555.62
410.238	1537.62
410.461	1511.62
410.685	1540.62
410.908	1476.62
411.132	1480.62
411.355	1457.62
411.578	1453.62
411.802	1429.62
412.025	1453.62
412.249	1491.62
412.472	1459.62
412.695	1463.62
412.919	1414.62
413.142	1410.62
413.365	1403.62
413.589	1407.62
413.812	1384.62
414.035	1356.62
414.258	1404.62
414.482	1420.62
414.705	1397.62
414.928	1396.62
415.151	1409.62
415.374	1378.62
415.597	1356.62
415.821	1375.62
416.044	1350.62
416.267	1337.62
416.49	1306.62
416.713	1365.62
416.936	1368.62
417.159	1314.62
417.382	1360.62
417.605	1368.62
417.828	1350.62
418.051	1423.62
418.274	1363.62
418.497	1366.62
418.72	1414.62
418.943	1400.62
419.166	1492.62
419.389	1589.62
419.611	1562.62
419.834	1495.62
420.057	1455.62
420.28	1399.62
420.503	1351.62
420.726	1339.62
420.948	1348.62
421.171	1355.62
421.394	1376.62
421.617	1370.62
421.839	1371.62
422.062	1381.62
422.285	1337.62
422.507	1380.62
422.73	1388.62
422.953	1416.62
423.175	1420.62
423.398	1430.62
423.621	1402.62
423.843	1433.62
424.066	1440.62
424.288	1411.62
424.511	1418.62
424.733	1392.62
424.956	1385.62
425.178	1385.62
425.401	1381.62
425.623	1344.62
425.846	1327.62
426.068	1314.62
426.291	1303.62
426.513	1267.62
426.735	1256.62
426.958	1285.62
427.18	1280.62
427.402	1259.62
427.625	1217.62
427.847	1226.62
428.069	1226.62
428.292	1222.62
428.514	1186.62
428.736	1218.62
428.958	1236.62
429.181	1174.62
429.403	1204.62
429.625	1163.62
429.847	1187.62
430.069	1155.62
430.292	1212.62
430.514	1191.62
430.736	1187.62
430.958	1164.62
431.18	1194.62
431.402	1181.62
431.624	1181.62
431.846	1211.62
432.068	1204.62
432.29	1247.62
432.512	1201.62
432.734	1207.62
432.956	1175.62
433.178	1208.62
433.4	1185.62
433.622	1226.62
433.844	1231.62
434.066	1241.62
434.287	1240.62
434.509	1292.62
434.731	1324.62
434.953	1313.62
435.175	1384.62
435.397	1309.62
435.618	1283.62
435.84	1234.62
436.062	1242.62
436.284	1219.62
436.505	1175.62
436.727	1212.62
436.949	1201.62
437.17	1213.62
437.392	1204.62
437.614	1159.62
437.835	1165.62
438.057	1155.62
438.278	1157.62
438.5	1118.62
438.721	1173.62
438.943	1179.62
439.165	1188.62
439.386	1175.62
439.608	1180.62
439.829	1192.62
440.05	1178.62
440.272	1204.62
440.493	1199.62
440.715	1256.62
440.936	1228.62
441.158	1258.62
441.379	1290.62
441.6	1347.62
441.822	1370.62
442.043	1368.62
442.264	1329.62
442.486	1303.62
442.707	1317.62
442.928	1329.62
443.149	1321.62
443.371	1308.62
443.592	1331.62
443.813	1333.62
444.034	1366.62
444.255	1392.62
444.476	1508.62
444.698	1536.62
444.919	1597.62
445.14	1627.62
445.361	1511.62
445.582	1452.62
445.803	1330.62
446.024	1271.62
446.245	1287.62
446.466	1239.62
446.687	1203.62
446.908	1209.62
447.129	1171.62
447.35	1177.62
447.571	1170.62
447.792	1128.62
448.013	1139.62
448.234	1109.62
448.455	1069.62
448.675	1111.62
448.896	1132.62
449.117	1104.62
449.338	1093.62
449.559	1075.62
449.779	1091.62
450	1067.62
450.221	1088.62
450.442	1085.62
450.662	1065.62
450.883	1113.62
451.104	1137.62
451.324	1137.62
451.545	1101.62
451.766	1085.62
451.986	1106.62
452.207	1115.62
452.428	1071.62
452.648	1077.62
452.869	1044.62
453.089	1044.62
453.31	1109.62
453.53	1084.62
453.751	1056.62
453.971	1054.62
454.192	1055.62
454.412	1040.62
454.633	1021.62
454.853	1037.62
455.073	1036.62
455.294	1009.62
455.514	1033.62
455.734	1028.62
455.955	987.62
456.175	1025.62
456.395	994.62
456.616	1007.62
456.836	1021.62
457.056	1018.62
457.276	1008.62
457.497	1028.62
457.717	1030.62
457.937	1056.62
458.157	1058.62
458.377	1088.62
458.598	1095.62
458.818	1107.62
459.038	1130.62
459.258	1177.62
459.478	1240.62
459.698	1259.62
459.918	1271.62
460.138	1335.62
460.358	1386.62
460.578	1425.62
460.798	1444.62
461.018	1441.62
461.238	1424.62
461.458	1458.62
461.678	1420.62
461.898	1455.62
462.118	1460.62
462.338	1555.62
462.558	1584.62
462.777	1607.62
462.997	1794.62
463.217	1868.62
463.437	1948.62
463.657	1815.62
463.876	1714.62
464.096	1689.62
464.316	1668.62
464.536	1677.62
464.755	1642.62
464.975	1545.62
465.195	1508.62
465.414	1386.62
465.634	1299.62
465.854	1239.62
466.073	1245.62
466.293	1193.62
466.512	1217.62
466.732	1159.62
466.951	1162.62
467.171	1140.62
467.391	1149.62
467.61	1155.62
467.829	1136.62
468.049	1139.62
468.268	1127.62
468.488	1100.62
468.707	1108.62
468.927	1088.62
469.146	1087.62
469.365	1124.62
469.585	1124.62
469.804	1140.62
470.023	1157.62
470.243	1173.62
470.462	1153.62
470.681	1188.62
470.901	1188.62
471.12	1195.62
471.339	1180.62
471.558	1157.62
471.777	1144.62
471.997	1144.62
472.216	1113.62
472.435	1078.62
472.654	1100.62
472.873	1076.62
473.092	1065.62
473.311	1075.62
473.53	1073.62
473.749	1092.62
473.968	1084.62
474.187	1085.62
474.406	1088.62
474.625	1077.62
474.844	1099.62
475.063	1064.62
475.282	1104.62
475.501	1087.62
475.72	1076.62
475.939	1119.62
476.158	1096.62
476.377	1154.62
476.596	1129.62
476.814	1157.62
477.033	1149.62
477.252	1152.62
477.471	1179.62
477.69	1217.62
477.908	1239.62
478.127	1283.62
478.346	1313.62
478.564	1364.62
478.783	1353.62
479.002	1380.62
479.22	1379.62
479.439	1361.62
479.658	1355.62
479.876	1355.62
480.095	1393.62
480.313	1443.62
480.532	1447.62
480.751	1444.62
480.969	1399.62
481.188	1341.62
481.406	1322.62
481.624	1315.62
481.843	1277.62
482.061	1256.62
482.28	1258.62
482.498	1225.62
482.717	1212.62
482.935	1235.62
483.153	1239.62
483.372	1253.62
483.59	1268.62
483.808	1260.62
484.027	1241.62
484.245	1279.62
484.463	1267.62
484.681	1265.62
484.9	1323.62
485.118	1324.62
485.336	1283.62
485.554	1303.62
485.772	1319.62
485.99	1335.62
486.209	1350.62
486.427	1322.62
486.645	1308.62
486.863	1340.62
487.081	1312.62
487.299	1329.62
487.517	1311.62
487.735	1305.62
487.953	1319.62
488.171	1327.62
488.389	1308.62
488.607	1279.62
488.825	1261.62
489.043	1263.62
489.261	1258.62
489.479	1279.62
489.696	1275.62
489.914	1322.62
490.132	1314.62
490.35	1315.62
490.568	1291.62
490.786	1291.62
491.003	1325.62
491.221	1337.62
491.439	1309.62
491.657	1306.62
491.874	1314.62
492.092	1352.62
492.31	1317.62
492.527	1329.62
492.745	1344.62
492.963	1357.62
493.18	1350.62
493.398	1335.62
493.615	1364.62
493.833	1364.62
494.05	1401.62
494.268	1392.62
494.485	1385.62
