Data from NiCl2@0.0625M.TitratingCurve.Agarose3%dH2O.NegLispCup.LampEnergy10.LIBS07252019_HRD10591_18-35-08-577.txt Node
Date: Thu Jul 25 18:35:08 EDT 2019
User: cochatt
Spectrometer: HR+D1059
Trigger mode: 1
Integration Time (sec): 1.000000E-1
Scans to average: 1
Electric dark correction enabled: true
Nonlinearity correction enabled: false
Boxcar width: 0
XAxis mode: Wavelengths
Number of Pixels in Spectrum: 2048
>>>>>Begin Spectral Data<<<<<
223.165	-14.31
223.4	-14.31
223.635	-14.31
223.869	-36.31
224.104	-19.31
224.338	-12.31
224.573	-27.31
224.808	-8.31
225.042	-12.31
225.277	-5.31
225.511	7.69
225.746	16.69
225.98	1.69
226.215	12.69
226.449	27.69
226.683	17.69
226.918	15.69
227.152	35.69
227.387	32.69
227.621	34.69
227.856	35.69
228.09	34.69
228.324	55.69
228.559	53.69
228.793	77.69
229.027	125.69
229.262	146.69
229.496	153.69
229.73	159.69
229.964	161.69
230.199	171.69
230.433	149.69
230.667	170.69
230.901	171.69
231.136	178.69
231.37	189.69
231.604	185.69
231.838	186.69
232.072	192.69
232.306	206.69
232.541	193.69
232.775	202.69
233.009	210.69
233.243	198.69
233.477	207.69
233.711	201.69
233.945	202.69
234.179	198.69
234.413	200.69
234.647	195.69
234.881	208.69
235.115	214.69
235.349	192.69
235.583	216.69
235.817	216.69
236.051	198.69
236.285	222.69
236.519	213.69
236.753	216.69
236.987	229.69
237.221	225.69
237.455	222.69
237.689	233.69
237.922	231.69
238.156	235.69
238.39	237.69
238.624	243.69
238.858	242.69
239.091	237.69
239.325	255.69
239.559	264.69
239.793	248.69
240.027	251.69
240.26	266.69
240.494	257.69
240.728	251.69
240.961	242.69
241.195	263.69
241.429	272.69
241.662	256.69
241.896	289.69
242.13	269.69
242.363	274.69
242.597	298.69
242.83	300.69
243.064	291.69
243.298	301.69
243.531	301.69
243.765	318.69
243.998	299.69
244.232	299.69
244.465	293.69
244.699	312.69
244.932	312.69
245.166	338.69
245.399	323.69
245.633	334.69
245.866	335.69
246.099	331.69
246.333	335.69
246.566	334.69
246.8	320.69
247.033	339.69
247.266	326.69
247.5	327.69
247.733	346.69
247.966	336.69
248.2	359.69
248.433	353.69
248.666	353.69
248.899	366.69
249.133	365.69
249.366	372.69
249.599	379.69
249.832	366.69
250.066	379.69
250.299	422.69
250.532	391.69
250.765	381.69
250.998	370.69
251.231	394.69
251.465	392.69
251.698	402.69
251.931	397.69
252.164	411.69
252.397	403.69
252.63	431.69
252.863	427.69
253.096	410.69
253.329	406.69
253.562	403.69
253.795	432.69
254.028	435.69
254.261	420.69
254.494	435.69
254.727	445.69
254.96	425.69
255.193	460.69
255.426	438.69
255.659	457.69
255.892	467.69
256.124	465.69
256.357	465.69
256.59	453.69
256.823	473.69
257.056	442.69
257.289	464.69
257.521	466.69
257.754	496.69
257.987	467.69
258.22	497.69
258.452	477.69
258.685	488.69
258.918	481.69
259.151	481.69
259.383	479.69
259.616	498.69
259.849	483.69
260.081	484.69
260.314	496.69
260.547	511.69
260.779	474.69
261.012	520.69
261.244	517.69
261.477	520.69
261.71	509.69
261.942	523.69
262.175	529.69
262.407	516.69
262.64	497.69
262.872	543.69
263.105	543.69
263.337	535.69
263.57	536.69
263.802	535.69
264.035	530.69
264.267	543.69
264.499	539.69
264.732	541.69
264.964	572.69
265.197	567.69
265.429	574.69
265.661	553.69
265.894	581.69
266.126	573.69
266.358	545.69
266.591	571.69
266.823	577.69
267.055	577.69
267.287	594.69
267.52	573.69
267.752	576.69
267.984	581.69
268.216	579.69
268.448	605.69
268.681	593.69
268.913	617.69
269.145	591.69
269.377	610.69
269.609	585.69
269.841	613.69
270.073	619.69
270.306	587.69
270.538	607.69
270.77	601.69
271.002	626.69
271.234	611.69
271.466	591.69
271.698	594.69
271.93	628.69
272.162	635.69
272.394	643.69
272.626	624.69
272.858	624.69
273.09	652.69
273.322	642.69
273.553	660.69
273.785	626.69
274.017	672.69
274.249	652.69
274.481	671.69
274.713	678.69
274.945	680.69
275.176	657.69
275.408	669.69
275.64	692.69
275.872	659.69
276.104	685.69
276.335	682.69
276.567	701.69
276.799	679.69
277.031	671.69
277.262	694.69
277.494	666.69
277.726	706.69
277.957	711.69
278.189	701.69
278.421	713.69
278.652	718.69
278.884	715.69
279.115	754.69
279.347	749.69
279.579	712.69
279.81	695.69
280.042	748.69
280.273	735.69
280.505	730.69
280.736	725.69
280.968	730.69
281.199	757.69
281.431	778.69
281.662	754.69
281.894	767.69
282.125	743.69
282.356	781.69
282.588	747.69
282.819	773.69
283.051	766.69
283.282	768.69
283.513	791.69
283.745	779.69
283.976	779.69
284.207	785.69
284.439	805.69
284.67	794.69
284.901	830.69
285.132	800.69
285.364	812.69
285.595	805.69
285.826	810.69
286.057	800.69
286.288	816.69
286.52	817.69
286.751	810.69
286.982	830.69
287.213	847.69
287.444	833.69
287.675	841.69
287.906	843.69
288.138	846.69
288.369	825.69
288.6	832.69
288.831	825.69
289.062	851.69
289.293	851.69
289.524	840.69
289.755	853.69
289.986	853.69
290.217	853.69
290.448	847.69
290.679	864.69
290.91	878.69
291.141	862.69
291.371	869.69
291.602	874.69
291.833	843.69
292.064	838.69
292.295	869.69
292.526	881.69
292.757	860.69
292.987	854.69
293.218	863.69
293.449	867.69
293.68	847.69
293.91	870.69
294.141	851.69
294.372	866.69
294.603	861.69
294.833	863.69
295.064	890.69
295.295	891.69
295.525	900.69
295.756	889.69
295.987	867.69
296.217	885.69
296.448	891.69
296.679	900.69
296.909	894.69
297.14	910.69
297.37	935.69
297.601	904.69
297.831	898.69
298.062	923.69
298.292	915.69
298.523	944.69
298.753	964.69
298.984	938.69
299.214	965.69
299.445	935.69
299.675	934.69
299.905	944.69
300.136	941.69
300.366	928.69
300.597	962.69
300.827	984.69
301.057	964.69
301.288	994.69
301.518	970.69
301.748	983.69
301.979	999.69
302.209	984.69
302.439	972.69
302.669	1007.69
302.9	988.69
303.13	972.69
303.36	980.69
303.59	998.69
303.82	971.69
304.051	993.69
304.281	1001.69
304.511	985.69
304.741	978.69
304.971	993.69
305.201	976.69
305.431	1002.69
305.661	995.69
305.891	961.69
306.121	971.69
306.352	1025.69
306.582	978.69
306.812	941.69
307.042	977.69
307.272	996.69
307.502	977.69
307.731	953.69
307.961	963.69
308.191	945.69
308.421	976.69
308.651	991.69
308.881	967.69
309.111	956.69
309.341	959.69
309.571	948.69
309.8	956.69
310.03	988.69
310.26	976.69
310.49	969.69
310.72	999.69
310.949	968.69
311.179	977.69
311.409	1014.69
311.639	1002.69
311.868	975.69
312.098	970.69
312.328	1011.69
312.557	1017.69
312.787	1035.69
313.017	1026.69
313.246	1035.69
313.476	1026.69
313.706	1025.69
313.935	1056.69
314.165	1039.69
314.394	1053.69
314.624	1059.69
314.853	1025.69
315.083	1050.69
315.312	1046.69
315.542	1055.69
315.771	1069.69
316.001	1033.69
316.23	1025.69
316.46	1066.69
316.689	1030.69
316.919	985.69
317.148	1028.69
317.377	1062.69
317.607	1003.69
317.836	1010.69
318.065	1041.69
318.295	1044.69
318.524	1060.69
318.753	996.69
318.983	1048.69
319.212	1026.69
319.441	989.69
319.67	1011.69
319.9	1061.69
320.129	1009.69
320.358	1035.69
320.587	1023.69
320.816	1042.69
321.046	1061.69
321.275	1002.69
321.504	1039.69
321.733	1051.69
321.962	1074.69
322.191	1073.69
322.42	1060.69
322.649	1066.69
322.878	1076.69
323.108	1049.69
323.337	1071.69
323.566	1082.69
323.795	1088.69
324.024	1099.69
324.253	1097.69
324.482	1064.69
324.71	1079.69
324.939	1061.69
325.168	1056.69
325.397	1087.69
325.626	1106.69
325.855	1117.69
326.084	1125.69
326.313	1117.69
326.542	1166.69
326.77	1167.69
326.999	1131.69
327.228	1107.69
327.457	1131.69
327.686	1119.69
327.914	1133.69
328.143	1107.69
328.372	1124.69
328.6	1151.69
328.829	1134.69
329.058	1129.69
329.287	1169.69
329.515	1162.69
329.744	1150.69
329.972	1161.69
330.201	1173.69
330.43	1145.69
330.658	1187.69
330.887	1192.69
331.115	1180.69
331.344	1202.69
331.572	1200.69
331.801	1218.69
332.03	1252.69
332.258	1233.69
332.486	1279.69
332.715	1288.69
332.943	1369.69
333.172	1374.69
333.4	1432.69
333.629	1433.69
333.857	1479.69
334.085	1479.69
334.314	1468.69
334.542	1410.69
334.771	1473.69
334.999	1440.69
335.227	1409.69
335.455	1402.69
335.684	1411.69
335.912	1413.69
336.14	1374.69
336.369	1369.69
336.597	1379.69
336.825	1369.69
337.053	1353.69
337.281	1355.69
337.51	1331.69
337.738	1281.69
337.966	1268.69
338.194	1285.69
338.422	1289.69
338.65	1248.69
338.878	1221.69
339.106	1245.69
339.334	1235.69
339.562	1280.69
339.79	1226.69
340.018	1217.69
340.246	1183.69
340.474	1191.69
340.702	1209.69
340.93	1201.69
341.158	1170.69
341.386	1190.69
341.614	1199.69
341.842	1189.69
342.07	1192.69
342.298	1174.69
342.526	1182.69
342.754	1167.69
342.981	1221.69
343.209	1206.69
343.437	1223.69
343.665	1343.69
343.893	1372.69
344.12	1412.69
344.348	1375.69
344.576	1338.69
344.804	1299.69
345.031	1237.69
345.259	1227.69
345.487	1217.69
345.714	1181.69
345.942	1162.69
346.17	1175.69
346.397	1181.69
346.625	1155.69
346.853	1155.69
347.08	1141.69
347.308	1137.69
347.535	1149.69
347.763	1164.69
347.99	1153.69
348.218	1130.69
348.445	1148.69
348.673	1133.69
348.9	1113.69
349.128	1120.69
349.355	1166.69
349.583	1137.69
349.81	1124.69
350.037	1118.69
350.265	1104.69
350.492	1098.69
350.72	1113.69
350.947	1109.69
351.174	1100.69
351.402	1123.69
351.629	1105.69
351.856	1106.69
352.083	1099.69
352.311	1133.69
352.538	1082.69
352.765	1092.69
352.992	1102.69
353.22	1083.69
353.447	1100.69
353.674	1069.69
353.901	1063.69
354.128	1086.69
354.355	1071.69
354.583	1092.69
354.81	1084.69
355.037	1113.69
355.264	1084.69
355.491	1113.69
355.718	1147.69
355.945	1126.69
356.172	1105.69
356.399	1124.69
356.626	1097.69
356.853	1113.69
357.08	1099.69
357.307	1114.69
357.534	1105.69
357.761	1102.69
357.988	1131.69
358.215	1081.69
358.441	1119.69
358.668	1093.69
358.895	1078.69
359.122	1087.69
359.349	1095.69
359.576	1129.69
359.802	1105.69
360.029	1111.69
360.256	1137.69
360.483	1105.69
360.709	1123.69
360.936	1087.69
361.163	1094.69
361.39	1079.69
361.616	1092.69
361.843	1114.69
362.07	1120.69
362.296	1106.69
362.523	1081.69
362.749	1085.69
362.976	1082.69
363.203	1085.69
363.429	1119.69
363.656	1090.69
363.882	1066.69
364.109	1111.69
364.335	1079.69
364.562	1079.69
364.788	1126.69
365.015	1093.69
365.241	1118.69
365.468	1134.69
365.694	1110.69
365.92	1070.69
366.147	1089.69
366.373	1125.69
366.599	1101.69
366.826	1114.69
367.052	1088.69
367.278	1120.69
367.505	1118.69
367.731	1102.69
367.957	1114.69
368.184	1107.69
368.41	1107.69
368.636	1120.69
368.862	1114.69
369.089	1113.69
369.315	1151.69
369.541	1151.69
369.767	1142.69
369.993	1155.69
370.219	1164.69
370.445	1151.69
370.672	1134.69
370.898	1178.69
371.124	1171.69
371.35	1189.69
371.576	1187.69
371.802	1187.69
372.028	1202.69
372.254	1203.69
372.48	1214.69
372.706	1188.69
372.932	1240.69
373.158	1241.69
373.384	1215.69
373.61	1238.69
373.835	1239.69
374.061	1214.69
374.287	1235.69
374.513	1242.69
374.739	1257.69
374.965	1272.69
375.191	1313.69
375.416	1285.69
375.642	1294.69
375.868	1254.69
376.094	1227.69
376.319	1204.69
376.545	1188.69
376.771	1190.69
376.997	1210.69
377.222	1172.69
377.448	1194.69
377.674	1179.69
377.899	1178.69
378.125	1190.69
378.35	1160.69
378.576	1195.69
378.802	1197.69
379.027	1160.69
379.253	1171.69
379.478	1159.69
379.704	1174.69
379.929	1193.69
380.155	1192.69
380.38	1163.69
380.606	1226.69
380.831	1199.69
381.057	1202.69
381.282	1170.69
381.507	1200.69
381.733	1192.69
381.958	1213.69
382.184	1197.69
382.409	1234.69
382.634	1238.69
382.86	1256.69
383.085	1283.69
383.31	1266.69
383.535	1275.69
383.761	1313.69
383.986	1288.69
384.211	1351.69
384.436	1348.69
384.662	1371.69
384.887	1391.69
385.112	1378.69
385.337	1414.69
385.562	1407.69
385.787	1431.69
386.013	1442.69
386.238	1409.69
386.463	1386.69
386.688	1430.69
386.913	1437.69
387.138	1440.69
387.363	1420.69
387.588	1406.69
387.813	1434.69
388.038	1397.69
388.263	1448.69
388.488	1427.69
388.713	1453.69
388.938	1425.69
389.163	1426.69
389.387	1433.69
389.612	1405.69
389.837	1420.69
390.062	1435.69
390.287	1434.69
390.512	1411.69
390.736	1435.69
390.961	1440.69
391.186	1445.69
391.411	1505.69
391.636	1535.69
391.86	1600.69
392.085	1601.69
392.31	1557.69
392.534	1539.69
392.759	1541.69
392.984	1539.69
393.208	1496.69
393.433	1503.69
393.658	1498.69
393.882	1511.69
394.107	1495.69
394.331	1537.69
394.556	1497.69
394.78	1520.69
395.005	1495.69
395.229	1540.69
395.454	1545.69
395.678	1599.69
395.903	1601.69
396.127	1571.69
396.352	1572.69
396.576	1541.69
396.801	1538.69
397.025	1522.69
397.249	1590.69
397.474	1580.69
397.698	1627.69
397.922	1638.69
398.147	1618.69
398.371	1655.69
398.595	1721.69
398.82	1799.69
399.044	1874.69
399.268	1973.69
399.492	2237.69
399.717	2443.69
399.941	2464.69
400.165	2292.69
400.389	2124.69
400.613	2003.69
400.837	1909.69
401.062	1836.69
401.286	1809.69
401.51	1778.69
401.734	1779.69
401.958	1762.69
402.182	1759.69
402.406	1802.69
402.63	1812.69
402.854	1861.69
403.078	1847.69
403.302	1901.69
403.526	1903.69
403.75	1920.69
403.974	1915.69
404.198	1958.69
404.422	1942.69
404.645	1912.69
404.869	1913.69
405.093	1926.69
405.317	1879.69
405.541	1939.69
405.765	1911.69
405.988	1906.69
406.212	1990.69
406.436	1917.69
406.66	1956.69
406.883	2018.69
407.107	2122.69
407.331	2177.69
407.555	2223.69
407.778	2200.69
408.002	2194.69
408.226	2171.69
408.449	2135.69
408.673	2073.69
408.896	2078.69
409.12	1956.69
409.344	2018.69
409.567	1995.69
409.791	2008.69
410.014	1936.69
410.238	1896.69
410.461	1925.69
410.685	1921.69
410.908	1919.69
411.132	1894.69
411.355	1841.69
411.578	1859.69
411.802	1850.69
412.025	1858.69
412.249	1909.69
412.472	1917.69
412.695	1832.69
412.919	1805.69
413.142	1792.69
413.365	1757.69
413.589	1799.69
413.812	1744.69
414.035	1745.69
414.258	1769.69
414.482	1775.69
414.705	1778.69
414.928	1808.69
415.151	1762.69
415.374	1786.69
415.597	1764.69
415.821	1715.69
416.044	1739.69
416.267	1704.69
416.49	1710.69
416.713	1716.69
416.936	1673.69
417.159	1741.69
417.382	1693.69
417.605	1681.69
417.828	1720.69
418.051	1745.69
418.274	1709.69
418.497	1690.69
418.72	1739.69
418.943	1739.69
419.166	1881.69
419.389	2007.69
419.611	1917.69
419.834	1902.69
420.057	1798.69
420.28	1757.69
420.503	1679.69
420.726	1734.69
420.948	1689.69
421.171	1699.69
421.394	1678.69
421.617	1706.69
421.839	1710.69
422.062	1722.69
422.285	1661.69
422.507	1727.69
422.73	1680.69
422.953	1734.69
423.175	1738.69
423.398	1773.69
423.621	1775.69
423.843	1790.69
424.066	1802.69
424.288	1800.69
424.511	1748.69
424.733	1725.69
424.956	1735.69
425.178	1749.69
425.401	1697.69
425.623	1709.69
425.846	1659.69
426.068	1663.69
426.291	1655.69
426.513	1661.69
426.735	1619.69
426.958	1647.69
427.18	1591.69
427.402	1649.69
427.625	1609.69
427.847	1599.69
428.069	1562.69
428.292	1571.69
428.514	1554.69
428.736	1552.69
428.958	1603.69
429.181	1573.69
429.403	1502.69
429.625	1477.69
429.847	1504.69
430.069	1508.69
430.292	1544.69
430.514	1530.69
430.736	1517.69
430.958	1525.69
431.18	1538.69
431.402	1554.69
431.624	1566.69
431.846	1574.69
432.068	1567.69
432.29	1597.69
432.512	1577.69
432.734	1597.69
432.956	1554.69
433.178	1563.69
433.4	1591.69
433.622	1603.69
433.844	1636.69
434.066	1609.69
434.287	1608.69
434.509	1657.69
434.731	1690.69
434.953	1693.69
435.175	1720.69
435.397	1712.69
435.618	1657.69
435.84	1629.69
436.062	1617.69
436.284	1546.69
436.505	1543.69
436.727	1574.69
436.949	1558.69
437.17	1561.69
437.392	1531.69
437.614	1486.69
437.835	1472.69
438.057	1496.69
438.278	1461.69
438.5	1465.69
438.721	1480.69
438.943	1490.69
439.165	1470.69
439.386	1491.69
439.608	1542.69
439.829	1511.69
440.05	1529.69
440.272	1535.69
440.493	1553.69
440.715	1557.69
440.936	1601.69
441.158	1599.69
441.379	1646.69
441.6	1694.69
441.822	1720.69
442.043	1711.69
442.264	1651.69
442.486	1654.69
442.707	1654.69
442.928	1661.69
443.149	1653.69
443.371	1626.69
443.592	1665.69
443.813	1688.69
444.034	1698.69
444.255	1711.69
444.476	1768.69
444.698	1885.69
444.919	1902.69
445.14	1985.69
445.361	1836.69
445.582	1744.69
445.803	1661.69
446.024	1626.69
446.245	1619.69
446.466	1590.69
446.687	1550.69
446.908	1563.69
447.129	1495.69
447.35	1467.69
447.571	1486.69
447.792	1453.69
448.013	1467.69
448.234	1415.69
448.455	1412.69
448.675	1393.69
448.896	1395.69
449.117	1366.69
449.338	1421.69
449.559	1386.69
449.779	1377.69
450	1340.69
450.221	1357.69
450.442	1396.69
450.662	1375.69
450.883	1379.69
451.104	1399.69
451.324	1401.69
451.545	1426.69
451.766	1367.69
451.986	1351.69
452.207	1391.69
452.428	1390.69
452.648	1377.69
452.869	1345.69
453.089	1345.69
453.31	1327.69
453.53	1341.69
453.751	1319.69
453.971	1330.69
454.192	1355.69
454.412	1306.69
454.633	1305.69
454.853	1325.69
455.073	1314.69
455.294	1312.69
455.514	1335.69
455.734	1314.69
455.955	1268.69
456.175	1299.69
456.395	1303.69
456.616	1312.69
456.836	1312.69
457.056	1296.69
457.276	1296.69
457.497	1325.69
457.717	1336.69
457.937	1327.69
458.157	1374.69
458.377	1362.69
458.598	1402.69
458.818	1426.69
459.038	1456.69
459.258	1457.69
459.478	1564.69
459.698	1594.69
459.918	1577.69
460.138	1621.69
460.358	1712.69
460.578	1715.69
460.798	1713.69
461.018	1776.69
461.238	1770.69
461.458	1766.69
461.678	1730.69
461.898	1796.69
462.118	1828.69
462.338	1883.69
462.558	1912.69
462.777	1978.69
462.997	2127.69
463.217	2206.69
463.437	2269.69
463.657	2155.69
463.876	2069.69
464.096	2024.69
464.316	2020.69
464.536	2003.69
464.755	1949.69
464.975	1918.69
465.195	1781.69
465.414	1722.69
465.634	1624.69
465.854	1593.69
466.073	1547.69
466.293	1537.69
466.512	1514.69
466.732	1469.69
466.951	1470.69
467.171	1483.69
467.391	1466.69
467.61	1473.69
467.829	1432.69
468.049	1418.69
468.268	1428.69
468.488	1410.69
468.707	1385.69
468.927	1400.69
469.146	1409.69
469.365	1417.69
469.585	1420.69
469.804	1472.69
470.023	1464.69
470.243	1457.69
470.462	1505.69
470.681	1481.69
470.901	1487.69
471.12	1498.69
471.339	1476.69
471.558	1481.69
471.777	1458.69
471.997	1445.69
472.216	1421.69
472.435	1445.69
472.654	1400.69
472.873	1380.69
473.092	1377.69
473.311	1382.69
473.53	1376.69
473.749	1410.69
473.968	1403.69
474.187	1364.69
474.406	1381.69
474.625	1353.69
474.844	1385.69
475.063	1399.69
475.282	1429.69
475.501	1411.69
475.72	1418.69
475.939	1425.69
476.158	1458.69
476.377	1455.69
476.596	1442.69
476.814	1480.69
477.033	1483.69
477.252	1526.69
477.471	1549.69
477.69	1549.69
477.908	1563.69
478.127	1661.69
478.346	1674.69
478.564	1679.69
478.783	1717.69
479.002	1714.69
479.22	1747.69
479.439	1752.69
479.658	1746.69
479.876	1743.69
480.095	1750.69
480.313	1779.69
480.532	1858.69
480.751	1825.69
480.969	1766.69
481.188	1742.69
481.406	1748.69
481.624	1723.69
481.843	1715.69
482.061	1681.69
482.28	1667.69
482.498	1686.69
482.717	1677.69
482.935	1686.69
483.153	1711.69
483.372	1704.69
483.59	1663.69
483.808	1692.69
484.027	1744.69
484.245	1756.69
484.463	1758.69
484.681	1802.69
484.9	1777.69
485.118	1799.69
485.336	1822.69
485.554	1843.69
485.772	1851.69
485.99	1856.69
486.209	1851.69
486.427	1832.69
486.645	1821.69
486.863	1849.69
487.081	1791.69
487.299	1797.69
487.517	1833.69
487.735	1766.69
487.953	1829.69
488.171	1793.69
488.389	1789.69
488.607	1792.69
488.825	1738.69
489.043	1744.69
489.261	1744.69
489.479	1739.69
489.696	1776.69
489.914	1727.69
490.132	1766.69
490.35	1768.69
490.568	1720.69
