Data from NiCl2@0.5M.TitratingCurve.Agarose3%dH2O.NegLispCup.LampEnergy10.LIBS07252019_HRD10591_18-19-26-574.txt Node
Date: Thu Jul 25 18:19:26 EDT 2019
User: cochatt
Spectrometer: HR+D1059
Trigger mode: 1
Integration Time (sec): 1.000000E-1
Scans to average: 1
Electric dark correction enabled: true
Nonlinearity correction enabled: false
Boxcar width: 0
XAxis mode: Wavelengths
Number of Pixels in Spectrum: 2048
>>>>>Begin Spectral Data<<<<<
223.165	-20.69
223.4	-20.69
223.635	-20.69
223.869	-26.69
224.104	-21.69
224.338	-3.69
224.573	-24.69
224.808	-13.69
225.042	4.31
225.277	-8.69
225.511	8.31
225.746	-0.69
225.98	7.31
226.215	7.31
226.449	21.31
226.683	22.31
226.918	19.31
227.152	30.31
227.387	27.31
227.621	34.31
227.856	61.31
228.09	46.31
228.324	44.31
228.559	64.31
228.793	73.31
229.027	96.31
229.262	123.31
229.496	102.31
229.73	127.31
229.964	132.31
230.199	119.31
230.433	145.31
230.667	139.31
230.901	133.31
231.136	121.31
231.37	149.31
231.604	137.31
231.838	134.31
232.072	146.31
232.306	151.31
232.541	126.31
232.775	134.31
233.009	134.31
233.243	138.31
233.477	141.31
233.711	137.31
233.945	131.31
234.179	149.31
234.413	144.31
234.647	137.31
234.881	141.31
235.115	135.31
235.349	132.31
235.583	141.31
235.817	146.31
236.051	138.31
236.285	147.31
236.519	144.31
236.753	136.31
236.987	135.31
237.221	134.31
237.455	144.31
237.689	146.31
237.922	138.31
238.156	157.31
238.39	153.31
238.624	150.31
238.858	166.31
239.091	170.31
239.325	166.31
239.559	154.31
239.793	169.31
240.027	161.31
240.26	168.31
240.494	154.31
240.728	157.31
240.961	153.31
241.195	182.31
241.429	177.31
241.662	174.31
241.896	171.31
242.13	176.31
242.363	171.31
242.597	178.31
242.83	166.31
243.064	155.31
243.298	171.31
243.531	166.31
243.765	182.31
243.998	174.31
244.232	181.31
244.465	171.31
244.699	191.31
244.932	172.31
245.166	171.31
245.399	180.31
245.633	180.31
245.866	181.31
246.099	189.31
246.333	194.31
246.566	173.31
246.8	211.31
247.033	181.31
247.266	198.31
247.5	195.31
247.733	194.31
247.966	201.31
248.2	205.31
248.433	209.31
248.666	196.31
248.899	206.31
249.133	203.31
249.366	225.31
249.599	202.31
249.832	223.31
250.066	209.31
250.299	212.31
250.532	216.31
250.765	220.31
250.998	222.31
251.231	233.31
251.465	218.31
251.698	224.31
251.931	226.31
252.164	207.31
252.397	222.31
252.63	229.31
252.863	208.31
253.096	236.31
253.329	224.31
253.562	234.31
253.795	227.31
254.028	222.31
254.261	256.31
254.494	227.31
254.727	233.31
254.96	240.31
255.193	230.31
255.426	225.31
255.659	233.31
255.892	250.31
256.124	234.31
256.357	263.31
256.59	250.31
256.823	240.31
257.056	256.31
257.289	249.31
257.521	260.31
257.754	248.31
257.987	242.31
258.22	254.31
258.452	253.31
258.685	247.31
258.918	253.31
259.151	263.31
259.383	254.31
259.616	262.31
259.849	238.31
260.081	254.31
260.314	270.31
260.547	251.31
260.779	271.31
261.012	246.31
261.244	260.31
261.477	284.31
261.71	276.31
261.942	266.31
262.175	270.31
262.407	277.31
262.64	264.31
262.872	270.31
263.105	282.31
263.337	286.31
263.57	285.31
263.802	299.31
264.035	290.31
264.267	280.31
264.499	288.31
264.732	306.31
264.964	280.31
265.197	294.31
265.429	287.31
265.661	289.31
265.894	262.31
266.126	301.31
266.358	301.31
266.591	287.31
266.823	287.31
267.055	302.31
267.287	314.31
267.52	295.31
267.752	323.31
267.984	306.31
268.216	294.31
268.448	310.31
268.681	314.31
268.913	296.31
269.145	301.31
269.377	314.31
269.609	289.31
269.841	306.31
270.073	314.31
270.306	308.31
270.538	318.31
270.77	327.31
271.002	322.31
271.234	332.31
271.466	315.31
271.698	318.31
271.93	333.31
272.162	310.31
272.394	330.31
272.626	344.31
272.858	335.31
273.09	328.31
273.322	349.31
273.553	340.31
273.785	334.31
274.017	325.31
274.249	336.31
274.481	320.31
274.713	339.31
274.945	341.31
275.176	337.31
275.408	342.31
275.64	362.31
275.872	349.31
276.104	373.31
276.335	364.31
276.567	325.31
276.799	357.31
277.031	353.31
277.262	359.31
277.494	357.31
277.726	350.31
277.957	359.31
278.189	361.31
278.421	360.31
278.652	365.31
278.884	350.31
279.115	364.31
279.347	364.31
279.579	368.31
279.81	375.31
280.042	382.31
280.273	362.31
280.505	376.31
280.736	370.31
280.968	376.31
281.199	376.31
281.431	373.31
281.662	382.31
281.894	401.31
282.125	384.31
282.356	375.31
282.588	385.31
282.819	385.31
283.051	392.31
283.282	392.31
283.513	387.31
283.745	399.31
283.976	380.31
284.207	374.31
284.439	370.31
284.67	389.31
284.901	379.31
285.132	397.31
285.364	416.31
285.595	406.31
285.826	409.31
286.057	398.31
286.288	426.31
286.52	414.31
286.751	418.31
286.982	421.31
287.213	410.31
287.444	423.31
287.675	414.31
287.906	430.31
288.138	406.31
288.369	426.31
288.6	418.31
288.831	407.31
289.062	418.31
289.293	423.31
289.524	426.31
289.755	420.31
289.986	424.31
290.217	451.31
290.448	417.31
290.679	427.31
290.91	424.31
291.141	440.31
291.371	427.31
291.602	426.31
291.833	439.31
292.064	433.31
292.295	440.31
292.526	446.31
292.757	436.31
292.987	446.31
293.218	438.31
293.449	439.31
293.68	443.31
293.91	459.31
294.141	419.31
294.372	414.31
294.603	441.31
294.833	444.31
295.064	440.31
295.295	445.31
295.525	428.31
295.756	443.31
295.987	412.31
296.217	451.31
296.448	446.31
296.679	442.31
296.909	454.31
297.14	441.31
297.37	475.31
297.601	454.31
297.831	464.31
298.062	478.31
298.292	477.31
298.523	490.31
298.753	471.31
298.984	467.31
299.214	459.31
299.445	490.31
299.675	487.31
299.905	493.31
300.136	502.31
300.366	486.31
300.597	491.31
300.827	506.31
301.057	502.31
301.288	485.31
301.518	495.31
301.748	520.31
301.979	484.31
302.209	500.31
302.439	493.31
302.669	490.31
302.9	491.31
303.13	473.31
303.36	476.31
303.59	480.31
303.82	480.31
304.051	476.31
304.281	502.31
304.511	494.31
304.741	504.31
304.971	502.31
305.201	516.31
305.431	534.31
305.661	509.31
305.891	504.31
306.121	503.31
306.352	503.31
306.582	488.31
306.812	480.31
307.042	503.31
307.272	495.31
307.502	484.31
307.731	482.31
307.961	494.31
308.191	488.31
308.421	504.31
308.651	499.31
308.881	495.31
309.111	474.31
309.341	485.31
309.571	513.31
309.8	518.31
310.03	527.31
310.26	540.31
310.49	523.31
310.72	520.31
310.949	521.31
311.179	498.31
311.409	504.31
311.639	501.31
311.868	517.31
312.098	527.31
312.328	541.31
312.557	520.31
312.787	514.31
313.017	528.31
313.246	563.31
313.476	537.31
313.706	558.31
313.935	539.31
314.165	552.31
314.394	498.31
314.624	539.31
314.853	530.31
315.083	546.31
315.312	542.31
315.542	532.31
315.771	526.31
316.001	538.31
316.23	539.31
316.46	551.31
316.689	533.31
316.919	532.31
317.148	534.31
317.377	539.31
317.607	527.31
317.836	529.31
318.065	536.31
318.295	518.31
318.524	553.31
318.753	524.31
318.983	542.31
319.212	527.31
319.441	519.31
319.67	517.31
319.9	525.31
320.129	550.31
320.358	560.31
320.587	528.31
320.816	553.31
321.046	518.31
321.275	541.31
321.504	544.31
321.733	530.31
321.962	563.31
322.191	560.31
322.42	580.31
322.649	555.31
322.878	544.31
323.108	568.31
323.337	571.31
323.566	550.31
323.795	567.31
324.024	553.31
324.253	558.31
324.482	542.31
324.71	565.31
324.939	554.31
325.168	566.31
325.397	570.31
325.626	580.31
325.855	580.31
326.084	557.31
326.313	585.31
326.542	588.31
326.77	565.31
326.999	582.31
327.228	574.31
327.457	572.31
327.686	556.31
327.914	588.31
328.143	610.31
328.372	611.31
328.6	573.31
328.829	598.31
329.058	609.31
329.287	578.31
329.515	585.31
329.744	578.31
329.972	589.31
330.201	576.31
330.43	601.31
330.658	607.31
330.887	595.31
331.115	595.31
331.344	607.31
331.572	612.31
331.801	619.31
332.03	620.31
332.258	636.31
332.486	647.31
332.715	675.31
332.943	661.31
333.172	688.31
333.4	690.31
333.629	710.31
333.857	720.31
334.085	727.31
334.314	714.31
334.542	683.31
334.771	686.31
334.999	692.31
335.227	666.31
335.455	671.31
335.684	683.31
335.912	713.31
336.14	690.31
336.369	694.31
336.597	687.31
336.825	696.31
337.053	679.31
337.281	711.31
337.51	678.31
337.738	678.31
337.966	664.31
338.194	671.31
338.422	655.31
338.65	636.31
338.878	617.31
339.106	642.31
339.334	642.31
339.562	647.31
339.79	629.31
340.018	612.31
340.246	601.31
340.474	616.31
340.702	627.31
340.93	618.31
341.158	603.31
341.386	635.31
341.614	652.31
341.842	649.31
342.07	610.31
342.298	609.31
342.526	615.31
342.754	611.31
342.981	583.31
343.209	616.31
343.437	657.31
343.665	678.31
343.893	678.31
344.12	718.31
344.348	692.31
344.576	652.31
344.804	663.31
345.031	630.31
345.259	627.31
345.487	614.31
345.714	626.31
345.942	617.31
346.17	644.31
346.397	603.31
346.625	602.31
346.853	587.31
347.08	605.31
347.308	580.31
347.535	616.31
347.763	593.31
347.99	590.31
348.218	587.31
348.445	579.31
348.673	597.31
348.9	577.31
349.128	585.31
349.355	621.31
349.583	606.31
349.81	605.31
350.037	578.31
350.265	575.31
350.492	563.31
350.72	564.31
350.947	578.31
351.174	575.31
351.402	599.31
351.629	599.31
351.856	581.31
352.083	584.31
352.311	600.31
352.538	598.31
352.765	614.31
352.992	587.31
353.22	562.31
353.447	551.31
353.674	552.31
353.901	540.31
354.128	566.31
354.355	518.31
354.583	521.31
354.81	578.31
355.037	586.31
355.264	558.31
355.491	561.31
355.718	543.31
355.945	559.31
356.172	562.31
356.399	564.31
356.626	571.31
356.853	566.31
357.08	583.31
357.307	559.31
357.534	569.31
357.761	556.31
357.988	577.31
358.215	562.31
358.441	564.31
358.668	558.31
358.895	555.31
359.122	583.31
359.349	535.31
359.576	560.31
359.802	585.31
360.029	558.31
360.256	578.31
360.483	550.31
360.709	550.31
360.936	579.31
361.163	564.31
361.39	551.31
361.616	572.31
361.843	574.31
362.07	569.31
362.296	585.31
362.523	562.31
362.749	554.31
362.976	551.31
363.203	549.31
363.429	550.31
363.656	532.31
363.882	544.31
364.109	539.31
364.335	536.31
364.562	568.31
364.788	551.31
365.015	548.31
365.241	538.31
365.468	542.31
365.694	526.31
365.92	551.31
366.147	553.31
366.373	535.31
366.599	580.31
366.826	546.31
367.052	553.31
367.278	538.31
367.505	562.31
367.731	557.31
367.957	582.31
368.184	546.31
368.41	555.31
368.636	539.31
368.862	535.31
369.089	538.31
369.315	564.31
369.541	556.31
369.767	573.31
369.993	562.31
370.219	564.31
370.445	563.31
370.672	553.31
370.898	558.31
371.124	591.31
371.35	556.31
371.576	556.31
371.802	566.31
372.028	551.31
372.254	579.31
372.48	573.31
372.706	588.31
372.932	574.31
373.158	587.31
373.384	575.31
373.61	566.31
373.835	575.31
374.061	554.31
374.287	582.31
374.513	573.31
374.739	597.31
374.965	595.31
375.191	628.31
375.416	615.31
375.642	578.31
375.868	599.31
376.094	595.31
376.319	585.31
376.545	562.31
376.771	547.31
376.997	566.31
377.222	558.31
377.448	550.31
377.674	585.31
377.899	545.31
378.125	542.31
378.35	535.31
378.576	548.31
378.802	534.31
379.027	553.31
379.253	555.31
379.478	559.31
379.704	558.31
379.929	546.31
380.155	558.31
380.38	578.31
380.606	534.31
380.831	537.31
381.057	567.31
381.282	554.31
381.507	548.31
381.733	541.31
381.958	547.31
382.184	572.31
382.409	564.31
382.634	573.31
382.86	575.31
383.085	582.31
383.31	589.31
383.535	586.31
383.761	598.31
383.986	583.31
384.211	610.31
384.436	621.31
384.662	597.31
384.887	645.31
385.112	650.31
385.337	623.31
385.562	610.31
385.787	630.31
386.013	650.31
386.238	636.31
386.463	615.31
386.688	629.31
386.913	609.31
387.138	631.31
387.363	633.31
387.588	620.31
387.813	613.31
388.038	600.31
388.263	638.31
388.488	641.31
388.713	638.31
388.938	603.31
389.163	622.31
389.387	619.31
389.612	611.31
389.837	622.31
390.062	629.31
390.287	643.31
390.512	616.31
390.736	617.31
390.961	634.31
391.186	648.31
391.411	670.31
391.636	658.31
391.86	679.31
392.085	686.31
392.31	696.31
392.534	664.31
392.759	706.31
392.984	666.31
393.208	666.31
393.433	687.31
393.658	684.31
393.882	682.31
394.107	681.31
394.331	670.31
394.556	668.31
394.78	674.31
395.005	700.31
395.229	685.31
395.454	692.31
395.678	700.31
395.903	711.31
396.127	705.31
396.352	673.31
396.576	681.31
396.801	646.31
397.025	666.31
397.249	698.31
397.474	693.31
397.698	698.31
397.922	706.31
398.147	714.31
398.371	758.31
398.595	706.31
398.82	752.31
399.044	794.31
399.268	844.31
399.492	921.31
399.717	1042.31
399.941	1020.31
400.165	963.31
400.389	874.31
400.613	842.31
400.837	814.31
401.062	767.31
401.286	786.31
401.51	781.31
401.734	775.31
401.958	806.31
402.182	777.31
402.406	772.31
402.63	789.31
402.854	825.31
403.078	828.31
403.302	814.31
403.526	828.31
403.75	836.31
403.974	863.31
404.198	872.31
404.422	830.31
404.645	862.31
404.869	863.31
405.093	844.31
405.317	829.31
405.541	824.31
405.765	834.31
405.988	844.31
406.212	841.31
406.436	831.31
406.66	865.31
406.883	844.31
407.107	883.31
407.331	927.31
407.555	959.31
407.778	939.31
408.002	926.31
408.226	923.31
408.449	917.31
408.673	894.31
408.896	891.31
409.12	903.31
409.344	872.31
409.567	868.31
409.791	876.31
410.014	867.31
410.238	861.31
410.461	893.31
410.685	841.31
410.908	846.31
411.132	834.31
411.355	809.31
411.578	795.31
411.802	820.31
412.025	829.31
412.249	847.31
412.472	854.31
412.695	809.31
412.919	798.31
413.142	798.31
413.365	809.31
413.589	807.31
413.812	777.31
414.035	791.31
414.258	809.31
414.482	788.31
414.705	772.31
414.928	799.31
415.151	784.31
415.374	782.31
415.597	805.31
415.821	766.31
416.044	788.31
416.267	759.31
416.49	801.31
416.713	786.31
416.936	792.31
417.159	792.31
417.382	789.31
417.605	769.31
417.828	790.31
418.051	786.31
418.274	783.31
418.497	792.31
418.72	801.31
418.943	810.31
419.166	828.31
419.389	902.31
419.611	866.31
419.834	855.31
420.057	821.31
420.28	831.31
420.503	814.31
420.726	781.31
420.948	805.31
421.171	785.31
421.394	781.31
421.617	774.31
421.839	768.31
422.062	787.31
422.285	775.31
422.507	808.31
422.73	823.31
422.953	815.31
423.175	826.31
423.398	815.31
423.621	869.31
423.843	835.31
424.066	825.31
424.288	813.31
424.511	792.31
424.733	820.31
424.956	825.31
425.178	793.31
425.401	822.31
425.623	798.31
425.846	774.31
426.068	814.31
426.291	795.31
426.513	780.31
426.735	766.31
426.958	781.31
427.18	754.31
427.402	755.31
427.625	762.31
427.847	770.31
428.069	750.31
428.292	764.31
428.514	750.31
428.736	758.31
428.958	750.31
429.181	736.31
429.403	740.31
429.625	743.31
429.847	745.31
430.069	755.31
430.292	764.31
430.514	717.31
430.736	730.31
430.958	754.31
431.18	762.31
431.402	758.31
431.624	770.31
431.846	755.31
432.068	748.31
432.29	765.31
432.512	774.31
432.734	754.31
432.956	749.31
433.178	774.31
433.4	760.31
433.622	784.31
433.844	792.31
434.066	780.31
434.287	801.31
434.509	788.31
434.731	818.31
434.953	832.31
435.175	842.31
435.397	825.31
435.618	810.31
435.84	780.31
436.062	793.31
436.284	782.31
436.505	776.31
436.727	787.31
436.949	786.31
437.17	780.31
437.392	786.31
437.614	763.31
437.835	750.31
438.057	729.31
438.278	727.31
438.5	731.31
438.721	761.31
438.943	764.31
439.165	784.31
439.386	784.31
439.608	771.31
439.829	763.31
440.05	788.31
440.272	790.31
440.493	777.31
440.715	794.31
440.936	799.31
441.158	811.31
441.379	815.31
441.6	854.31
441.822	836.31
442.043	846.31
442.264	825.31
442.486	848.31
442.707	845.31
442.928	848.31
443.149	851.31
443.371	838.31
443.592	868.31
443.813	877.31
444.034	864.31
444.255	856.31
444.476	905.31
444.698	932.31
444.919	953.31
445.14	1067.31
445.361	973.31
445.582	895.31
445.803	864.31
446.024	838.31
446.245	799.31
446.466	772.31
446.687	797.31
446.908	784.31
447.129	802.31
447.35	777.31
447.571	756.31
447.792	743.31
448.013	762.31
448.234	746.31
448.455	766.31
448.675	732.31
448.896	727.31
449.117	733.31
449.338	732.31
449.559	735.31
449.779	726.31
450	718.31
450.221	741.31
450.442	717.31
450.662	734.31
450.883	724.31
451.104	756.31
451.324	745.31
451.545	747.31
451.766	714.31
451.986	740.31
452.207	728.31
452.428	723.31
452.648	727.31
452.869	707.31
453.089	714.31
453.31	719.31
453.53	714.31
453.751	707.31
453.971	719.31
454.192	710.31
454.412	717.31
454.633	727.31
454.853	692.31
455.073	687.31
455.294	704.31
455.514	684.31
455.734	701.31
455.955	719.31
456.175	705.31
456.395	686.31
456.616	690.31
456.836	719.31
457.056	691.31
457.276	685.31
457.497	704.31
457.717	712.31
457.937	709.31
458.157	668.31
458.377	705.31
458.598	708.31
458.818	743.31
459.038	744.31
459.258	801.31
459.478	803.31
459.698	855.31
459.918	859.31
460.138	871.31
460.358	854.31
460.578	885.31
460.798	906.31
461.018	927.31
461.238	909.31
461.458	857.31
461.678	894.31
461.898	902.31
462.118	893.31
462.338	917.31
462.558	973.31
462.777	1004.31
462.997	1066.31
463.217	1098.31
463.437	1119.31
463.657	1063.31
463.876	993.31
464.096	1030.31
464.316	992.31
464.536	1018.31
464.755	987.31
464.975	939.31
465.195	900.31
465.414	888.31
465.634	849.31
465.854	836.31
466.073	816.31
466.293	794.31
466.512	813.31
466.732	800.31
466.951	782.31
467.171	778.31
467.391	771.31
467.61	799.31
467.829	753.31
468.049	786.31
468.268	784.31
468.488	798.31
468.707	761.31
468.927	749.31
469.146	777.31
469.365	762.31
469.585	754.31
469.804	786.31
470.023	802.31
470.243	776.31
470.462	785.31
470.681	804.31
470.901	800.31
471.12	799.31
471.339	776.31
471.558	776.31
471.777	788.31
471.997	783.31
472.216	788.31
472.435	729.31
472.654	733.31
472.873	728.31
473.092	736.31
473.311	747.31
473.53	758.31
473.749	746.31
473.968	759.31
474.187	751.31
474.406	758.31
474.625	741.31
474.844	728.31
475.063	776.31
475.282	774.31
475.501	783.31
475.72	777.31
475.939	792.31
476.158	777.31
476.377	794.31
476.596	787.31
476.814	800.31
477.033	811.31
477.252	811.31
477.471	835.31
477.69	854.31
477.908	883.31
478.127	875.31
478.346	874.31
478.564	906.31
478.783	916.31
479.002	910.31
479.22	932.31
479.439	937.31
479.658	909.31
479.876	923.31
480.095	894.31
480.313	960.31
480.532	971.31
480.751	939.31
480.969	901.31
481.188	918.31
481.406	908.31
481.624	864.31
481.843	884.31
482.061	857.31
482.28	845.31
482.498	855.31
482.717	866.31
482.935	886.31
483.153	881.31
483.372	911.31
483.59	916.31
483.808	882.31
484.027	895.31
484.245	886.31
484.463	894.31
484.681	886.31
484.9	882.31
485.118	898.31
485.336	890.31
485.554	913.31
485.772	914.31
485.99	910.31
486.209	928.31
486.427	902.31
486.645	924.31
486.863	947.31
487.081	932.31
487.299	905.31
487.517	928.31
487.735	934.31
487.953	943.31
488.171	931.31
488.389	916.31
488.607	912.31
488.825	912.31
489.043	890.31
489.261	909.31
489.479	935.31
489.696	928.31
489.914	906.31
490.132	908.31
490.35	940.31
490.568	941.31
490.786	968.31
491.003	926.31
491.221	953.31
491.439	952.31
491.657	939.31
491.874	940.31
492.092	956.31
492.31	970.31
492.527	968.31
492.745	965.31
492.963	954.31
493.18	938.31
493.398	975.31
493.615	958.31
493.833	974.31
494.05	970.31
494.268	983.31
494.485	973.31
494.703	976.31
494.92	970.31
495.138	980.31
495.355	995.31
495.573	979.31
495.79	991.31
496.008	1004.31
496.225	1001.31
496.442	970.31
496.66	1000.31
496.877	1022.31
497.094	1023.31
497.312	1084.31
497.529	1066.31
497.746	1076.31
497.963	1094.31
498.181	1145.31
498.398	1154.31
498.615	1221.31
498.832	1272.31
499.049	1342.31
499.267	1402.31
499.484	1464.31
499.701	1630.31
499.918	1738.31
500.135	1954.31
500.352	2140.31
500.569	2183.31
500.786	2146.31
501.003	2040.31
501.22	1897.31
