Data from NiCl2@0.0625M.TitratingCurve.Agarose3%dH2O.NegLispCup.LampEnergy10.LIBS07252019_HRD10591_18-34-50-577.txt Node
Date: Thu Jul 25 18:34:50 EDT 2019
User: cochatt
Spectrometer: HR+D1059
Trigger mode: 1
Integration Time (sec): 1.000000E-1
Scans to average: 1
Electric dark correction enabled: true
Nonlinearity correction enabled: false
Boxcar width: 0
XAxis mode: Wavelengths
Number of Pixels in Spectrum: 2048
>>>>>Begin Spectral Data<<<<<
223.165	-7.88
223.4	-7.88
223.635	-7.88
223.869	-19.88
224.104	-20.88
224.338	-12.88
224.573	-13.88
224.808	-2.88
225.042	-20.88
225.277	-8.88
225.511	-12.88
225.746	-1.88
225.98	12.12
226.215	7.12
226.449	8.12
226.683	23.12
226.918	30.12
227.152	42.12
227.387	37.12
227.621	33.12
227.856	52.12
228.09	36.12
228.324	65.12
228.559	55.12
228.793	88.12
229.027	115.12
229.262	143.12
229.496	146.12
229.73	148.12
229.964	154.12
230.199	161.12
230.433	155.12
230.667	172.12
230.901	161.12
231.136	166.12
231.37	175.12
231.604	169.12
231.838	172.12
232.072	165.12
232.306	175.12
232.541	179.12
232.775	187.12
233.009	177.12
233.243	174.12
233.477	184.12
233.711	183.12
233.945	203.12
234.179	174.12
234.413	185.12
234.647	194.12
234.881	189.12
235.115	188.12
235.349	191.12
235.583	201.12
235.817	198.12
236.051	210.12
236.285	213.12
236.519	225.12
236.753	200.12
236.987	197.12
237.221	206.12
237.455	199.12
237.689	223.12
237.922	217.12
238.156	215.12
238.39	228.12
238.624	233.12
238.858	222.12
239.091	216.12
239.325	236.12
239.559	228.12
239.793	233.12
240.027	236.12
240.26	233.12
240.494	233.12
240.728	244.12
240.961	253.12
241.195	259.12
241.429	261.12
241.662	242.12
241.896	252.12
242.13	246.12
242.363	252.12
242.597	259.12
242.83	275.12
243.064	270.12
243.298	274.12
243.531	282.12
243.765	287.12
243.998	285.12
244.232	297.12
244.465	291.12
244.699	304.12
244.932	301.12
245.166	302.12
245.399	294.12
245.633	297.12
245.866	308.12
246.099	311.12
246.333	311.12
246.566	302.12
246.8	305.12
247.033	321.12
247.266	333.12
247.5	300.12
247.733	347.12
247.966	330.12
248.2	318.12
248.433	355.12
248.666	351.12
248.899	342.12
249.133	337.12
249.366	344.12
249.599	345.12
249.832	343.12
250.066	356.12
250.299	350.12
250.532	367.12
250.765	363.12
250.998	366.12
251.231	377.12
251.465	364.12
251.698	363.12
251.931	365.12
252.164	354.12
252.397	389.12
252.63	371.12
252.863	381.12
253.096	385.12
253.329	393.12
253.562	371.12
253.795	378.12
254.028	397.12
254.261	377.12
254.494	399.12
254.727	407.12
254.96	417.12
255.193	411.12
255.426	421.12
255.659	415.12
255.892	421.12
256.124	406.12
256.357	419.12
256.59	425.12
256.823	415.12
257.056	425.12
257.289	417.12
257.521	445.12
257.754	431.12
257.987	432.12
258.22	435.12
258.452	436.12
258.685	443.12
258.918	437.12
259.151	452.12
259.383	432.12
259.616	462.12
259.849	470.12
260.081	444.12
260.314	454.12
260.547	448.12
260.779	452.12
261.012	454.12
261.244	482.12
261.477	477.12
261.71	476.12
261.942	457.12
262.175	451.12
262.407	459.12
262.64	459.12
262.872	504.12
263.105	506.12
263.337	481.12
263.57	485.12
263.802	481.12
264.035	489.12
264.267	512.12
264.499	509.12
264.732	509.12
264.964	511.12
265.197	503.12
265.429	531.12
265.661	510.12
265.894	541.12
266.126	509.12
266.358	527.12
266.591	526.12
266.823	520.12
267.055	536.12
267.287	509.12
267.52	515.12
267.752	523.12
267.984	531.12
268.216	534.12
268.448	537.12
268.681	530.12
268.913	538.12
269.145	545.12
269.377	533.12
269.609	538.12
269.841	548.12
270.073	553.12
270.306	537.12
270.538	551.12
270.77	537.12
271.002	542.12
271.234	546.12
271.466	577.12
271.698	569.12
271.93	548.12
272.162	561.12
272.394	562.12
272.626	566.12
272.858	564.12
273.09	590.12
273.322	580.12
273.553	573.12
273.785	597.12
274.017	595.12
274.249	609.12
274.481	599.12
274.713	593.12
274.945	603.12
275.176	627.12
275.408	627.12
275.64	598.12
275.872	609.12
276.104	606.12
276.335	611.12
276.567	631.12
276.799	654.12
277.031	635.12
277.262	654.12
277.494	642.12
277.726	633.12
277.957	635.12
278.189	633.12
278.421	613.12
278.652	641.12
278.884	668.12
279.115	645.12
279.347	654.12
279.579	636.12
279.81	646.12
280.042	658.12
280.273	665.12
280.505	661.12
280.736	661.12
280.968	685.12
281.199	682.12
281.431	674.12
281.662	691.12
281.894	680.12
282.125	669.12
282.356	694.12
282.588	695.12
282.819	696.12
283.051	703.12
283.282	693.12
283.513	723.12
283.745	701.12
283.976	699.12
284.207	702.12
284.439	711.12
284.67	713.12
284.901	727.12
285.132	708.12
285.364	726.12
285.595	734.12
285.826	743.12
286.057	710.12
286.288	736.12
286.52	725.12
286.751	742.12
286.982	741.12
287.213	721.12
287.444	747.12
287.675	730.12
287.906	737.12
288.138	751.12
288.369	759.12
288.6	761.12
288.831	759.12
289.062	742.12
289.293	746.12
289.524	752.12
289.755	759.12
289.986	771.12
290.217	748.12
290.448	750.12
290.679	783.12
290.91	766.12
291.141	777.12
291.371	780.12
291.602	779.12
291.833	780.12
292.064	779.12
292.295	780.12
292.526	794.12
292.757	793.12
292.987	779.12
293.218	753.12
293.449	811.12
293.68	773.12
293.91	787.12
294.141	778.12
294.372	769.12
294.603	777.12
294.833	806.12
295.064	767.12
295.295	796.12
295.525	785.12
295.756	793.12
295.987	781.12
296.217	802.12
296.448	798.12
296.679	782.12
296.909	809.12
297.14	785.12
297.37	823.12
297.601	843.12
297.831	806.12
298.062	823.12
298.292	838.12
298.523	863.12
298.753	865.12
298.984	833.12
299.214	821.12
299.445	827.12
299.675	822.12
299.905	833.12
300.136	848.12
300.366	856.12
300.597	858.12
300.827	871.12
301.057	898.12
301.288	863.12
301.518	879.12
301.748	894.12
301.979	905.12
302.209	906.12
302.439	884.12
302.669	864.12
302.9	902.12
303.13	867.12
303.36	878.12
303.59	878.12
303.82	900.12
304.051	899.12
304.281	882.12
304.511	859.12
304.741	879.12
304.971	866.12
305.201	865.12
305.431	892.12
305.661	872.12
305.891	845.12
306.121	876.12
306.352	854.12
306.582	889.12
306.812	874.12
307.042	858.12
307.272	860.12
307.502	869.12
307.731	886.12
307.961	867.12
308.191	862.12
308.421	845.12
308.651	868.12
308.881	823.12
309.111	843.12
309.341	872.12
309.571	885.12
309.8	892.12
310.03	860.12
310.26	873.12
310.49	875.12
310.72	875.12
310.949	851.12
311.179	922.12
311.409	902.12
311.639	905.12
311.868	913.12
312.098	916.12
312.328	890.12
312.557	902.12
312.787	924.12
313.017	908.12
313.246	948.12
313.476	931.12
313.706	931.12
313.935	971.12
314.165	947.12
314.394	930.12
314.624	937.12
314.853	958.12
315.083	913.12
315.312	930.12
315.542	932.12
315.771	918.12
316.001	936.12
316.23	940.12
316.46	901.12
316.689	949.12
316.919	939.12
317.148	935.12
317.377	930.12
317.607	937.12
317.836	895.12
318.065	926.12
318.295	913.12
318.524	953.12
318.753	904.12
318.983	925.12
319.212	909.12
319.441	941.12
319.67	937.12
319.9	907.12
320.129	936.12
320.358	922.12
320.587	926.12
320.816	952.12
321.046	943.12
321.275	924.12
321.504	927.12
321.733	940.12
321.962	936.12
322.191	923.12
322.42	956.12
322.649	951.12
322.878	951.12
323.108	934.12
323.337	978.12
323.566	956.12
323.795	951.12
324.024	959.12
324.253	968.12
324.482	957.12
324.71	975.12
324.939	970.12
325.168	993.12
325.397	971.12
325.626	984.12
325.855	982.12
326.084	1047.12
326.313	1038.12
326.542	1012.12
326.77	1001.12
326.999	1005.12
327.228	974.12
327.457	1009.12
327.686	1006.12
327.914	1015.12
328.143	1006.12
328.372	1029.12
328.6	1011.12
328.829	1002.12
329.058	1006.12
329.287	1012.12
329.515	1014.12
329.744	990.12
329.972	1006.12
330.201	1027.12
330.43	1063.12
330.658	1050.12
330.887	1036.12
331.115	1062.12
331.344	1058.12
331.572	1075.12
331.801	1103.12
332.03	1091.12
332.258	1124.12
332.486	1142.12
332.715	1161.12
332.943	1180.12
333.172	1223.12
333.4	1285.12
333.629	1276.12
333.857	1303.12
334.085	1306.12
334.314	1291.12
334.542	1242.12
334.771	1291.12
334.999	1243.12
335.227	1247.12
335.455	1258.12
335.684	1244.12
335.912	1242.12
336.14	1224.12
336.369	1226.12
336.597	1250.12
336.825	1223.12
337.053	1204.12
337.281	1166.12
337.51	1167.12
337.738	1196.12
337.966	1129.12
338.194	1135.12
338.422	1093.12
338.65	1093.12
338.878	1138.12
339.106	1126.12
339.334	1113.12
339.562	1118.12
339.79	1099.12
340.018	1061.12
340.246	1038.12
340.474	1083.12
340.702	1063.12
340.93	1049.12
341.158	1101.12
341.386	1063.12
341.614	1074.12
341.842	1073.12
342.07	1063.12
342.298	1062.12
342.526	1048.12
342.754	1056.12
342.981	1061.12
343.209	1102.12
343.437	1134.12
343.665	1178.12
343.893	1164.12
344.12	1241.12
344.348	1211.12
344.576	1205.12
344.804	1163.12
345.031	1123.12
345.259	1101.12
345.487	1106.12
345.714	1063.12
345.942	1035.12
346.17	1074.12
346.397	1052.12
346.625	1044.12
346.853	1014.12
347.08	1001.12
347.308	1049.12
347.535	990.12
347.763	1018.12
347.99	978.12
348.218	1007.12
348.445	1022.12
348.673	1004.12
348.9	1002.12
349.128	977.12
349.355	985.12
349.583	983.12
349.81	994.12
350.037	980.12
350.265	995.12
350.492	1006.12
350.72	999.12
350.947	993.12
351.174	972.12
351.402	981.12
351.629	1036.12
351.856	982.12
352.083	992.12
352.311	968.12
352.538	985.12
352.765	988.12
352.992	977.12
353.22	962.12
353.447	983.12
353.674	979.12
353.901	975.12
354.128	962.12
354.355	999.12
354.583	978.12
354.81	997.12
355.037	979.12
355.264	996.12
355.491	972.12
355.718	966.12
355.945	996.12
356.172	978.12
356.399	953.12
356.626	977.12
356.853	956.12
357.08	966.12
357.307	1007.12
357.534	1003.12
357.761	982.12
357.988	982.12
358.215	967.12
358.441	1003.12
358.668	1002.12
358.895	985.12
359.122	978.12
359.349	1000.12
359.576	997.12
359.802	1001.12
360.029	948.12
360.256	973.12
360.483	988.12
360.709	982.12
360.936	990.12
361.163	973.12
361.39	1009.12
361.616	980.12
361.843	994.12
362.07	1001.12
362.296	987.12
362.523	940.12
362.749	998.12
362.976	1014.12
363.203	994.12
363.429	977.12
363.656	1016.12
363.882	990.12
364.109	987.12
364.335	996.12
364.562	988.12
364.788	1006.12
365.015	978.12
365.241	971.12
365.468	963.12
365.694	977.12
365.92	1011.12
366.147	992.12
366.373	994.12
366.599	965.12
366.826	949.12
367.052	963.12
367.278	996.12
367.505	998.12
367.731	997.12
367.957	1030.12
368.184	1016.12
368.41	998.12
368.636	984.12
368.862	995.12
369.089	1025.12
369.315	1011.12
369.541	1007.12
369.767	1025.12
369.993	1000.12
370.219	1043.12
370.445	1059.12
370.672	1047.12
370.898	1094.12
371.124	1073.12
371.35	1092.12
371.576	1061.12
371.802	1063.12
372.028	1073.12
372.254	1067.12
372.48	1092.12
372.706	1076.12
372.932	1100.12
373.158	1084.12
373.384	1085.12
373.61	1059.12
373.835	1098.12
374.061	1086.12
374.287	1087.12
374.513	1096.12
374.739	1122.12
374.965	1167.12
375.191	1166.12
375.416	1165.12
375.642	1139.12
375.868	1151.12
376.094	1128.12
376.319	1112.12
376.545	1084.12
376.771	1089.12
376.997	1054.12
377.222	1051.12
377.448	1076.12
377.674	1085.12
377.899	1075.12
378.125	1068.12
378.35	1065.12
378.576	1044.12
378.802	1038.12
379.027	1058.12
379.253	1066.12
379.478	1067.12
379.704	1070.12
379.929	1045.12
380.155	1040.12
380.38	1045.12
380.606	1069.12
380.831	1066.12
381.057	1094.12
381.282	1065.12
381.507	1065.12
381.733	1108.12
381.958	1078.12
382.184	1103.12
382.409	1104.12
382.634	1112.12
382.86	1100.12
383.085	1126.12
383.31	1132.12
383.535	1138.12
383.761	1149.12
383.986	1179.12
384.211	1176.12
384.436	1213.12
384.662	1204.12
384.887	1264.12
385.112	1218.12
385.337	1245.12
385.562	1268.12
385.787	1267.12
386.013	1285.12
386.238	1265.12
386.463	1271.12
386.688	1284.12
386.913	1290.12
387.138	1253.12
387.363	1289.12
387.588	1259.12
387.813	1262.12
388.038	1246.12
388.263	1258.12
388.488	1291.12
388.713	1289.12
388.938	1261.12
389.163	1240.12
389.387	1264.12
389.612	1230.12
389.837	1233.12
390.062	1246.12
390.287	1262.12
390.512	1233.12
390.736	1264.12
390.961	1301.12
391.186	1326.12
391.411	1349.12
391.636	1353.12
391.86	1388.12
392.085	1421.12
392.31	1367.12
392.534	1386.12
392.759	1352.12
392.984	1307.12
393.208	1329.12
393.433	1338.12
393.658	1347.12
393.882	1296.12
394.107	1305.12
394.331	1330.12
394.556	1321.12
394.78	1351.12
395.005	1362.12
395.229	1367.12
395.454	1388.12
395.678	1403.12
395.903	1417.12
396.127	1412.12
396.352	1388.12
396.576	1354.12
396.801	1339.12
397.025	1361.12
397.249	1385.12
397.474	1427.12
397.698	1427.12
397.922	1439.12
398.147	1441.12
398.371	1503.12
398.595	1491.12
398.82	1534.12
399.044	1658.12
399.268	1761.12
399.492	2004.12
399.717	2127.12
399.941	2136.12
400.165	2010.12
400.389	1905.12
400.613	1742.12
400.837	1653.12
401.062	1667.12
401.286	1615.12
401.51	1587.12
401.734	1555.12
401.958	1590.12
402.182	1598.12
402.406	1614.12
402.63	1599.12
402.854	1638.12
403.078	1631.12
403.302	1670.12
403.526	1671.12
403.75	1713.12
403.974	1723.12
404.198	1690.12
404.422	1740.12
404.645	1721.12
404.869	1703.12
405.093	1717.12
405.317	1682.12
405.541	1703.12
405.765	1714.12
405.988	1721.12
406.212	1672.12
406.436	1684.12
406.66	1768.12
406.883	1751.12
407.107	1894.12
407.331	1931.12
407.555	2022.12
407.778	1980.12
408.002	1919.12
408.226	1868.12
408.449	1885.12
408.673	1819.12
408.896	1773.12
409.12	1742.12
409.344	1802.12
409.567	1750.12
409.791	1764.12
410.014	1717.12
410.238	1704.12
410.461	1736.12
410.685	1692.12
410.908	1657.12
411.132	1677.12
411.355	1644.12
411.578	1666.12
411.802	1659.12
412.025	1647.12
412.249	1651.12
412.472	1657.12
412.695	1650.12
412.919	1591.12
413.142	1603.12
413.365	1604.12
413.589	1638.12
413.812	1551.12
414.035	1549.12
414.258	1557.12
414.482	1581.12
414.705	1585.12
414.928	1589.12
415.151	1567.12
415.374	1577.12
415.597	1525.12
415.821	1562.12
416.044	1552.12
416.267	1492.12
416.49	1515.12
416.713	1506.12
416.936	1554.12
417.159	1524.12
417.382	1518.12
417.605	1478.12
417.828	1468.12
418.051	1486.12
418.274	1519.12
418.497	1511.12
418.72	1523.12
418.943	1518.12
419.166	1634.12
419.389	1746.12
419.611	1715.12
419.834	1650.12
420.057	1575.12
420.28	1522.12
420.503	1496.12
420.726	1518.12
420.948	1487.12
421.171	1494.12
421.394	1494.12
421.617	1497.12
421.839	1559.12
422.062	1533.12
422.285	1494.12
422.507	1514.12
422.73	1523.12
422.953	1537.12
423.175	1523.12
423.398	1570.12
423.621	1551.12
423.843	1526.12
424.066	1568.12
424.288	1552.12
424.511	1532.12
424.733	1559.12
424.956	1509.12
425.178	1543.12
425.401	1525.12
425.623	1536.12
425.846	1504.12
426.068	1461.12
426.291	1476.12
426.513	1457.12
426.735	1482.12
426.958	1475.12
427.18	1419.12
427.402	1416.12
427.625	1423.12
427.847	1403.12
428.069	1405.12
428.292	1415.12
428.514	1407.12
428.736	1382.12
428.958	1398.12
429.181	1373.12
429.403	1375.12
429.625	1347.12
429.847	1360.12
430.069	1377.12
430.292	1361.12
430.514	1323.12
430.736	1373.12
430.958	1397.12
431.18	1372.12
431.402	1368.12
431.624	1389.12
431.846	1400.12
432.068	1423.12
432.29	1397.12
432.512	1384.12
432.734	1402.12
432.956	1378.12
433.178	1393.12
433.4	1409.12
433.622	1432.12
433.844	1471.12
434.066	1419.12
434.287	1443.12
434.509	1465.12
434.731	1482.12
434.953	1509.12
435.175	1527.12
435.397	1510.12
435.618	1493.12
435.84	1426.12
436.062	1403.12
436.284	1390.12
436.505	1397.12
436.727	1403.12
436.949	1404.12
437.17	1391.12
437.392	1396.12
437.614	1342.12
437.835	1333.12
438.057	1339.12
438.278	1330.12
438.5	1355.12
438.721	1296.12
438.943	1351.12
439.165	1309.12
439.386	1307.12
439.608	1351.12
439.829	1359.12
440.05	1344.12
440.272	1412.12
440.493	1352.12
440.715	1401.12
440.936	1397.12
441.158	1406.12
441.379	1453.12
441.6	1516.12
441.822	1536.12
442.043	1516.12
442.264	1476.12
442.486	1438.12
442.707	1484.12
442.928	1461.12
443.149	1467.12
443.371	1437.12
443.592	1492.12
443.813	1498.12
444.034	1479.12
444.255	1547.12
444.476	1604.12
444.698	1653.12
444.919	1677.12
445.14	1766.12
445.361	1650.12
445.582	1545.12
445.803	1479.12
446.024	1441.12
446.245	1426.12
446.466	1414.12
446.687	1364.12
446.908	1361.12
447.129	1329.12
447.35	1352.12
447.571	1309.12
447.792	1283.12
448.013	1324.12
448.234	1250.12
448.455	1260.12
448.675	1263.12
448.896	1242.12
449.117	1251.12
449.338	1248.12
449.559	1245.12
449.779	1230.12
450	1265.12
450.221	1235.12
450.442	1243.12
450.662	1220.12
450.883	1255.12
451.104	1245.12
451.324	1245.12
451.545	1245.12
451.766	1235.12
451.986	1209.12
452.207	1215.12
452.428	1224.12
452.648	1187.12
452.869	1161.12
453.089	1170.12
453.31	1198.12
453.53	1197.12
453.751	1167.12
453.971	1186.12
454.192	1221.12
454.412	1161.12
454.633	1190.12
454.853	1177.12
455.073	1141.12
455.294	1170.12
455.514	1157.12
455.734	1197.12
455.955	1113.12
456.175	1146.12
456.395	1117.12
456.616	1155.12
456.836	1179.12
457.056	1163.12
457.276	1157.12
457.497	1169.12
457.717	1170.12
457.937	1164.12
458.157	1183.12
458.377	1199.12
458.598	1229.12
458.818	1269.12
459.038	1292.12
459.258	1304.12
459.478	1366.12
459.698	1415.12
459.918	1401.12
460.138	1434.12
460.358	1497.12
460.578	1509.12
460.798	1574.12
461.018	1549.12
461.238	1549.12
461.458	1550.12
461.678	1548.12
461.898	1560.12
462.118	1605.12
462.338	1649.12
462.558	1699.12
462.777	1769.12
462.997	1846.12
463.217	1915.12
463.437	1975.12
463.657	1873.12
463.876	1815.12
464.096	1807.12
464.316	1804.12
464.536	1800.12
464.755	1720.12
464.975	1667.12
465.195	1590.12
465.414	1549.12
465.634	1427.12
465.854	1422.12
466.073	1395.12
466.293	1372.12
466.512	1343.12
466.732	1297.12
466.951	1301.12
467.171	1308.12
467.391	1323.12
467.61	1283.12
467.829	1281.12
468.049	1286.12
468.268	1260.12
468.488	1245.12
468.707	1259.12
468.927	1276.12
469.146	1258.12
469.365	1271.12
469.585	1292.12
469.804	1258.12
470.023	1307.12
470.243	1335.12
470.462	1347.12
470.681	1324.12
470.901	1316.12
471.12	1324.12
471.339	1318.12
471.558	1302.12
471.777	1302.12
471.997	1246.12
472.216	1237.12
472.435	1217.12
472.654	1231.12
472.873	1235.12
473.092	1238.12
473.311	1219.12
473.53	1245.12
473.749	1221.12
473.968	1244.12
474.187	1203.12
474.406	1224.12
474.625	1249.12
474.844	1217.12
475.063	1269.12
475.282	1254.12
475.501	1244.12
475.72	1265.12
475.939	1279.12
476.158	1298.12
476.377	1316.12
476.596	1267.12
476.814	1336.12
477.033	1337.12
477.252	1364.12
477.471	1358.12
477.69	1372.12
477.908	1417.12
478.127	1447.12
478.346	1455.12
478.564	1514.12
478.783	1529.12
479.002	1531.12
479.22	1551.12
479.439	1530.12
479.658	1528.12
479.876	1567.12
480.095	1566.12
480.313	1594.12
480.532	1611.12
480.751	1622.12
480.969	1606.12
481.188	1562.12
481.406	1526.12
481.624	1523.12
481.843	1490.12
482.061	1507.12
482.28	1490.12
482.498	1483.12
482.717	1506.12
482.935	1476.12
483.153	1502.12
483.372	1521.12
483.59	1516.12
483.808	1521.12
484.027	1547.12
484.245	1556.12
484.463	1564.12
484.681	1610.12
484.9	1593.12
485.118	1631.12
485.336	1614.12
485.554	1582.12
485.772	1629.12
485.99	1654.12
486.209	1667.12
486.427	1624.12
486.645	1626.12
486.863	1640.12
487.081	1631.12
487.299	1645.12
487.517	1603.12
487.735	1572.12
487.953	1616.12
488.171	1626.12
488.389	1544.12
488.607	1590.12
488.825	1586.12
489.043	1588.12
489.261	1569.12
489.479	1555.12
489.696	1547.12
489.914	1544.12
490.132	1547.12
490.35	1553.12
490.568	1561.12
490.786	1544.12
491.003	1567.12
491.221	1544.12
491.439	1550.12
491.657	1570.12
491.874	1529.12
492.092	1541.12
492.31	1524.12
492.527	1534.12
