Data from NiCl2@0.5M.TitratingCurve.Agarose3%dH2O.NegLispCup.LampEnergy10.LIBS07252019_HRD10591_18-18-49-571.txt Node
Date: Thu Jul 25 18:18:49 EDT 2019
User: cochatt
Spectrometer: HR+D1059
Trigger mode: 1
Integration Time (sec): 1.000000E-1
Scans to average: 1
Electric dark correction enabled: true
Nonlinearity correction enabled: false
Boxcar width: 0
XAxis mode: Wavelengths
Number of Pixels in Spectrum: 2048
>>>>>Begin Spectral Data<<<<<
223.165	-15.69
223.4	-15.69
223.635	-15.69
223.869	-27.69
224.104	-20.69
224.338	2.31
224.573	-11.69
224.808	-5.69
225.042	-14.69
225.277	-10.69
225.511	-8.69
225.746	9.31
225.98	8.31
226.215	10.31
226.449	17.31
226.683	25.31
226.918	31.31
227.152	11.31
227.387	32.31
227.621	31.31
227.856	23.31
228.09	60.31
228.324	53.31
228.559	62.31
228.793	89.31
229.027	151.31
229.262	133.31
229.496	163.31
229.73	149.31
229.964	172.31
230.199	165.31
230.433	177.31
230.667	184.31
230.901	188.31
231.136	190.31
231.37	175.31
231.604	196.31
231.838	200.31
232.072	216.31
232.306	218.31
232.541	202.31
232.775	196.31
233.009	203.31
233.243	206.31
233.477	197.31
233.711	201.31
233.945	204.31
234.179	221.31
234.413	207.31
234.647	198.31
234.881	207.31
235.115	205.31
235.349	226.31
235.583	195.31
235.817	223.31
236.051	203.31
236.285	232.31
236.519	207.31
236.753	211.31
236.987	224.31
237.221	230.31
237.455	232.31
237.689	235.31
237.922	230.31
238.156	249.31
238.39	233.31
238.624	238.31
238.858	232.31
239.091	239.31
239.325	259.31
239.559	257.31
239.793	277.31
240.027	260.31
240.26	268.31
240.494	266.31
240.728	256.31
240.961	261.31
241.195	278.31
241.429	276.31
241.662	298.31
241.896	283.31
242.13	307.31
242.363	293.31
242.597	295.31
242.83	307.31
243.064	301.31
243.298	305.31
243.531	320.31
243.765	311.31
243.998	308.31
244.232	321.31
244.465	312.31
244.699	309.31
244.932	339.31
245.166	333.31
245.399	326.31
245.633	315.31
245.866	312.31
246.099	319.31
246.333	332.31
246.566	326.31
246.8	329.31
247.033	343.31
247.266	351.31
247.5	357.31
247.733	360.31
247.966	358.31
248.2	351.31
248.433	371.31
248.666	355.31
248.899	371.31
249.133	376.31
249.366	372.31
249.599	380.31
249.832	393.31
250.066	385.31
250.299	371.31
250.532	390.31
250.765	377.31
250.998	396.31
251.231	405.31
251.465	394.31
251.698	404.31
251.931	400.31
252.164	402.31
252.397	423.31
252.63	418.31
252.863	433.31
253.096	429.31
253.329	424.31
253.562	428.31
253.795	435.31
254.028	446.31
254.261	448.31
254.494	436.31
254.727	434.31
254.96	448.31
255.193	449.31
255.426	464.31
255.659	469.31
255.892	456.31
256.124	428.31
256.357	449.31
256.59	460.31
256.823	470.31
257.056	471.31
257.289	471.31
257.521	467.31
257.754	444.31
257.987	487.31
258.22	471.31
258.452	477.31
258.685	476.31
258.918	470.31
259.151	476.31
259.383	483.31
259.616	486.31
259.849	498.31
260.081	495.31
260.314	501.31
260.547	525.31
260.779	510.31
261.012	492.31
261.244	506.31
261.477	515.31
261.71	517.31
261.942	530.31
262.175	509.31
262.407	507.31
262.64	519.31
262.872	549.31
263.105	564.31
263.337	532.31
263.57	560.31
263.802	538.31
264.035	556.31
264.267	541.31
264.499	538.31
264.732	556.31
264.964	573.31
265.197	591.31
265.429	565.31
265.661	551.31
265.894	575.31
266.126	570.31
266.358	566.31
266.591	598.31
266.823	593.31
267.055	572.31
267.287	608.31
267.52	584.31
267.752	556.31
267.984	597.31
268.216	604.31
268.448	609.31
268.681	603.31
268.913	611.31
269.145	600.31
269.377	598.31
269.609	606.31
269.841	620.31
270.073	629.31
270.306	633.31
270.538	635.31
270.77	624.31
271.002	600.31
271.234	583.31
271.466	618.31
271.698	633.31
271.93	629.31
272.162	611.31
272.394	620.31
272.626	642.31
272.858	637.31
273.09	641.31
273.322	647.31
273.553	654.31
273.785	644.31
274.017	653.31
274.249	680.31
274.481	663.31
274.713	669.31
274.945	683.31
275.176	666.31
275.408	667.31
275.64	683.31
275.872	691.31
276.104	691.31
276.335	703.31
276.567	685.31
276.799	708.31
277.031	715.31
277.262	711.31
277.494	711.31
277.726	707.31
277.957	736.31
278.189	702.31
278.421	701.31
278.652	738.31
278.884	736.31
279.115	729.31
279.347	738.31
279.579	753.31
279.81	759.31
280.042	757.31
280.273	752.31
280.505	761.31
280.736	749.31
280.968	771.31
281.199	793.31
281.431	776.31
281.662	771.31
281.894	774.31
282.125	774.31
282.356	807.31
282.588	782.31
282.819	785.31
283.051	794.31
283.282	779.31
283.513	803.31
283.745	784.31
283.976	794.31
284.207	796.31
284.439	820.31
284.67	811.31
284.901	821.31
285.132	839.31
285.364	813.31
285.595	812.31
285.826	839.31
286.057	827.31
286.288	825.31
286.52	830.31
286.751	843.31
286.982	846.31
287.213	841.31
287.444	841.31
287.675	843.31
287.906	841.31
288.138	858.31
288.369	839.31
288.6	857.31
288.831	870.31
289.062	870.31
289.293	883.31
289.524	882.31
289.755	900.31
289.986	850.31
290.217	829.31
290.448	870.31
290.679	856.31
290.91	860.31
291.141	858.31
291.371	893.31
291.602	871.31
291.833	884.31
292.064	884.31
292.295	876.31
292.526	868.31
292.757	881.31
292.987	912.31
293.218	881.31
293.449	908.31
293.68	886.31
293.91	900.31
294.141	889.31
294.372	885.31
294.603	887.31
294.833	901.31
295.064	905.31
295.295	898.31
295.525	872.31
295.756	887.31
295.987	903.31
296.217	896.31
296.448	913.31
296.679	909.31
296.909	905.31
297.14	918.31
297.37	916.31
297.601	925.31
297.831	917.31
298.062	939.31
298.292	965.31
298.523	992.31
298.753	979.31
298.984	957.31
299.214	938.31
299.445	933.31
299.675	955.31
299.905	995.31
300.136	991.31
300.366	1010.31
300.597	1057.31
300.827	1016.31
301.057	1033.31
301.288	1017.31
301.518	1008.31
301.748	1004.31
301.979	1029.31
302.209	1032.31
302.439	1033.31
302.669	1020.31
302.9	1022.31
303.13	983.31
303.36	1002.31
303.59	1036.31
303.82	1041.31
304.051	1036.31
304.281	1040.31
304.511	1005.31
304.741	1016.31
304.971	1039.31
305.201	1031.31
305.431	1080.31
305.661	1083.31
305.891	1011.31
306.121	1023.31
306.352	989.31
306.582	1003.31
306.812	1007.31
307.042	1004.31
307.272	1001.31
307.502	1010.31
307.731	1005.31
307.961	1014.31
308.191	1017.31
308.421	1019.31
308.651	1001.31
308.881	1016.31
309.111	980.31
309.341	986.31
309.571	999.31
309.8	995.31
310.03	1049.31
310.26	1069.31
310.49	1055.31
310.72	1029.31
310.949	1023.31
311.179	1036.31
311.409	1048.31
311.639	1033.31
311.868	1044.31
312.098	1051.31
312.328	1057.31
312.557	1062.31
312.787	1068.31
313.017	1064.31
313.246	1065.31
313.476	1097.31
313.706	1111.31
313.935	1107.31
314.165	1082.31
314.394	1101.31
314.624	1082.31
314.853	1069.31
315.083	1094.31
315.312	1030.31
315.542	1097.31
315.771	1093.31
316.001	1071.31
316.23	1065.31
316.46	1079.31
316.689	1059.31
316.919	1098.31
317.148	1088.31
317.377	1082.31
317.607	1077.31
317.836	1066.31
318.065	1092.31
318.295	1085.31
318.524	1122.31
318.753	1069.31
318.983	1077.31
319.212	1074.31
319.441	1084.31
319.67	1072.31
319.9	1079.31
320.129	1082.31
320.358	1063.31
320.587	1089.31
320.816	1096.31
321.046	1081.31
321.275	1113.31
321.504	1085.31
321.733	1101.31
321.962	1099.31
322.191	1113.31
322.42	1101.31
322.649	1141.31
322.878	1147.31
323.108	1084.31
323.337	1133.31
323.566	1145.31
323.795	1136.31
324.024	1146.31
324.253	1108.31
324.482	1143.31
324.71	1142.31
324.939	1132.31
325.168	1142.31
325.397	1137.31
325.626	1145.31
325.855	1153.31
326.084	1167.31
326.313	1205.31
326.542	1188.31
326.77	1187.31
326.999	1172.31
327.228	1157.31
327.457	1171.31
327.686	1169.31
327.914	1176.31
328.143	1176.31
328.372	1181.31
328.6	1175.31
328.829	1207.31
329.058	1195.31
329.287	1196.31
329.515	1181.31
329.744	1196.31
329.972	1240.31
330.201	1181.31
330.43	1195.31
330.658	1200.31
330.887	1211.31
331.115	1242.31
331.344	1244.31
331.572	1252.31
331.801	1324.31
332.03	1330.31
332.258	1355.31
332.486	1331.31
332.715	1378.31
332.943	1405.31
333.172	1437.31
333.4	1522.31
333.629	1520.31
333.857	1514.31
334.085	1521.31
334.314	1560.31
334.542	1492.31
334.771	1485.31
334.999	1500.31
335.227	1456.31
335.455	1474.31
335.684	1471.31
335.912	1451.31
336.14	1521.31
336.369	1471.31
336.597	1477.31
336.825	1480.31
337.053	1463.31
337.281	1468.31
337.51	1452.31
337.738	1391.31
337.966	1363.31
338.194	1379.31
338.422	1384.31
338.65	1302.31
338.878	1360.31
339.106	1338.31
339.334	1357.31
339.562	1373.31
339.79	1276.31
340.018	1255.31
340.246	1253.31
340.474	1229.31
340.702	1243.31
340.93	1230.31
341.158	1287.31
341.386	1326.31
341.614	1395.31
341.842	1335.31
342.07	1218.31
342.298	1267.31
342.526	1268.31
342.754	1218.31
342.981	1264.31
343.209	1284.31
343.437	1353.31
343.665	1426.31
343.893	1499.31
344.12	1517.31
344.348	1457.31
344.576	1411.31
344.804	1375.31
345.031	1327.31
345.259	1308.31
345.487	1308.31
345.714	1288.31
345.942	1270.31
346.17	1299.31
346.397	1267.31
346.625	1223.31
346.853	1199.31
347.08	1194.31
347.308	1270.31
347.535	1213.31
347.763	1201.31
347.99	1156.31
348.218	1195.31
348.445	1193.31
348.673	1184.31
348.9	1196.31
349.128	1169.31
349.355	1200.31
349.583	1267.31
349.81	1175.31
350.037	1169.31
350.265	1181.31
350.492	1153.31
350.72	1169.31
350.947	1171.31
351.174	1211.31
351.402	1213.31
351.629	1234.31
351.856	1237.31
352.083	1184.31
352.311	1194.31
352.538	1225.31
352.765	1244.31
352.992	1171.31
353.22	1135.31
353.447	1135.31
353.674	1127.31
353.901	1117.31
354.128	1109.31
354.355	1101.31
354.583	1116.31
354.81	1129.31
355.037	1128.31
355.264	1139.31
355.491	1134.31
355.718	1119.31
355.945	1133.31
356.172	1145.31
356.399	1159.31
356.626	1173.31
356.853	1196.31
357.08	1153.31
357.307	1173.31
357.534	1147.31
357.761	1108.31
357.988	1135.31
358.215	1128.31
358.441	1129.31
358.668	1123.31
358.895	1150.31
359.122	1144.31
359.349	1093.31
359.576	1117.31
359.802	1148.31
360.029	1145.31
360.256	1146.31
360.483	1115.31
360.709	1110.31
360.936	1155.31
361.163	1154.31
361.39	1158.31
361.616	1168.31
361.843	1198.31
362.07	1225.31
362.296	1195.31
362.523	1156.31
362.749	1165.31
362.976	1110.31
363.203	1128.31
363.429	1112.31
363.656	1100.31
363.882	1127.31
364.109	1125.31
364.335	1089.31
364.562	1107.31
364.788	1123.31
365.015	1109.31
365.241	1090.31
365.468	1105.31
365.694	1131.31
365.92	1115.31
366.147	1111.31
366.373	1116.31
366.599	1155.31
366.826	1094.31
367.052	1120.31
367.278	1108.31
367.505	1140.31
367.731	1105.31
367.957	1105.31
368.184	1137.31
368.41	1117.31
368.636	1126.31
368.862	1155.31
369.089	1138.31
369.315	1131.31
369.541	1153.31
369.767	1142.31
369.993	1138.31
370.219	1139.31
370.445	1147.31
370.672	1179.31
370.898	1143.31
371.124	1176.31
371.35	1204.31
371.576	1199.31
371.802	1191.31
372.028	1206.31
372.254	1188.31
372.48	1195.31
372.706	1220.31
372.932	1233.31
373.158	1226.31
373.384	1221.31
373.61	1181.31
373.835	1196.31
374.061	1204.31
374.287	1229.31
374.513	1237.31
374.739	1257.31
374.965	1255.31
375.191	1284.31
375.416	1312.31
375.642	1280.31
375.868	1260.31
376.094	1229.31
376.319	1209.31
376.545	1220.31
376.771	1207.31
376.997	1181.31
377.222	1186.31
377.448	1201.31
377.674	1180.31
377.899	1207.31
378.125	1148.31
378.35	1172.31
378.576	1180.31
378.802	1157.31
379.027	1172.31
379.253	1183.31
379.478	1172.31
379.704	1182.31
379.929	1186.31
380.155	1171.31
380.38	1199.31
380.606	1162.31
380.831	1196.31
381.057	1182.31
381.282	1183.31
381.507	1161.31
381.733	1193.31
381.958	1179.31
382.184	1208.31
382.409	1194.31
382.634	1220.31
382.86	1243.31
383.085	1237.31
383.31	1248.31
383.535	1275.31
383.761	1239.31
383.986	1299.31
384.211	1321.31
384.436	1362.31
384.662	1359.31
384.887	1385.31
385.112	1351.31
385.337	1384.31
385.562	1407.31
385.787	1419.31
386.013	1460.31
386.238	1436.31
386.463	1418.31
386.688	1416.31
386.913	1395.31
387.138	1406.31
387.363	1411.31
387.588	1394.31
387.813	1391.31
388.038	1413.31
388.263	1384.31
388.488	1395.31
388.713	1397.31
388.938	1377.31
389.163	1366.31
389.387	1429.31
389.612	1372.31
389.837	1365.31
390.062	1351.31
390.287	1352.31
390.512	1399.31
390.736	1381.31
390.961	1423.31
391.186	1459.31
391.411	1464.31
391.636	1472.31
391.86	1530.31
392.085	1586.31
392.31	1585.31
392.534	1566.31
392.759	1516.31
392.984	1466.31
393.208	1494.31
393.433	1479.31
393.658	1495.31
393.882	1492.31
394.107	1489.31
394.331	1487.31
394.556	1510.31
394.78	1504.31
395.005	1508.31
395.229	1533.31
395.454	1527.31
395.678	1607.31
395.903	1544.31
396.127	1589.31
396.352	1543.31
396.576	1522.31
396.801	1529.31
397.025	1510.31
397.249	1571.31
397.474	1595.31
397.698	1606.31
397.922	1620.31
398.147	1601.31
398.371	1643.31
398.595	1702.31
398.82	1779.31
399.044	1907.31
399.268	2050.31
399.492	2266.31
399.717	2464.31
399.941	2505.31
400.165	2282.31
400.389	2127.31
400.613	2003.31
400.837	1890.31
401.062	1862.31
401.286	1817.31
401.51	1780.31
401.734	1783.31
401.958	1835.31
402.182	1829.31
402.406	1794.31
402.63	1803.31
402.854	1874.31
403.078	1870.31
403.302	1865.31
403.526	1896.31
403.75	1879.31
403.974	1944.31
404.198	1939.31
404.422	1967.31
404.645	1940.31
404.869	1925.31
405.093	1939.31
405.317	1918.31
405.541	1922.31
405.765	2009.31
405.988	1913.31
406.212	1939.31
406.436	1952.31
406.66	1989.31
406.883	1987.31
407.107	2094.31
407.331	2166.31
407.555	2225.31
407.778	2219.31
408.002	2157.31
408.226	2103.31
408.449	2129.31
408.673	2049.31
408.896	2015.31
409.12	1951.31
409.344	1978.31
409.567	1943.31
409.791	1956.31
410.014	1951.31
410.238	1901.31
410.461	1945.31
410.685	1904.31
410.908	1889.31
411.132	1881.31
411.355	1845.31
411.578	1876.31
411.802	1829.31
412.025	1873.31
412.249	1910.31
412.472	1871.31
412.695	1856.31
412.919	1758.31
413.142	1809.31
413.365	1808.31
413.589	1849.31
413.812	1761.31
414.035	1738.31
414.258	1794.31
414.482	1792.31
414.705	1798.31
414.928	1806.31
415.151	1795.31
415.374	1745.31
415.597	1776.31
415.821	1751.31
416.044	1707.31
416.267	1728.31
416.49	1752.31
416.713	1731.31
416.936	1710.31
417.159	1727.31
417.382	1734.31
417.605	1703.31
417.828	1733.31
418.051	1715.31
418.274	1730.31
418.497	1730.31
418.72	1784.31
418.943	1775.31
419.166	1912.31
419.389	2014.31
419.611	1979.31
419.834	1885.31
420.057	1852.31
420.28	1754.31
420.503	1738.31
420.726	1752.31
420.948	1727.31
421.171	1746.31
421.394	1756.31
421.617	1757.31
421.839	1707.31
422.062	1767.31
422.285	1724.31
422.507	1747.31
422.73	1805.31
422.953	1770.31
423.175	1795.31
423.398	1815.31
423.621	1806.31
423.843	1833.31
424.066	1806.31
424.288	1818.31
424.511	1799.31
424.733	1779.31
424.956	1761.31
425.178	1780.31
425.401	1762.31
425.623	1767.31
425.846	1759.31
426.068	1688.31
426.291	1764.31
426.513	1663.31
426.735	1697.31
426.958	1676.31
427.18	1632.31
427.402	1633.31
427.625	1623.31
427.847	1642.31
428.069	1613.31
428.292	1628.31
428.514	1597.31
428.736	1601.31
428.958	1636.31
429.181	1569.31
429.403	1565.31
429.625	1578.31
429.847	1563.31
430.069	1560.31
430.292	1583.31
430.514	1559.31
430.736	1564.31
430.958	1547.31
431.18	1600.31
431.402	1620.31
431.624	1577.31
431.846	1617.31
432.068	1605.31
432.29	1607.31
432.512	1623.31
432.734	1604.31
432.956	1588.31
433.178	1613.31
433.4	1667.31
433.622	1667.31
433.844	1646.31
434.066	1629.31
434.287	1665.31
434.509	1663.31
434.731	1754.31
434.953	1787.31
435.175	1795.31
435.397	1781.31
435.618	1736.31
435.84	1661.31
436.062	1630.31
436.284	1585.31
436.505	1622.31
436.727	1581.31
436.949	1647.31
437.17	1638.31
437.392	1590.31
437.614	1589.31
437.835	1555.31
438.057	1541.31
438.278	1558.31
438.5	1559.31
438.721	1525.31
438.943	1566.31
439.165	1570.31
439.386	1571.31
439.608	1619.31
439.829	1616.31
440.05	1612.31
440.272	1644.31
440.493	1592.31
440.715	1644.31
440.936	1664.31
441.158	1657.31
441.379	1723.31
441.6	1793.31
441.822	1809.31
442.043	1802.31
442.264	1780.31
442.486	1722.31
442.707	1749.31
442.928	1773.31
443.149	1762.31
443.371	1761.31
443.592	1776.31
443.813	1801.31
444.034	1811.31
444.255	1869.31
444.476	1923.31
444.698	2003.31
444.919	2062.31
445.14	2108.31
445.361	1956.31
445.582	1847.31
445.803	1774.31
446.024	1731.31
446.245	1722.31
446.466	1665.31
446.687	1636.31
446.908	1655.31
447.129	1563.31
447.35	1575.31
447.571	1568.31
447.792	1494.31
448.013	1531.31
448.234	1508.31
448.455	1527.31
448.675	1482.31
448.896	1498.31
449.117	1462.31
449.338	1451.31
449.559	1465.31
449.779	1458.31
450	1452.31
450.221	1461.31
450.442	1455.31
450.662	1479.31
450.883	1512.31
451.104	1521.31
451.324	1487.31
451.545	1480.31
451.766	1482.31
451.986	1469.31
452.207	1462.31
452.428	1450.31
452.648	1432.31
452.869	1407.31
453.089	1411.31
453.31	1448.31
453.53	1411.31
453.751	1431.31
453.971	1434.31
454.192	1433.31
454.412	1407.31
454.633	1395.31
454.853	1410.31
455.073	1397.31
455.294	1391.31
455.514	1353.31
455.734	1395.31
455.955	1397.31
456.175	1409.31
456.395	1407.31
456.616	1387.31
456.836	1374.31
457.056	1348.31
457.276	1371.31
457.497	1389.31
457.717	1397.31
457.937	1411.31
458.157	1427.31
458.377	1461.31
458.598	1459.31
458.818	1482.31
459.038	1521.31
459.258	1597.31
459.478	1653.31
459.698	1695.31
459.918	1719.31
460.138	1797.31
460.358	1858.31
460.578	1894.31
460.798	1875.31
461.018	1896.31
461.238	1905.31
461.458	1935.31
461.678	1901.31
461.898	1951.31
462.118	1917.31
462.338	1978.31
462.558	2085.31
462.777	2166.31
462.997	2291.31
463.217	2409.31
463.437	2439.31
463.657	2289.31
463.876	2237.31
464.096	2183.31
464.316	2160.31
464.536	2157.31
464.755	2106.31
464.975	2055.31
465.195	1951.31
465.414	1861.31
465.634	1752.31
465.854	1688.31
466.073	1686.31
466.293	1616.31
466.512	1626.31
466.732	1595.31
466.951	1573.31
467.171	1600.31
467.391	1551.31
467.61	1560.31
467.829	1542.31
468.049	1547.31
468.268	1534.31
468.488	1556.31
468.707	1530.31
468.927	1542.31
469.146	1516.31
469.365	1547.31
469.585	1526.31
469.804	1545.31
470.023	1607.31
470.243	1599.31
470.462	1595.31
470.681	1593.31
470.901	1637.31
471.12	1611.31
471.339	1572.31
471.558	1565.31
471.777	1560.31
471.997	1529.31
472.216	1513.31
472.435	1490.31
472.654	1503.31
472.873	1497.31
473.092	1501.31
473.311	1481.31
473.53	1500.31
473.749	1466.31
473.968	1485.31
474.187	1474.31
474.406	1447.31
474.625	1489.31
474.844	1491.31
475.063	1519.31
475.282	1505.31
475.501	1499.31
475.72	1541.31
475.939	1555.31
476.158	1561.31
476.377	1545.31
476.596	1605.31
476.814	1605.31
477.033	1602.31
477.252	1659.31
477.471	1684.31
477.69	1673.31
477.908	1744.31
478.127	1756.31
478.346	1766.31
478.564	1773.31
478.783	1825.31
479.002	1869.31
479.22	1887.31
479.439	1849.31
479.658	1845.31
479.876	1897.31
480.095	1915.31
480.313	1990.31
480.532	1984.31
480.751	1951.31
480.969	1888.31
481.188	1861.31
481.406	1780.31
481.624	1833.31
481.843	1769.31
482.061	1772.31
482.28	1725.31
482.498	1747.31
482.717	1722.31
482.935	1759.31
483.153	1762.31
483.372	1747.31
483.59	1778.31
483.808	1745.31
484.027	1723.31
484.245	1820.31
484.463	1748.31
484.681	1754.31
484.9	1776.31
485.118	1811.31
485.336	1857.31
485.554	1815.31
485.772	1842.31
485.99	1819.31
486.209	1864.31
486.427	1835.31
486.645	1836.31
486.863	1855.31
487.081	1836.31
487.299	1876.31
487.517	1821.31
487.735	1799.31
487.953	1814.31
488.171	1848.31
488.389	1814.31
488.607	1809.31
488.825	1801.31
489.043	1764.31
489.261	1795.31
489.479	1805.31
489.696	1805.31
489.914	1821.31
490.132	1821.31
