Data from NiCl2@0.0625M.TitratingCurve.Agarose3%dH2O.NegLispCup.LampEnergy10.LIBS07252019_HRD10591_18-34-11-576.txt Node
Date: Thu Jul 25 18:34:11 EDT 2019
User: cochatt
Spectrometer: HR+D1059
Trigger mode: 1
Integration Time (sec): 1.000000E-1
Scans to average: 1
Electric dark correction enabled: true
Nonlinearity correction enabled: false
Boxcar width: 0
XAxis mode: Wavelengths
Number of Pixels in Spectrum: 2048
>>>>>Begin Spectral Data<<<<<
223.165	-10.19
223.4	-10.19
223.635	-10.19
223.869	-19.19
224.104	-19.19
224.338	-30.19
224.573	-2.19
224.808	-8.19
225.042	-6.19
225.277	-1.19
225.511	8.81
225.746	-13.19
225.98	13.81
226.215	2.81
226.449	8.81
226.683	23.81
226.918	29.81
227.152	21.81
227.387	26.81
227.621	44.81
227.856	52.81
228.09	55.81
228.324	37.81
228.559	61.81
228.793	83.81
229.027	137.81
229.262	145.81
229.496	140.81
229.73	142.81
229.964	148.81
230.199	161.81
230.433	172.81
230.667	179.81
230.901	156.81
231.136	174.81
231.37	198.81
231.604	189.81
231.838	203.81
232.072	186.81
232.306	179.81
232.541	201.81
232.775	196.81
233.009	194.81
233.243	205.81
233.477	191.81
233.711	207.81
233.945	199.81
234.179	201.81
234.413	204.81
234.647	203.81
234.881	198.81
235.115	209.81
235.349	200.81
235.583	217.81
235.817	203.81
236.051	206.81
236.285	213.81
236.519	226.81
236.753	211.81
236.987	220.81
237.221	222.81
237.455	232.81
237.689	235.81
237.922	232.81
238.156	240.81
238.39	227.81
238.624	238.81
238.858	232.81
239.091	251.81
239.325	249.81
239.559	250.81
239.793	265.81
240.027	241.81
240.26	261.81
240.494	270.81
240.728	265.81
240.961	261.81
241.195	277.81
241.429	281.81
241.662	291.81
241.896	267.81
242.13	289.81
242.363	287.81
242.597	285.81
242.83	283.81
243.064	293.81
243.298	280.81
243.531	313.81
243.765	326.81
243.998	309.81
244.232	311.81
244.465	306.81
244.699	297.81
244.932	337.81
245.166	335.81
245.399	333.81
245.633	333.81
245.866	336.81
246.099	331.81
246.333	326.81
246.566	307.81
246.8	345.81
247.033	351.81
247.266	338.81
247.5	355.81
247.733	359.81
247.966	356.81
248.2	361.81
248.433	361.81
248.666	362.81
248.899	373.81
249.133	377.81
249.366	378.81
249.599	369.81
249.832	366.81
250.066	369.81
250.299	401.81
250.532	372.81
250.765	387.81
250.998	379.81
251.231	386.81
251.465	399.81
251.698	392.81
251.931	392.81
252.164	419.81
252.397	393.81
252.63	415.81
252.863	413.81
253.096	414.81
253.329	419.81
253.562	428.81
253.795	433.81
254.028	438.81
254.261	426.81
254.494	424.81
254.727	425.81
254.96	428.81
255.193	442.81
255.426	451.81
255.659	448.81
255.892	444.81
256.124	432.81
256.357	448.81
256.59	464.81
256.823	465.81
257.056	447.81
257.289	435.81
257.521	457.81
257.754	471.81
257.987	472.81
258.22	475.81
258.452	451.81
258.685	459.81
258.918	467.81
259.151	474.81
259.383	497.81
259.616	469.81
259.849	493.81
260.081	517.81
260.314	491.81
260.547	498.81
260.779	498.81
261.012	498.81
261.244	487.81
261.477	521.81
261.71	523.81
261.942	510.81
262.175	523.81
262.407	502.81
262.64	529.81
262.872	509.81
263.105	523.81
263.337	514.81
263.57	535.81
263.802	531.81
264.035	532.81
264.267	534.81
264.499	523.81
264.732	550.81
264.964	537.81
265.197	542.81
265.429	571.81
265.661	539.81
265.894	546.81
266.126	551.81
266.358	547.81
266.591	531.81
266.823	559.81
267.055	571.81
267.287	549.81
267.52	555.81
267.752	576.81
267.984	601.81
268.216	588.81
268.448	575.81
268.681	588.81
268.913	594.81
269.145	589.81
269.377	609.81
269.609	586.81
269.841	595.81
270.073	588.81
270.306	594.81
270.538	609.81
270.77	596.81
271.002	625.81
271.234	611.81
271.466	630.81
271.698	624.81
271.93	606.81
272.162	620.81
272.394	638.81
272.626	631.81
272.858	625.81
273.09	640.81
273.322	673.81
273.553	645.81
273.785	656.81
274.017	659.81
274.249	656.81
274.481	656.81
274.713	636.81
274.945	659.81
275.176	658.81
275.408	653.81
275.64	673.81
275.872	665.81
276.104	699.81
276.335	670.81
276.567	670.81
276.799	647.81
277.031	678.81
277.262	698.81
277.494	693.81
277.726	705.81
277.957	713.81
278.189	713.81
278.421	717.81
278.652	703.81
278.884	711.81
279.115	714.81
279.347	715.81
279.579	698.81
279.81	719.81
280.042	733.81
280.273	737.81
280.505	738.81
280.736	740.81
280.968	728.81
281.199	757.81
281.431	707.81
281.662	763.81
281.894	783.81
282.125	762.81
282.356	769.81
282.588	765.81
282.819	746.81
283.051	769.81
283.282	749.81
283.513	771.81
283.745	779.81
283.976	769.81
284.207	781.81
284.439	791.81
284.67	789.81
284.901	790.81
285.132	773.81
285.364	766.81
285.595	775.81
285.826	811.81
286.057	818.81
286.288	801.81
286.52	819.81
286.751	792.81
286.982	785.81
287.213	811.81
287.444	822.81
287.675	814.81
287.906	832.81
288.138	833.81
288.369	826.81
288.6	831.81
288.831	819.81
289.062	839.81
289.293	840.81
289.524	871.81
289.755	836.81
289.986	847.81
290.217	851.81
290.448	822.81
290.679	827.81
290.91	825.81
291.141	817.81
291.371	842.81
291.602	820.81
291.833	840.81
292.064	861.81
292.295	853.81
292.526	867.81
292.757	844.81
292.987	839.81
293.218	863.81
293.449	865.81
293.68	869.81
293.91	863.81
294.141	844.81
294.372	859.81
294.603	884.81
294.833	867.81
295.064	877.81
295.295	857.81
295.525	850.81
295.756	854.81
295.987	890.81
296.217	876.81
296.448	869.81
296.679	879.81
296.909	854.81
297.14	894.81
297.37	894.81
297.601	899.81
297.831	906.81
298.062	925.81
298.292	948.81
298.523	932.81
298.753	931.81
298.984	939.81
299.214	911.81
299.445	928.81
299.675	921.81
299.905	913.81
300.136	922.81
300.366	961.81
300.597	927.81
300.827	930.81
301.057	969.81
301.288	971.81
301.518	947.81
301.748	991.81
301.979	964.81
302.209	978.81
302.439	964.81
302.669	1003.81
302.9	981.81
303.13	949.81
303.36	974.81
303.59	993.81
303.82	946.81
304.051	951.81
304.281	980.81
304.511	975.81
304.741	977.81
304.971	979.81
305.201	975.81
305.431	967.81
305.661	990.81
305.891	962.81
306.121	970.81
306.352	943.81
306.582	983.81
306.812	940.81
307.042	963.81
307.272	955.81
307.502	941.81
307.731	947.81
307.961	935.81
308.191	962.81
308.421	959.81
308.651	984.81
308.881	944.81
309.111	972.81
309.341	956.81
309.571	994.81
309.8	988.81
310.03	974.81
310.26	976.81
310.49	949.81
310.72	956.81
310.949	959.81
311.179	953.81
311.409	959.81
311.639	983.81
311.868	974.81
312.098	985.81
312.328	1010.81
312.557	997.81
312.787	1057.81
313.017	1028.81
313.246	1037.81
313.476	1033.81
313.706	1017.81
313.935	1044.81
314.165	1037.81
314.394	1010.81
314.624	1019.81
314.853	1030.81
315.083	1019.81
315.312	1050.81
315.542	1047.81
315.771	1035.81
316.001	1029.81
316.23	1017.81
316.46	974.81
316.689	1023.81
316.919	1047.81
317.148	1030.81
317.377	1037.81
317.607	1040.81
317.836	1013.81
318.065	1022.81
318.295	1035.81
318.524	1014.81
318.753	1011.81
318.983	1008.81
319.212	1001.81
319.441	1021.81
319.67	1007.81
319.9	1043.81
320.129	1034.81
320.358	1024.81
320.587	1022.81
320.816	1040.81
321.046	1053.81
321.275	1036.81
321.504	1010.81
321.733	1010.81
321.962	1017.81
322.191	1043.81
322.42	1062.81
322.649	1034.81
322.878	1023.81
323.108	1037.81
323.337	1077.81
323.566	1065.81
323.795	1049.81
324.024	1065.81
324.253	1068.81
324.482	1058.81
324.71	1069.81
324.939	1070.81
325.168	1077.81
325.397	1079.81
325.626	1082.81
325.855	1107.81
326.084	1123.81
326.313	1109.81
326.542	1115.81
326.77	1150.81
326.999	1110.81
327.228	1109.81
327.457	1134.81
327.686	1115.81
327.914	1091.81
328.143	1135.81
328.372	1112.81
328.6	1134.81
328.829	1143.81
329.058	1125.81
329.287	1120.81
329.515	1147.81
329.744	1145.81
329.972	1130.81
330.201	1139.81
330.43	1150.81
330.658	1182.81
330.887	1149.81
331.115	1199.81
331.344	1177.81
331.572	1174.81
331.801	1226.81
332.03	1210.81
332.258	1237.81
332.486	1283.81
332.715	1274.81
332.943	1317.81
333.172	1373.81
333.4	1398.81
333.629	1375.81
333.857	1422.81
334.085	1455.81
334.314	1458.81
334.542	1423.81
334.771	1416.81
334.999	1381.81
335.227	1423.81
335.455	1405.81
335.684	1407.81
335.912	1372.81
336.14	1361.81
336.369	1362.81
336.597	1346.81
336.825	1347.81
337.053	1329.81
337.281	1309.81
337.51	1310.81
337.738	1301.81
337.966	1281.81
338.194	1245.81
338.422	1265.81
338.65	1252.81
338.878	1215.81
339.106	1214.81
339.334	1244.81
339.562	1205.81
339.79	1219.81
340.018	1179.81
340.246	1173.81
340.474	1163.81
340.702	1185.81
340.93	1187.81
341.158	1184.81
341.386	1189.81
341.614	1189.81
341.842	1178.81
342.07	1157.81
342.298	1187.81
342.526	1182.81
342.754	1175.81
342.981	1157.81
343.209	1212.81
343.437	1223.81
343.665	1295.81
343.893	1362.81
344.12	1403.81
344.348	1363.81
344.576	1310.81
344.804	1282.81
345.031	1218.81
345.259	1207.81
345.487	1195.81
345.714	1171.81
345.942	1156.81
346.17	1138.81
346.397	1151.81
346.625	1145.81
346.853	1140.81
347.08	1119.81
347.308	1125.81
347.535	1162.81
347.763	1127.81
347.99	1119.81
348.218	1143.81
348.445	1117.81
348.673	1102.81
348.9	1105.81
349.128	1114.81
349.355	1101.81
349.583	1114.81
349.81	1127.81
350.037	1103.81
350.265	1121.81
350.492	1095.81
350.72	1135.81
350.947	1099.81
351.174	1091.81
351.402	1106.81
351.629	1098.81
351.856	1083.81
352.083	1053.81
352.311	1102.81
352.538	1105.81
352.765	1064.81
352.992	1098.81
353.22	1078.81
353.447	1057.81
353.674	1076.81
353.901	1087.81
354.128	1064.81
354.355	1083.81
354.583	1062.81
354.81	1053.81
355.037	1091.81
355.264	1090.81
355.491	1091.81
355.718	1103.81
355.945	1069.81
356.172	1100.81
356.399	1081.81
356.626	1111.81
356.853	1103.81
357.08	1087.81
357.307	1095.81
357.534	1090.81
357.761	1127.81
357.988	1110.81
358.215	1071.81
358.441	1098.81
358.668	1078.81
358.895	1093.81
359.122	1063.81
359.349	1093.81
359.576	1094.81
359.802	1089.81
360.029	1098.81
360.256	1073.81
360.483	1117.81
360.709	1097.81
360.936	1108.81
361.163	1124.81
361.39	1094.81
361.616	1096.81
361.843	1092.81
362.07	1107.81
362.296	1082.81
362.523	1104.81
362.749	1107.81
362.976	1096.81
363.203	1080.81
363.429	1079.81
363.656	1081.81
363.882	1122.81
364.109	1085.81
364.335	1076.81
364.562	1106.81
364.788	1085.81
365.015	1081.81
365.241	1065.81
365.468	1101.81
365.694	1075.81
365.92	1089.81
366.147	1094.81
366.373	1102.81
366.599	1110.81
366.826	1092.81
367.052	1088.81
367.278	1098.81
367.505	1108.81
367.731	1100.81
367.957	1115.81
368.184	1112.81
368.41	1107.81
368.636	1113.81
368.862	1127.81
369.089	1172.81
369.315	1130.81
369.541	1141.81
369.767	1146.81
369.993	1153.81
370.219	1147.81
370.445	1153.81
370.672	1156.81
370.898	1158.81
371.124	1165.81
371.35	1203.81
371.576	1185.81
371.802	1187.81
372.028	1213.81
372.254	1178.81
372.48	1202.81
372.706	1205.81
372.932	1219.81
373.158	1226.81
373.384	1241.81
373.61	1189.81
373.835	1202.81
374.061	1201.81
374.287	1214.81
374.513	1221.81
374.739	1250.81
374.965	1306.81
375.191	1332.81
375.416	1277.81
375.642	1276.81
375.868	1228.81
376.094	1196.81
376.319	1227.81
376.545	1228.81
376.771	1194.81
376.997	1178.81
377.222	1198.81
377.448	1214.81
377.674	1179.81
377.899	1205.81
378.125	1156.81
378.35	1177.81
378.576	1132.81
378.802	1167.81
379.027	1173.81
379.253	1203.81
379.478	1143.81
379.704	1178.81
379.929	1166.81
380.155	1166.81
380.38	1146.81
380.606	1164.81
380.831	1177.81
381.057	1187.81
381.282	1210.81
381.507	1180.81
381.733	1223.81
381.958	1207.81
382.184	1191.81
382.409	1225.81
382.634	1229.81
382.86	1229.81
383.085	1237.81
383.31	1243.81
383.535	1271.81
383.761	1283.81
383.986	1315.81
384.211	1302.81
384.436	1320.81
384.662	1355.81
384.887	1360.81
385.112	1394.81
385.337	1393.81
385.562	1406.81
385.787	1412.81
386.013	1403.81
386.238	1385.81
386.463	1412.81
386.688	1420.81
386.913	1398.81
387.138	1396.81
387.363	1400.81
387.588	1374.81
387.813	1406.81
388.038	1395.81
388.263	1418.81
388.488	1402.81
388.713	1428.81
388.938	1401.81
389.163	1385.81
389.387	1397.81
389.612	1393.81
389.837	1404.81
390.062	1384.81
390.287	1349.81
390.512	1390.81
390.736	1429.81
390.961	1425.81
391.186	1428.81
391.411	1513.81
391.636	1531.81
391.86	1550.81
392.085	1546.81
392.31	1574.81
392.534	1538.81
392.759	1562.81
392.984	1504.81
393.208	1486.81
393.433	1470.81
393.658	1486.81
393.882	1475.81
394.107	1484.81
394.331	1479.81
394.556	1485.81
394.78	1504.81
395.005	1540.81
395.229	1537.81
395.454	1509.81
395.678	1565.81
395.903	1569.81
396.127	1551.81
396.352	1558.81
396.576	1517.81
396.801	1509.81
397.025	1536.81
397.249	1542.81
397.474	1554.81
397.698	1580.81
397.922	1577.81
398.147	1598.81
398.371	1643.81
398.595	1654.81
398.82	1731.81
399.044	1861.81
399.268	1993.81
399.492	2203.81
399.717	2361.81
399.941	2463.81
400.165	2249.81
400.389	2087.81
400.613	1955.81
400.837	1883.81
401.062	1780.81
401.286	1795.81
401.51	1766.81
401.734	1756.81
401.958	1770.81
402.182	1729.81
402.406	1781.81
402.63	1767.81
402.854	1810.81
403.078	1837.81
403.302	1882.81
403.526	1880.81
403.75	1897.81
403.974	1903.81
404.198	1916.81
404.422	1923.81
404.645	1930.81
404.869	1877.81
405.093	1921.81
405.317	1847.81
405.541	1918.81
405.765	1910.81
405.988	1847.81
406.212	1919.81
406.436	1892.81
406.66	1931.81
406.883	1975.81
407.107	2047.81
407.331	2142.81
407.555	2217.81
407.778	2189.81
408.002	2094.81
408.226	2111.81
408.449	2078.81
408.673	1995.81
408.896	1979.81
409.12	1965.81
409.344	1989.81
409.567	1953.81
409.791	1939.81
410.014	1910.81
410.238	1912.81
410.461	1907.81
410.685	1954.81
410.908	1851.81
411.132	1835.81
411.355	1799.81
411.578	1817.81
411.802	1835.81
412.025	1821.81
412.249	1864.81
412.472	1844.81
412.695	1832.81
412.919	1746.81
413.142	1754.81
413.365	1746.81
413.589	1766.81
413.812	1746.81
414.035	1734.81
414.258	1765.81
414.482	1772.81
414.705	1737.81
414.928	1799.81
415.151	1795.81
415.374	1781.81
415.597	1754.81
415.821	1697.81
416.044	1692.81
416.267	1657.81
416.49	1694.81
416.713	1690.81
416.936	1689.81
417.159	1697.81
417.382	1679.81
417.605	1662.81
417.828	1637.81
418.051	1687.81
418.274	1667.81
418.497	1682.81
418.72	1721.81
418.943	1723.81
419.166	1855.81
419.389	1940.81
419.611	1891.81
419.834	1844.81
420.057	1771.81
420.28	1715.81
420.503	1684.81
420.726	1667.81
420.948	1653.81
421.171	1647.81
421.394	1686.81
421.617	1666.81
421.839	1701.81
422.062	1698.81
422.285	1688.81
422.507	1703.81
422.73	1715.81
422.953	1728.81
423.175	1716.81
423.398	1721.81
423.621	1703.81
423.843	1719.81
424.066	1760.81
424.288	1707.81
424.511	1716.81
424.733	1708.81
424.956	1738.81
425.178	1710.81
425.401	1696.81
425.623	1709.81
425.846	1673.81
426.068	1638.81
426.291	1655.81
426.513	1643.81
426.735	1621.81
426.958	1588.81
427.18	1575.81
427.402	1595.81
427.625	1572.81
427.847	1536.81
428.069	1548.81
428.292	1563.81
428.514	1569.81
428.736	1536.81
428.958	1554.81
429.181	1539.81
429.403	1520.81
429.625	1497.81
429.847	1488.81
430.069	1483.81
430.292	1529.81
430.514	1496.81
430.736	1516.81
430.958	1511.81
431.18	1521.81
431.402	1502.81
431.624	1541.81
431.846	1541.81
432.068	1577.81
432.29	1607.81
432.512	1537.81
432.734	1571.81
432.956	1552.81
433.178	1561.81
433.4	1563.81
433.622	1582.81
433.844	1607.81
434.066	1611.81
434.287	1612.81
434.509	1643.81
434.731	1672.81
434.953	1739.81
435.175	1687.81
435.397	1738.81
435.618	1651.81
435.84	1610.81
436.062	1559.81
436.284	1551.81
436.505	1532.81
436.727	1570.81
436.949	1537.81
437.17	1562.81
437.392	1516.81
437.614	1535.81
437.835	1483.81
438.057	1484.81
438.278	1452.81
438.5	1469.81
438.721	1501.81
438.943	1477.81
439.165	1472.81
439.386	1486.81
439.608	1501.81
439.829	1526.81
440.05	1509.81
440.272	1527.81
440.493	1513.81
440.715	1518.81
440.936	1540.81
441.158	1564.81
441.379	1609.81
441.6	1670.81
441.822	1686.81
442.043	1665.81
442.264	1639.81
442.486	1633.81
442.707	1643.81
442.928	1590.81
443.149	1618.81
443.371	1614.81
443.592	1620.81
443.813	1673.81
444.034	1697.81
444.255	1688.81
444.476	1771.81
444.698	1837.81
444.919	1876.81
445.14	1991.81
445.361	1813.81
445.582	1714.81
445.803	1638.81
446.024	1609.81
446.245	1589.81
446.466	1595.81
446.687	1534.81
446.908	1516.81
447.129	1467.81
447.35	1475.81
447.571	1438.81
447.792	1413.81
448.013	1423.81
448.234	1390.81
448.455	1391.81
448.675	1386.81
448.896	1390.81
449.117	1347.81
449.338	1357.81
449.559	1377.81
449.779	1366.81
450	1367.81
450.221	1341.81
450.442	1387.81
450.662	1374.81
450.883	1398.81
451.104	1409.81
451.324	1337.81
451.545	1381.81
451.766	1375.81
451.986	1345.81
452.207	1327.81
452.428	1355.81
452.648	1321.81
452.869	1305.81
453.089	1314.81
453.31	1345.81
453.53	1305.81
453.751	1326.81
453.971	1286.81
454.192	1318.81
454.412	1290.81
454.633	1325.81
454.853	1297.81
455.073	1269.81
455.294	1288.81
455.514	1298.81
455.734	1266.81
455.955	1254.81
456.175	1281.81
456.395	1245.81
456.616	1287.81
456.836	1296.81
457.056	1283.81
457.276	1277.81
457.497	1313.81
457.717	1275.81
457.937	1320.81
458.157	1314.81
458.377	1322.81
458.598	1365.81
458.818	1384.81
459.038	1390.81
459.258	1451.81
459.478	1470.81
459.698	1535.81
459.918	1588.81
460.138	1617.81
460.358	1680.81
460.578	1688.81
460.798	1697.81
461.018	1706.81
461.238	1702.81
461.458	1695.81
461.678	1743.81
461.898	1753.81
462.118	1725.81
462.338	1868.81
462.558	1829.81
462.777	1918.81
462.997	2021.81
463.217	2156.81
463.437	2178.81
463.657	2117.81
463.876	1967.81
464.096	1971.81
464.316	1978.81
464.536	1956.81
464.755	1929.81
464.975	1874.81
465.195	1787.81
465.414	1700.81
465.634	1575.81
465.854	1580.81
466.073	1535.81
466.293	1510.81
466.512	1472.81
466.732	1477.81
466.951	1451.81
467.171	1437.81
467.391	1478.81
467.61	1434.81
467.829	1385.81
468.049	1411.81
468.268	1390.81
468.488	1388.81
468.707	1371.81
468.927	1407.81
469.146	1415.81
469.365	1415.81
469.585	1419.81
469.804	1433.81
470.023	1431.81
470.243	1427.81
470.462	1489.81
470.681	1512.81
470.901	1493.81
471.12	1458.81
471.339	1453.81
471.558	1454.81
471.777	1409.81
471.997	1427.81
472.216	1398.81
472.435	1390.81
472.654	1377.81
472.873	1385.81
473.092	1370.81
473.311	1378.81
473.53	1396.81
473.749	1348.81
473.968	1367.81
474.187	1367.81
474.406	1338.81
474.625	1359.81
474.844	1384.81
475.063	1421.81
475.282	1415.81
475.501	1425.81
475.72	1418.81
475.939	1403.81
476.158	1422.81
476.377	1484.81
476.596	1452.81
476.814	1466.81
477.033	1451.81
477.252	1505.81
477.471	1519.81
477.69	1547.81
477.908	1577.81
478.127	1592.81
478.346	1622.81
478.564	1687.81
478.783	1707.81
479.002	1724.81
479.22	1716.81
479.439	1729.81
479.658	1723.81
479.876	1758.81
480.095	1750.81
480.313	1813.81
480.532	1806.81
480.751	1813.81
480.969	1802.81
481.188	1745.81
481.406	1715.81
481.624	1664.81
481.843	1643.81
482.061	1667.81
482.28	1645.81
482.498	1639.81
482.717	1652.81
482.935	1674.81
483.153	1643.81
483.372	1719.81
483.59	1732.81
483.808	1733.81
484.027	1721.81
484.245	1739.81
484.463	1750.81
484.681	1813.81
484.9	1809.81
485.118	1840.81
485.336	1843.81
485.554	1855.81
485.772	1814.81
485.99	1853.81
486.209	1832.81
486.427	1844.81
486.645	1809.81
486.863	1811.81
487.081	1850.81
487.299	1829.81
487.517	1810.81
487.735	1762.81
487.953	1811.81
488.171	1804.81
488.389	1762.81
488.607	1812.81
488.825	1765.81
489.043	1754.81
489.261	1742.81
489.479	1743.81
489.696	1724.81
489.914	1698.81
490.132	1687.81
490.35	1716.81
490.568	1719.81
490.786	1717.81
