Data from NiCl2@0.0625M.TitratingCurve.Agarose3%dH2O.NegLispCup.LampEnergy10.LIBS07252019_HRD10591_18-33-27-576.txt Node
Date: Thu Jul 25 18:33:27 EDT 2019
User: cochatt
Spectrometer: HR+D1059
Trigger mode: 1
Integration Time (sec): 1.000000E-1
Scans to average: 1
Electric dark correction enabled: true
Nonlinearity correction enabled: false
Boxcar width: 0
XAxis mode: Wavelengths
Number of Pixels in Spectrum: 2048
>>>>>Begin Spectral Data<<<<<
223.165	-11.06
223.4	-11.06
223.635	-11.06
223.869	-13.06
224.104	-25.06
224.338	-4.06
224.573	-15.06
224.808	7.94
225.042	-22.06
225.277	-12.06
225.511	-13.06
225.746	3.94
225.98	6.94
226.215	3.94
226.449	11.94
226.683	17.94
226.918	24.94
227.152	37.94
227.387	44.94
227.621	45.94
227.856	42.94
228.09	43.94
228.324	46.94
228.559	76.94
228.793	88.94
229.027	156.94
229.262	166.94
229.496	167.94
229.73	167.94
229.964	182.94
230.199	201.94
230.433	198.94
230.667	194.94
230.901	194.94
231.136	203.94
231.37	195.94
231.604	184.94
231.838	214.94
232.072	227.94
232.306	203.94
232.541	216.94
232.775	232.94
233.009	214.94
233.243	212.94
233.477	219.94
233.711	225.94
233.945	213.94
234.179	238.94
234.413	229.94
234.647	216.94
234.881	230.94
235.115	225.94
235.349	218.94
235.583	226.94
235.817	253.94
236.051	223.94
236.285	243.94
236.519	241.94
236.753	255.94
236.987	247.94
237.221	243.94
237.455	245.94
237.689	257.94
237.922	268.94
238.156	262.94
238.39	285.94
238.624	258.94
238.858	293.94
239.091	286.94
239.325	257.94
239.559	275.94
239.793	283.94
240.027	295.94
240.26	280.94
240.494	288.94
240.728	298.94
240.961	295.94
241.195	300.94
241.429	310.94
241.662	319.94
241.896	303.94
242.13	329.94
242.363	333.94
242.597	315.94
242.83	332.94
243.064	324.94
243.298	322.94
243.531	327.94
243.765	328.94
243.998	326.94
244.232	342.94
244.465	344.94
244.699	353.94
244.932	374.94
245.166	370.94
245.399	346.94
245.633	362.94
245.866	361.94
246.099	379.94
246.333	381.94
246.566	367.94
246.8	376.94
247.033	400.94
247.266	393.94
247.5	383.94
247.733	396.94
247.966	401.94
248.2	425.94
248.433	420.94
248.666	405.94
248.899	407.94
249.133	426.94
249.366	413.94
249.599	414.94
249.832	415.94
250.066	410.94
250.299	427.94
250.532	420.94
250.765	436.94
250.998	419.94
251.231	453.94
251.465	456.94
251.698	486.94
251.931	456.94
252.164	464.94
252.397	483.94
252.63	455.94
252.863	461.94
253.096	466.94
253.329	476.94
253.562	464.94
253.795	485.94
254.028	481.94
254.261	484.94
254.494	453.94
254.727	500.94
254.96	469.94
255.193	484.94
255.426	498.94
255.659	511.94
255.892	516.94
256.124	528.94
256.357	484.94
256.59	483.94
256.823	495.94
257.056	523.94
257.289	529.94
257.521	525.94
257.754	531.94
257.987	518.94
258.22	547.94
258.452	536.94
258.685	512.94
258.918	550.94
259.151	539.94
259.383	552.94
259.616	538.94
259.849	542.94
260.081	572.94
260.314	550.94
260.547	561.94
260.779	573.94
261.012	586.94
261.244	569.94
261.477	566.94
261.71	579.94
261.942	581.94
262.175	591.94
262.407	569.94
262.64	579.94
262.872	591.94
263.105	592.94
263.337	581.94
263.57	590.94
263.802	603.94
264.035	585.94
264.267	619.94
264.499	627.94
264.732	629.94
264.964	600.94
265.197	605.94
265.429	628.94
265.661	629.94
265.894	621.94
266.126	607.94
266.358	632.94
266.591	627.94
266.823	643.94
267.055	637.94
267.287	659.94
267.52	628.94
267.752	671.94
267.984	671.94
268.216	676.94
268.448	672.94
268.681	666.94
268.913	659.94
269.145	673.94
269.377	673.94
269.609	676.94
269.841	696.94
270.073	662.94
270.306	689.94
270.538	707.94
270.77	673.94
271.002	701.94
271.234	682.94
271.466	701.94
271.698	721.94
271.93	699.94
272.162	719.94
272.394	705.94
272.626	700.94
272.858	736.94
273.09	721.94
273.322	720.94
273.553	732.94
273.785	747.94
274.017	761.94
274.249	756.94
274.481	760.94
274.713	745.94
274.945	785.94
275.176	779.94
275.408	752.94
275.64	746.94
275.872	769.94
276.104	781.94
276.335	775.94
276.567	768.94
276.799	781.94
277.031	799.94
277.262	785.94
277.494	790.94
277.726	778.94
277.957	782.94
278.189	803.94
278.421	774.94
278.652	788.94
278.884	796.94
279.115	813.94
279.347	799.94
279.579	844.94
279.81	852.94
280.042	839.94
280.273	821.94
280.505	819.94
280.736	840.94
280.968	833.94
281.199	842.94
281.431	851.94
281.662	867.94
281.894	848.94
282.125	851.94
282.356	876.94
282.588	876.94
282.819	857.94
283.051	885.94
283.282	863.94
283.513	880.94
283.745	871.94
283.976	869.94
284.207	875.94
284.439	871.94
284.67	913.94
284.901	899.94
285.132	921.94
285.364	938.94
285.595	885.94
285.826	908.94
286.057	926.94
286.288	898.94
286.52	903.94
286.751	933.94
286.982	945.94
287.213	937.94
287.444	932.94
287.675	917.94
287.906	943.94
288.138	933.94
288.369	929.94
288.6	932.94
288.831	935.94
289.062	965.94
289.293	943.94
289.524	992.94
289.755	950.94
289.986	938.94
290.217	935.94
290.448	951.94
290.679	940.94
290.91	966.94
291.141	996.94
291.371	952.94
291.602	1003.94
291.833	983.94
292.064	965.94
292.295	974.94
292.526	979.94
292.757	952.94
292.987	945.94
293.218	950.94
293.449	971.94
293.68	980.94
293.91	983.94
294.141	978.94
294.372	997.94
294.603	986.94
294.833	988.94
295.064	1019.94
295.295	991.94
295.525	977.94
295.756	997.94
295.987	984.94
296.217	1031.94
296.448	1016.94
296.679	977.94
296.909	1013.94
297.14	1003.94
297.37	1053.94
297.601	1049.94
297.831	1037.94
298.062	1040.94
298.292	1043.94
298.523	1023.94
298.753	1070.94
298.984	1073.94
299.214	1084.94
299.445	1043.94
299.675	1042.94
299.905	1045.94
300.136	1071.94
300.366	1064.94
300.597	1096.94
300.827	1096.94
301.057	1099.94
301.288	1084.94
301.518	1081.94
301.748	1101.94
301.979	1124.94
302.209	1126.94
302.439	1119.94
302.669	1098.94
302.9	1088.94
303.13	1079.94
303.36	1073.94
303.59	1108.94
303.82	1080.94
304.051	1117.94
304.281	1092.94
304.511	1084.94
304.741	1128.94
304.971	1122.94
305.201	1104.94
305.431	1135.94
305.661	1107.94
305.891	1105.94
306.121	1103.94
306.352	1076.94
306.582	1067.94
306.812	1097.94
307.042	1078.94
307.272	1085.94
307.502	1082.94
307.731	1095.94
307.961	1095.94
308.191	1092.94
308.421	1096.94
308.651	1107.94
308.881	1085.94
309.111	1096.94
309.341	1091.94
309.571	1099.94
309.8	1099.94
310.03	1121.94
310.26	1092.94
310.49	1107.94
310.72	1105.94
310.949	1124.94
311.179	1105.94
311.409	1137.94
311.639	1141.94
311.868	1123.94
312.098	1165.94
312.328	1144.94
312.557	1192.94
312.787	1163.94
313.017	1180.94
313.246	1176.94
313.476	1172.94
313.706	1172.94
313.935	1180.94
314.165	1140.94
314.394	1174.94
314.624	1200.94
314.853	1169.94
315.083	1168.94
315.312	1192.94
315.542	1164.94
315.771	1191.94
316.001	1166.94
316.23	1185.94
316.46	1130.94
316.689	1146.94
316.919	1173.94
317.148	1163.94
317.377	1171.94
317.607	1177.94
317.836	1151.94
318.065	1144.94
318.295	1161.94
318.524	1172.94
318.753	1154.94
318.983	1179.94
319.212	1165.94
319.441	1170.94
319.67	1164.94
319.9	1185.94
320.129	1169.94
320.358	1184.94
320.587	1175.94
320.816	1164.94
321.046	1211.94
321.275	1162.94
321.504	1165.94
321.733	1147.94
321.962	1167.94
322.191	1180.94
322.42	1193.94
322.649	1188.94
322.878	1193.94
323.108	1181.94
323.337	1179.94
323.566	1226.94
323.795	1203.94
324.024	1183.94
324.253	1220.94
324.482	1220.94
324.71	1199.94
324.939	1250.94
325.168	1248.94
325.397	1248.94
325.626	1250.94
325.855	1269.94
326.084	1260.94
326.313	1285.94
326.542	1290.94
326.77	1281.94
326.999	1267.94
327.228	1273.94
327.457	1234.94
327.686	1266.94
327.914	1281.94
328.143	1267.94
328.372	1268.94
328.6	1280.94
328.829	1271.94
329.058	1270.94
329.287	1293.94
329.515	1289.94
329.744	1295.94
329.972	1306.94
330.201	1316.94
330.43	1331.94
330.658	1304.94
330.887	1318.94
331.115	1335.94
331.344	1343.94
331.572	1362.94
331.801	1420.94
332.03	1393.94
332.258	1401.94
332.486	1442.94
332.715	1451.94
332.943	1488.94
333.172	1520.94
333.4	1610.94
333.629	1641.94
333.857	1671.94
334.085	1654.94
334.314	1649.94
334.542	1590.94
334.771	1626.94
334.999	1605.94
335.227	1607.94
335.455	1563.94
335.684	1599.94
335.912	1529.94
336.14	1570.94
336.369	1566.94
336.597	1560.94
336.825	1527.94
337.053	1520.94
337.281	1477.94
337.51	1482.94
337.738	1466.94
337.966	1457.94
338.194	1463.94
338.422	1413.94
338.65	1423.94
338.878	1444.94
339.106	1442.94
339.334	1398.94
339.562	1439.94
339.79	1396.94
340.018	1367.94
340.246	1325.94
340.474	1345.94
340.702	1350.94
340.93	1367.94
341.158	1351.94
341.386	1380.94
341.614	1352.94
341.842	1351.94
342.07	1320.94
342.298	1322.94
342.526	1352.94
342.754	1338.94
342.981	1308.94
343.209	1377.94
343.437	1423.94
343.665	1509.94
343.893	1537.94
344.12	1591.94
344.348	1604.94
344.576	1471.94
344.804	1461.94
345.031	1417.94
345.259	1381.94
345.487	1345.94
345.714	1323.94
345.942	1323.94
346.17	1294.94
346.397	1298.94
346.625	1296.94
346.853	1297.94
347.08	1269.94
347.308	1314.94
347.535	1291.94
347.763	1287.94
347.99	1299.94
348.218	1275.94
348.445	1283.94
348.673	1229.94
348.9	1252.94
349.128	1263.94
349.355	1290.94
349.583	1273.94
349.81	1238.94
350.037	1281.94
350.265	1249.94
350.492	1270.94
350.72	1288.94
350.947	1256.94
351.174	1274.94
351.402	1290.94
351.629	1264.94
351.856	1254.94
352.083	1252.94
352.311	1277.94
352.538	1220.94
352.765	1253.94
352.992	1258.94
353.22	1249.94
353.447	1215.94
353.674	1225.94
353.901	1252.94
354.128	1227.94
354.355	1272.94
354.583	1246.94
354.81	1233.94
355.037	1255.94
355.264	1247.94
355.491	1250.94
355.718	1286.94
355.945	1242.94
356.172	1227.94
356.399	1232.94
356.626	1244.94
356.853	1260.94
357.08	1264.94
357.307	1264.94
357.534	1279.94
357.761	1247.94
357.988	1282.94
358.215	1252.94
358.441	1248.94
358.668	1239.94
358.895	1243.94
359.122	1243.94
359.349	1268.94
359.576	1267.94
359.802	1260.94
360.029	1255.94
360.256	1221.94
360.483	1238.94
360.709	1253.94
360.936	1236.94
361.163	1219.94
361.39	1229.94
361.616	1284.94
361.843	1232.94
362.07	1244.94
362.296	1251.94
362.523	1241.94
362.749	1256.94
362.976	1248.94
363.203	1264.94
363.429	1236.94
363.656	1248.94
363.882	1255.94
364.109	1225.94
364.335	1215.94
364.562	1280.94
364.788	1267.94
365.015	1239.94
365.241	1229.94
365.468	1219.94
365.694	1271.94
365.92	1228.94
366.147	1244.94
366.373	1267.94
366.599	1233.94
366.826	1270.94
367.052	1248.94
367.278	1229.94
367.505	1246.94
367.731	1269.94
367.957	1259.94
368.184	1271.94
368.41	1260.94
368.636	1271.94
368.862	1274.94
369.089	1253.94
369.315	1304.94
369.541	1318.94
369.767	1311.94
369.993	1290.94
370.219	1247.94
370.445	1333.94
370.672	1322.94
370.898	1351.94
371.124	1341.94
371.35	1340.94
371.576	1363.94
371.802	1331.94
372.028	1321.94
372.254	1323.94
372.48	1379.94
372.706	1393.94
372.932	1384.94
373.158	1381.94
373.384	1359.94
373.61	1380.94
373.835	1365.94
374.061	1348.94
374.287	1377.94
374.513	1392.94
374.739	1441.94
374.965	1490.94
375.191	1463.94
375.416	1483.94
375.642	1494.94
375.868	1448.94
376.094	1384.94
376.319	1401.94
376.545	1356.94
376.771	1371.94
376.997	1333.94
377.222	1355.94
377.448	1373.94
377.674	1386.94
377.899	1362.94
378.125	1341.94
378.35	1335.94
378.576	1338.94
378.802	1331.94
379.027	1327.94
379.253	1346.94
379.478	1338.94
379.704	1321.94
379.929	1341.94
380.155	1340.94
380.38	1376.94
380.606	1372.94
380.831	1358.94
381.057	1341.94
381.282	1356.94
381.507	1349.94
381.733	1363.94
381.958	1367.94
382.184	1382.94
382.409	1403.94
382.634	1425.94
382.86	1428.94
383.085	1437.94
383.31	1432.94
383.535	1492.94
383.761	1478.94
383.986	1507.94
384.211	1540.94
384.436	1574.94
384.662	1546.94
384.887	1585.94
385.112	1583.94
385.337	1574.94
385.562	1624.94
385.787	1612.94
386.013	1633.94
386.238	1617.94
386.463	1630.94
386.688	1624.94
386.913	1622.94
387.138	1600.94
387.363	1574.94
387.588	1590.94
387.813	1595.94
388.038	1575.94
388.263	1638.94
388.488	1628.94
388.713	1596.94
388.938	1600.94
389.163	1594.94
389.387	1605.94
389.612	1600.94
389.837	1570.94
390.062	1580.94
390.287	1568.94
390.512	1588.94
390.736	1626.94
390.961	1670.94
391.186	1678.94
391.411	1714.94
391.636	1779.94
391.86	1800.94
392.085	1783.94
392.31	1759.94
392.534	1761.94
392.759	1745.94
392.984	1737.94
393.208	1718.94
393.433	1770.94
393.658	1778.94
393.882	1721.94
394.107	1691.94
394.331	1729.94
394.556	1761.94
394.78	1738.94
395.005	1722.94
395.229	1725.94
395.454	1783.94
395.678	1786.94
395.903	1811.94
396.127	1787.94
396.352	1754.94
396.576	1724.94
396.801	1775.94
397.025	1851.94
397.249	1806.94
397.474	1853.94
397.698	1831.94
397.922	1824.94
398.147	1852.94
398.371	1880.94
398.595	1888.94
398.82	1982.94
399.044	2112.94
399.268	2279.94
399.492	2578.94
399.717	2805.94
399.941	2786.94
400.165	2607.94
400.389	2406.94
400.613	2230.94
400.837	2141.94
401.062	2073.94
401.286	2039.94
401.51	2017.94
401.734	2044.94
401.958	2054.94
402.182	2036.94
402.406	2065.94
402.63	2099.94
402.854	2114.94
403.078	2146.94
403.302	2159.94
403.526	2152.94
403.75	2169.94
403.974	2247.94
404.198	2195.94
404.422	2177.94
404.645	2206.94
404.869	2160.94
405.093	2227.94
405.317	2182.94
405.541	2164.94
405.765	2141.94
405.988	2158.94
406.212	2152.94
406.436	2175.94
406.66	2256.94
406.883	2211.94
407.107	2394.94
407.331	2471.94
407.555	2553.94
407.778	2517.94
408.002	2456.94
408.226	2385.94
408.449	2398.94
408.673	2322.94
408.896	2216.94
409.12	2274.94
409.344	2277.94
409.567	2188.94
409.791	2217.94
410.014	2240.94
410.238	2200.94
410.461	2227.94
410.685	2189.94
410.908	2175.94
411.132	2133.94
411.355	2067.94
411.578	2089.94
411.802	2165.94
412.025	2095.94
412.249	2117.94
412.472	2118.94
412.695	2079.94
412.919	1999.94
413.142	2001.94
413.365	2008.94
413.589	2050.94
413.812	1992.94
414.035	1959.94
414.258	1977.94
414.482	2033.94
414.705	2053.94
414.928	2012.94
415.151	2009.94
415.374	1970.94
415.597	1938.94
415.821	1949.94
416.044	1955.94
416.267	1925.94
416.49	1915.94
416.713	1923.94
416.936	1942.94
417.159	1938.94
417.382	1916.94
417.605	1863.94
417.828	1926.94
418.051	1937.94
418.274	1924.94
418.497	1895.94
418.72	1979.94
418.943	1945.94
419.166	2072.94
419.389	2251.94
419.611	2179.94
419.834	2085.94
420.057	2011.94
420.28	1977.94
420.503	1869.94
420.726	1913.94
420.948	1885.94
421.171	1935.94
421.394	1932.94
421.617	1908.94
421.839	1907.94
422.062	1943.94
422.285	1890.94
422.507	1958.94
422.73	1977.94
422.953	1959.94
423.175	2007.94
423.398	1975.94
423.621	1984.94
423.843	2021.94
424.066	1994.94
424.288	1960.94
424.511	1982.94
424.733	2003.94
424.956	1936.94
425.178	1939.94
425.401	1964.94
425.623	1952.94
425.846	1875.94
426.068	1925.94
426.291	1871.94
426.513	1837.94
426.735	1831.94
426.958	1826.94
427.18	1783.94
427.402	1790.94
427.625	1818.94
427.847	1761.94
428.069	1771.94
428.292	1796.94
428.514	1746.94
428.736	1753.94
428.958	1742.94
429.181	1743.94
429.403	1718.94
429.625	1719.94
429.847	1703.94
430.069	1732.94
430.292	1741.94
430.514	1725.94
430.736	1732.94
430.958	1744.94
431.18	1735.94
431.402	1736.94
431.624	1741.94
431.846	1743.94
432.068	1752.94
432.29	1777.94
432.512	1778.94
432.734	1789.94
432.956	1766.94
433.178	1781.94
433.4	1802.94
433.622	1757.94
433.844	1809.94
434.066	1843.94
434.287	1840.94
434.509	1891.94
434.731	1965.94
434.953	1979.94
435.175	1963.94
435.397	1985.94
435.618	1882.94
435.84	1831.94
436.062	1819.94
436.284	1804.94
436.505	1745.94
436.727	1788.94
436.949	1768.94
437.17	1742.94
437.392	1741.94
437.614	1759.94
437.835	1670.94
438.057	1725.94
438.278	1665.94
438.5	1659.94
438.721	1693.94
438.943	1668.94
439.165	1655.94
439.386	1699.94
439.608	1685.94
439.829	1708.94
440.05	1704.94
440.272	1753.94
440.493	1735.94
440.715	1749.94
440.936	1804.94
441.158	1799.94
441.379	1864.94
441.6	1948.94
441.822	1916.94
442.043	1925.94
442.264	1880.94
442.486	1835.94
442.707	1892.94
442.928	1846.94
443.149	1868.94
443.371	1830.94
443.592	1869.94
443.813	1912.94
444.034	1943.94
444.255	1995.94
444.476	2037.94
444.698	2135.94
444.919	2175.94
445.14	2273.94
445.361	2054.94
445.582	1971.94
445.803	1904.94
446.024	1863.94
446.245	1814.94
446.466	1801.94
446.687	1714.94
446.908	1725.94
447.129	1675.94
447.35	1664.94
447.571	1685.94
447.792	1607.94
448.013	1641.94
448.234	1611.94
448.455	1613.94
448.675	1616.94
448.896	1567.94
449.117	1559.94
449.338	1549.94
449.559	1558.94
449.779	1556.94
450	1575.94
450.221	1551.94
450.442	1566.94
450.662	1564.94
450.883	1529.94
451.104	1556.94
451.324	1574.94
451.545	1567.94
451.766	1547.94
451.986	1555.94
452.207	1589.94
452.428	1502.94
452.648	1559.94
452.869	1521.94
453.089	1468.94
453.31	1536.94
453.53	1587.94
453.751	1492.94
453.971	1514.94
454.192	1524.94
454.412	1485.94
454.633	1444.94
454.853	1483.94
455.073	1473.94
455.294	1489.94
455.514	1513.94
455.734	1451.94
455.955	1503.94
456.175	1468.94
456.395	1440.94
456.616	1457.94
456.836	1474.94
457.056	1468.94
457.276	1462.94
457.497	1490.94
457.717	1452.94
457.937	1472.94
458.157	1525.94
458.377	1535.94
458.598	1548.94
458.818	1599.94
459.038	1635.94
459.258	1683.94
459.478	1745.94
459.698	1774.94
459.918	1811.94
460.138	1852.94
460.358	1908.94
460.578	1949.94
460.798	1976.94
461.018	1954.94
461.238	1959.94
461.458	1957.94
461.678	1963.94
461.898	2008.94
462.118	2041.94
462.338	2096.94
462.558	2126.94
462.777	2243.94
462.997	2345.94
463.217	2474.94
463.437	2515.94
463.657	2387.94
463.876	2290.94
464.096	2271.94
464.316	2301.94
464.536	2284.94
464.755	2224.94
464.975	2170.94
465.195	2038.94
465.414	1925.94
465.634	1887.94
465.854	1817.94
466.073	1781.94
466.293	1727.94
466.512	1680.94
466.732	1661.94
466.951	1663.94
467.171	1620.94
467.391	1667.94
467.61	1656.94
467.829	1646.94
468.049	1641.94
468.268	1580.94
468.488	1600.94
468.707	1594.94
468.927	1624.94
469.146	1578.94
469.365	1555.94
469.585	1579.94
469.804	1656.94
470.023	1665.94
470.243	1691.94
470.462	1684.94
470.681	1695.94
470.901	1667.94
471.12	1643.94
471.339	1626.94
471.558	1620.94
471.777	1631.94
471.997	1595.94
472.216	1608.94
472.435	1597.94
472.654	1605.94
472.873	1584.94
473.092	1569.94
473.311	1567.94
473.53	1558.94
473.749	1578.94
473.968	1545.94
474.187	1564.94
474.406	1537.94
474.625	1572.94
474.844	1570.94
475.063	1588.94
475.282	1573.94
475.501	1625.94
475.72	1623.94
475.939	1605.94
476.158	1650.94
476.377	1628.94
476.596	1645.94
476.814	1678.94
477.033	1642.94
477.252	1706.94
477.471	1715.94
477.69	1777.94
477.908	1774.94
478.127	1854.94
478.346	1881.94
478.564	1905.94
478.783	1944.94
479.002	1980.94
479.22	1990.94
479.439	1998.94
479.658	1931.94
479.876	1978.94
480.095	2012.94
480.313	2055.94
480.532	2087.94
480.751	2127.94
480.969	2040.94
481.188	2019.94
481.406	1985.94
481.624	1939.94
481.843	1905.94
482.061	1892.94
482.28	1944.94
482.498	1890.94
482.717	1903.94
482.935	1881.94
483.153	1962.94
483.372	1901.94
483.59	1938.94
483.808	1951.94
484.027	1951.94
484.245	2016.94
484.463	1999.94
484.681	2048.94
484.9	2051.94
485.118	2103.94
485.336	2098.94
485.554	2128.94
485.772	2095.94
485.99	2085.94
486.209	2125.94
486.427	2112.94
486.645	2068.94
486.863	2117.94
487.081	2127.94
487.299	2074.94
487.517	2125.94
487.735	2065.94
487.953	2087.94
488.171	2103.94
488.389	2075.94
488.607	2068.94
488.825	2044.94
489.043	1999.94
489.261	1990.94
489.479	2057.94
489.696	2051.94
