Data from NiCl2@0.25M.TitratingCurve.Agarose3%dH2O.NegLispCup.LampEnergy10.LIBS07252019_HRD10591_18-23-47-573.txt Node
Date: Thu Jul 25 18:23:47 EDT 2019
User: cochatt
Spectrometer: HR+D1059
Trigger mode: 1
Integration Time (sec): 1.000000E-1
Scans to average: 1
Electric dark correction enabled: true
Nonlinearity correction enabled: false
Boxcar width: 0
XAxis mode: Wavelengths
Number of Pixels in Spectrum: 2048
>>>>>Begin Spectral Data<<<<<
223.165	-26.75
223.4	-26.75
223.635	-26.75
223.869	-8.75
224.104	-19.75
224.338	-11.75
224.573	-22.75
224.808	-14.75
225.042	0.25
225.277	-6.75
225.511	-8.75
225.746	0.25
225.98	7.25
226.215	19.25
226.449	10.25
226.683	13.25
226.918	25.25
227.152	44.25
227.387	25.25
227.621	37.25
227.856	50.25
228.09	37.25
228.324	52.25
228.559	68.25
228.793	71.25
229.027	129.25
229.262	151.25
229.496	163.25
229.73	149.25
229.964	166.25
230.199	182.25
230.433	171.25
230.667	176.25
230.901	181.25
231.136	189.25
231.37	182.25
231.604	185.25
231.838	184.25
232.072	197.25
232.306	206.25
232.541	182.25
232.775	202.25
233.009	205.25
233.243	213.25
233.477	198.25
233.711	201.25
233.945	195.25
234.179	191.25
234.413	186.25
234.647	199.25
234.881	201.25
235.115	196.25
235.349	206.25
235.583	199.25
235.817	214.25
236.051	223.25
236.285	188.25
236.519	193.25
236.753	204.25
236.987	215.25
237.221	220.25
237.455	229.25
237.689	234.25
237.922	219.25
238.156	230.25
238.39	239.25
238.624	235.25
238.858	232.25
239.091	238.25
239.325	250.25
239.559	239.25
239.793	246.25
240.027	245.25
240.26	236.25
240.494	268.25
240.728	252.25
240.961	245.25
241.195	255.25
241.429	277.25
241.662	245.25
241.896	270.25
242.13	296.25
242.363	267.25
242.597	269.25
242.83	277.25
243.064	296.25
243.298	305.25
243.531	283.25
243.765	292.25
243.998	305.25
244.232	296.25
244.465	301.25
244.699	321.25
244.932	326.25
245.166	314.25
245.399	308.25
245.633	316.25
245.866	318.25
246.099	342.25
246.333	334.25
246.566	323.25
246.8	327.25
247.033	308.25
247.266	316.25
247.5	318.25
247.733	327.25
247.966	344.25
248.2	343.25
248.433	334.25
248.666	327.25
248.899	335.25
249.133	356.25
249.366	349.25
249.599	374.25
249.832	364.25
250.066	364.25
250.299	365.25
250.532	376.25
250.765	371.25
250.998	377.25
251.231	377.25
251.465	371.25
251.698	398.25
251.931	379.25
252.164	400.25
252.397	389.25
252.63	410.25
252.863	391.25
253.096	399.25
253.329	389.25
253.562	399.25
253.795	418.25
254.028	421.25
254.261	419.25
254.494	427.25
254.727	408.25
254.96	414.25
255.193	403.25
255.426	419.25
255.659	424.25
255.892	419.25
256.124	422.25
256.357	423.25
256.59	413.25
256.823	424.25
257.056	430.25
257.289	446.25
257.521	443.25
257.754	444.25
257.987	443.25
258.22	476.25
258.452	466.25
258.685	451.25
258.918	450.25
259.151	459.25
259.383	463.25
259.616	466.25
259.849	477.25
260.081	473.25
260.314	469.25
260.547	471.25
260.779	479.25
261.012	476.25
261.244	475.25
261.477	461.25
261.71	482.25
261.942	501.25
262.175	501.25
262.407	498.25
262.64	470.25
262.872	506.25
263.105	521.25
263.337	496.25
263.57	507.25
263.802	523.25
264.035	501.25
264.267	509.25
264.499	503.25
264.732	509.25
264.964	530.25
265.197	531.25
265.429	531.25
265.661	524.25
265.894	549.25
266.126	514.25
266.358	523.25
266.591	546.25
266.823	533.25
267.055	556.25
267.287	553.25
267.52	571.25
267.752	541.25
267.984	562.25
268.216	571.25
268.448	553.25
268.681	573.25
268.913	545.25
269.145	557.25
269.377	587.25
269.609	564.25
269.841	567.25
270.073	566.25
270.306	582.25
270.538	569.25
270.77	566.25
271.002	590.25
271.234	568.25
271.466	609.25
271.698	580.25
271.93	604.25
272.162	592.25
272.394	585.25
272.626	596.25
272.858	610.25
273.09	600.25
273.322	643.25
273.553	602.25
273.785	606.25
274.017	630.25
274.249	636.25
274.481	639.25
274.713	637.25
274.945	646.25
275.176	644.25
275.408	635.25
275.64	618.25
275.872	633.25
276.104	653.25
276.335	638.25
276.567	628.25
276.799	665.25
277.031	643.25
277.262	661.25
277.494	653.25
277.726	662.25
277.957	656.25
278.189	661.25
278.421	675.25
278.652	683.25
278.884	713.25
279.115	671.25
279.347	687.25
279.579	690.25
279.81	689.25
280.042	692.25
280.273	671.25
280.505	700.25
280.736	674.25
280.968	707.25
281.199	689.25
281.431	727.25
281.662	737.25
281.894	715.25
282.125	746.25
282.356	723.25
282.588	757.25
282.819	730.25
283.051	750.25
283.282	739.25
283.513	728.25
283.745	738.25
283.976	747.25
284.207	742.25
284.439	745.25
284.67	761.25
284.901	758.25
285.132	772.25
285.364	747.25
285.595	782.25
285.826	767.25
286.057	755.25
286.288	769.25
286.52	768.25
286.751	795.25
286.982	783.25
287.213	782.25
287.444	774.25
287.675	805.25
287.906	804.25
288.138	785.25
288.369	797.25
288.6	757.25
288.831	796.25
289.062	830.25
289.293	814.25
289.524	808.25
289.755	828.25
289.986	811.25
290.217	797.25
290.448	839.25
290.679	810.25
290.91	808.25
291.141	820.25
291.371	827.25
291.602	819.25
291.833	812.25
292.064	812.25
292.295	813.25
292.526	825.25
292.757	811.25
292.987	822.25
293.218	821.25
293.449	826.25
293.68	826.25
293.91	826.25
294.141	823.25
294.372	799.25
294.603	855.25
294.833	837.25
295.064	805.25
295.295	823.25
295.525	823.25
295.756	835.25
295.987	840.25
296.217	821.25
296.448	858.25
296.679	855.25
296.909	858.25
297.14	835.25
297.37	888.25
297.601	897.25
297.831	870.25
298.062	861.25
298.292	873.25
298.523	930.25
298.753	881.25
298.984	915.25
299.214	874.25
299.445	887.25
299.675	883.25
299.905	891.25
300.136	927.25
300.366	909.25
300.597	916.25
300.827	905.25
301.057	930.25
301.288	939.25
301.518	966.25
301.748	906.25
301.979	939.25
302.209	967.25
302.439	935.25
302.669	943.25
302.9	900.25
303.13	926.25
303.36	929.25
303.59	922.25
303.82	915.25
304.051	959.25
304.281	941.25
304.511	916.25
304.741	935.25
304.971	946.25
305.201	941.25
305.431	945.25
305.661	927.25
305.891	934.25
306.121	916.25
306.352	905.25
306.582	907.25
306.812	902.25
307.042	897.25
307.272	920.25
307.502	896.25
307.731	906.25
307.961	910.25
308.191	930.25
308.421	873.25
308.651	908.25
308.881	903.25
309.111	897.25
309.341	914.25
309.571	927.25
309.8	947.25
310.03	912.25
310.26	941.25
310.49	919.25
310.72	942.25
310.949	919.25
311.179	932.25
311.409	950.25
311.639	925.25
311.868	940.25
312.098	945.25
312.328	956.25
312.557	993.25
312.787	974.25
313.017	939.25
313.246	955.25
313.476	966.25
313.706	1004.25
313.935	1001.25
314.165	971.25
314.394	1009.25
314.624	1002.25
314.853	987.25
315.083	969.25
315.312	994.25
315.542	1028.25
315.771	975.25
316.001	986.25
316.23	998.25
316.46	983.25
316.689	963.25
316.919	983.25
317.148	957.25
317.377	958.25
317.607	956.25
317.836	984.25
318.065	986.25
318.295	970.25
318.524	945.25
318.753	967.25
318.983	960.25
319.212	954.25
319.441	1001.25
319.67	966.25
319.9	987.25
320.129	970.25
320.358	966.25
320.587	961.25
320.816	955.25
321.046	964.25
321.275	982.25
321.504	966.25
321.733	983.25
321.962	961.25
322.191	981.25
322.42	1001.25
322.649	990.25
322.878	983.25
323.108	983.25
323.337	1002.25
323.566	1007.25
323.795	1004.25
324.024	1009.25
324.253	989.25
324.482	998.25
324.71	1010.25
324.939	1007.25
325.168	1038.25
325.397	1030.25
325.626	1028.25
325.855	1031.25
326.084	1069.25
326.313	1065.25
326.542	1043.25
326.77	1084.25
326.999	1067.25
327.228	1055.25
327.457	1048.25
327.686	1051.25
327.914	1083.25
328.143	1055.25
328.372	1072.25
328.6	1073.25
328.829	1074.25
329.058	1044.25
329.287	1053.25
329.515	1055.25
329.744	1063.25
329.972	1089.25
330.201	1079.25
330.43	1084.25
330.658	1092.25
330.887	1109.25
331.115	1112.25
331.344	1131.25
331.572	1095.25
331.801	1174.25
332.03	1178.25
332.258	1181.25
332.486	1229.25
332.715	1236.25
332.943	1265.25
333.172	1328.25
333.4	1387.25
333.629	1400.25
333.857	1441.25
334.085	1431.25
334.314	1422.25
334.542	1373.25
334.771	1378.25
334.999	1397.25
335.227	1373.25
335.455	1340.25
335.684	1348.25
335.912	1347.25
336.14	1314.25
336.369	1324.25
336.597	1298.25
336.825	1295.25
337.053	1277.25
337.281	1273.25
337.51	1230.25
337.738	1243.25
337.966	1222.25
338.194	1231.25
338.422	1181.25
338.65	1175.25
338.878	1156.25
339.106	1167.25
339.334	1181.25
339.562	1187.25
339.79	1155.25
340.018	1149.25
340.246	1124.25
340.474	1116.25
340.702	1093.25
340.93	1105.25
341.158	1110.25
341.386	1113.25
341.614	1161.25
341.842	1181.25
342.07	1098.25
342.298	1077.25
342.526	1124.25
342.754	1133.25
342.981	1113.25
343.209	1122.25
343.437	1204.25
343.665	1280.25
343.893	1323.25
344.12	1364.25
344.348	1334.25
344.576	1305.25
344.804	1260.25
345.031	1175.25
345.259	1153.25
345.487	1166.25
345.714	1149.25
345.942	1113.25
346.17	1123.25
346.397	1136.25
346.625	1109.25
346.853	1062.25
347.08	1043.25
347.308	1092.25
347.535	1095.25
347.763	1078.25
347.99	1087.25
348.218	1089.25
348.445	1063.25
348.673	1066.25
348.9	1057.25
349.128	1094.25
349.355	1063.25
349.583	1086.25
349.81	1061.25
350.037	1023.25
350.265	1046.25
350.492	1040.25
350.72	1046.25
350.947	1039.25
351.174	1060.25
351.402	1051.25
351.629	1047.25
351.856	1077.25
352.083	1027.25
352.311	1051.25
352.538	1066.25
352.765	1091.25
352.992	1027.25
353.22	1016.25
353.447	1007.25
353.674	1000.25
353.901	1002.25
354.128	1034.25
354.355	1047.25
354.583	1039.25
354.81	994.25
355.037	1027.25
355.264	1030.25
355.491	1032.25
355.718	1033.25
355.945	1037.25
356.172	1031.25
356.399	1049.25
356.626	1049.25
356.853	1078.25
357.08	1023.25
357.307	1022.25
357.534	1043.25
357.761	1023.25
357.988	1068.25
358.215	1022.25
358.441	1048.25
358.668	1002.25
358.895	1013.25
359.122	1033.25
359.349	1044.25
359.576	1031.25
359.802	1019.25
360.029	1004.25
360.256	1011.25
360.483	1005.25
360.709	1027.25
360.936	1049.25
361.163	1064.25
361.39	1030.25
361.616	1028.25
361.843	1052.25
362.07	1058.25
362.296	1068.25
362.523	1030.25
362.749	1050.25
362.976	1019.25
363.203	991.25
363.429	1026.25
363.656	1035.25
363.882	1025.25
364.109	1035.25
364.335	1042.25
364.562	1023.25
364.788	1014.25
365.015	1028.25
365.241	1034.25
365.468	1039.25
365.694	1031.25
365.92	1004.25
366.147	1002.25
366.373	1012.25
366.599	1031.25
366.826	1048.25
367.052	1007.25
367.278	1041.25
367.505	995.25
367.731	1022.25
367.957	1006.25
368.184	1013.25
368.41	1049.25
368.636	1067.25
368.862	1055.25
369.089	1065.25
369.315	1042.25
369.541	1066.25
369.767	1075.25
369.993	1069.25
370.219	1045.25
370.445	1076.25
370.672	1122.25
370.898	1077.25
371.124	1112.25
371.35	1107.25
371.576	1115.25
371.802	1109.25
372.028	1115.25
372.254	1092.25
372.48	1134.25
372.706	1125.25
372.932	1175.25
373.158	1146.25
373.384	1128.25
373.61	1123.25
373.835	1153.25
374.061	1127.25
374.287	1131.25
374.513	1157.25
374.739	1187.25
374.965	1213.25
375.191	1267.25
375.416	1217.25
375.642	1217.25
375.868	1208.25
376.094	1185.25
376.319	1163.25
376.545	1111.25
376.771	1146.25
376.997	1119.25
377.222	1107.25
377.448	1111.25
377.674	1149.25
377.899	1145.25
378.125	1103.25
378.35	1100.25
378.576	1089.25
378.802	1093.25
379.027	1104.25
379.253	1081.25
379.478	1091.25
379.704	1103.25
379.929	1137.25
380.155	1125.25
380.38	1119.25
380.606	1101.25
380.831	1123.25
381.057	1119.25
381.282	1115.25
381.507	1119.25
381.733	1129.25
381.958	1140.25
382.184	1166.25
382.409	1109.25
382.634	1141.25
382.86	1152.25
383.085	1189.25
383.31	1184.25
383.535	1211.25
383.761	1199.25
383.986	1225.25
384.211	1234.25
384.436	1259.25
384.662	1307.25
384.887	1305.25
385.112	1310.25
385.337	1371.25
385.562	1320.25
385.787	1337.25
386.013	1353.25
386.238	1366.25
386.463	1376.25
386.688	1393.25
386.913	1363.25
387.138	1352.25
387.363	1372.25
387.588	1342.25
387.813	1321.25
388.038	1351.25
388.263	1372.25
388.488	1369.25
388.713	1344.25
388.938	1352.25
389.163	1364.25
389.387	1332.25
389.612	1304.25
389.837	1323.25
390.062	1336.25
390.287	1335.25
390.512	1347.25
390.736	1355.25
390.961	1394.25
391.186	1389.25
391.411	1431.25
391.636	1462.25
391.86	1466.25
392.085	1507.25
392.31	1502.25
392.534	1504.25
392.759	1485.25
392.984	1472.25
393.208	1428.25
393.433	1449.25
393.658	1402.25
393.882	1429.25
394.107	1451.25
394.331	1450.25
394.556	1460.25
394.78	1481.25
395.005	1478.25
395.229	1468.25
395.454	1452.25
395.678	1510.25
395.903	1484.25
396.127	1511.25
396.352	1499.25
396.576	1415.25
396.801	1423.25
397.025	1484.25
397.249	1491.25
397.474	1523.25
397.698	1541.25
397.922	1594.25
398.147	1533.25
398.371	1607.25
398.595	1675.25
398.82	1723.25
399.044	1803.25
399.268	1987.25
399.492	2282.25
399.717	2489.25
399.941	2500.25
400.165	2324.25
400.389	2163.25
400.613	1987.25
400.837	1860.25
401.062	1804.25
401.286	1770.25
401.51	1701.25
401.734	1766.25
401.958	1779.25
402.182	1755.25
402.406	1798.25
402.63	1797.25
402.854	1816.25
403.078	1813.25
403.302	1849.25
403.526	1929.25
403.75	1910.25
403.974	1950.25
404.198	1929.25
404.422	1929.25
404.645	1909.25
404.869	1903.25
405.093	1969.25
405.317	1873.25
405.541	1877.25
405.765	1878.25
405.988	1863.25
406.212	1889.25
406.436	1916.25
406.66	1942.25
406.883	1940.25
407.107	2041.25
407.331	2118.25
407.555	2251.25
407.778	2190.25
408.002	2160.25
408.226	2090.25
408.449	2063.25
408.673	1981.25
408.896	1920.25
409.12	1969.25
409.344	1980.25
409.567	1931.25
409.791	1943.25
410.014	1893.25
410.238	1882.25
410.461	1885.25
410.685	1818.25
410.908	1825.25
411.132	1829.25
411.355	1778.25
411.578	1778.25
411.802	1748.25
412.025	1783.25
412.249	1805.25
412.472	1829.25
412.695	1768.25
412.919	1740.25
413.142	1722.25
413.365	1720.25
413.589	1734.25
413.812	1713.25
414.035	1711.25
414.258	1721.25
414.482	1698.25
414.705	1741.25
414.928	1773.25
415.151	1710.25
415.374	1717.25
415.597	1669.25
415.821	1653.25
416.044	1685.25
416.267	1637.25
416.49	1653.25
416.713	1669.25
416.936	1663.25
417.159	1662.25
417.382	1651.25
417.605	1642.25
417.828	1670.25
418.051	1660.25
418.274	1703.25
418.497	1675.25
418.72	1739.25
418.943	1747.25
419.166	1834.25
419.389	1963.25
419.611	1954.25
419.834	1856.25
420.057	1782.25
420.28	1730.25
420.503	1663.25
420.726	1655.25
420.948	1630.25
421.171	1681.25
421.394	1674.25
421.617	1669.25
421.839	1661.25
422.062	1662.25
422.285	1644.25
422.507	1693.25
422.73	1678.25
422.953	1684.25
423.175	1725.25
423.398	1737.25
423.621	1712.25
423.843	1753.25
424.066	1724.25
424.288	1727.25
424.511	1716.25
424.733	1733.25
424.956	1687.25
425.178	1683.25
425.401	1676.25
425.623	1678.25
425.846	1612.25
426.068	1658.25
426.291	1603.25
426.513	1612.25
426.735	1617.25
426.958	1592.25
427.18	1528.25
427.402	1565.25
427.625	1545.25
427.847	1491.25
428.069	1506.25
428.292	1541.25
428.514	1517.25
428.736	1513.25
428.958	1508.25
429.181	1478.25
429.403	1432.25
429.625	1457.25
429.847	1431.25
430.069	1432.25
430.292	1457.25
430.514	1457.25
430.736	1461.25
430.958	1459.25
431.18	1448.25
431.402	1452.25
431.624	1452.25
431.846	1483.25
432.068	1487.25
432.29	1542.25
432.512	1462.25
432.734	1458.25
432.956	1467.25
433.178	1467.25
433.4	1486.25
433.622	1478.25
433.844	1509.25
434.066	1520.25
434.287	1521.25
434.509	1553.25
434.731	1642.25
434.953	1633.25
435.175	1666.25
435.397	1635.25
435.618	1567.25
435.84	1541.25
436.062	1491.25
436.284	1492.25
436.505	1449.25
436.727	1432.25
436.949	1453.25
437.17	1490.25
437.392	1458.25
437.614	1462.25
437.835	1405.25
438.057	1395.25
438.278	1414.25
438.5	1412.25
438.721	1444.25
438.943	1436.25
439.165	1406.25
439.386	1442.25
439.608	1476.25
439.829	1447.25
440.05	1504.25
440.272	1512.25
440.493	1471.25
440.715	1487.25
440.936	1508.25
441.158	1562.25
441.379	1572.25
441.6	1642.25
441.822	1632.25
442.043	1662.25
442.264	1638.25
442.486	1608.25
442.707	1615.25
442.928	1593.25
443.149	1618.25
443.371	1596.25
443.592	1624.25
443.813	1618.25
444.034	1661.25
444.255	1727.25
444.476	1801.25
444.698	1849.25
444.919	1918.25
445.14	1981.25
445.361	1854.25
445.582	1779.25
445.803	1657.25
446.024	1621.25
446.245	1546.25
446.466	1551.25
446.687	1510.25
446.908	1493.25
447.129	1424.25
447.35	1429.25
447.571	1434.25
447.792	1387.25
448.013	1387.25
448.234	1373.25
448.455	1357.25
448.675	1364.25
448.896	1378.25
449.117	1318.25
449.338	1340.25
449.559	1300.25
449.779	1312.25
450	1334.25
450.221	1331.25
450.442	1357.25
450.662	1341.25
450.883	1349.25
451.104	1394.25
451.324	1349.25
451.545	1345.25
451.766	1379.25
451.986	1331.25
452.207	1308.25
452.428	1333.25
452.648	1333.25
452.869	1302.25
453.089	1307.25
453.31	1334.25
453.53	1291.25
453.751	1313.25
453.971	1290.25
454.192	1290.25
454.412	1252.25
454.633	1286.25
454.853	1254.25
455.073	1279.25
455.294	1281.25
455.514	1239.25
455.734	1226.25
455.955	1226.25
456.175	1225.25
456.395	1222.25
456.616	1206.25
456.836	1259.25
457.056	1224.25
457.276	1246.25
457.497	1250.25
457.717	1260.25
457.937	1259.25
458.157	1293.25
458.377	1322.25
458.598	1308.25
458.818	1377.25
459.038	1427.25
459.258	1422.25
459.478	1512.25
459.698	1537.25
459.918	1566.25
460.138	1656.25
460.358	1715.25
460.578	1724.25
460.798	1766.25
461.018	1783.25
461.238	1730.25
461.458	1736.25
461.678	1732.25
461.898	1783.25
462.118	1765.25
462.338	1867.25
462.558	1964.25
462.777	1982.25
462.997	2156.25
463.217	2238.25
463.437	2277.25
463.657	2155.25
463.876	2049.25
464.096	2006.25
464.316	2011.25
464.536	2025.25
464.755	1967.25
464.975	1900.25
465.195	1814.25
465.414	1722.25
465.634	1606.25
465.854	1587.25
466.073	1477.25
466.293	1493.25
466.512	1437.25
466.732	1421.25
466.951	1438.25
467.171	1405.25
467.391	1380.25
467.61	1401.25
467.829	1393.25
468.049	1375.25
468.268	1357.25
468.488	1354.25
468.707	1337.25
468.927	1374.25
469.146	1337.25
469.365	1356.25
469.585	1354.25
469.804	1419.25
470.023	1430.25
470.243	1428.25
470.462	1466.25
470.681	1470.25
470.901	1473.25
471.12	1436.25
471.339	1430.25
471.558	1388.25
471.777	1405.25
471.997	1375.25
472.216	1389.25
472.435	1370.25
472.654	1339.25
472.873	1329.25
473.092	1298.25
473.311	1309.25
473.53	1316.25
473.749	1322.25
473.968	1320.25
474.187	1313.25
474.406	1301.25
474.625	1308.25
474.844	1288.25
475.063	1313.25
475.282	1343.25
475.501	1340.25
475.72	1355.25
475.939	1378.25
476.158	1415.25
476.377	1368.25
476.596	1381.25
476.814	1393.25
477.033	1393.25
477.252	1437.25
477.471	1468.25
477.69	1536.25
477.908	1535.25
478.127	1574.25
478.346	1565.25
478.564	1627.25
478.783	1639.25
479.002	1686.25
479.22	1705.25
479.439	1689.25
479.658	1631.25
479.876	1662.25
480.095	1705.25
480.313	1740.25
480.532	1787.25
480.751	1749.25
480.969	1699.25
481.188	1660.25
481.406	1643.25
481.624	1586.25
481.843	1543.25
482.061	1546.25
482.28	1549.25
482.498	1517.25
482.717	1505.25
482.935	1544.25
483.153	1523.25
483.372	1521.25
483.59	1502.25
483.808	1511.25
484.027	1518.25
484.245	1549.25
484.463	1546.25
484.681	1589.25
484.9	1559.25
485.118	1564.25
485.336	1613.25
485.554	1615.25
485.772	1580.25
485.99	1591.25
486.209	1637.25
486.427	1596.25
486.645	1593.25
486.863	1598.25
487.081	1600.25
487.299	1582.25
487.517	1599.25
487.735	1541.25
487.953	1572.25
488.171	1590.25
488.389	1557.25
488.607	1570.25
488.825	1566.25
489.043	1575.25
489.261	1605.25
489.479	1597.25
489.696	1608.25
489.914	1567.25
490.132	1554.25
490.35	1601.25
490.568	1625.25
490.786	1588.25
491.003	1590.25
491.221	1605.25
