Data from NiCl2@0.0625M.TitratingCurve.Agarose3%dH2O.NegLispCup.LampEnergy10.LIBS07252019_HRD10591_18-33-32-576.txt Node
Date: Thu Jul 25 18:33:32 EDT 2019
User: cochatt
Spectrometer: HR+D1059
Trigger mode: 1
Integration Time (sec): 1.000000E-1
Scans to average: 1
Electric dark correction enabled: true
Nonlinearity correction enabled: false
Boxcar width: 0
XAxis mode: Wavelengths
Number of Pixels in Spectrum: 2048
>>>>>Begin Spectral Data<<<<<
223.165	-16.69
223.4	-16.69
223.635	-16.69
223.869	-19.69
224.104	-14.69
224.338	-26.69
224.573	-16.69
224.808	-11.69
225.042	-3.69
225.277	-6.69
225.511	4.31
225.746	7.31
225.98	12.31
226.215	17.31
226.449	7.31
226.683	15.31
226.918	27.31
227.152	25.31
227.387	32.31
227.621	46.31
227.856	55.31
228.09	59.31
228.324	68.31
228.559	50.31
228.793	88.31
229.027	144.31
229.262	149.31
229.496	155.31
229.73	180.31
229.964	165.31
230.199	191.31
230.433	202.31
230.667	204.31
230.901	196.31
231.136	200.31
231.37	207.31
231.604	190.31
231.838	216.31
232.072	209.31
232.306	220.31
232.541	218.31
232.775	206.31
233.009	200.31
233.243	219.31
233.477	208.31
233.711	198.31
233.945	207.31
234.179	218.31
234.413	217.31
234.647	216.31
234.881	215.31
235.115	229.31
235.349	219.31
235.583	203.31
235.817	228.31
236.051	216.31
236.285	232.31
236.519	236.31
236.753	222.31
236.987	236.31
237.221	225.31
237.455	240.31
237.689	259.31
237.922	241.31
238.156	247.31
238.39	227.31
238.624	255.31
238.858	253.31
239.091	271.31
239.325	266.31
239.559	264.31
239.793	286.31
240.027	279.31
240.26	261.31
240.494	268.31
240.728	271.31
240.961	297.31
241.195	299.31
241.429	289.31
241.662	283.31
241.896	300.31
242.13	311.31
242.363	300.31
242.597	318.31
242.83	319.31
243.064	319.31
243.298	315.31
243.531	308.31
243.765	335.31
243.998	323.31
244.232	329.31
244.465	335.31
244.699	344.31
244.932	325.31
245.166	334.31
245.399	363.31
245.633	360.31
245.866	355.31
246.099	360.31
246.333	349.31
246.566	357.31
246.8	365.31
247.033	329.31
247.266	351.31
247.5	371.31
247.733	371.31
247.966	395.31
248.2	390.31
248.433	391.31
248.666	400.31
248.899	407.31
249.133	393.31
249.366	384.31
249.599	406.31
249.832	394.31
250.066	407.31
250.299	400.31
250.532	407.31
250.765	417.31
250.998	413.31
251.231	425.31
251.465	447.31
251.698	429.31
251.931	442.31
252.164	444.31
252.397	443.31
252.63	464.31
252.863	441.31
253.096	456.31
253.329	454.31
253.562	456.31
253.795	451.31
254.028	459.31
254.261	449.31
254.494	461.31
254.727	447.31
254.96	456.31
255.193	484.31
255.426	473.31
255.659	449.31
255.892	472.31
256.124	462.31
256.357	484.31
256.59	487.31
256.823	478.31
257.056	481.31
257.289	507.31
257.521	496.31
257.754	504.31
257.987	497.31
258.22	508.31
258.452	507.31
258.685	517.31
258.918	537.31
259.151	515.31
259.383	517.31
259.616	503.31
259.849	519.31
260.081	525.31
260.314	517.31
260.547	526.31
260.779	525.31
261.012	556.31
261.244	538.31
261.477	553.31
261.71	573.31
261.942	551.31
262.175	551.31
262.407	554.31
262.64	544.31
262.872	577.31
263.105	559.31
263.337	567.31
263.57	567.31
263.802	586.31
264.035	589.31
264.267	588.31
264.499	569.31
264.732	591.31
264.964	597.31
265.197	606.31
265.429	580.31
265.661	595.31
265.894	601.31
266.126	600.31
266.358	604.31
266.591	629.31
266.823	621.31
267.055	609.31
267.287	618.31
267.52	620.31
267.752	611.31
267.984	634.31
268.216	613.31
268.448	635.31
268.681	631.31
268.913	622.31
269.145	663.31
269.377	654.31
269.609	691.31
269.841	633.31
270.073	662.31
270.306	657.31
270.538	643.31
270.77	661.31
271.002	657.31
271.234	678.31
271.466	677.31
271.698	683.31
271.93	659.31
272.162	661.31
272.394	667.31
272.626	669.31
272.858	683.31
273.09	696.31
273.322	693.31
273.553	659.31
273.785	713.31
274.017	675.31
274.249	707.31
274.481	720.31
274.713	701.31
274.945	701.31
275.176	724.31
275.408	711.31
275.64	727.31
275.872	723.31
276.104	711.31
276.335	743.31
276.567	712.31
276.799	713.31
277.031	737.31
277.262	723.31
277.494	724.31
277.726	757.31
277.957	741.31
278.189	750.31
278.421	721.31
278.652	760.31
278.884	752.31
279.115	763.31
279.347	774.31
279.579	765.31
279.81	751.31
280.042	778.31
280.273	769.31
280.505	783.31
280.736	757.31
280.968	795.31
281.199	778.31
281.431	803.31
281.662	810.31
281.894	796.31
282.125	807.31
282.356	821.31
282.588	822.31
282.819	795.31
283.051	800.31
283.282	813.31
283.513	845.31
283.745	835.31
283.976	839.31
284.207	839.31
284.439	829.31
284.67	855.31
284.901	861.31
285.132	856.31
285.364	857.31
285.595	853.31
285.826	851.31
286.057	888.31
286.288	858.31
286.52	853.31
286.751	869.31
286.982	854.31
287.213	874.31
287.444	880.31
287.675	866.31
287.906	925.31
288.138	897.31
288.369	906.31
288.6	897.31
288.831	901.31
289.062	904.31
289.293	878.31
289.524	896.31
289.755	905.31
289.986	892.31
290.217	903.31
290.448	927.31
290.679	918.31
290.91	908.31
291.141	903.31
291.371	905.31
291.602	935.31
291.833	925.31
292.064	899.31
292.295	919.31
292.526	934.31
292.757	931.31
292.987	940.31
293.218	908.31
293.449	933.31
293.68	912.31
293.91	886.31
294.141	923.31
294.372	906.31
294.603	909.31
294.833	929.31
295.064	936.31
295.295	922.31
295.525	897.31
295.756	956.31
295.987	953.31
296.217	955.31
296.448	951.31
296.679	935.31
296.909	970.31
297.14	935.31
297.37	985.31
297.601	991.31
297.831	982.31
298.062	976.31
298.292	994.31
298.523	1000.31
298.753	999.31
298.984	994.31
299.214	1005.31
299.445	992.31
299.675	996.31
299.905	1012.31
300.136	1017.31
300.366	1039.31
300.597	993.31
300.827	1029.31
301.057	1031.31
301.288	1043.31
301.518	1058.31
301.748	1063.31
301.979	1097.31
302.209	1064.31
302.439	1069.31
302.669	1039.31
302.9	1046.31
303.13	1052.31
303.36	1097.31
303.59	1053.31
303.82	1014.31
304.051	1075.31
304.281	1035.31
304.511	1058.31
304.741	1043.31
304.971	1035.31
305.201	1039.31
305.431	1065.31
305.661	1054.31
305.891	1031.31
306.121	1046.31
306.352	1043.31
306.582	1012.31
306.812	990.31
307.042	1023.31
307.272	1032.31
307.502	1029.31
307.731	1027.31
307.961	1054.31
308.191	1023.31
308.421	1043.31
308.651	1029.31
308.881	1022.31
309.111	1033.31
309.341	1011.31
309.571	1034.31
309.8	1044.31
310.03	1052.31
310.26	1027.31
310.49	1011.31
310.72	1051.31
310.949	1064.31
311.179	1069.31
311.409	1052.31
311.639	1030.31
311.868	1070.31
312.098	1086.31
312.328	1082.31
312.557	1113.31
312.787	1083.31
313.017	1093.31
313.246	1083.31
313.476	1116.31
313.706	1104.31
313.935	1115.31
314.165	1116.31
314.394	1101.31
314.624	1128.31
314.853	1122.31
315.083	1135.31
315.312	1125.31
315.542	1136.31
315.771	1111.31
316.001	1130.31
316.23	1132.31
316.46	1120.31
316.689	1110.31
316.919	1097.31
317.148	1083.31
317.377	1100.31
317.607	1106.31
317.836	1104.31
318.065	1075.31
318.295	1105.31
318.524	1110.31
318.753	1105.31
318.983	1097.31
319.212	1073.31
319.441	1068.31
319.67	1125.31
319.9	1081.31
320.129	1109.31
320.358	1141.31
320.587	1136.31
320.816	1137.31
321.046	1129.31
321.275	1081.31
321.504	1125.31
321.733	1140.31
321.962	1115.31
322.191	1121.31
322.42	1144.31
322.649	1126.31
322.878	1135.31
323.108	1140.31
323.337	1117.31
323.566	1158.31
323.795	1143.31
324.024	1139.31
324.253	1148.31
324.482	1168.31
324.71	1136.31
324.939	1173.31
325.168	1173.31
325.397	1155.31
325.626	1177.31
325.855	1205.31
326.084	1241.31
326.313	1219.31
326.542	1228.31
326.77	1224.31
326.999	1217.31
327.228	1192.31
327.457	1223.31
327.686	1201.31
327.914	1203.31
328.143	1206.31
328.372	1222.31
328.6	1197.31
328.829	1203.31
329.058	1215.31
329.287	1222.31
329.515	1218.31
329.744	1222.31
329.972	1237.31
330.201	1228.31
330.43	1206.31
330.658	1231.31
330.887	1268.31
331.115	1267.31
331.344	1272.31
331.572	1269.31
331.801	1286.31
332.03	1347.31
332.258	1312.31
332.486	1383.31
332.715	1399.31
332.943	1420.31
333.172	1471.31
333.4	1510.31
333.629	1579.31
333.857	1566.31
334.085	1565.31
334.314	1590.31
334.542	1553.31
334.771	1507.31
334.999	1510.31
335.227	1528.31
335.455	1528.31
335.684	1535.31
335.912	1511.31
336.14	1464.31
336.369	1471.31
336.597	1475.31
336.825	1441.31
337.053	1440.31
337.281	1427.31
337.51	1443.31
337.738	1412.31
337.966	1366.31
338.194	1345.31
338.422	1334.31
338.65	1352.31
338.878	1326.31
339.106	1350.31
339.334	1332.31
339.562	1318.31
339.79	1281.31
340.018	1303.31
340.246	1260.31
340.474	1272.31
340.702	1285.31
340.93	1307.31
341.158	1301.31
341.386	1301.31
341.614	1286.31
341.842	1255.31
342.07	1262.31
342.298	1269.31
342.526	1254.31
342.754	1281.31
342.981	1287.31
343.209	1292.31
343.437	1329.31
343.665	1409.31
343.893	1445.31
344.12	1479.31
344.348	1490.31
344.576	1421.31
344.804	1375.31
345.031	1337.31
345.259	1342.31
345.487	1310.31
345.714	1277.31
345.942	1283.31
346.17	1256.31
346.397	1241.31
346.625	1220.31
346.853	1217.31
347.08	1237.31
347.308	1223.31
347.535	1269.31
347.763	1231.31
347.99	1239.31
348.218	1238.31
348.445	1231.31
348.673	1199.31
348.9	1234.31
349.128	1221.31
349.355	1213.31
349.583	1195.31
349.81	1191.31
350.037	1188.31
350.265	1205.31
350.492	1206.31
350.72	1196.31
350.947	1167.31
351.174	1167.31
351.402	1175.31
351.629	1184.31
351.856	1187.31
352.083	1181.31
352.311	1174.31
352.538	1153.31
352.765	1137.31
352.992	1163.31
353.22	1132.31
353.447	1171.31
353.674	1153.31
353.901	1159.31
354.128	1143.31
354.355	1169.31
354.583	1164.31
354.81	1165.31
355.037	1207.31
355.264	1179.31
355.491	1171.31
355.718	1193.31
355.945	1180.31
356.172	1194.31
356.399	1187.31
356.626	1203.31
356.853	1224.31
357.08	1181.31
357.307	1181.31
357.534	1167.31
357.761	1175.31
357.988	1193.31
358.215	1197.31
358.441	1214.31
358.668	1175.31
358.895	1196.31
359.122	1176.31
359.349	1193.31
359.576	1195.31
359.802	1193.31
360.029	1175.31
360.256	1179.31
360.483	1154.31
360.709	1179.31
360.936	1196.31
361.163	1194.31
361.39	1162.31
361.616	1192.31
361.843	1189.31
362.07	1192.31
362.296	1188.31
362.523	1186.31
362.749	1207.31
362.976	1187.31
363.203	1191.31
363.429	1163.31
363.656	1175.31
363.882	1184.31
364.109	1170.31
364.335	1178.31
364.562	1177.31
364.788	1207.31
365.015	1192.31
365.241	1175.31
365.468	1193.31
365.694	1165.31
365.92	1184.31
366.147	1193.31
366.373	1199.31
366.599	1169.31
366.826	1177.31
367.052	1170.31
367.278	1188.31
367.505	1183.31
367.731	1213.31
367.957	1180.31
368.184	1204.31
368.41	1248.31
368.636	1238.31
368.862	1198.31
369.089	1201.31
369.315	1232.31
369.541	1222.31
369.767	1231.31
369.993	1237.31
370.219	1240.31
370.445	1258.31
370.672	1255.31
370.898	1237.31
371.124	1287.31
371.35	1266.31
371.576	1283.31
371.802	1290.31
372.028	1328.31
372.254	1300.31
372.48	1293.31
372.706	1316.31
372.932	1354.31
373.158	1294.31
373.384	1327.31
373.61	1302.31
373.835	1312.31
374.061	1262.31
374.287	1289.31
374.513	1339.31
374.739	1376.31
374.965	1397.31
375.191	1398.31
375.416	1387.31
375.642	1335.31
375.868	1392.31
376.094	1309.31
376.319	1309.31
376.545	1303.31
376.771	1287.31
376.997	1297.31
377.222	1306.31
377.448	1287.31
377.674	1292.31
377.899	1283.31
378.125	1271.31
378.35	1234.31
378.576	1272.31
378.802	1275.31
379.027	1261.31
379.253	1288.31
379.478	1258.31
379.704	1275.31
379.929	1235.31
380.155	1265.31
380.38	1290.31
380.606	1262.31
380.831	1293.31
381.057	1289.31
381.282	1276.31
381.507	1290.31
381.733	1314.31
381.958	1324.31
382.184	1326.31
382.409	1306.31
382.634	1356.31
382.86	1327.31
383.085	1352.31
383.31	1388.31
383.535	1380.31
383.761	1367.31
383.986	1424.31
384.211	1433.31
384.436	1484.31
384.662	1447.31
384.887	1488.31
385.112	1463.31
385.337	1501.31
385.562	1510.31
385.787	1537.31
386.013	1539.31
386.238	1572.31
386.463	1547.31
386.688	1557.31
386.913	1518.31
387.138	1506.31
387.363	1514.31
387.588	1520.31
387.813	1514.31
388.038	1540.31
388.263	1519.31
388.488	1546.31
388.713	1524.31
388.938	1513.31
389.163	1506.31
389.387	1551.31
389.612	1487.31
389.837	1531.31
390.062	1507.31
390.287	1507.31
390.512	1543.31
390.736	1559.31
390.961	1570.31
391.186	1553.31
391.411	1614.31
391.636	1659.31
391.86	1679.31
392.085	1738.31
392.31	1711.31
392.534	1665.31
392.759	1657.31
392.984	1629.31
393.208	1609.31
393.433	1587.31
393.658	1655.31
393.882	1603.31
394.107	1607.31
394.331	1626.31
394.556	1631.31
394.78	1643.31
395.005	1652.31
395.229	1620.31
395.454	1699.31
395.678	1716.31
395.903	1691.31
396.127	1719.31
396.352	1675.31
396.576	1665.31
396.801	1637.31
397.025	1659.31
397.249	1677.31
397.474	1725.31
397.698	1749.31
397.922	1768.31
398.147	1735.31
398.371	1744.31
398.595	1835.31
398.82	1899.31
399.044	2009.31
399.268	2171.31
399.492	2421.31
399.717	2626.31
399.941	2631.31
400.165	2464.31
400.389	2299.31
400.613	2115.31
400.837	2018.31
401.062	1984.31
401.286	1950.31
401.51	1923.31
401.734	1913.31
401.958	1911.31
402.182	1933.31
402.406	1922.31
402.63	1956.31
402.854	1967.31
403.078	1999.31
403.302	1999.31
403.526	2030.31
403.75	2046.31
403.974	2075.31
404.198	2026.31
404.422	2139.31
404.645	2090.31
404.869	2048.31
405.093	2023.31
405.317	2029.31
405.541	2058.31
405.765	2020.31
405.988	2037.31
406.212	2073.31
406.436	2070.31
406.66	2141.31
406.883	2111.31
407.107	2243.31
407.331	2375.31
407.555	2395.31
407.778	2372.31
408.002	2357.31
408.226	2299.31
408.449	2279.31
408.673	2156.31
408.896	2127.31
409.12	2131.31
409.344	2178.31
409.567	2131.31
409.791	2134.31
410.014	2082.31
410.238	2063.31
410.461	2148.31
410.685	2077.31
410.908	2065.31
411.132	2004.31
411.355	1986.31
411.578	1989.31
411.802	1973.31
412.025	1987.31
412.249	1984.31
412.472	1969.31
412.695	1951.31
412.919	1975.31
413.142	1907.31
413.365	1918.31
413.589	1945.31
413.812	1803.31
414.035	1843.31
414.258	1924.31
414.482	1935.31
414.705	1894.31
414.928	1909.31
415.151	1929.31
415.374	1891.31
415.597	1864.31
415.821	1854.31
416.044	1838.31
416.267	1806.31
416.49	1848.31
416.713	1860.31
416.936	1866.31
417.159	1847.31
417.382	1793.31
417.605	1792.31
417.828	1832.31
418.051	1827.31
418.274	1824.31
418.497	1835.31
418.72	1876.31
418.943	1861.31
419.166	2001.31
419.389	2091.31
419.611	2098.31
419.834	1983.31
420.057	1923.31
420.28	1883.31
420.503	1795.31
420.726	1823.31
420.948	1789.31
421.171	1806.31
421.394	1813.31
421.617	1848.31
421.839	1833.31
422.062	1840.31
422.285	1804.31
422.507	1879.31
422.73	1843.31
422.953	1870.31
423.175	1907.31
423.398	1873.31
423.621	1856.31
423.843	1910.31
424.066	1900.31
424.288	1879.31
424.511	1863.31
424.733	1868.31
424.956	1852.31
425.178	1837.31
425.401	1856.31
425.623	1833.31
425.846	1784.31
426.068	1737.31
426.291	1780.31
426.513	1735.31
426.735	1771.31
426.958	1741.31
427.18	1729.31
427.402	1696.31
427.625	1702.31
427.847	1690.31
428.069	1720.31
428.292	1711.31
428.514	1683.31
428.736	1669.31
428.958	1654.31
429.181	1646.31
429.403	1619.31
429.625	1659.31
429.847	1663.31
430.069	1634.31
430.292	1637.31
430.514	1624.31
430.736	1707.31
430.958	1673.31
431.18	1656.31
431.402	1666.31
431.624	1649.31
431.846	1728.31
432.068	1662.31
432.29	1704.31
432.512	1638.31
432.734	1687.31
432.956	1694.31
433.178	1705.31
433.4	1693.31
433.622	1709.31
433.844	1743.31
434.066	1715.31
434.287	1716.31
434.509	1822.31
434.731	1836.31
434.953	1862.31
435.175	1874.31
435.397	1854.31
435.618	1760.31
435.84	1747.31
436.062	1688.31
436.284	1653.31
436.505	1659.31
436.727	1671.31
436.949	1715.31
437.17	1659.31
437.392	1629.31
437.614	1612.31
437.835	1585.31
438.057	1598.31
438.278	1594.31
438.5	1598.31
438.721	1576.31
438.943	1630.31
439.165	1567.31
439.386	1606.31
439.608	1628.31
439.829	1623.31
440.05	1636.31
440.272	1656.31
440.493	1627.31
440.715	1635.31
440.936	1713.31
441.158	1704.31
441.379	1740.31
441.6	1786.31
441.822	1798.31
442.043	1851.31
442.264	1786.31
442.486	1749.31
442.707	1779.31
442.928	1776.31
443.149	1766.31
443.371	1773.31
443.592	1776.31
443.813	1781.31
444.034	1787.31
444.255	1844.31
444.476	1920.31
444.698	2012.31
444.919	2064.31
445.14	2175.31
445.361	1977.31
445.582	1873.31
445.803	1771.31
446.024	1753.31
446.245	1745.31
446.466	1698.31
446.687	1655.31
446.908	1653.31
447.129	1587.31
447.35	1575.31
447.571	1601.31
447.792	1538.31
448.013	1566.31
448.234	1523.31
448.455	1511.31
448.675	1493.31
448.896	1542.31
449.117	1487.31
449.338	1502.31
449.559	1481.31
449.779	1483.31
450	1425.31
450.221	1504.31
450.442	1462.31
450.662	1495.31
450.883	1488.31
451.104	1513.31
451.324	1483.31
451.545	1499.31
451.766	1473.31
451.986	1472.31
452.207	1452.31
452.428	1479.31
452.648	1453.31
452.869	1425.31
453.089	1422.31
453.31	1479.31
453.53	1441.31
453.751	1441.31
453.971	1415.31
454.192	1438.31
454.412	1377.31
454.633	1392.31
454.853	1411.31
455.073	1401.31
455.294	1421.31
455.514	1368.31
455.734	1382.31
455.955	1385.31
456.175	1381.31
456.395	1370.31
456.616	1364.31
456.836	1399.31
457.056	1365.31
457.276	1353.31
457.497	1430.31
457.717	1386.31
457.937	1435.31
458.157	1422.31
458.377	1447.31
458.598	1498.31
458.818	1507.31
459.038	1563.31
459.258	1575.31
459.478	1648.31
459.698	1682.31
459.918	1698.31
460.138	1779.31
460.358	1816.31
460.578	1806.31
460.798	1896.31
461.018	1903.31
461.238	1889.31
461.458	1832.31
461.678	1833.31
461.898	1915.31
462.118	1891.31
462.338	2005.31
462.558	2051.31
462.777	2126.31
462.997	2260.31
463.217	2400.31
463.437	2383.31
463.657	2263.31
463.876	2185.31
464.096	2168.31
464.316	2168.31
464.536	2161.31
464.755	2115.31
464.975	2022.31
465.195	1913.31
465.414	1830.31
465.634	1744.31
465.854	1737.31
466.073	1703.31
466.293	1651.31
466.512	1629.31
466.732	1596.31
466.951	1563.31
467.171	1542.31
467.391	1592.31
467.61	1567.31
467.829	1539.31
468.049	1517.31
468.268	1542.31
468.488	1511.31
468.707	1485.31
468.927	1497.31
469.146	1506.31
469.365	1548.31
469.585	1544.31
469.804	1544.31
470.023	1579.31
470.243	1569.31
470.462	1600.31
470.681	1599.31
470.901	1603.31
471.12	1600.31
471.339	1545.31
471.558	1527.31
471.777	1501.31
471.997	1531.31
472.216	1540.31
472.435	1496.31
472.654	1500.31
472.873	1462.31
473.092	1512.31
473.311	1471.31
473.53	1498.31
473.749	1453.31
473.968	1471.31
474.187	1468.31
474.406	1500.31
474.625	1516.31
474.844	1492.31
475.063	1511.31
475.282	1525.31
475.501	1519.31
475.72	1533.31
475.939	1573.31
476.158	1541.31
476.377	1565.31
476.596	1534.31
476.814	1568.31
477.033	1603.31
477.252	1652.31
477.471	1659.31
477.69	1679.31
477.908	1711.31
478.127	1760.31
478.346	1791.31
478.564	1795.31
478.783	1771.31
479.002	1830.31
479.22	1864.31
479.439	1900.31
479.658	1847.31
479.876	1874.31
480.095	1905.31
480.313	1975.31
480.532	1997.31
480.751	2036.31
480.969	1913.31
481.188	1874.31
481.406	1907.31
481.624	1819.31
481.843	1822.31
482.061	1807.31
482.28	1803.31
482.498	1808.31
482.717	1845.31
482.935	1819.31
483.153	1821.31
483.372	1831.31
483.59	1862.31
483.808	1848.31
484.027	1850.31
484.245	1917.31
484.463	1921.31
484.681	1915.31
484.9	1912.31
485.118	1971.31
485.336	1984.31
485.554	1945.31
485.772	2043.31
485.99	1999.31
486.209	2001.31
486.427	1978.31
486.645	1970.31
486.863	2001.31
487.081	1982.31
487.299	1987.31
487.517	1945.31
487.735	1990.31
487.953	1973.31
488.171	1973.31
488.389	1905.31
488.607	1927.31
488.825	1947.31
489.043	1919.31
489.261	1867.31
489.479	1899.31
489.696	1887.31
489.914	1869.31
