Data from NiCl2@0.0625M.TitratingCurve.Agarose3%dH2O.NegLispCup.LampEnergy10.LIBS07252019_HRD10591_18-34-05-577.txt Node
Date: Thu Jul 25 18:34:05 EDT 2019
User: cochatt
Spectrometer: HR+D1059
Trigger mode: 1
Integration Time (sec): 1.000000E-1
Scans to average: 1
Electric dark correction enabled: true
Nonlinearity correction enabled: false
Boxcar width: 0
XAxis mode: Wavelengths
Number of Pixels in Spectrum: 2048
>>>>>Begin Spectral Data<<<<<
223.165	-2.56
223.4	-2.56
223.635	-2.56
223.869	-15.56
224.104	-17.56
224.338	-22.56
224.573	-14.56
224.808	-10.56
225.042	-6.56
225.277	-6.56
225.511	-7.56
225.746	6.44
225.98	5.44
226.215	4.44
226.449	15.44
226.683	13.44
226.918	28.44
227.152	30.44
227.387	37.44
227.621	46.44
227.856	46.44
228.09	43.44
228.324	43.44
228.559	65.44
228.793	74.44
229.027	142.44
229.262	145.44
229.496	143.44
229.73	145.44
229.964	174.44
230.199	173.44
230.433	187.44
230.667	188.44
230.901	191.44
231.136	174.44
231.37	213.44
231.604	186.44
231.838	190.44
232.072	185.44
232.306	196.44
232.541	203.44
232.775	205.44
233.009	192.44
233.243	186.44
233.477	175.44
233.711	201.44
233.945	203.44
234.179	188.44
234.413	211.44
234.647	212.44
234.881	222.44
235.115	197.44
235.349	226.44
235.583	204.44
235.817	212.44
236.051	211.44
236.285	217.44
236.519	219.44
236.753	245.44
236.987	219.44
237.221	219.44
237.455	232.44
237.689	226.44
237.922	228.44
238.156	227.44
238.39	234.44
238.624	246.44
238.858	237.44
239.091	241.44
239.325	237.44
239.559	250.44
239.793	263.44
240.027	259.44
240.26	248.44
240.494	280.44
240.728	269.44
240.961	276.44
241.195	280.44
241.429	264.44
241.662	291.44
241.896	282.44
242.13	280.44
242.363	296.44
242.597	294.44
242.83	310.44
243.064	297.44
243.298	290.44
243.531	310.44
243.765	302.44
243.998	302.44
244.232	292.44
244.465	307.44
244.699	320.44
244.932	313.44
245.166	335.44
245.399	321.44
245.633	313.44
245.866	345.44
246.099	326.44
246.333	339.44
246.566	326.44
246.8	328.44
247.033	343.44
247.266	333.44
247.5	340.44
247.733	336.44
247.966	334.44
248.2	372.44
248.433	367.44
248.666	379.44
248.899	365.44
249.133	369.44
249.366	383.44
249.599	395.44
249.832	376.44
250.066	383.44
250.299	363.44
250.532	364.44
250.765	387.44
250.998	411.44
251.231	381.44
251.465	413.44
251.698	407.44
251.931	408.44
252.164	389.44
252.397	406.44
252.63	407.44
252.863	419.44
253.096	440.44
253.329	409.44
253.562	415.44
253.795	413.44
254.028	436.44
254.261	420.44
254.494	435.44
254.727	429.44
254.96	425.44
255.193	451.44
255.426	445.44
255.659	432.44
255.892	457.44
256.124	444.44
256.357	437.44
256.59	456.44
256.823	445.44
257.056	458.44
257.289	467.44
257.521	459.44
257.754	457.44
257.987	481.44
258.22	464.44
258.452	473.44
258.685	461.44
258.918	477.44
259.151	493.44
259.383	493.44
259.616	477.44
259.849	508.44
260.081	484.44
260.314	489.44
260.547	484.44
260.779	512.44
261.012	489.44
261.244	510.44
261.477	521.44
261.71	510.44
261.942	515.44
262.175	524.44
262.407	553.44
262.64	536.44
262.872	540.44
263.105	506.44
263.337	525.44
263.57	523.44
263.802	524.44
264.035	536.44
264.267	557.44
264.499	515.44
264.732	545.44
264.964	573.44
265.197	567.44
265.429	554.44
265.661	559.44
265.894	560.44
266.126	569.44
266.358	551.44
266.591	553.44
266.823	564.44
267.055	544.44
267.287	580.44
267.52	563.44
267.752	554.44
267.984	577.44
268.216	592.44
268.448	578.44
268.681	580.44
268.913	576.44
269.145	597.44
269.377	590.44
269.609	588.44
269.841	597.44
270.073	598.44
270.306	601.44
270.538	586.44
270.77	585.44
271.002	619.44
271.234	621.44
271.466	628.44
271.698	620.44
271.93	635.44
272.162	620.44
272.394	621.44
272.626	636.44
272.858	635.44
273.09	645.44
273.322	635.44
273.553	652.44
273.785	664.44
274.017	644.44
274.249	661.44
274.481	639.44
274.713	637.44
274.945	655.44
275.176	685.44
275.408	661.44
275.64	667.44
275.872	682.44
276.104	663.44
276.335	688.44
276.567	672.44
276.799	667.44
277.031	688.44
277.262	688.44
277.494	692.44
277.726	719.44
277.957	677.44
278.189	705.44
278.421	714.44
278.652	712.44
278.884	703.44
279.115	720.44
279.347	737.44
279.579	720.44
279.81	712.44
280.042	704.44
280.273	729.44
280.505	710.44
280.736	731.44
280.968	758.44
281.199	763.44
281.431	727.44
281.662	753.44
281.894	779.44
282.125	724.44
282.356	776.44
282.588	773.44
282.819	747.44
283.051	743.44
283.282	744.44
283.513	787.44
283.745	791.44
283.976	784.44
284.207	777.44
284.439	777.44
284.67	796.44
284.901	799.44
285.132	794.44
285.364	781.44
285.595	795.44
285.826	782.44
286.057	775.44
286.288	787.44
286.52	811.44
286.751	789.44
286.982	804.44
287.213	824.44
287.444	815.44
287.675	834.44
287.906	826.44
288.138	800.44
288.369	849.44
288.6	831.44
288.831	838.44
289.062	805.44
289.293	803.44
289.524	815.44
289.755	840.44
289.986	828.44
290.217	807.44
290.448	835.44
290.679	834.44
290.91	842.44
291.141	844.44
291.371	856.44
291.602	841.44
291.833	859.44
292.064	844.44
292.295	835.44
292.526	851.44
292.757	830.44
292.987	868.44
293.218	869.44
293.449	855.44
293.68	860.44
293.91	863.44
294.141	861.44
294.372	871.44
294.603	879.44
294.833	863.44
295.064	873.44
295.295	875.44
295.525	871.44
295.756	883.44
295.987	868.44
296.217	883.44
296.448	877.44
296.679	886.44
296.909	894.44
297.14	888.44
297.37	919.44
297.601	899.44
297.831	898.44
298.062	878.44
298.292	930.44
298.523	930.44
298.753	949.44
298.984	917.44
299.214	907.44
299.445	916.44
299.675	935.44
299.905	929.44
300.136	909.44
300.366	954.44
300.597	933.44
300.827	955.44
301.057	922.44
301.288	974.44
301.518	947.44
301.748	992.44
301.979	971.44
302.209	990.44
302.439	974.44
302.669	964.44
302.9	960.44
303.13	951.44
303.36	938.44
303.59	982.44
303.82	967.44
304.051	955.44
304.281	966.44
304.511	961.44
304.741	967.44
304.971	953.44
305.201	1006.44
305.431	959.44
305.661	963.44
305.891	952.44
306.121	968.44
306.352	948.44
306.582	971.44
306.812	969.44
307.042	938.44
307.272	984.44
307.502	963.44
307.731	951.44
307.961	983.44
308.191	962.44
308.421	967.44
308.651	962.44
308.881	960.44
309.111	951.44
309.341	960.44
309.571	968.44
309.8	969.44
310.03	956.44
310.26	984.44
310.49	968.44
310.72	952.44
310.949	979.44
311.179	991.44
311.409	997.44
311.639	975.44
311.868	972.44
312.098	975.44
312.328	992.44
312.557	1015.44
312.787	1000.44
313.017	997.44
313.246	1001.44
313.476	1030.44
313.706	1045.44
313.935	1046.44
314.165	1018.44
314.394	1056.44
314.624	1043.44
314.853	1031.44
315.083	1041.44
315.312	1067.44
315.542	1049.44
315.771	1042.44
316.001	1023.44
316.23	1029.44
316.46	1051.44
316.689	1043.44
316.919	1022.44
317.148	1013.44
317.377	1039.44
317.607	1025.44
317.836	1014.44
318.065	1006.44
318.295	1014.44
318.524	1018.44
318.753	1043.44
318.983	1006.44
319.212	1017.44
319.441	1037.44
319.67	1013.44
319.9	1017.44
320.129	1018.44
320.358	1018.44
320.587	991.44
320.816	1066.44
321.046	1045.44
321.275	1051.44
321.504	1013.44
321.733	1002.44
321.962	1039.44
322.191	1030.44
322.42	1040.44
322.649	1022.44
322.878	1066.44
323.108	1051.44
323.337	1050.44
323.566	1090.44
323.795	1051.44
324.024	1091.44
324.253	1085.44
324.482	1084.44
324.71	1074.44
324.939	1091.44
325.168	1091.44
325.397	1075.44
325.626	1076.44
325.855	1085.44
326.084	1149.44
326.313	1116.44
326.542	1133.44
326.77	1154.44
326.999	1114.44
327.228	1132.44
327.457	1115.44
327.686	1117.44
327.914	1125.44
328.143	1123.44
328.372	1155.44
328.6	1132.44
328.829	1127.44
329.058	1130.44
329.287	1124.44
329.515	1137.44
329.744	1151.44
329.972	1173.44
330.201	1157.44
330.43	1159.44
330.658	1170.44
330.887	1161.44
331.115	1183.44
331.344	1202.44
331.572	1181.44
331.801	1209.44
332.03	1230.44
332.258	1244.44
332.486	1271.44
332.715	1269.44
332.943	1325.44
333.172	1351.44
333.4	1415.44
333.629	1435.44
333.857	1451.44
334.085	1432.44
334.314	1441.44
334.542	1429.44
334.771	1414.44
334.999	1403.44
335.227	1413.44
335.455	1363.44
335.684	1352.44
335.912	1369.44
336.14	1376.44
336.369	1396.44
336.597	1384.44
336.825	1319.44
337.053	1364.44
337.281	1324.44
337.51	1271.44
337.738	1267.44
337.966	1244.44
338.194	1259.44
338.422	1237.44
338.65	1247.44
338.878	1215.44
339.106	1216.44
339.334	1215.44
339.562	1243.44
339.79	1228.44
340.018	1188.44
340.246	1173.44
340.474	1205.44
340.702	1192.44
340.93	1205.44
341.158	1186.44
341.386	1188.44
341.614	1174.44
341.842	1170.44
342.07	1159.44
342.298	1183.44
342.526	1183.44
342.754	1179.44
342.981	1179.44
343.209	1190.44
343.437	1211.44
343.665	1303.44
343.893	1364.44
344.12	1382.44
344.348	1325.44
344.576	1311.44
344.804	1268.44
345.031	1268.44
345.259	1211.44
345.487	1217.44
345.714	1178.44
345.942	1189.44
346.17	1169.44
346.397	1173.44
346.625	1153.44
346.853	1133.44
347.08	1136.44
347.308	1138.44
347.535	1147.44
347.763	1151.44
347.99	1125.44
348.218	1126.44
348.445	1115.44
348.673	1148.44
348.9	1125.44
349.128	1124.44
349.355	1129.44
349.583	1111.44
349.81	1116.44
350.037	1092.44
350.265	1092.44
350.492	1102.44
350.72	1125.44
350.947	1098.44
351.174	1108.44
351.402	1117.44
351.629	1085.44
351.856	1089.44
352.083	1079.44
352.311	1101.44
352.538	1094.44
352.765	1080.44
352.992	1088.44
353.22	1054.44
353.447	1069.44
353.674	1081.44
353.901	1065.44
354.128	1084.44
354.355	1107.44
354.583	1068.44
354.81	1087.44
355.037	1092.44
355.264	1099.44
355.491	1097.44
355.718	1071.44
355.945	1124.44
356.172	1103.44
356.399	1123.44
356.626	1084.44
356.853	1104.44
357.08	1115.44
357.307	1091.44
357.534	1110.44
357.761	1092.44
357.988	1140.44
358.215	1104.44
358.441	1052.44
358.668	1080.44
358.895	1109.44
359.122	1111.44
359.349	1067.44
359.576	1120.44
359.802	1079.44
360.029	1095.44
360.256	1104.44
360.483	1104.44
360.709	1088.44
360.936	1085.44
361.163	1127.44
361.39	1081.44
361.616	1080.44
361.843	1090.44
362.07	1077.44
362.296	1080.44
362.523	1086.44
362.749	1088.44
362.976	1091.44
363.203	1122.44
363.429	1108.44
363.656	1068.44
363.882	1111.44
364.109	1105.44
364.335	1106.44
364.562	1075.44
364.788	1089.44
365.015	1118.44
365.241	1086.44
365.468	1070.44
365.694	1064.44
365.92	1093.44
366.147	1077.44
366.373	1119.44
366.599	1070.44
366.826	1103.44
367.052	1098.44
367.278	1092.44
367.505	1105.44
367.731	1117.44
367.957	1099.44
368.184	1119.44
368.41	1118.44
368.636	1107.44
368.862	1111.44
369.089	1140.44
369.315	1108.44
369.541	1125.44
369.767	1137.44
369.993	1137.44
370.219	1148.44
370.445	1157.44
370.672	1142.44
370.898	1153.44
371.124	1163.44
371.35	1173.44
371.576	1186.44
371.802	1192.44
372.028	1179.44
372.254	1199.44
372.48	1184.44
372.706	1225.44
372.932	1248.44
373.158	1220.44
373.384	1230.44
373.61	1208.44
373.835	1209.44
374.061	1247.44
374.287	1175.44
374.513	1201.44
374.739	1247.44
374.965	1304.44
375.191	1265.44
375.416	1281.44
375.642	1263.44
375.868	1231.44
376.094	1236.44
376.319	1215.44
376.545	1193.44
376.771	1157.44
376.997	1206.44
377.222	1190.44
377.448	1171.44
377.674	1217.44
377.899	1168.44
378.125	1186.44
378.35	1159.44
378.576	1146.44
378.802	1173.44
379.027	1183.44
379.253	1130.44
379.478	1190.44
379.704	1175.44
379.929	1180.44
380.155	1171.44
380.38	1200.44
380.606	1190.44
380.831	1167.44
381.057	1208.44
381.282	1170.44
381.507	1194.44
381.733	1183.44
381.958	1175.44
382.184	1181.44
382.409	1248.44
382.634	1222.44
382.86	1234.44
383.085	1249.44
383.31	1252.44
383.535	1288.44
383.761	1299.44
383.986	1324.44
384.211	1304.44
384.436	1359.44
384.662	1375.44
384.887	1342.44
385.112	1335.44
385.337	1423.44
385.562	1417.44
385.787	1368.44
386.013	1433.44
386.238	1411.44
386.463	1437.44
386.688	1458.44
386.913	1383.44
387.138	1393.44
387.363	1409.44
387.588	1441.44
387.813	1449.44
388.038	1406.44
388.263	1405.44
388.488	1419.44
388.713	1428.44
388.938	1439.44
389.163	1383.44
389.387	1403.44
389.612	1345.44
389.837	1407.44
390.062	1367.44
390.287	1354.44
390.512	1381.44
390.736	1394.44
390.961	1475.44
391.186	1460.44
391.411	1503.44
391.636	1501.44
391.86	1566.44
392.085	1561.44
392.31	1632.44
392.534	1519.44
392.759	1508.44
392.984	1527.44
393.208	1474.44
393.433	1460.44
393.658	1500.44
393.882	1483.44
394.107	1466.44
394.331	1479.44
394.556	1539.44
394.78	1517.44
395.005	1536.44
395.229	1533.44
395.454	1580.44
395.678	1570.44
395.903	1605.44
396.127	1556.44
396.352	1537.44
396.576	1516.44
396.801	1502.44
397.025	1540.44
397.249	1543.44
397.474	1593.44
397.698	1591.44
397.922	1598.44
398.147	1598.44
398.371	1620.44
398.595	1694.44
398.82	1751.44
399.044	1868.44
399.268	2003.44
399.492	2236.44
399.717	2375.44
399.941	2404.44
400.165	2244.44
400.389	2075.44
400.613	1947.44
400.837	1876.44
401.062	1785.44
401.286	1773.44
401.51	1764.44
401.734	1723.44
401.958	1734.44
402.182	1752.44
402.406	1772.44
402.63	1782.44
402.854	1788.44
403.078	1822.44
403.302	1809.44
403.526	1873.44
403.75	1881.44
403.974	1906.44
404.198	1902.44
404.422	1898.44
404.645	1964.44
404.869	1869.44
405.093	1916.44
405.317	1905.44
405.541	1876.44
405.765	1897.44
405.988	1901.44
406.212	1922.44
406.436	1924.44
406.66	1941.44
406.883	1979.44
407.107	2063.44
407.331	2131.44
407.555	2178.44
407.778	2182.44
408.002	2137.44
408.226	2119.44
408.449	2125.44
408.673	2020.44
408.896	1968.44
409.12	1932.44
409.344	1994.44
409.567	1977.44
409.791	1968.44
410.014	1941.44
410.238	1940.44
410.461	1913.44
410.685	1890.44
410.908	1901.44
411.132	1855.44
411.355	1819.44
411.578	1821.44
411.802	1809.44
412.025	1860.44
412.249	1878.44
412.472	1856.44
412.695	1797.44
412.919	1740.44
413.142	1727.44
413.365	1763.44
413.589	1773.44
413.812	1748.44
414.035	1776.44
414.258	1785.44
414.482	1744.44
414.705	1793.44
414.928	1758.44
415.151	1772.44
415.374	1757.44
415.597	1731.44
415.821	1677.44
416.044	1705.44
416.267	1721.44
416.49	1677.44
416.713	1679.44
416.936	1670.44
417.159	1655.44
417.382	1682.44
417.605	1672.44
417.828	1653.44
418.051	1687.44
418.274	1692.44
418.497	1671.44
418.72	1699.44
418.943	1743.44
419.166	1805.44
419.389	1948.44
419.611	1882.44
419.834	1845.44
420.057	1773.44
420.28	1729.44
420.503	1666.44
420.726	1664.44
420.948	1648.44
421.171	1721.44
421.394	1660.44
421.617	1661.44
421.839	1684.44
422.062	1695.44
422.285	1665.44
422.507	1695.44
422.73	1711.44
422.953	1676.44
423.175	1695.44
423.398	1699.44
423.621	1731.44
423.843	1788.44
424.066	1737.44
424.288	1744.44
424.511	1690.44
424.733	1714.44
424.956	1686.44
425.178	1676.44
425.401	1705.44
425.623	1692.44
425.846	1640.44
426.068	1630.44
426.291	1620.44
426.513	1656.44
426.735	1633.44
426.958	1611.44
427.18	1563.44
427.402	1583.44
427.625	1583.44
427.847	1549.44
428.069	1550.44
428.292	1567.44
428.514	1561.44
428.736	1551.44
428.958	1582.44
429.181	1504.44
429.403	1526.44
429.625	1514.44
429.847	1501.44
430.069	1523.44
430.292	1510.44
430.514	1499.44
430.736	1533.44
430.958	1555.44
431.18	1484.44
431.402	1527.44
431.624	1553.44
431.846	1533.44
432.068	1571.44
432.29	1565.44
432.512	1561.44
432.734	1567.44
432.956	1569.44
433.178	1594.44
433.4	1539.44
433.622	1537.44
433.844	1601.44
434.066	1598.44
434.287	1603.44
434.509	1628.44
434.731	1669.44
434.953	1667.44
435.175	1697.44
435.397	1686.44
435.618	1686.44
435.84	1623.44
436.062	1568.44
436.284	1559.44
436.505	1544.44
436.727	1540.44
436.949	1584.44
437.17	1548.44
437.392	1477.44
437.614	1480.44
437.835	1471.44
438.057	1479.44
438.278	1443.44
438.5	1463.44
438.721	1490.44
438.943	1515.44
439.165	1470.44
439.386	1483.44
439.608	1508.44
439.829	1493.44
440.05	1503.44
440.272	1515.44
440.493	1504.44
440.715	1559.44
440.936	1532.44
441.158	1593.44
441.379	1581.44
441.6	1620.44
441.822	1687.44
442.043	1672.44
442.264	1661.44
442.486	1601.44
442.707	1646.44
442.928	1620.44
443.149	1651.44
443.371	1626.44
443.592	1628.44
443.813	1646.44
444.034	1681.44
444.255	1760.44
444.476	1818.44
444.698	1876.44
444.919	1869.44
445.14	1970.44
445.361	1825.44
445.582	1678.44
445.803	1629.44
446.024	1591.44
446.245	1582.44
446.466	1573.44
446.687	1543.44
446.908	1512.44
447.129	1456.44
447.35	1469.44
447.571	1451.44
447.792	1432.44
448.013	1424.44
448.234	1414.44
448.455	1371.44
448.675	1389.44
448.896	1392.44
449.117	1358.44
449.338	1396.44
449.559	1375.44
449.779	1367.44
450	1352.44
450.221	1354.44
450.442	1403.44
450.662	1385.44
450.883	1397.44
451.104	1421.44
451.324	1358.44
451.545	1341.44
451.766	1372.44
451.986	1364.44
452.207	1347.44
452.428	1343.44
452.648	1344.44
452.869	1302.44
453.089	1330.44
453.31	1350.44
453.53	1309.44
453.751	1291.44
453.971	1304.44
454.192	1323.44
454.412	1289.44
454.633	1315.44
454.853	1324.44
455.073	1302.44
455.294	1291.44
455.514	1276.44
455.734	1290.44
455.955	1291.44
456.175	1287.44
456.395	1291.44
456.616	1287.44
456.836	1271.44
457.056	1286.44
457.276	1264.44
457.497	1315.44
457.717	1265.44
457.937	1319.44
458.157	1336.44
458.377	1350.44
458.598	1357.44
458.818	1383.44
459.038	1397.44
459.258	1491.44
459.478	1502.44
459.698	1554.44
459.918	1579.44
460.138	1625.44
460.358	1681.44
460.578	1710.44
460.798	1734.44
461.018	1740.44
461.238	1737.44
461.458	1708.44
461.678	1710.44
461.898	1741.44
462.118	1754.44
462.338	1846.44
462.558	1873.44
462.777	1954.44
462.997	2055.44
463.217	2182.44
463.437	2203.44
463.657	2093.44
463.876	1997.44
464.096	2022.44
464.316	1975.44
464.536	1963.44
464.755	1960.44
464.975	1856.44
465.195	1784.44
465.414	1710.44
465.634	1636.44
465.854	1573.44
466.073	1543.44
466.293	1515.44
466.512	1471.44
466.732	1451.44
466.951	1434.44
467.171	1443.44
467.391	1440.44
467.61	1393.44
467.829	1406.44
468.049	1431.44
468.268	1407.44
468.488	1376.44
468.707	1378.44
468.927	1388.44
469.146	1390.44
469.365	1411.44
469.585	1423.44
469.804	1438.44
470.023	1459.44
470.243	1457.44
470.462	1456.44
470.681	1483.44
470.901	1500.44
471.12	1479.44
471.339	1447.44
471.558	1375.44
471.777	1422.44
471.997	1413.44
472.216	1412.44
472.435	1401.44
472.654	1368.44
472.873	1361.44
473.092	1366.44
473.311	1352.44
473.53	1359.44
473.749	1373.44
473.968	1369.44
474.187	1344.44
474.406	1381.44
474.625	1377.44
474.844	1367.44
475.063	1382.44
475.282	1412.44
475.501	1359.44
475.72	1435.44
475.939	1435.44
476.158	1418.44
476.377	1422.44
476.596	1454.44
476.814	1473.44
477.033	1476.44
477.252	1484.44
477.471	1530.44
477.69	1562.44
477.908	1604.44
478.127	1597.44
478.346	1654.44
478.564	1680.44
478.783	1687.44
479.002	1732.44
479.22	1711.44
479.439	1705.44
479.658	1723.44
479.876	1732.44
480.095	1761.44
480.313	1796.44
480.532	1816.44
480.751	1791.44
480.969	1782.44
481.188	1765.44
481.406	1704.44
481.624	1705.44
481.843	1677.44
482.061	1693.44
482.28	1683.44
482.498	1669.44
482.717	1691.44
482.935	1689.44
483.153	1667.44
483.372	1679.44
483.59	1708.44
483.808	1678.44
484.027	1747.44
484.245	1729.44
484.463	1744.44
484.681	1777.44
484.9	1763.44
485.118	1795.44
485.336	1812.44
485.554	1782.44
485.772	1853.44
485.99	1828.44
486.209	1836.44
486.427	1869.44
486.645	1819.44
486.863	1854.44
487.081	1811.44
487.299	1795.44
487.517	1827.44
487.735	1760.44
487.953	1782.44
488.171	1797.44
488.389	1763.44
488.607	1773.44
488.825	1750.44
489.043	1753.44
489.261	1733.44
489.479	1711.44
489.696	1764.44
489.914	1731.44
490.132	1750.44
490.35	1776.44
490.568	1743.44
490.786	1729.44
