Data from NiCl2@0.25M.TitratingCurve.Agarose3%dH2O.NegLispCup.LampEnergy10.LIBS07252019_HRD10591_18-25-49-573.txt Node
Date: Thu Jul 25 18:25:49 EDT 2019
User: cochatt
Spectrometer: HR+D1059
Trigger mode: 1
Integration Time (sec): 1.000000E-1
Scans to average: 1
Electric dark correction enabled: true
Nonlinearity correction enabled: false
Boxcar width: 0
XAxis mode: Wavelengths
Number of Pixels in Spectrum: 2048
>>>>>Begin Spectral Data<<<<<
223.165	-30.44
223.4	-30.44
223.635	-30.44
223.869	-16.44
224.104	-18.44
224.338	-6.44
224.573	-9.44
224.808	-0.44
225.042	-3.44
225.277	-19.44
225.511	-3.44
225.746	12.56
225.98	-2.44
226.215	14.56
226.449	12.56
226.683	12.56
226.918	34.56
227.152	23.56
227.387	21.56
227.621	37.56
227.856	42.56
228.09	39.56
228.324	44.56
228.559	57.56
228.793	65.56
229.027	89.56
229.262	117.56
229.496	111.56
229.73	112.56
229.964	119.56
230.199	128.56
230.433	118.56
230.667	115.56
230.901	122.56
231.136	125.56
231.37	135.56
231.604	126.56
231.838	120.56
232.072	124.56
232.306	136.56
232.541	142.56
232.775	134.56
233.009	121.56
233.243	133.56
233.477	136.56
233.711	133.56
233.945	149.56
234.179	132.56
234.413	136.56
234.647	132.56
234.881	139.56
235.115	149.56
235.349	151.56
235.583	148.56
235.817	160.56
236.051	140.56
236.285	143.56
236.519	137.56
236.753	149.56
236.987	129.56
237.221	145.56
237.455	147.56
237.689	124.56
237.922	131.56
238.156	152.56
238.39	157.56
238.624	142.56
238.858	155.56
239.091	178.56
239.325	153.56
239.559	155.56
239.793	176.56
240.027	174.56
240.26	163.56
240.494	163.56
240.728	178.56
240.961	167.56
241.195	179.56
241.429	171.56
241.662	176.56
241.896	174.56
242.13	168.56
242.363	173.56
242.597	181.56
242.83	192.56
243.064	184.56
243.298	189.56
243.531	191.56
243.765	184.56
243.998	179.56
244.232	193.56
244.465	179.56
244.699	191.56
244.932	183.56
245.166	191.56
245.399	183.56
245.633	202.56
245.866	211.56
246.099	184.56
246.333	200.56
246.566	213.56
246.8	205.56
247.033	201.56
247.266	207.56
247.5	207.56
247.733	217.56
247.966	215.56
248.2	227.56
248.433	214.56
248.666	223.56
248.899	189.56
249.133	213.56
249.366	225.56
249.599	208.56
249.832	230.56
250.066	232.56
250.299	229.56
250.532	234.56
250.765	223.56
250.998	238.56
251.231	212.56
251.465	244.56
251.698	223.56
251.931	241.56
252.164	230.56
252.397	247.56
252.63	240.56
252.863	242.56
253.096	246.56
253.329	232.56
253.562	253.56
253.795	239.56
254.028	252.56
254.261	242.56
254.494	257.56
254.727	261.56
254.96	259.56
255.193	259.56
255.426	249.56
255.659	265.56
255.892	247.56
256.124	266.56
256.357	270.56
256.59	268.56
256.823	283.56
257.056	261.56
257.289	268.56
257.521	270.56
257.754	277.56
257.987	267.56
258.22	292.56
258.452	266.56
258.685	293.56
258.918	269.56
259.151	294.56
259.383	281.56
259.616	283.56
259.849	275.56
260.081	299.56
260.314	281.56
260.547	272.56
260.779	290.56
261.012	303.56
261.244	290.56
261.477	303.56
261.71	279.56
261.942	280.56
262.175	280.56
262.407	278.56
262.64	281.56
262.872	280.56
263.105	308.56
263.337	307.56
263.57	318.56
263.802	317.56
264.035	305.56
264.267	294.56
264.499	317.56
264.732	311.56
264.964	336.56
265.197	318.56
265.429	316.56
265.661	315.56
265.894	313.56
266.126	319.56
266.358	321.56
266.591	303.56
266.823	319.56
267.055	311.56
267.287	344.56
267.52	330.56
267.752	336.56
267.984	339.56
268.216	318.56
268.448	333.56
268.681	318.56
268.913	325.56
269.145	333.56
269.377	336.56
269.609	336.56
269.841	348.56
270.073	344.56
270.306	349.56
270.538	343.56
270.77	352.56
271.002	342.56
271.234	330.56
271.466	344.56
271.698	349.56
271.93	375.56
272.162	359.56
272.394	355.56
272.626	349.56
272.858	343.56
273.09	344.56
273.322	345.56
273.553	355.56
273.785	364.56
274.017	347.56
274.249	389.56
274.481	375.56
274.713	349.56
274.945	373.56
275.176	396.56
275.408	376.56
275.64	374.56
275.872	398.56
276.104	403.56
276.335	394.56
276.567	378.56
276.799	377.56
277.031	384.56
277.262	401.56
277.494	383.56
277.726	367.56
277.957	381.56
278.189	392.56
278.421	395.56
278.652	396.56
278.884	401.56
279.115	406.56
279.347	398.56
279.579	414.56
279.81	384.56
280.042	410.56
280.273	410.56
280.505	408.56
280.736	408.56
280.968	407.56
281.199	411.56
281.431	414.56
281.662	405.56
281.894	399.56
282.125	417.56
282.356	410.56
282.588	423.56
282.819	413.56
283.051	417.56
283.282	423.56
283.513	416.56
283.745	422.56
283.976	427.56
284.207	419.56
284.439	439.56
284.67	463.56
284.901	451.56
285.132	443.56
285.364	432.56
285.595	450.56
285.826	424.56
286.057	433.56
286.288	454.56
286.52	456.56
286.751	446.56
286.982	455.56
287.213	453.56
287.444	454.56
287.675	462.56
287.906	459.56
288.138	443.56
288.369	454.56
288.6	472.56
288.831	456.56
289.062	478.56
289.293	460.56
289.524	453.56
289.755	483.56
289.986	483.56
290.217	449.56
290.448	491.56
290.679	484.56
290.91	473.56
291.141	462.56
291.371	481.56
291.602	470.56
291.833	462.56
292.064	471.56
292.295	477.56
292.526	477.56
292.757	469.56
292.987	479.56
293.218	475.56
293.449	474.56
293.68	491.56
293.91	493.56
294.141	480.56
294.372	468.56
294.603	482.56
294.833	471.56
295.064	480.56
295.295	484.56
295.525	475.56
295.756	502.56
295.987	478.56
296.217	485.56
296.448	476.56
296.679	510.56
296.909	506.56
297.14	499.56
297.37	507.56
297.601	500.56
297.831	513.56
298.062	496.56
298.292	508.56
298.523	512.56
298.753	513.56
298.984	524.56
299.214	511.56
299.445	508.56
299.675	526.56
299.905	537.56
300.136	519.56
300.366	527.56
300.597	527.56
300.827	540.56
301.057	532.56
301.288	541.56
301.518	555.56
301.748	564.56
301.979	554.56
302.209	555.56
302.439	560.56
302.669	539.56
302.9	553.56
303.13	526.56
303.36	552.56
303.59	550.56
303.82	553.56
304.051	544.56
304.281	517.56
304.511	555.56
304.741	559.56
304.971	528.56
305.201	533.56
305.431	525.56
305.661	530.56
305.891	529.56
306.121	538.56
306.352	528.56
306.582	516.56
306.812	523.56
307.042	527.56
307.272	552.56
307.502	524.56
307.731	518.56
307.961	523.56
308.191	522.56
308.421	518.56
308.651	544.56
308.881	513.56
309.111	498.56
309.341	505.56
309.571	501.56
309.8	529.56
310.03	552.56
310.26	519.56
310.49	526.56
310.72	551.56
310.949	540.56
311.179	535.56
311.409	541.56
311.639	546.56
311.868	551.56
312.098	537.56
312.328	573.56
312.557	552.56
312.787	543.56
313.017	560.56
313.246	560.56
313.476	562.56
313.706	582.56
313.935	579.56
314.165	580.56
314.394	586.56
314.624	588.56
314.853	550.56
315.083	555.56
315.312	558.56
315.542	576.56
315.771	557.56
316.001	553.56
316.23	557.56
316.46	556.56
316.689	555.56
316.919	564.56
317.148	543.56
317.377	544.56
317.607	551.56
317.836	535.56
318.065	562.56
318.295	553.56
318.524	548.56
318.753	535.56
318.983	543.56
319.212	562.56
319.441	572.56
319.67	548.56
319.9	580.56
320.129	579.56
320.358	552.56
320.587	568.56
320.816	543.56
321.046	542.56
321.275	560.56
321.504	549.56
321.733	569.56
321.962	571.56
322.191	588.56
322.42	568.56
322.649	581.56
322.878	548.56
323.108	557.56
323.337	566.56
323.566	553.56
323.795	573.56
324.024	575.56
324.253	568.56
324.482	566.56
324.71	568.56
324.939	574.56
325.168	592.56
325.397	575.56
325.626	580.56
325.855	609.56
326.084	588.56
326.313	635.56
326.542	621.56
326.77	595.56
326.999	589.56
327.228	613.56
327.457	567.56
327.686	602.56
327.914	610.56
328.143	609.56
328.372	629.56
328.6	603.56
328.829	611.56
329.058	608.56
329.287	625.56
329.515	619.56
329.744	636.56
329.972	611.56
330.201	637.56
330.43	612.56
330.658	643.56
330.887	630.56
331.115	631.56
331.344	660.56
331.572	658.56
331.801	655.56
332.03	668.56
332.258	665.56
332.486	693.56
332.715	723.56
332.943	786.56
333.172	805.56
333.4	838.56
333.629	844.56
333.857	847.56
334.085	846.56
334.314	827.56
334.542	796.56
334.771	804.56
334.999	755.56
335.227	795.56
335.455	736.56
335.684	784.56
335.912	767.56
336.14	740.56
336.369	732.56
336.597	747.56
336.825	744.56
337.053	754.56
337.281	701.56
337.51	709.56
337.738	709.56
337.966	694.56
338.194	699.56
338.422	649.56
338.65	664.56
338.878	657.56
339.106	655.56
339.334	685.56
339.562	640.56
339.79	652.56
340.018	651.56
340.246	637.56
340.474	608.56
340.702	634.56
340.93	649.56
341.158	664.56
341.386	663.56
341.614	649.56
341.842	646.56
342.07	635.56
342.298	613.56
342.526	613.56
342.754	628.56
342.981	637.56
343.209	659.56
343.437	667.56
343.665	734.56
343.893	777.56
344.12	813.56
344.348	782.56
344.576	731.56
344.804	683.56
345.031	672.56
345.259	656.56
345.487	649.56
345.714	635.56
345.942	623.56
346.17	635.56
346.397	624.56
346.625	623.56
346.853	606.56
347.08	608.56
347.308	600.56
347.535	646.56
347.763	631.56
347.99	619.56
348.218	604.56
348.445	608.56
348.673	607.56
348.9	614.56
349.128	622.56
349.355	594.56
349.583	620.56
349.81	592.56
350.037	603.56
350.265	623.56
350.492	627.56
350.72	578.56
350.947	603.56
351.174	604.56
351.402	610.56
351.629	600.56
351.856	611.56
352.083	592.56
352.311	578.56
352.538	590.56
352.765	595.56
352.992	611.56
353.22	557.56
353.447	593.56
353.674	571.56
353.901	595.56
354.128	590.56
354.355	594.56
354.583	578.56
354.81	599.56
355.037	571.56
355.264	606.56
355.491	591.56
355.718	570.56
355.945	572.56
356.172	597.56
356.399	593.56
356.626	604.56
356.853	606.56
357.08	589.56
357.307	595.56
357.534	585.56
357.761	591.56
357.988	595.56
358.215	597.56
358.441	611.56
358.668	586.56
358.895	597.56
359.122	604.56
359.349	599.56
359.576	601.56
359.802	598.56
360.029	599.56
360.256	598.56
360.483	613.56
360.709	572.56
360.936	600.56
361.163	601.56
361.39	596.56
361.616	604.56
361.843	598.56
362.07	589.56
362.296	599.56
362.523	606.56
362.749	606.56
362.976	567.56
363.203	597.56
363.429	577.56
363.656	608.56
363.882	599.56
364.109	607.56
364.335	603.56
364.562	579.56
364.788	596.56
365.015	608.56
365.241	591.56
365.468	577.56
365.694	587.56
365.92	593.56
366.147	599.56
366.373	590.56
366.599	598.56
366.826	581.56
367.052	603.56
367.278	581.56
367.505	605.56
367.731	601.56
367.957	617.56
368.184	596.56
368.41	625.56
368.636	581.56
368.862	621.56
369.089	617.56
369.315	628.56
369.541	612.56
369.767	599.56
369.993	628.56
370.219	603.56
370.445	627.56
370.672	628.56
370.898	631.56
371.124	631.56
371.35	637.56
371.576	657.56
371.802	634.56
372.028	635.56
372.254	640.56
372.48	657.56
372.706	686.56
372.932	676.56
373.158	661.56
373.384	689.56
373.61	663.56
373.835	663.56
374.061	649.56
374.287	666.56
374.513	662.56
374.739	685.56
374.965	724.56
375.191	732.56
375.416	720.56
375.642	697.56
375.868	672.56
376.094	662.56
376.319	653.56
376.545	650.56
376.771	667.56
376.997	653.56
377.222	647.56
377.448	648.56
377.674	659.56
377.899	645.56
378.125	645.56
378.35	652.56
378.576	633.56
378.802	642.56
379.027	631.56
379.253	646.56
379.478	647.56
379.704	655.56
379.929	653.56
380.155	637.56
380.38	669.56
380.606	636.56
380.831	633.56
381.057	645.56
381.282	658.56
381.507	627.56
381.733	661.56
381.958	646.56
382.184	661.56
382.409	657.56
382.634	663.56
382.86	679.56
383.085	690.56
383.31	702.56
383.535	693.56
383.761	701.56
383.986	745.56
384.211	737.56
384.436	740.56
384.662	765.56
384.887	781.56
385.112	801.56
385.337	788.56
385.562	819.56
385.787	785.56
386.013	799.56
386.238	816.56
386.463	807.56
386.688	799.56
386.913	781.56
387.138	797.56
387.363	791.56
387.588	767.56
387.813	783.56
388.038	781.56
388.263	790.56
388.488	788.56
388.713	789.56
388.938	779.56
389.163	766.56
389.387	754.56
389.612	737.56
389.837	764.56
390.062	768.56
390.287	760.56
390.512	775.56
390.736	754.56
390.961	776.56
391.186	822.56
391.411	840.56
391.636	841.56
391.86	879.56
392.085	883.56
392.31	860.56
392.534	868.56
392.759	875.56
392.984	823.56
393.208	823.56
393.433	837.56
393.658	839.56
393.882	831.56
394.107	850.56
394.331	833.56
394.556	824.56
394.78	840.56
395.005	857.56
395.229	847.56
395.454	883.56
395.678	893.56
395.903	909.56
396.127	866.56
396.352	847.56
396.576	830.56
396.801	816.56
397.025	839.56
397.249	849.56
397.474	897.56
397.698	900.56
397.922	883.56
398.147	893.56
398.371	906.56
398.595	917.56
398.82	999.56
399.044	1102.56
399.268	1186.56
399.492	1364.56
399.717	1548.56
399.941	1559.56
400.165	1348.56
400.389	1224.56
400.613	1124.56
400.837	1068.56
401.062	1021.56
401.286	1028.56
401.51	1017.56
401.734	986.56
401.958	1029.56
402.182	1031.56
402.406	1007.56
402.63	1057.56
402.854	1086.56
403.078	1086.56
403.302	1121.56
403.526	1167.56
403.75	1138.56
403.974	1163.56
404.198	1189.56
404.422	1159.56
404.645	1150.56
404.869	1139.56
405.093	1159.56
405.317	1121.56
405.541	1121.56
405.765	1115.56
405.988	1093.56
406.212	1063.56
406.436	1139.56
406.66	1113.56
406.883	1140.56
407.107	1191.56
407.331	1259.56
407.555	1323.56
407.778	1293.56
408.002	1280.56
408.226	1225.56
408.449	1201.56
408.673	1169.56
408.896	1119.56
409.12	1125.56
409.344	1092.56
409.567	1139.56
409.791	1104.56
410.014	1136.56
410.238	1093.56
410.461	1073.56
410.685	1085.56
410.908	1069.56
411.132	1068.56
411.355	1034.56
411.578	1041.56
411.802	1002.56
412.025	1081.56
412.249	1082.56
412.472	1043.56
412.695	1013.56
412.919	988.56
413.142	1002.56
413.365	997.56
413.589	996.56
413.812	995.56
414.035	949.56
414.258	985.56
414.482	1008.56
414.705	1028.56
414.928	1026.56
415.151	1021.56
415.374	989.56
415.597	994.56
415.821	983.56
416.044	943.56
416.267	943.56
416.49	920.56
416.713	985.56
416.936	991.56
417.159	967.56
417.382	962.56
417.605	951.56
417.828	995.56
418.051	982.56
418.274	986.56
418.497	992.56
418.72	1030.56
418.943	1021.56
419.166	1087.56
419.389	1184.56
419.611	1121.56
419.834	1092.56
420.057	1039.56
420.28	1002.56
420.503	963.56
420.726	958.56
420.948	948.56
421.171	982.56
421.394	951.56
421.617	965.56
421.839	969.56
422.062	957.56
422.285	971.56
422.507	998.56
422.73	1013.56
422.953	1039.56
423.175	1024.56
423.398	1031.56
423.621	1059.56
423.843	1056.56
424.066	1073.56
424.288	1060.56
424.511	1075.56
424.733	1050.56
424.956	1019.56
425.178	1043.56
425.401	999.56
425.623	947.56
425.846	949.56
426.068	945.56
426.291	931.56
426.513	941.56
426.735	917.56
426.958	904.56
427.18	891.56
427.402	903.56
427.625	903.56
427.847	876.56
428.069	876.56
428.292	855.56
428.514	861.56
428.736	855.56
428.958	864.56
429.181	836.56
429.403	824.56
429.625	860.56
429.847	831.56
430.069	845.56
430.292	853.56
430.514	858.56
430.736	850.56
430.958	836.56
431.18	851.56
431.402	838.56
431.624	883.56
431.846	880.56
432.068	880.56
432.29	861.56
432.512	856.56
432.734	887.56
432.956	859.56
433.178	871.56
433.4	886.56
433.622	883.56
433.844	876.56
434.066	847.56
434.287	885.56
434.509	908.56
434.731	941.56
434.953	978.56
435.175	1010.56
435.397	979.56
435.618	898.56
435.84	893.56
436.062	887.56
436.284	845.56
436.505	848.56
436.727	887.56
436.949	862.56
437.17	855.56
437.392	840.56
437.614	828.56
437.835	829.56
438.057	817.56
438.278	828.56
438.5	817.56
438.721	828.56
438.943	831.56
439.165	845.56
439.386	844.56
439.608	837.56
439.829	878.56
440.05	858.56
440.272	864.56
440.493	877.56
440.715	881.56
440.936	887.56
441.158	919.56
441.379	942.56
441.6	992.56
441.822	995.56
442.043	997.56
442.264	945.56
442.486	937.56
442.707	952.56
442.928	971.56
443.149	960.56
443.371	939.56
443.592	961.56
443.813	1006.56
444.034	987.56
444.255	1021.56
444.476	1079.56
444.698	1145.56
444.919	1200.56
445.14	1211.56
445.361	1124.56
445.582	1009.56
445.803	953.56
446.024	920.56
446.245	900.56
446.466	891.56
446.687	882.56
446.908	877.56
447.129	838.56
447.35	844.56
447.571	815.56
447.792	806.56
448.013	832.56
448.234	792.56
448.455	774.56
448.675	789.56
448.896	797.56
449.117	800.56
449.338	784.56
449.559	784.56
449.779	794.56
450	790.56
450.221	793.56
450.442	779.56
450.662	765.56
450.883	784.56
451.104	795.56
451.324	807.56
451.545	810.56
451.766	783.56
451.986	770.56
452.207	795.56
452.428	777.56
452.648	788.56
452.869	777.56
453.089	795.56
453.31	817.56
453.53	770.56
453.751	774.56
453.971	768.56
454.192	756.56
454.412	731.56
454.633	749.56
454.853	772.56
455.073	750.56
455.294	751.56
455.514	734.56
455.734	736.56
455.955	742.56
456.175	727.56
456.395	714.56
456.616	727.56
456.836	763.56
457.056	723.56
457.276	719.56
457.497	755.56
457.717	734.56
457.937	737.56
458.157	758.56
458.377	763.56
458.598	761.56
458.818	811.56
459.038	827.56
459.258	862.56
459.478	857.56
459.698	875.56
459.918	888.56
460.138	953.56
460.358	1001.56
460.578	1007.56
460.798	1037.56
461.018	1057.56
461.238	1041.56
461.458	1052.56
461.678	1040.56
461.898	1024.56
462.118	1048.56
462.338	1119.56
462.558	1153.56
462.777	1182.56
462.997	1291.56
463.217	1395.56
463.437	1416.56
463.657	1293.56
463.876	1231.56
464.096	1225.56
464.316	1214.56
464.536	1215.56
464.755	1194.56
464.975	1105.56
465.195	1086.56
465.414	1003.56
465.634	955.56
465.854	897.56
466.073	876.56
466.293	867.56
466.512	872.56
466.732	857.56
466.951	840.56
467.171	849.56
467.391	807.56
467.61	844.56
467.829	812.56
468.049	816.56
468.268	776.56
468.488	763.56
468.707	768.56
468.927	792.56
469.146	806.56
469.365	791.56
469.585	811.56
469.804	837.56
470.023	846.56
470.243	876.56
470.462	851.56
470.681	882.56
470.901	841.56
471.12	843.56
471.339	840.56
471.558	831.56
471.777	814.56
471.997	812.56
472.216	781.56
472.435	778.56
472.654	762.56
472.873	772.56
473.092	796.56
473.311	757.56
473.53	751.56
473.749	775.56
473.968	774.56
474.187	776.56
474.406	767.56
474.625	749.56
474.844	783.56
475.063	776.56
475.282	768.56
475.501	790.56
475.72	797.56
475.939	813.56
476.158	833.56
476.377	807.56
476.596	824.56
476.814	827.56
477.033	816.56
477.252	846.56
477.471	888.56
477.69	857.56
477.908	916.56
478.127	895.56
478.346	943.56
478.564	940.56
478.783	982.56
479.002	967.56
479.22	970.56
479.439	988.56
479.658	953.56
479.876	960.56
480.095	981.56
480.313	1016.56
480.532	1060.56
480.751	1036.56
480.969	1012.56
481.188	952.56
481.406	936.56
481.624	945.56
481.843	881.56
482.061	886.56
482.28	877.56
482.498	859.56
482.717	879.56
482.935	869.56
483.153	873.56
483.372	868.56
483.59	861.56
483.808	899.56
484.027	875.56
484.245	885.56
484.463	879.56
484.681	896.56
484.9	919.56
485.118	887.56
485.336	929.56
485.554	923.56
485.772	929.56
485.99	925.56
486.209	914.56
486.427	956.56
486.645	915.56
486.863	911.56
487.081	917.56
487.299	893.56
487.517	923.56
487.735	932.56
487.953	931.56
488.171	911.56
488.389	909.56
488.607	896.56
488.825	911.56
489.043	916.56
489.261	918.56
489.479	929.56
489.696	909.56
489.914	918.56
490.132	903.56
490.35	926.56
490.568	916.56
490.786	943.56
491.003	920.56
491.221	959.56
491.439	926.56
491.657	948.56
491.874	919.56
492.092	964.56
492.31	932.56
492.527	976.56
492.745	935.56
492.963	950.56
493.18	947.56
493.398	978.56
493.615	950.56
493.833	969.56
494.05	1006.56
494.268	983.56
494.485	957.56
494.703	1000.56
494.92	1008.56
495.138	992.56
495.355	977.56
495.573	996.56
495.79	968.56
496.008	1024.56
496.225	988.56
496.442	1024.56
496.66	1007.56
496.877	1052.56
497.094	1025.56
497.312	1075.56
497.529	1092.56
497.746	1120.56
497.963	1167.56
498.181	1217.56
498.398	1249.56
498.615	1320.56
498.832	1440.56
499.049	1537.56
499.267	1700.56
499.484	1899.56
499.701	2095.56
