Data from NiCl2@0.0625M.TitratingCurve.Agarose3%dH2O.NegLispCup.LampEnergy10.LIBS07252019_HRD10591_18-33-16-576.txt Node
Date: Thu Jul 25 18:33:16 EDT 2019
User: cochatt
Spectrometer: HR+D1059
Trigger mode: 1
Integration Time (sec): 1.000000E-1
Scans to average: 1
Electric dark correction enabled: true
Nonlinearity correction enabled: false
Boxcar width: 0
XAxis mode: Wavelengths
Number of Pixels in Spectrum: 2048
>>>>>Begin Spectral Data<<<<<
223.165	-19.06
223.4	-19.06
223.635	-19.06
223.869	-16.06
224.104	-15.06
224.338	-28.06
224.573	-7.06
224.808	-10.06
225.042	-12.06
225.277	-7.06
225.511	10.94
225.746	-5.06
225.98	2.94
226.215	5.94
226.449	18.94
226.683	20.94
226.918	26.94
227.152	32.94
227.387	38.94
227.621	47.94
227.856	49.94
228.09	37.94
228.324	54.94
228.559	51.94
228.793	81.94
229.027	155.94
229.262	146.94
229.496	159.94
229.73	169.94
229.964	176.94
230.199	188.94
230.433	184.94
230.667	184.94
230.901	199.94
231.136	199.94
231.37	181.94
231.604	191.94
231.838	203.94
232.072	207.94
232.306	201.94
232.541	207.94
232.775	212.94
233.009	217.94
233.243	218.94
233.477	230.94
233.711	215.94
233.945	222.94
234.179	239.94
234.413	229.94
234.647	219.94
234.881	216.94
235.115	242.94
235.349	244.94
235.583	225.94
235.817	218.94
236.051	228.94
236.285	239.94
236.519	235.94
236.753	246.94
236.987	246.94
237.221	233.94
237.455	259.94
237.689	262.94
237.922	262.94
238.156	267.94
238.39	269.94
238.624	253.94
238.858	277.94
239.091	271.94
239.325	288.94
239.559	265.94
239.793	255.94
240.027	287.94
240.26	289.94
240.494	282.94
240.728	295.94
240.961	291.94
241.195	304.94
241.429	300.94
241.662	324.94
241.896	303.94
242.13	314.94
242.363	307.94
242.597	326.94
242.83	303.94
243.064	320.94
243.298	340.94
243.531	333.94
243.765	325.94
243.998	367.94
244.232	361.94
244.465	344.94
244.699	343.94
244.932	354.94
245.166	365.94
245.399	372.94
245.633	367.94
245.866	354.94
246.099	363.94
246.333	363.94
246.566	361.94
246.8	373.94
247.033	337.94
247.266	380.94
247.5	389.94
247.733	371.94
247.966	406.94
248.2	420.94
248.433	415.94
248.666	410.94
248.899	414.94
249.133	411.94
249.366	433.94
249.599	419.94
249.832	434.94
250.066	410.94
250.299	418.94
250.532	429.94
250.765	442.94
250.998	450.94
251.231	442.94
251.465	436.94
251.698	450.94
251.931	470.94
252.164	470.94
252.397	453.94
252.63	449.94
252.863	436.94
253.096	476.94
253.329	474.94
253.562	461.94
253.795	489.94
254.028	495.94
254.261	494.94
254.494	487.94
254.727	478.94
254.96	468.94
255.193	503.94
255.426	495.94
255.659	485.94
255.892	490.94
256.124	503.94
256.357	508.94
256.59	512.94
256.823	519.94
257.056	505.94
257.289	499.94
257.521	522.94
257.754	526.94
257.987	529.94
258.22	523.94
258.452	535.94
258.685	546.94
258.918	525.94
259.151	530.94
259.383	539.94
259.616	541.94
259.849	538.94
260.081	575.94
260.314	574.94
260.547	556.94
260.779	560.94
261.012	566.94
261.244	576.94
261.477	587.94
261.71	570.94
261.942	591.94
262.175	580.94
262.407	600.94
262.64	571.94
262.872	571.94
263.105	609.94
263.337	606.94
263.57	586.94
263.802	613.94
264.035	595.94
264.267	620.94
264.499	623.94
264.732	619.94
264.964	599.94
265.197	611.94
265.429	622.94
265.661	626.94
265.894	619.94
266.126	616.94
266.358	633.94
266.591	630.94
266.823	631.94
267.055	638.94
267.287	664.94
267.52	640.94
267.752	665.94
267.984	657.94
268.216	655.94
268.448	669.94
268.681	633.94
268.913	663.94
269.145	665.94
269.377	679.94
269.609	670.94
269.841	663.94
270.073	660.94
270.306	674.94
270.538	677.94
270.77	676.94
271.002	662.94
271.234	690.94
271.466	683.94
271.698	692.94
271.93	710.94
272.162	701.94
272.394	701.94
272.626	707.94
272.858	713.94
273.09	738.94
273.322	713.94
273.553	710.94
273.785	737.94
274.017	725.94
274.249	738.94
274.481	754.94
274.713	750.94
274.945	758.94
275.176	747.94
275.408	763.94
275.64	755.94
275.872	774.94
276.104	774.94
276.335	723.94
276.567	764.94
276.799	753.94
277.031	780.94
277.262	777.94
277.494	766.94
277.726	788.94
277.957	772.94
278.189	786.94
278.421	788.94
278.652	792.94
278.884	784.94
279.115	808.94
279.347	792.94
279.579	800.94
279.81	835.94
280.042	837.94
280.273	830.94
280.505	827.94
280.736	814.94
280.968	841.94
281.199	846.94
281.431	828.94
281.662	852.94
281.894	849.94
282.125	843.94
282.356	844.94
282.588	814.94
282.819	855.94
283.051	863.94
283.282	840.94
283.513	872.94
283.745	894.94
283.976	887.94
284.207	905.94
284.439	897.94
284.67	908.94
284.901	894.94
285.132	881.94
285.364	878.94
285.595	892.94
285.826	927.94
286.057	908.94
286.288	890.94
286.52	933.94
286.751	934.94
286.982	937.94
287.213	914.94
287.444	920.94
287.675	935.94
287.906	894.94
288.138	964.94
288.369	951.94
288.6	951.94
288.831	917.94
289.062	921.94
289.293	970.94
289.524	934.94
289.755	931.94
289.986	939.94
290.217	952.94
290.448	955.94
290.679	971.94
290.91	958.94
291.141	958.94
291.371	970.94
291.602	975.94
291.833	978.94
292.064	967.94
292.295	959.94
292.526	962.94
292.757	976.94
292.987	974.94
293.218	937.94
293.449	960.94
293.68	972.94
293.91	970.94
294.141	981.94
294.372	964.94
294.603	966.94
294.833	975.94
295.064	988.94
295.295	988.94
295.525	965.94
295.756	985.94
295.987	978.94
296.217	999.94
296.448	1006.94
296.679	992.94
296.909	1000.94
297.14	1000.94
297.37	1016.94
297.601	1047.94
297.831	1044.94
298.062	1036.94
298.292	1044.94
298.523	1060.94
298.753	1044.94
298.984	1046.94
299.214	1056.94
299.445	1066.94
299.675	1029.94
299.905	1040.94
300.136	1052.94
300.366	1087.94
300.597	1095.94
300.827	1084.94
301.057	1080.94
301.288	1143.94
301.518	1089.94
301.748	1083.94
301.979	1105.94
302.209	1122.94
302.439	1091.94
302.669	1107.94
302.9	1093.94
303.13	1134.94
303.36	1092.94
303.59	1082.94
303.82	1081.94
304.051	1099.94
304.281	1107.94
304.511	1084.94
304.741	1114.94
304.971	1123.94
305.201	1107.94
305.431	1127.94
305.661	1128.94
305.891	1109.94
306.121	1107.94
306.352	1095.94
306.582	1058.94
306.812	1051.94
307.042	1094.94
307.272	1086.94
307.502	1086.94
307.731	1079.94
307.961	1088.94
308.191	1075.94
308.421	1085.94
308.651	1087.94
308.881	1099.94
309.111	1098.94
309.341	1058.94
309.571	1088.94
309.8	1084.94
310.03	1091.94
310.26	1141.94
310.49	1115.94
310.72	1079.94
310.949	1087.94
311.179	1113.94
311.409	1098.94
311.639	1121.94
311.868	1100.94
312.098	1149.94
312.328	1154.94
312.557	1150.94
312.787	1120.94
313.017	1164.94
313.246	1172.94
313.476	1155.94
313.706	1184.94
313.935	1163.94
314.165	1158.94
314.394	1190.94
314.624	1215.94
314.853	1140.94
315.083	1183.94
315.312	1202.94
315.542	1192.94
315.771	1179.94
316.001	1152.94
316.23	1164.94
316.46	1166.94
316.689	1204.94
316.919	1130.94
317.148	1178.94
317.377	1136.94
317.607	1159.94
317.836	1165.94
318.065	1143.94
318.295	1176.94
318.524	1172.94
318.753	1159.94
318.983	1164.94
319.212	1138.94
319.441	1140.94
319.67	1161.94
319.9	1174.94
320.129	1152.94
320.358	1200.94
320.587	1189.94
320.816	1162.94
321.046	1178.94
321.275	1164.94
321.504	1176.94
321.733	1153.94
321.962	1196.94
322.191	1178.94
322.42	1148.94
322.649	1173.94
322.878	1189.94
323.108	1174.94
323.337	1202.94
323.566	1194.94
323.795	1207.94
324.024	1184.94
324.253	1240.94
324.482	1231.94
324.71	1205.94
324.939	1193.94
325.168	1211.94
325.397	1199.94
325.626	1207.94
325.855	1246.94
326.084	1280.94
326.313	1284.94
326.542	1271.94
326.77	1299.94
326.999	1258.94
327.228	1223.94
327.457	1255.94
327.686	1263.94
327.914	1243.94
328.143	1264.94
328.372	1280.94
328.6	1284.94
328.829	1279.94
329.058	1290.94
329.287	1285.94
329.515	1305.94
329.744	1263.94
329.972	1297.94
330.201	1319.94
330.43	1299.94
330.658	1293.94
330.887	1329.94
331.115	1332.94
331.344	1348.94
331.572	1358.94
331.801	1364.94
332.03	1393.94
332.258	1381.94
332.486	1436.94
332.715	1472.94
332.943	1546.94
333.172	1564.94
333.4	1571.94
333.629	1606.94
333.857	1673.94
334.085	1660.94
334.314	1632.94
334.542	1636.94
334.771	1636.94
334.999	1628.94
335.227	1622.94
335.455	1650.94
335.684	1613.94
335.912	1595.94
336.14	1550.94
336.369	1558.94
336.597	1576.94
336.825	1508.94
337.053	1508.94
337.281	1527.94
337.51	1457.94
337.738	1466.94
337.966	1458.94
338.194	1429.94
338.422	1392.94
338.65	1408.94
338.878	1375.94
339.106	1384.94
339.334	1402.94
339.562	1382.94
339.79	1343.94
340.018	1366.94
340.246	1312.94
340.474	1327.94
340.702	1356.94
340.93	1347.94
341.158	1354.94
341.386	1376.94
341.614	1318.94
341.842	1329.94
342.07	1362.94
342.298	1334.94
342.526	1318.94
342.754	1375.94
342.981	1326.94
343.209	1316.94
343.437	1393.94
343.665	1447.94
343.893	1562.94
344.12	1593.94
344.348	1559.94
344.576	1495.94
344.804	1470.94
345.031	1377.94
345.259	1393.94
345.487	1386.94
345.714	1323.94
345.942	1289.94
346.17	1320.94
346.397	1298.94
346.625	1302.94
346.853	1278.94
347.08	1282.94
347.308	1304.94
347.535	1284.94
347.763	1299.94
347.99	1278.94
348.218	1261.94
348.445	1279.94
348.673	1254.94
348.9	1272.94
349.128	1287.94
349.355	1224.94
349.583	1249.94
349.81	1235.94
350.037	1266.94
350.265	1244.94
350.492	1248.94
350.72	1240.94
350.947	1209.94
351.174	1253.94
351.402	1198.94
351.629	1228.94
351.856	1223.94
352.083	1231.94
352.311	1187.94
352.538	1208.94
352.765	1247.94
352.992	1216.94
353.22	1220.94
353.447	1233.94
353.674	1209.94
353.901	1244.94
354.128	1243.94
354.355	1236.94
354.583	1266.94
354.81	1241.94
355.037	1247.94
355.264	1227.94
355.491	1246.94
355.718	1254.94
355.945	1244.94
356.172	1242.94
356.399	1236.94
356.626	1262.94
356.853	1269.94
357.08	1222.94
357.307	1257.94
357.534	1284.94
357.761	1243.94
357.988	1255.94
358.215	1244.94
358.441	1269.94
358.668	1273.94
358.895	1262.94
359.122	1211.94
359.349	1207.94
359.576	1242.94
359.802	1243.94
360.029	1234.94
360.256	1234.94
360.483	1247.94
360.709	1256.94
360.936	1221.94
361.163	1217.94
361.39	1227.94
361.616	1227.94
361.843	1259.94
362.07	1244.94
362.296	1235.94
362.523	1227.94
362.749	1247.94
362.976	1241.94
363.203	1253.94
363.429	1250.94
363.656	1228.94
363.882	1243.94
364.109	1229.94
364.335	1238.94
364.562	1252.94
364.788	1242.94
365.015	1238.94
365.241	1249.94
365.468	1237.94
365.694	1213.94
365.92	1198.94
366.147	1242.94
366.373	1242.94
366.599	1258.94
366.826	1247.94
367.052	1216.94
367.278	1239.94
367.505	1230.94
367.731	1264.94
367.957	1259.94
368.184	1231.94
368.41	1268.94
368.636	1272.94
368.862	1254.94
369.089	1248.94
369.315	1275.94
369.541	1283.94
369.767	1313.94
369.993	1286.94
370.219	1328.94
370.445	1320.94
370.672	1298.94
370.898	1326.94
371.124	1305.94
371.35	1365.94
371.576	1345.94
371.802	1329.94
372.028	1334.94
372.254	1336.94
372.48	1331.94
372.706	1390.94
372.932	1392.94
373.158	1393.94
373.384	1369.94
373.61	1335.94
373.835	1370.94
374.061	1342.94
374.287	1392.94
374.513	1374.94
374.739	1428.94
374.965	1458.94
375.191	1478.94
375.416	1480.94
375.642	1420.94
375.868	1466.94
376.094	1402.94
376.319	1411.94
376.545	1386.94
376.771	1375.94
376.997	1327.94
377.222	1331.94
377.448	1332.94
377.674	1350.94
377.899	1311.94
378.125	1341.94
378.35	1339.94
378.576	1369.94
378.802	1319.94
379.027	1368.94
379.253	1349.94
379.478	1312.94
379.704	1326.94
379.929	1328.94
380.155	1355.94
380.38	1307.94
380.606	1366.94
380.831	1330.94
381.057	1352.94
381.282	1350.94
381.507	1329.94
381.733	1375.94
381.958	1348.94
382.184	1382.94
382.409	1426.94
382.634	1390.94
382.86	1385.94
383.085	1440.94
383.31	1443.94
383.535	1470.94
383.761	1465.94
383.986	1486.94
384.211	1506.94
384.436	1518.94
384.662	1545.94
384.887	1571.94
385.112	1602.94
385.337	1620.94
385.562	1608.94
385.787	1577.94
386.013	1621.94
386.238	1635.94
386.463	1670.94
386.688	1656.94
386.913	1620.94
387.138	1593.94
387.363	1611.94
387.588	1577.94
387.813	1563.94
388.038	1618.94
388.263	1628.94
388.488	1631.94
388.713	1655.94
388.938	1640.94
389.163	1607.94
389.387	1611.94
389.612	1575.94
389.837	1609.94
390.062	1601.94
390.287	1610.94
390.512	1585.94
390.736	1617.94
390.961	1633.94
391.186	1636.94
391.411	1715.94
391.636	1760.94
391.86	1784.94
392.085	1796.94
392.31	1815.94
392.534	1760.94
392.759	1740.94
392.984	1732.94
393.208	1723.94
393.433	1746.94
393.658	1771.94
393.882	1698.94
394.107	1711.94
394.331	1702.94
394.556	1702.94
394.78	1725.94
395.005	1729.94
395.229	1714.94
395.454	1767.94
395.678	1778.94
395.903	1764.94
396.127	1779.94
396.352	1733.94
396.576	1734.94
396.801	1734.94
397.025	1799.94
397.249	1806.94
397.474	1834.94
397.698	1832.94
397.922	1827.94
398.147	1819.94
398.371	1846.94
398.595	1952.94
398.82	2002.94
399.044	2169.94
399.268	2328.94
399.492	2622.94
399.717	2803.94
399.941	2818.94
400.165	2611.94
400.389	2372.94
400.613	2261.94
400.837	2169.94
401.062	2012.94
401.286	2030.94
401.51	2047.94
401.734	2009.94
401.958	2014.94
402.182	2004.94
402.406	2023.94
402.63	2092.94
402.854	2090.94
403.078	2135.94
403.302	2155.94
403.526	2179.94
403.75	2191.94
403.974	2205.94
404.198	2194.94
404.422	2208.94
404.645	2178.94
404.869	2144.94
405.093	2190.94
405.317	2197.94
405.541	2176.94
405.765	2214.94
405.988	2185.94
406.212	2202.94
406.436	2174.94
406.66	2242.94
406.883	2261.94
407.107	2398.94
407.331	2479.94
407.555	2555.94
407.778	2560.94
408.002	2506.94
408.226	2432.94
408.449	2399.94
408.673	2289.94
408.896	2270.94
409.12	2254.94
409.344	2279.94
409.567	2248.94
409.791	2225.94
410.014	2239.94
410.238	2165.94
410.461	2249.94
410.685	2192.94
410.908	2139.94
411.132	2128.94
411.355	2073.94
411.578	2047.94
411.802	2105.94
412.025	2070.94
412.249	2145.94
412.472	2128.94
412.695	2088.94
412.919	2037.94
413.142	2074.94
413.365	2031.94
413.589	2002.94
413.812	1979.94
414.035	1991.94
414.258	2011.94
414.482	2024.94
414.705	2032.94
414.928	2022.94
415.151	2062.94
415.374	2019.94
415.597	2018.94
415.821	1994.94
416.044	1914.94
416.267	1951.94
416.49	1911.94
416.713	1931.94
416.936	1957.94
417.159	1921.94
417.382	1915.94
417.605	1905.94
417.828	1932.94
418.051	1976.94
418.274	1942.94
418.497	1937.94
418.72	2016.94
418.943	1994.94
419.166	2121.94
419.389	2256.94
419.611	2178.94
419.834	2090.94
420.057	2023.94
420.28	1968.94
420.503	1912.94
420.726	1948.94
420.948	1905.94
421.171	1939.94
421.394	1930.94
421.617	1934.94
421.839	1910.94
422.062	1971.94
422.285	1905.94
422.507	1988.94
422.73	1967.94
422.953	1981.94
423.175	1976.94
423.398	2035.94
423.621	1961.94
423.843	2005.94
424.066	2001.94
424.288	2025.94
424.511	1977.94
424.733	1996.94
424.956	1951.94
425.178	1928.94
425.401	1946.94
425.623	1923.94
425.846	1892.94
426.068	1895.94
426.291	1925.94
426.513	1852.94
426.735	1844.94
426.958	1849.94
427.18	1793.94
427.402	1788.94
427.625	1815.94
427.847	1784.94
428.069	1740.94
428.292	1780.94
428.514	1741.94
428.736	1728.94
428.958	1750.94
429.181	1756.94
429.403	1703.94
429.625	1731.94
429.847	1710.94
430.069	1681.94
430.292	1721.94
430.514	1714.94
430.736	1756.94
430.958	1738.94
431.18	1755.94
431.402	1750.94
431.624	1726.94
431.846	1760.94
432.068	1763.94
432.29	1816.94
432.512	1765.94
432.734	1766.94
432.956	1735.94
433.178	1792.94
433.4	1753.94
433.622	1800.94
433.844	1829.94
434.066	1817.94
434.287	1845.94
434.509	1876.94
434.731	1918.94
434.953	1950.94
435.175	1936.94
435.397	1939.94
435.618	1835.94
435.84	1849.94
436.062	1791.94
436.284	1769.94
436.505	1774.94
436.727	1792.94
436.949	1762.94
437.17	1736.94
437.392	1743.94
437.614	1710.94
437.835	1657.94
438.057	1676.94
438.278	1689.94
438.5	1669.94
438.721	1651.94
438.943	1739.94
439.165	1658.94
439.386	1700.94
439.608	1697.94
439.829	1728.94
440.05	1743.94
440.272	1706.94
440.493	1721.94
440.715	1781.94
440.936	1756.94
441.158	1808.94
441.379	1815.94
441.6	1883.94
441.822	1885.94
442.043	1946.94
442.264	1879.94
442.486	1854.94
442.707	1911.94
442.928	1857.94
443.149	1879.94
443.371	1858.94
443.592	1935.94
443.813	1886.94
444.034	1931.94
444.255	1998.94
444.476	2026.94
444.698	2153.94
444.919	2180.94
445.14	2225.94
445.361	2061.94
445.582	1989.94
445.803	1905.94
446.024	1816.94
446.245	1799.94
446.466	1802.94
446.687	1756.94
446.908	1726.94
447.129	1720.94
447.35	1676.94
447.571	1643.94
447.792	1643.94
448.013	1612.94
448.234	1597.94
448.455	1627.94
448.675	1600.94
448.896	1603.94
449.117	1543.94
449.338	1564.94
449.559	1548.94
449.779	1560.94
450	1555.94
450.221	1562.94
450.442	1540.94
450.662	1570.94
450.883	1567.94
451.104	1611.94
451.324	1563.94
451.545	1584.94
451.766	1570.94
451.986	1545.94
452.207	1536.94
452.428	1543.94
452.648	1535.94
452.869	1507.94
453.089	1488.94
453.31	1493.94
453.53	1527.94
453.751	1505.94
453.971	1504.94
454.192	1511.94
454.412	1487.94
454.633	1486.94
454.853	1475.94
455.073	1485.94
455.294	1475.94
455.514	1484.94
455.734	1473.94
455.955	1451.94
456.175	1490.94
456.395	1472.94
456.616	1475.94
456.836	1446.94
457.056	1446.94
457.276	1426.94
457.497	1465.94
457.717	1477.94
457.937	1491.94
458.157	1526.94
458.377	1515.94
458.598	1542.94
458.818	1596.94
459.038	1611.94
459.258	1669.94
459.478	1719.94
459.698	1780.94
459.918	1782.94
460.138	1881.94
460.358	1966.94
460.578	1995.94
460.798	1991.94
461.018	2008.94
461.238	1968.94
461.458	1964.94
461.678	1985.94
461.898	2000.94
462.118	2002.94
462.338	2129.94
462.558	2145.94
462.777	2247.94
462.997	2424.94
463.217	2501.94
463.437	2517.94
463.657	2382.94
463.876	2281.94
464.096	2295.94
464.316	2302.94
464.536	2293.94
464.755	2205.94
464.975	2139.94
465.195	2068.94
465.414	1980.94
465.634	1826.94
465.854	1786.94
466.073	1780.94
466.293	1743.94
466.512	1715.94
466.732	1679.94
466.951	1692.94
467.171	1646.94
467.391	1653.94
467.61	1664.94
467.829	1616.94
468.049	1624.94
468.268	1610.94
468.488	1627.94
468.707	1615.94
468.927	1558.94
469.146	1577.94
469.365	1598.94
469.585	1636.94
469.804	1633.94
470.023	1664.94
470.243	1659.94
470.462	1703.94
470.681	1713.94
470.901	1691.94
471.12	1695.94
471.339	1644.94
471.558	1608.94
471.777	1606.94
471.997	1588.94
472.216	1623.94
472.435	1608.94
472.654	1582.94
472.873	1556.94
473.092	1588.94
473.311	1564.94
473.53	1548.94
473.749	1536.94
473.968	1545.94
474.187	1527.94
474.406	1545.94
474.625	1562.94
474.844	1545.94
475.063	1585.94
475.282	1592.94
475.501	1616.94
475.72	1613.94
475.939	1634.94
476.158	1648.94
476.377	1664.94
476.596	1681.94
476.814	1642.94
477.033	1647.94
477.252	1701.94
477.471	1745.94
477.69	1788.94
477.908	1818.94
478.127	1853.94
478.346	1918.94
478.564	1933.94
478.783	1922.94
479.002	1971.94
479.22	1981.94
479.439	2005.94
479.658	1947.94
479.876	1999.94
480.095	2004.94
480.313	2095.94
480.532	2089.94
480.751	2088.94
480.969	2069.94
481.188	1972.94
481.406	1997.94
481.624	1957.94
481.843	1940.94
482.061	1911.94
482.28	1876.94
482.498	1898.94
482.717	1911.94
482.935	1918.94
483.153	1901.94
483.372	1933.94
483.59	1935.94
483.808	1924.94
484.027	1936.94
484.245	1978.94
484.463	1982.94
484.681	2023.94
484.9	2004.94
485.118	2051.94
485.336	2039.94
485.554	2099.94
485.772	2153.94
485.99	2087.94
486.209	2083.94
486.427	2090.94
486.645	2075.94
486.863	2073.94
487.081	2080.94
487.299	2039.94
487.517	2010.94
487.735	2036.94
487.953	2076.94
488.171	2008.94
488.389	1998.94
488.607	2015.94
488.825	2017.94
489.043	2007.94
489.261	1958.94
489.479	1998.94
489.696	2000.94
