Data from NiCl2@0.25M.TitratingCurve.Agarose3%dH2O.NegLispCup.LampEnergy10.LIBS07252019_HRD10591_18-25-55-573.txt Node
Date: Thu Jul 25 18:25:55 EDT 2019
User: cochatt
Spectrometer: HR+D1059
Trigger mode: 1
Integration Time (sec): 1.000000E-1
Scans to average: 1
Electric dark correction enabled: true
Nonlinearity correction enabled: false
Boxcar width: 0
XAxis mode: Wavelengths
Number of Pixels in Spectrum: 2048
>>>>>Begin Spectral Data<<<<<
223.165	-26.88
223.4	-26.88
223.635	-26.88
223.869	-13.88
224.104	-5.88
224.338	-15.88
224.573	-15.88
224.808	-20.88
225.042	-3.88
225.277	-7.88
225.511	-0.88
225.746	12.12
225.98	0.12
226.215	15.12
226.449	25.12
226.683	19.12
226.918	11.12
227.152	29.12
227.387	31.12
227.621	45.12
227.856	36.12
228.09	40.12
228.324	39.12
228.559	43.12
228.793	68.12
229.027	93.12
229.262	96.12
229.496	109.12
229.73	125.12
229.964	115.12
230.199	130.12
230.433	124.12
230.667	128.12
230.901	137.12
231.136	152.12
231.37	148.12
231.604	146.12
231.838	151.12
232.072	150.12
232.306	137.12
232.541	132.12
232.775	157.12
233.009	157.12
233.243	146.12
233.477	158.12
233.711	140.12
233.945	143.12
234.179	154.12
234.413	162.12
234.647	162.12
234.881	143.12
235.115	160.12
235.349	138.12
235.583	153.12
235.817	162.12
236.051	140.12
236.285	166.12
236.519	150.12
236.753	153.12
236.987	155.12
237.221	140.12
237.455	156.12
237.689	156.12
237.922	168.12
238.156	160.12
238.39	166.12
238.624	155.12
238.858	147.12
239.091	156.12
239.325	181.12
239.559	166.12
239.793	178.12
240.027	160.12
240.26	173.12
240.494	180.12
240.728	183.12
240.961	179.12
241.195	188.12
241.429	194.12
241.662	183.12
241.896	193.12
242.13	193.12
242.363	183.12
242.597	199.12
242.83	198.12
243.064	189.12
243.298	195.12
243.531	201.12
243.765	207.12
243.998	211.12
244.232	204.12
244.465	219.12
244.699	220.12
244.932	229.12
245.166	222.12
245.399	218.12
245.633	219.12
245.866	207.12
246.099	225.12
246.333	222.12
246.566	220.12
246.8	216.12
247.033	227.12
247.266	224.12
247.5	255.12
247.733	225.12
247.966	223.12
248.2	243.12
248.433	225.12
248.666	245.12
248.899	236.12
249.133	224.12
249.366	246.12
249.599	262.12
249.832	259.12
250.066	254.12
250.299	251.12
250.532	268.12
250.765	252.12
250.998	251.12
251.231	268.12
251.465	276.12
251.698	262.12
251.931	261.12
252.164	264.12
252.397	265.12
252.63	267.12
252.863	268.12
253.096	286.12
253.329	296.12
253.562	267.12
253.795	258.12
254.028	276.12
254.261	282.12
254.494	266.12
254.727	282.12
254.96	277.12
255.193	279.12
255.426	297.12
255.659	306.12
255.892	287.12
256.124	284.12
256.357	297.12
256.59	302.12
256.823	301.12
257.056	296.12
257.289	302.12
257.521	299.12
257.754	304.12
257.987	295.12
258.22	304.12
258.452	294.12
258.685	296.12
258.918	292.12
259.151	310.12
259.383	319.12
259.616	315.12
259.849	326.12
260.081	314.12
260.314	318.12
260.547	306.12
260.779	311.12
261.012	344.12
261.244	340.12
261.477	327.12
261.71	320.12
261.942	311.12
262.175	313.12
262.407	340.12
262.64	337.12
262.872	334.12
263.105	340.12
263.337	329.12
263.57	337.12
263.802	337.12
264.035	348.12
264.267	337.12
264.499	337.12
264.732	355.12
264.964	359.12
265.197	350.12
265.429	342.12
265.661	341.12
265.894	383.12
266.126	376.12
266.358	352.12
266.591	366.12
266.823	382.12
267.055	352.12
267.287	385.12
267.52	369.12
267.752	359.12
267.984	349.12
268.216	371.12
268.448	382.12
268.681	381.12
268.913	360.12
269.145	370.12
269.377	372.12
269.609	397.12
269.841	383.12
270.073	366.12
270.306	372.12
270.538	366.12
270.77	366.12
271.002	373.12
271.234	372.12
271.466	388.12
271.698	375.12
271.93	390.12
272.162	386.12
272.394	386.12
272.626	383.12
272.858	386.12
273.09	394.12
273.322	416.12
273.553	404.12
273.785	403.12
274.017	388.12
274.249	405.12
274.481	417.12
274.713	407.12
274.945	423.12
275.176	392.12
275.408	421.12
275.64	404.12
275.872	436.12
276.104	427.12
276.335	406.12
276.567	402.12
276.799	404.12
277.031	422.12
277.262	415.12
277.494	436.12
277.726	448.12
277.957	439.12
278.189	428.12
278.421	423.12
278.652	441.12
278.884	410.12
279.115	446.12
279.347	458.12
279.579	445.12
279.81	452.12
280.042	475.12
280.273	458.12
280.505	456.12
280.736	472.12
280.968	457.12
281.199	439.12
281.431	448.12
281.662	470.12
281.894	467.12
282.125	471.12
282.356	498.12
282.588	474.12
282.819	479.12
283.051	476.12
283.282	488.12
283.513	479.12
283.745	497.12
283.976	501.12
284.207	483.12
284.439	494.12
284.67	488.12
284.901	489.12
285.132	510.12
285.364	503.12
285.595	503.12
285.826	484.12
286.057	506.12
286.288	481.12
286.52	490.12
286.751	509.12
286.982	524.12
287.213	530.12
287.444	534.12
287.675	529.12
287.906	510.12
288.138	501.12
288.369	531.12
288.6	533.12
288.831	495.12
289.062	510.12
289.293	508.12
289.524	523.12
289.755	519.12
289.986	527.12
290.217	545.12
290.448	520.12
290.679	536.12
290.91	531.12
291.141	530.12
291.371	539.12
291.602	534.12
291.833	534.12
292.064	540.12
292.295	519.12
292.526	533.12
292.757	545.12
292.987	517.12
293.218	513.12
293.449	544.12
293.68	546.12
293.91	525.12
294.141	530.12
294.372	523.12
294.603	536.12
294.833	535.12
295.064	547.12
295.295	546.12
295.525	523.12
295.756	556.12
295.987	533.12
296.217	561.12
296.448	564.12
296.679	551.12
296.909	582.12
297.14	576.12
297.37	578.12
297.601	603.12
297.831	560.12
298.062	564.12
298.292	587.12
298.523	562.12
298.753	585.12
298.984	589.12
299.214	590.12
299.445	590.12
299.675	582.12
299.905	582.12
300.136	577.12
300.366	555.12
300.597	587.12
300.827	600.12
301.057	611.12
301.288	606.12
301.518	608.12
301.748	626.12
301.979	632.12
302.209	627.12
302.439	600.12
302.669	606.12
302.9	618.12
303.13	581.12
303.36	624.12
303.59	601.12
303.82	601.12
304.051	582.12
304.281	607.12
304.511	601.12
304.741	599.12
304.971	602.12
305.201	616.12
305.431	595.12
305.661	590.12
305.891	623.12
306.121	594.12
306.352	603.12
306.582	596.12
306.812	569.12
307.042	576.12
307.272	574.12
307.502	608.12
307.731	587.12
307.961	601.12
308.191	598.12
308.421	595.12
308.651	598.12
308.881	569.12
309.111	589.12
309.341	579.12
309.571	569.12
309.8	583.12
310.03	595.12
310.26	611.12
310.49	602.12
310.72	589.12
310.949	600.12
311.179	578.12
311.409	570.12
311.639	594.12
311.868	625.12
312.098	612.12
312.328	614.12
312.557	594.12
312.787	618.12
313.017	635.12
313.246	624.12
313.476	608.12
313.706	635.12
313.935	626.12
314.165	640.12
314.394	642.12
314.624	643.12
314.853	634.12
315.083	622.12
315.312	628.12
315.542	634.12
315.771	639.12
316.001	644.12
316.23	647.12
316.46	607.12
316.689	621.12
316.919	627.12
317.148	636.12
317.377	642.12
317.607	612.12
317.836	613.12
318.065	630.12
318.295	624.12
318.524	635.12
318.753	609.12
318.983	609.12
319.212	627.12
319.441	617.12
319.67	609.12
319.9	615.12
320.129	611.12
320.358	622.12
320.587	644.12
320.816	625.12
321.046	619.12
321.275	648.12
321.504	655.12
321.733	622.12
321.962	644.12
322.191	628.12
322.42	647.12
322.649	613.12
322.878	628.12
323.108	614.12
323.337	626.12
323.566	645.12
323.795	651.12
324.024	655.12
324.253	650.12
324.482	648.12
324.71	645.12
324.939	662.12
325.168	646.12
325.397	663.12
325.626	659.12
325.855	682.12
326.084	680.12
326.313	689.12
326.542	692.12
326.77	695.12
326.999	666.12
327.228	644.12
327.457	690.12
327.686	691.12
327.914	694.12
328.143	669.12
328.372	696.12
328.6	664.12
328.829	676.12
329.058	683.12
329.287	684.12
329.515	680.12
329.744	697.12
329.972	715.12
330.201	702.12
330.43	699.12
330.658	694.12
330.887	732.12
331.115	706.12
331.344	717.12
331.572	740.12
331.801	742.12
332.03	770.12
332.258	766.12
332.486	801.12
332.715	837.12
332.943	850.12
333.172	874.12
333.4	932.12
333.629	913.12
333.857	939.12
334.085	921.12
334.314	921.12
334.542	900.12
334.771	902.12
334.999	887.12
335.227	882.12
335.455	846.12
335.684	848.12
335.912	847.12
336.14	830.12
336.369	843.12
336.597	870.12
336.825	856.12
337.053	831.12
337.281	777.12
337.51	748.12
337.738	788.12
337.966	775.12
338.194	756.12
338.422	730.12
338.65	732.12
338.878	747.12
339.106	744.12
339.334	781.12
339.562	729.12
339.79	732.12
340.018	693.12
340.246	694.12
340.474	732.12
340.702	737.12
340.93	727.12
341.158	720.12
341.386	744.12
341.614	704.12
341.842	709.12
342.07	716.12
342.298	729.12
342.526	677.12
342.754	710.12
342.981	705.12
343.209	718.12
343.437	764.12
343.665	816.12
343.893	850.12
344.12	868.12
344.348	865.12
344.576	838.12
344.804	773.12
345.031	754.12
345.259	744.12
345.487	734.12
345.714	735.12
345.942	716.12
346.17	689.12
346.397	683.12
346.625	720.12
346.853	706.12
347.08	689.12
347.308	702.12
347.535	722.12
347.763	706.12
347.99	698.12
348.218	711.12
348.445	680.12
348.673	687.12
348.9	668.12
349.128	692.12
349.355	697.12
349.583	666.12
349.81	669.12
350.037	696.12
350.265	698.12
350.492	666.12
350.72	658.12
350.947	663.12
351.174	658.12
351.402	646.12
351.629	676.12
351.856	644.12
352.083	634.12
352.311	665.12
352.538	679.12
352.765	668.12
352.992	656.12
353.22	672.12
353.447	646.12
353.674	660.12
353.901	663.12
354.128	666.12
354.355	661.12
354.583	650.12
354.81	659.12
355.037	678.12
355.264	699.12
355.491	657.12
355.718	668.12
355.945	668.12
356.172	672.12
356.399	657.12
356.626	648.12
356.853	686.12
357.08	665.12
357.307	663.12
357.534	684.12
357.761	653.12
357.988	665.12
358.215	673.12
358.441	706.12
358.668	657.12
358.895	667.12
359.122	666.12
359.349	671.12
359.576	666.12
359.802	659.12
360.029	644.12
360.256	669.12
360.483	661.12
360.709	672.12
360.936	670.12
361.163	656.12
361.39	675.12
361.616	681.12
361.843	665.12
362.07	664.12
362.296	694.12
362.523	667.12
362.749	681.12
362.976	675.12
363.203	665.12
363.429	680.12
363.656	670.12
363.882	652.12
364.109	666.12
364.335	666.12
364.562	654.12
364.788	666.12
365.015	660.12
365.241	641.12
365.468	676.12
365.694	659.12
365.92	685.12
366.147	654.12
366.373	675.12
366.599	671.12
366.826	675.12
367.052	684.12
367.278	667.12
367.505	659.12
367.731	672.12
367.957	663.12
368.184	642.12
368.41	693.12
368.636	662.12
368.862	652.12
369.089	671.12
369.315	681.12
369.541	684.12
369.767	710.12
369.993	691.12
370.219	698.12
370.445	705.12
370.672	695.12
370.898	704.12
371.124	726.12
371.35	718.12
371.576	730.12
371.802	739.12
372.028	720.12
372.254	738.12
372.48	726.12
372.706	759.12
372.932	785.12
373.158	754.12
373.384	742.12
373.61	706.12
373.835	728.12
374.061	721.12
374.287	740.12
374.513	737.12
374.739	763.12
374.965	814.12
375.191	816.12
375.416	801.12
375.642	807.12
375.868	774.12
376.094	776.12
376.319	773.12
376.545	739.12
376.771	747.12
376.997	707.12
377.222	734.12
377.448	728.12
377.674	711.12
377.899	686.12
378.125	707.12
378.35	735.12
378.576	734.12
378.802	678.12
379.027	711.12
379.253	698.12
379.478	708.12
379.704	714.12
379.929	724.12
380.155	741.12
380.38	725.12
380.606	711.12
380.831	711.12
381.057	706.12
381.282	703.12
381.507	720.12
381.733	743.12
381.958	736.12
382.184	755.12
382.409	778.12
382.634	768.12
382.86	768.12
383.085	775.12
383.31	772.12
383.535	808.12
383.761	815.12
383.986	815.12
384.211	824.12
384.436	839.12
384.662	844.12
384.887	857.12
385.112	848.12
385.337	864.12
385.562	861.12
385.787	887.12
386.013	890.12
386.238	886.12
386.463	884.12
386.688	917.12
386.913	863.12
387.138	869.12
387.363	868.12
387.588	866.12
387.813	884.12
388.038	861.12
388.263	870.12
388.488	878.12
388.713	894.12
388.938	844.12
389.163	838.12
389.387	872.12
389.612	837.12
389.837	857.12
390.062	828.12
390.287	850.12
390.512	858.12
390.736	873.12
390.961	895.12
391.186	914.12
391.411	908.12
391.636	965.12
391.86	983.12
392.085	999.12
392.31	976.12
392.534	970.12
392.759	956.12
392.984	937.12
393.208	921.12
393.433	906.12
393.658	878.12
393.882	946.12
394.107	935.12
394.331	970.12
394.556	935.12
394.78	950.12
395.005	932.12
395.229	950.12
395.454	978.12
395.678	1000.12
395.903	1013.12
396.127	993.12
396.352	970.12
396.576	937.12
396.801	935.12
397.025	946.12
397.249	942.12
397.474	995.12
397.698	1000.12
397.922	990.12
398.147	983.12
398.371	1028.12
398.595	1042.12
398.82	1059.12
399.044	1191.12
399.268	1314.12
399.492	1499.12
399.717	1634.12
399.941	1683.12
400.165	1538.12
400.389	1371.12
400.613	1249.12
400.837	1191.12
401.062	1119.12
401.286	1106.12
401.51	1144.12
401.734	1123.12
401.958	1141.12
402.182	1125.12
402.406	1134.12
402.63	1161.12
402.854	1183.12
403.078	1200.12
403.302	1233.12
403.526	1238.12
403.75	1263.12
403.974	1307.12
404.198	1255.12
404.422	1274.12
404.645	1288.12
404.869	1246.12
405.093	1286.12
405.317	1252.12
405.541	1259.12
405.765	1219.12
405.988	1186.12
406.212	1243.12
406.436	1223.12
406.66	1256.12
406.883	1271.12
407.107	1331.12
407.331	1394.12
407.555	1435.12
407.778	1421.12
408.002	1402.12
408.226	1378.12
408.449	1339.12
408.673	1292.12
408.896	1281.12
409.12	1227.12
409.344	1255.12
409.567	1255.12
409.791	1248.12
410.014	1248.12
410.238	1252.12
410.461	1220.12
410.685	1242.12
410.908	1204.12
411.132	1194.12
411.355	1117.12
411.578	1170.12
411.802	1138.12
412.025	1130.12
412.249	1201.12
412.472	1164.12
412.695	1125.12
412.919	1118.12
413.142	1136.12
413.365	1141.12
413.589	1127.12
413.812	1111.12
414.035	1073.12
414.258	1100.12
414.482	1141.12
414.705	1142.12
414.928	1128.12
415.151	1122.12
415.374	1092.12
415.597	1110.12
415.821	1114.12
416.044	1084.12
416.267	1086.12
416.49	1086.12
416.713	1096.12
416.936	1081.12
417.159	1079.12
417.382	1091.12
417.605	1068.12
417.828	1090.12
418.051	1108.12
418.274	1137.12
418.497	1115.12
418.72	1144.12
418.943	1137.12
419.166	1184.12
419.389	1255.12
419.611	1216.12
419.834	1184.12
420.057	1173.12
420.28	1098.12
420.503	1094.12
420.726	1067.12
420.948	1076.12
421.171	1091.12
421.394	1072.12
421.617	1045.12
421.839	1082.12
422.062	1095.12
422.285	1102.12
422.507	1134.12
422.73	1146.12
422.953	1076.12
423.175	1133.12
423.398	1124.12
423.621	1142.12
423.843	1147.12
424.066	1142.12
424.288	1176.12
424.511	1127.12
424.733	1162.12
424.956	1108.12
425.178	1112.12
425.401	1114.12
425.623	1075.12
425.846	1074.12
426.068	1057.12
426.291	1069.12
426.513	1017.12
426.735	1010.12
426.958	1018.12
427.18	993.12
427.402	977.12
427.625	992.12
427.847	976.12
428.069	964.12
428.292	970.12
428.514	921.12
428.736	965.12
428.958	964.12
429.181	939.12
429.403	938.12
429.625	967.12
429.847	925.12
430.069	948.12
430.292	970.12
430.514	938.12
430.736	949.12
430.958	926.12
431.18	953.12
431.402	921.12
431.624	962.12
431.846	987.12
432.068	967.12
432.29	987.12
432.512	974.12
432.734	965.12
432.956	955.12
433.178	958.12
433.4	972.12
433.622	974.12
433.844	999.12
434.066	993.12
434.287	978.12
434.509	1044.12
434.731	1030.12
434.953	1114.12
435.175	1095.12
435.397	1109.12
435.618	1014.12
435.84	1006.12
436.062	977.12
436.284	980.12
436.505	942.12
436.727	969.12
436.949	956.12
437.17	934.12
437.392	919.12
437.614	963.12
437.835	949.12
438.057	938.12
438.278	916.12
438.5	906.12
438.721	911.12
438.943	904.12
439.165	923.12
439.386	939.12
439.608	936.12
439.829	962.12
440.05	981.12
440.272	970.12
440.493	986.12
440.715	964.12
440.936	1002.12
441.158	1018.12
441.379	1047.12
441.6	1058.12
441.822	1119.12
442.043	1106.12
442.264	1076.12
442.486	1030.12
442.707	1042.12
442.928	1052.12
443.149	1086.12
443.371	1034.12
443.592	1073.12
443.813	1086.12
444.034	1103.12
444.255	1108.12
444.476	1175.12
444.698	1245.12
444.919	1267.12
445.14	1366.12
445.361	1182.12
445.582	1115.12
445.803	1062.12
446.024	1028.12
446.245	1008.12
446.466	967.12
446.687	937.12
446.908	954.12
447.129	908.12
447.35	937.12
447.571	942.12
447.792	904.12
448.013	901.12
448.234	915.12
448.455	878.12
448.675	869.12
448.896	896.12
449.117	865.12
449.338	851.12
449.559	872.12
449.779	860.12
450	851.12
450.221	892.12
450.442	863.12
450.662	898.12
450.883	898.12
451.104	903.12
451.324	906.12
451.545	898.12
451.766	905.12
451.986	876.12
452.207	903.12
452.428	894.12
452.648	855.12
452.869	848.12
453.089	847.12
453.31	865.12
453.53	848.12
453.751	850.12
453.971	872.12
454.192	837.12
454.412	846.12
454.633	828.12
454.853	819.12
455.073	831.12
455.294	823.12
455.514	840.12
455.734	847.12
455.955	800.12
456.175	844.12
456.395	805.12
456.616	811.12
456.836	823.12
457.056	833.12
457.276	811.12
457.497	823.12
457.717	812.12
457.937	827.12
458.157	827.12
458.377	847.12
458.598	856.12
458.818	866.12
459.038	903.12
459.258	958.12
459.478	1024.12
459.698	1012.12
459.918	1019.12
460.138	1072.12
460.358	1113.12
460.578	1125.12
460.798	1148.12
461.018	1194.12
461.238	1146.12
461.458	1126.12
461.678	1132.12
461.898	1155.12
462.118	1174.12
462.338	1195.12
462.558	1256.12
462.777	1322.12
462.997	1475.12
463.217	1539.12
463.437	1567.12
463.657	1450.12
463.876	1384.12
464.096	1336.12
464.316	1334.12
464.536	1341.12
464.755	1318.12
464.975	1249.12
465.195	1163.12
465.414	1110.12
465.634	1072.12
465.854	980.12
466.073	965.12
466.293	943.12
466.512	922.12
466.732	941.12
466.951	939.12
467.171	934.12
467.391	941.12
467.61	920.12
467.829	908.12
468.049	930.12
468.268	896.12
468.488	876.12
468.707	880.12
468.927	913.12
469.146	882.12
469.365	916.12
469.585	913.12
469.804	913.12
470.023	980.12
470.243	946.12
470.462	945.12
470.681	968.12
470.901	979.12
471.12	936.12
471.339	928.12
471.558	898.12
471.777	894.12
471.997	893.12
472.216	857.12
472.435	873.12
472.654	868.12
472.873	845.12
473.092	859.12
473.311	851.12
473.53	851.12
473.749	863.12
473.968	839.12
474.187	826.12
474.406	851.12
474.625	859.12
474.844	850.12
475.063	848.12
475.282	859.12
475.501	859.12
475.72	862.12
475.939	875.12
476.158	907.12
476.377	911.12
476.596	893.12
476.814	906.12
477.033	912.12
477.252	930.12
477.471	951.12
477.69	968.12
477.908	1009.12
478.127	990.12
478.346	1006.12
478.564	1033.12
478.783	1066.12
479.002	1082.12
479.22	1095.12
479.439	1071.12
479.658	1088.12
479.876	1066.12
480.095	1082.12
480.313	1125.12
480.532	1183.12
480.751	1180.12
480.969	1128.12
481.188	1077.12
481.406	1048.12
481.624	1004.12
481.843	1018.12
482.061	1007.12
482.28	1002.12
482.498	961.12
482.717	953.12
482.935	984.12
483.153	980.12
483.372	998.12
483.59	978.12
483.808	959.12
484.027	1003.12
484.245	1010.12
484.463	1027.12
484.681	1022.12
484.9	1034.12
485.118	1033.12
485.336	1010.12
485.554	1012.12
485.772	1020.12
485.99	1038.12
486.209	1043.12
486.427	1076.12
486.645	1053.12
486.863	1052.12
487.081	1042.12
487.299	1032.12
487.517	1038.12
487.735	1037.12
487.953	1049.12
488.171	1027.12
488.389	1019.12
488.607	984.12
488.825	1020.12
489.043	1012.12
489.261	1026.12
489.479	1049.12
489.696	1028.12
489.914	1034.12
490.132	1027.12
490.35	1024.12
490.568	1044.12
490.786	1027.12
491.003	1037.12
491.221	1032.12
491.439	1045.12
491.657	1054.12
491.874	1054.12
492.092	1048.12
492.31	1044.12
492.527	1072.12
492.745	1060.12
492.963	1051.12
493.18	1082.12
493.398	1082.12
493.615	1066.12
493.833	1105.12
494.05	1088.12
494.268	1129.12
494.485	1146.12
494.703	1113.12
494.92	1094.12
495.138	1125.12
495.355	1127.12
495.573	1113.12
495.79	1098.12
496.008	1110.12
496.225	1090.12
496.442	1152.12
496.66	1152.12
496.877	1152.12
497.094	1194.12
497.312	1198.12
497.529	1222.12
497.746	1296.12
497.963	1299.12
