Data from NiCl2@0.125M.TitratingCurve.Agarose3%dH2O.NegLispCup.LampEnergy10.LIBS07252019_HRD10591_18-29-38-576.txt Node
Date: Thu Jul 25 18:29:38 EDT 2019
User: cochatt
Spectrometer: HR+D1059
Trigger mode: 1
Integration Time (sec): 1.000000E-1
Scans to average: 1
Electric dark correction enabled: true
Nonlinearity correction enabled: false
Boxcar width: 0
XAxis mode: Wavelengths
Number of Pixels in Spectrum: 2048
>>>>>Begin Spectral Data<<<<<
223.165	-18.19
223.4	-18.19
223.635	-18.19
223.869	-16.19
224.104	-34.19
224.338	-21.19
224.573	-3.19
224.808	-8.19
225.042	-0.19
225.277	-17.19
225.511	-13.19
225.746	-8.19
225.98	12.81
226.215	26.81
226.449	15.81
226.683	12.81
226.918	38.81
227.152	32.81
227.387	24.81
227.621	35.81
227.856	46.81
228.09	58.81
228.324	42.81
228.559	52.81
228.793	76.81
229.027	108.81
229.262	133.81
229.496	127.81
229.73	119.81
229.964	144.81
230.199	141.81
230.433	144.81
230.667	154.81
230.901	148.81
231.136	124.81
231.37	152.81
231.604	152.81
231.838	149.81
232.072	151.81
232.306	175.81
232.541	152.81
232.775	157.81
233.009	156.81
233.243	148.81
233.477	174.81
233.711	166.81
233.945	151.81
234.179	170.81
234.413	167.81
234.647	178.81
234.881	179.81
235.115	162.81
235.349	148.81
235.583	175.81
235.817	182.81
236.051	170.81
236.285	159.81
236.519	166.81
236.753	176.81
236.987	144.81
237.221	167.81
237.455	179.81
237.689	174.81
237.922	186.81
238.156	184.81
238.39	171.81
238.624	170.81
238.858	176.81
239.091	194.81
239.325	196.81
239.559	195.81
239.793	212.81
240.027	200.81
240.26	205.81
240.494	193.81
240.728	195.81
240.961	211.81
241.195	194.81
241.429	195.81
241.662	203.81
241.896	229.81
242.13	227.81
242.363	215.81
242.597	199.81
242.83	228.81
243.064	230.81
243.298	223.81
243.531	216.81
243.765	198.81
243.998	217.81
244.232	224.81
244.465	227.81
244.699	250.81
244.932	234.81
245.166	247.81
245.399	242.81
245.633	238.81
245.866	251.81
246.099	258.81
246.333	261.81
246.566	252.81
246.8	242.81
247.033	253.81
247.266	256.81
247.5	252.81
247.733	261.81
247.966	262.81
248.2	289.81
248.433	261.81
248.666	259.81
248.899	289.81
249.133	271.81
249.366	281.81
249.599	269.81
249.832	271.81
250.066	272.81
250.299	272.81
250.532	283.81
250.765	282.81
250.998	253.81
251.231	292.81
251.465	295.81
251.698	286.81
251.931	301.81
252.164	302.81
252.397	289.81
252.63	305.81
252.863	320.81
253.096	318.81
253.329	294.81
253.562	292.81
253.795	287.81
254.028	306.81
254.261	307.81
254.494	306.81
254.727	291.81
254.96	295.81
255.193	307.81
255.426	314.81
255.659	320.81
255.892	320.81
256.124	323.81
256.357	321.81
256.59	319.81
256.823	330.81
257.056	311.81
257.289	311.81
257.521	328.81
257.754	341.81
257.987	341.81
258.22	327.81
258.452	313.81
258.685	361.81
258.918	352.81
259.151	338.81
259.383	347.81
259.616	339.81
259.849	345.81
260.081	336.81
260.314	363.81
260.547	344.81
260.779	328.81
261.012	361.81
261.244	343.81
261.477	367.81
261.71	354.81
261.942	343.81
262.175	359.81
262.407	348.81
262.64	329.81
262.872	380.81
263.105	374.81
263.337	353.81
263.57	366.81
263.802	354.81
264.035	375.81
264.267	368.81
264.499	376.81
264.732	375.81
264.964	399.81
265.197	387.81
265.429	394.81
265.661	389.81
265.894	390.81
266.126	391.81
266.358	384.81
266.591	394.81
266.823	394.81
267.055	408.81
267.287	393.81
267.52	401.81
267.752	409.81
267.984	399.81
268.216	406.81
268.448	408.81
268.681	419.81
268.913	423.81
269.145	419.81
269.377	434.81
269.609	411.81
269.841	429.81
270.073	425.81
270.306	412.81
270.538	400.81
270.77	408.81
271.002	421.81
271.234	448.81
271.466	447.81
271.698	441.81
271.93	421.81
272.162	428.81
272.394	417.81
272.626	437.81
272.858	439.81
273.09	447.81
273.322	444.81
273.553	448.81
273.785	442.81
274.017	474.81
274.249	452.81
274.481	445.81
274.713	427.81
274.945	449.81
275.176	457.81
275.408	450.81
275.64	436.81
275.872	461.81
276.104	466.81
276.335	454.81
276.567	452.81
276.799	488.81
277.031	476.81
277.262	461.81
277.494	445.81
277.726	472.81
277.957	501.81
278.189	474.81
278.421	468.81
278.652	484.81
278.884	477.81
279.115	478.81
279.347	488.81
279.579	500.81
279.81	487.81
280.042	481.81
280.273	506.81
280.505	483.81
280.736	484.81
280.968	523.81
281.199	495.81
281.431	520.81
281.662	521.81
281.894	486.81
282.125	520.81
282.356	540.81
282.588	508.81
282.819	526.81
283.051	515.81
283.282	520.81
283.513	519.81
283.745	550.81
283.976	544.81
284.207	527.81
284.439	533.81
284.67	550.81
284.901	525.81
285.132	536.81
285.364	570.81
285.595	538.81
285.826	563.81
286.057	575.81
286.288	572.81
286.52	562.81
286.751	557.81
286.982	562.81
287.213	560.81
287.444	575.81
287.675	559.81
287.906	545.81
288.138	555.81
288.369	566.81
288.6	570.81
288.831	570.81
289.062	547.81
289.293	559.81
289.524	567.81
289.755	586.81
289.986	588.81
290.217	573.81
290.448	608.81
290.679	599.81
290.91	603.81
291.141	587.81
291.371	587.81
291.602	578.81
291.833	570.81
292.064	576.81
292.295	598.81
292.526	606.81
292.757	600.81
292.987	588.81
293.218	574.81
293.449	580.81
293.68	600.81
293.91	587.81
294.141	613.81
294.372	599.81
294.603	602.81
294.833	578.81
295.064	595.81
295.295	581.81
295.525	608.81
295.756	629.81
295.987	595.81
296.217	615.81
296.448	617.81
296.679	624.81
296.909	610.81
297.14	598.81
297.37	640.81
297.601	634.81
297.831	625.81
298.062	629.81
298.292	646.81
298.523	642.81
298.753	670.81
298.984	643.81
299.214	640.81
299.445	634.81
299.675	639.81
299.905	655.81
300.136	637.81
300.366	645.81
300.597	637.81
300.827	676.81
301.057	694.81
301.288	662.81
301.518	680.81
301.748	670.81
301.979	646.81
302.209	684.81
302.439	666.81
302.669	662.81
302.9	657.81
303.13	655.81
303.36	658.81
303.59	648.81
303.82	667.81
304.051	669.81
304.281	680.81
304.511	636.81
304.741	642.81
304.971	680.81
305.201	653.81
305.431	642.81
305.661	670.81
305.891	642.81
306.121	656.81
306.352	660.81
306.582	626.81
306.812	644.81
307.042	642.81
307.272	643.81
307.502	644.81
307.731	648.81
307.961	650.81
308.191	648.81
308.421	642.81
308.651	611.81
308.881	630.81
309.111	630.81
309.341	628.81
309.571	621.81
309.8	648.81
310.03	654.81
310.26	664.81
310.49	642.81
310.72	628.81
310.949	657.81
311.179	674.81
311.409	649.81
311.639	655.81
311.868	666.81
312.098	667.81
312.328	659.81
312.557	668.81
312.787	680.81
313.017	680.81
313.246	663.81
313.476	693.81
313.706	709.81
313.935	664.81
314.165	702.81
314.394	678.81
314.624	698.81
314.853	701.81
315.083	695.81
315.312	701.81
315.542	683.81
315.771	676.81
316.001	673.81
316.23	689.81
316.46	687.81
316.689	662.81
316.919	664.81
317.148	674.81
317.377	685.81
317.607	647.81
317.836	647.81
318.065	671.81
318.295	684.81
318.524	680.81
318.753	674.81
318.983	687.81
319.212	684.81
319.441	668.81
319.67	649.81
319.9	660.81
320.129	680.81
320.358	707.81
320.587	675.81
320.816	682.81
321.046	663.81
321.275	692.81
321.504	674.81
321.733	677.81
321.962	682.81
322.191	688.81
322.42	669.81
322.649	670.81
322.878	677.81
323.108	694.81
323.337	679.81
323.566	702.81
323.795	690.81
324.024	693.81
324.253	708.81
324.482	715.81
324.71	702.81
324.939	710.81
325.168	707.81
325.397	692.81
325.626	708.81
325.855	729.81
326.084	756.81
326.313	736.81
326.542	728.81
326.77	738.81
326.999	719.81
327.228	721.81
327.457	715.81
327.686	707.81
327.914	727.81
328.143	722.81
328.372	735.81
328.6	734.81
328.829	722.81
329.058	743.81
329.287	748.81
329.515	744.81
329.744	743.81
329.972	773.81
330.201	737.81
330.43	760.81
330.658	720.81
330.887	744.81
331.115	759.81
331.344	762.81
331.572	776.81
331.801	810.81
332.03	795.81
332.258	848.81
332.486	851.81
332.715	874.81
332.943	912.81
333.172	948.81
333.4	971.81
333.629	1045.81
333.857	1058.81
334.085	1035.81
334.314	987.81
334.542	994.81
334.771	981.81
334.999	931.81
335.227	900.81
335.455	932.81
335.684	918.81
335.912	899.81
336.14	893.81
336.369	892.81
336.597	868.81
336.825	893.81
337.053	904.81
337.281	889.81
337.51	864.81
337.738	860.81
337.966	845.81
338.194	841.81
338.422	804.81
338.65	820.81
338.878	819.81
339.106	805.81
339.334	799.81
339.562	793.81
339.79	778.81
340.018	759.81
340.246	748.81
340.474	788.81
340.702	764.81
340.93	798.81
341.158	779.81
341.386	757.81
341.614	796.81
341.842	754.81
342.07	755.81
342.298	777.81
342.526	757.81
342.754	746.81
342.981	768.81
343.209	781.81
343.437	796.81
343.665	854.81
343.893	946.81
344.12	982.81
344.348	938.81
344.576	871.81
344.804	847.81
345.031	822.81
345.259	826.81
345.487	769.81
345.714	778.81
345.942	760.81
346.17	773.81
346.397	750.81
346.625	751.81
346.853	753.81
347.08	732.81
347.308	778.81
347.535	770.81
347.763	754.81
347.99	783.81
348.218	769.81
348.445	781.81
348.673	742.81
348.9	743.81
349.128	737.81
349.355	731.81
349.583	733.81
349.81	731.81
350.037	729.81
350.265	744.81
350.492	721.81
350.72	708.81
350.947	708.81
351.174	709.81
351.402	694.81
351.629	707.81
351.856	705.81
352.083	727.81
352.311	690.81
352.538	714.81
352.765	719.81
352.992	702.81
353.22	705.81
353.447	707.81
353.674	691.81
353.901	691.81
354.128	696.81
354.355	683.81
354.583	732.81
354.81	717.81
355.037	749.81
355.264	728.81
355.491	731.81
355.718	724.81
355.945	720.81
356.172	721.81
356.399	717.81
356.626	751.81
356.853	706.81
357.08	706.81
357.307	728.81
357.534	741.81
357.761	706.81
357.988	726.81
358.215	719.81
358.441	707.81
358.668	718.81
358.895	707.81
359.122	732.81
359.349	734.81
359.576	718.81
359.802	724.81
360.029	714.81
360.256	720.81
360.483	745.81
360.709	723.81
360.936	710.81
361.163	722.81
361.39	743.81
361.616	726.81
361.843	710.81
362.07	714.81
362.296	724.81
362.523	702.81
362.749	717.81
362.976	698.81
363.203	696.81
363.429	706.81
363.656	717.81
363.882	706.81
364.109	710.81
364.335	726.81
364.562	715.81
364.788	713.81
365.015	706.81
365.241	709.81
365.468	703.81
365.694	715.81
365.92	731.81
366.147	743.81
366.373	727.81
366.599	710.81
366.826	695.81
367.052	683.81
367.278	716.81
367.505	726.81
367.731	738.81
367.957	715.81
368.184	730.81
368.41	716.81
368.636	720.81
368.862	750.81
369.089	723.81
369.315	740.81
369.541	733.81
369.767	746.81
369.993	749.81
370.219	725.81
370.445	777.81
370.672	752.81
370.898	770.81
371.124	775.81
371.35	749.81
371.576	792.81
371.802	783.81
372.028	793.81
372.254	776.81
372.48	770.81
372.706	782.81
372.932	834.81
373.158	807.81
373.384	783.81
373.61	770.81
373.835	795.81
374.061	778.81
374.287	779.81
374.513	841.81
374.739	828.81
374.965	815.81
375.191	889.81
375.416	873.81
375.642	831.81
375.868	854.81
376.094	845.81
376.319	798.81
376.545	809.81
376.771	784.81
376.997	770.81
377.222	809.81
377.448	808.81
377.674	804.81
377.899	787.81
378.125	760.81
378.35	770.81
378.576	789.81
378.802	796.81
379.027	769.81
379.253	757.81
379.478	774.81
379.704	757.81
379.929	768.81
380.155	748.81
380.38	769.81
380.606	770.81
380.831	752.81
381.057	782.81
381.282	782.81
381.507	766.81
381.733	785.81
381.958	778.81
382.184	812.81
382.409	813.81
382.634	820.81
382.86	827.81
383.085	844.81
383.31	832.81
383.535	866.81
383.761	835.81
383.986	909.81
384.211	903.81
384.436	905.81
384.662	927.81
384.887	971.81
385.112	947.81
385.337	964.81
385.562	959.81
385.787	968.81
386.013	975.81
386.238	975.81
386.463	973.81
386.688	947.81
386.913	971.81
387.138	959.81
387.363	934.81
387.588	934.81
387.813	915.81
388.038	930.81
388.263	920.81
388.488	941.81
388.713	949.81
388.938	930.81
389.163	924.81
389.387	913.81
389.612	906.81
389.837	932.81
390.062	908.81
390.287	932.81
390.512	926.81
390.736	967.81
390.961	929.81
391.186	957.81
391.411	1020.81
391.636	1050.81
391.86	1073.81
392.085	1053.81
392.31	1069.81
392.534	1051.81
392.759	1027.81
392.984	998.81
393.208	993.81
393.433	996.81
393.658	1001.81
393.882	982.81
394.107	1012.81
394.331	1012.81
394.556	1016.81
394.78	1012.81
395.005	1014.81
395.229	1031.81
395.454	1040.81
395.678	1074.81
395.903	1099.81
396.127	1041.81
396.352	1023.81
396.576	958.81
396.801	970.81
397.025	999.81
397.249	1015.81
397.474	1076.81
397.698	1072.81
397.922	1033.81
398.147	1045.81
398.371	1071.81
398.595	1115.81
398.82	1174.81
399.044	1258.81
399.268	1408.81
399.492	1641.81
399.717	1852.81
399.941	1883.81
400.165	1662.81
400.389	1492.81
400.613	1332.81
400.837	1236.81
401.062	1211.81
401.286	1184.81
401.51	1203.81
401.734	1196.81
401.958	1188.81
402.182	1222.81
402.406	1242.81
402.63	1228.81
402.854	1261.81
403.078	1276.81
403.302	1356.81
403.526	1391.81
403.75	1359.81
403.974	1395.81
404.198	1424.81
404.422	1418.81
404.645	1394.81
404.869	1360.81
405.093	1385.81
405.317	1330.81
405.541	1348.81
405.765	1328.81
405.988	1330.81
406.212	1348.81
406.436	1340.81
406.66	1332.81
406.883	1359.81
407.107	1423.81
407.331	1524.81
407.555	1565.81
407.778	1549.81
408.002	1543.81
408.226	1428.81
408.449	1433.81
408.673	1390.81
408.896	1350.81
409.12	1371.81
409.344	1372.81
409.567	1344.81
409.791	1375.81
410.014	1360.81
410.238	1378.81
410.461	1355.81
410.685	1319.81
410.908	1290.81
411.132	1265.81
411.355	1206.81
411.578	1244.81
411.802	1239.81
412.025	1213.81
412.249	1243.81
412.472	1269.81
412.695	1213.81
412.919	1219.81
413.142	1170.81
413.365	1190.81
413.589	1197.81
413.812	1188.81
414.035	1191.81
414.258	1173.81
414.482	1171.81
414.705	1210.81
414.928	1204.81
415.151	1182.81
415.374	1210.81
415.597	1187.81
415.821	1168.81
416.044	1146.81
416.267	1148.81
416.49	1180.81
416.713	1147.81
416.936	1176.81
417.159	1183.81
417.382	1188.81
417.605	1142.81
417.828	1167.81
418.051	1194.81
418.274	1186.81
418.497	1204.81
418.72	1250.81
418.943	1191.81
419.166	1331.81
419.389	1415.81
419.611	1364.81
419.834	1294.81
420.057	1265.81
420.28	1230.81
420.503	1168.81
420.726	1159.81
420.948	1179.81
421.171	1150.81
421.394	1205.81
421.617	1174.81
421.839	1163.81
422.062	1206.81
422.285	1154.81
422.507	1221.81
422.73	1204.81
422.953	1207.81
423.175	1253.81
423.398	1207.81
423.621	1256.81
423.843	1264.81
424.066	1281.81
424.288	1253.81
424.511	1258.81
424.733	1262.81
424.956	1235.81
425.178	1244.81
425.401	1228.81
425.623	1169.81
425.846	1157.81
426.068	1168.81
426.291	1168.81
426.513	1125.81
426.735	1142.81
426.958	1103.81
427.18	1084.81
427.402	1081.81
427.625	1062.81
427.847	1069.81
428.069	1037.81
428.292	1069.81
428.514	1058.81
428.736	1079.81
428.958	1060.81
429.181	1011.81
429.403	1032.81
429.625	1017.81
429.847	1014.81
430.069	1007.81
430.292	1050.81
430.514	990.81
430.736	1056.81
430.958	1037.81
431.18	1032.81
431.402	1015.81
431.624	1010.81
431.846	1042.81
432.068	1100.81
432.29	1104.81
432.512	1063.81
432.734	1052.81
432.956	1065.81
433.178	1060.81
433.4	1056.81
433.622	1090.81
433.844	1070.81
434.066	1070.81
434.287	1091.81
434.509	1122.81
434.731	1148.81
434.953	1180.81
435.175	1187.81
435.397	1206.81
435.618	1144.81
435.84	1112.81
436.062	1086.81
436.284	1089.81
436.505	1070.81
436.727	1087.81
436.949	1049.81
437.17	1078.81
437.392	1038.81
437.614	1025.81
437.835	1022.81
438.057	1000.81
438.278	1018.81
438.5	1004.81
438.721	1016.81
438.943	1025.81
439.165	1004.81
439.386	1032.81
439.608	1055.81
439.829	1053.81
440.05	1037.81
440.272	1060.81
440.493	1116.81
440.715	1076.81
440.936	1126.81
441.158	1126.81
441.379	1149.81
441.6	1193.81
441.822	1224.81
442.043	1226.81
442.264	1192.81
442.486	1166.81
442.707	1204.81
442.928	1149.81
443.149	1196.81
443.371	1167.81
443.592	1202.81
443.813	1214.81
444.034	1215.81
444.255	1274.81
444.476	1310.81
444.698	1399.81
444.919	1479.81
445.14	1565.81
445.361	1370.81
445.582	1246.81
445.803	1190.81
446.024	1134.81
446.245	1128.81
446.466	1124.81
446.687	1096.81
446.908	1095.81
447.129	1113.81
447.35	1071.81
447.571	1052.81
447.792	1015.81
448.013	999.81
448.234	982.81
448.455	997.81
448.675	988.81
448.896	992.81
449.117	980.81
449.338	1006.81
449.559	954.81
449.779	940.81
450	955.81
450.221	967.81
450.442	970.81
450.662	993.81
450.883	988.81
451.104	1063.81
451.324	999.81
451.545	1013.81
451.766	1007.81
451.986	989.81
452.207	990.81
452.428	993.81
452.648	1012.81
452.869	983.81
453.089	965.81
453.31	978.81
453.53	950.81
453.751	930.81
453.971	1007.81
454.192	933.81
454.412	922.81
454.633	910.81
454.853	944.81
455.073	908.81
455.294	954.81
455.514	921.81
455.734	913.81
455.955	909.81
456.175	899.81
456.395	908.81
456.616	889.81
456.836	910.81
457.056	913.81
457.276	890.81
457.497	918.81
457.717	935.81
457.937	935.81
458.157	919.81
458.377	946.81
458.598	964.81
458.818	977.81
459.038	997.81
459.258	1031.81
459.478	1101.81
459.698	1102.81
459.918	1153.81
460.138	1180.81
460.358	1251.81
460.578	1308.81
460.798	1251.81
461.018	1341.81
461.238	1244.81
461.458	1280.81
461.678	1268.81
461.898	1303.81
462.118	1272.81
462.338	1382.81
462.558	1401.81
462.777	1444.81
462.997	1596.81
463.217	1760.81
463.437	1758.81
463.657	1609.81
463.876	1563.81
464.096	1514.81
464.316	1519.81
464.536	1520.81
464.755	1451.81
464.975	1406.81
465.195	1304.81
465.414	1242.81
465.634	1189.81
465.854	1088.81
466.073	1117.81
466.293	1092.81
466.512	1062.81
466.732	1026.81
466.951	1063.81
467.171	1012.81
467.391	1046.81
467.61	1033.81
467.829	1046.81
468.049	1042.81
468.268	996.81
468.488	997.81
468.707	958.81
468.927	999.81
469.146	983.81
469.365	989.81
469.585	1001.81
469.804	1024.81
470.023	1054.81
470.243	1058.81
470.462	1064.81
470.681	1077.81
470.901	1044.81
471.12	1023.81
471.339	1035.81
471.558	1013.81
471.777	996.81
471.997	995.81
472.216	975.81
472.435	980.81
472.654	954.81
472.873	975.81
473.092	911.81
473.311	954.81
473.53	958.81
473.749	954.81
473.968	965.81
474.187	958.81
474.406	952.81
474.625	946.81
474.844	961.81
475.063	972.81
475.282	981.81
475.501	965.81
475.72	967.81
475.939	997.81
476.158	1000.81
476.377	980.81
476.596	1003.81
476.814	1006.81
477.033	1011.81
477.252	1072.81
477.471	1083.81
477.69	1066.81
477.908	1076.81
478.127	1124.81
478.346	1147.81
478.564	1184.81
478.783	1219.81
479.002	1199.81
479.22	1221.81
479.439	1204.81
479.658	1214.81
479.876	1189.81
480.095	1230.81
480.313	1269.81
480.532	1351.81
480.751	1322.81
480.969	1247.81
481.188	1202.81
481.406	1168.81
481.624	1133.81
481.843	1110.81
482.061	1140.81
482.28	1095.81
482.498	1102.81
482.717	1094.81
482.935	1088.81
483.153	1090.81
483.372	1107.81
483.59	1116.81
483.808	1094.81
484.027	1079.81
484.245	1100.81
484.463	1111.81
484.681	1137.81
484.9	1122.81
485.118	1132.81
485.336	1134.81
485.554	1151.81
485.772	1166.81
485.99	1195.81
486.209	1174.81
486.427	1184.81
486.645	1177.81
486.863	1192.81
487.081	1164.81
487.299	1153.81
487.517	1152.81
487.735	1172.81
487.953	1156.81
488.171	1134.81
488.389	1108.81
488.607	1146.81
488.825	1121.81
489.043	1156.81
489.261	1134.81
489.479	1172.81
489.696	1135.81
489.914	1148.81
490.132	1139.81
490.35	1192.81
490.568	1168.81
490.786	1171.81
491.003	1159.81
491.221	1172.81
491.439	1156.81
491.657	1159.81
491.874	1155.81
492.092	1183.81
492.31	1206.81
492.527	1194.81
492.745	1172.81
492.963	1180.81
493.18	1183.81
493.398	1208.81
493.615	1206.81
493.833	1182.81
494.05	1167.81
494.268	1214.81
494.485	1245.81
494.703	1231.81
494.92	1255.81
495.138	1207.81
495.355	1229.81
495.573	1224.81
495.79	1228.81
496.008	1243.81
496.225	1223.81
