Data from NiCl2@0.0625M.TitratingCurve.Agarose3%dH2O.NegLispCup.LampEnergy10.LIBS07252019_HRD10591_18-33-53-577.txt Node
Date: Thu Jul 25 18:33:53 EDT 2019
User: cochatt
Spectrometer: HR+D1059
Trigger mode: 1
Integration Time (sec): 1.000000E-1
Scans to average: 1
Electric dark correction enabled: true
Nonlinearity correction enabled: false
Boxcar width: 0
XAxis mode: Wavelengths
Number of Pixels in Spectrum: 2048
>>>>>Begin Spectral Data<<<<<
223.165	-19.75
223.4	-19.75
223.635	-19.75
223.869	-17.75
224.104	-18.75
224.338	-15.75
224.573	-21.75
224.808	2.25
225.042	-14.75
225.277	-0.75
225.511	-9.75
225.746	10.25
225.98	-2.75
226.215	23.25
226.449	14.25
226.683	12.25
226.918	24.25
227.152	35.25
227.387	21.25
227.621	39.25
227.856	45.25
228.09	45.25
228.324	59.25
228.559	56.25
228.793	65.25
229.027	130.25
229.262	159.25
229.496	155.25
229.73	174.25
229.964	177.25
230.199	180.25
230.433	174.25
230.667	195.25
230.901	180.25
231.136	189.25
231.37	212.25
231.604	211.25
231.838	210.25
232.072	201.25
232.306	212.25
232.541	190.25
232.775	198.25
233.009	206.25
233.243	217.25
233.477	205.25
233.711	211.25
233.945	203.25
234.179	209.25
234.413	212.25
234.647	217.25
234.881	213.25
235.115	218.25
235.349	232.25
235.583	215.25
235.817	221.25
236.051	224.25
236.285	231.25
236.519	244.25
236.753	236.25
236.987	210.25
237.221	241.25
237.455	233.25
237.689	224.25
237.922	243.25
238.156	244.25
238.39	253.25
238.624	251.25
238.858	258.25
239.091	246.25
239.325	258.25
239.559	273.25
239.793	268.25
240.027	288.25
240.26	242.25
240.494	275.25
240.728	292.25
240.961	283.25
241.195	290.25
241.429	271.25
241.662	299.25
241.896	307.25
242.13	301.25
242.363	291.25
242.597	310.25
242.83	311.25
243.064	310.25
243.298	301.25
243.531	316.25
243.765	321.25
243.998	324.25
244.232	329.25
244.465	323.25
244.699	305.25
244.932	358.25
245.166	343.25
245.399	350.25
245.633	353.25
245.866	331.25
246.099	330.25
246.333	344.25
246.566	344.25
246.8	347.25
247.033	350.25
247.266	334.25
247.5	356.25
247.733	366.25
247.966	374.25
248.2	397.25
248.433	385.25
248.666	380.25
248.899	379.25
249.133	390.25
249.366	396.25
249.599	409.25
249.832	394.25
250.066	391.25
250.299	392.25
250.532	409.25
250.765	417.25
250.998	417.25
251.231	429.25
251.465	418.25
251.698	444.25
251.931	426.25
252.164	425.25
252.397	441.25
252.63	434.25
252.863	447.25
253.096	425.25
253.329	454.25
253.562	445.25
253.795	456.25
254.028	473.25
254.261	466.25
254.494	459.25
254.727	448.25
254.96	460.25
255.193	466.25
255.426	464.25
255.659	467.25
255.892	472.25
256.124	460.25
256.357	464.25
256.59	472.25
256.823	498.25
257.056	501.25
257.289	485.25
257.521	499.25
257.754	481.25
257.987	504.25
258.22	512.25
258.452	500.25
258.685	512.25
258.918	500.25
259.151	520.25
259.383	517.25
259.616	508.25
259.849	506.25
260.081	512.25
260.314	532.25
260.547	515.25
260.779	558.25
261.012	540.25
261.244	542.25
261.477	521.25
261.71	552.25
261.942	540.25
262.175	547.25
262.407	557.25
262.64	551.25
262.872	531.25
263.105	571.25
263.337	576.25
263.57	581.25
263.802	582.25
264.035	556.25
264.267	574.25
264.499	578.25
264.732	578.25
264.964	584.25
265.197	598.25
265.429	570.25
265.661	574.25
265.894	588.25
266.126	605.25
266.358	597.25
266.591	584.25
266.823	592.25
267.055	614.25
267.287	602.25
267.52	641.25
267.752	612.25
267.984	625.25
268.216	615.25
268.448	635.25
268.681	637.25
268.913	624.25
269.145	630.25
269.377	614.25
269.609	621.25
269.841	636.25
270.073	624.25
270.306	647.25
270.538	640.25
270.77	643.25
271.002	654.25
271.234	668.25
271.466	659.25
271.698	648.25
271.93	643.25
272.162	668.25
272.394	667.25
272.626	663.25
272.858	650.25
273.09	671.25
273.322	691.25
273.553	686.25
273.785	696.25
274.017	658.25
274.249	704.25
274.481	708.25
274.713	691.25
274.945	717.25
275.176	709.25
275.408	694.25
275.64	705.25
275.872	720.25
276.104	722.25
276.335	716.25
276.567	727.25
276.799	726.25
277.031	721.25
277.262	719.25
277.494	721.25
277.726	714.25
277.957	746.25
278.189	734.25
278.421	761.25
278.652	744.25
278.884	741.25
279.115	758.25
279.347	739.25
279.579	754.25
279.81	766.25
280.042	770.25
280.273	749.25
280.505	755.25
280.736	782.25
280.968	776.25
281.199	780.25
281.431	797.25
281.662	789.25
281.894	794.25
282.125	780.25
282.356	802.25
282.588	810.25
282.819	828.25
283.051	804.25
283.282	812.25
283.513	821.25
283.745	774.25
283.976	813.25
284.207	818.25
284.439	820.25
284.67	836.25
284.901	808.25
285.132	802.25
285.364	854.25
285.595	837.25
285.826	829.25
286.057	867.25
286.288	849.25
286.52	863.25
286.751	870.25
286.982	866.25
287.213	828.25
287.444	877.25
287.675	870.25
287.906	854.25
288.138	870.25
288.369	856.25
288.6	893.25
288.831	908.25
289.062	892.25
289.293	890.25
289.524	859.25
289.755	876.25
289.986	888.25
290.217	872.25
290.448	874.25
290.679	888.25
290.91	929.25
291.141	895.25
291.371	910.25
291.602	896.25
291.833	858.25
292.064	917.25
292.295	922.25
292.526	904.25
292.757	888.25
292.987	891.25
293.218	875.25
293.449	910.25
293.68	911.25
293.91	885.25
294.141	896.25
294.372	917.25
294.603	896.25
294.833	905.25
295.064	913.25
295.295	907.25
295.525	911.25
295.756	893.25
295.987	902.25
296.217	915.25
296.448	934.25
296.679	896.25
296.909	933.25
297.14	928.25
297.37	967.25
297.601	944.25
297.831	981.25
298.062	965.25
298.292	964.25
298.523	969.25
298.753	978.25
298.984	969.25
299.214	969.25
299.445	952.25
299.675	960.25
299.905	1004.25
300.136	971.25
300.366	989.25
300.597	982.25
300.827	1003.25
301.057	1019.25
301.288	1060.25
301.518	1042.25
301.748	1018.25
301.979	1049.25
302.209	1052.25
302.439	1056.25
302.669	1017.25
302.9	1024.25
303.13	1034.25
303.36	994.25
303.59	1044.25
303.82	1053.25
304.051	1005.25
304.281	1033.25
304.511	1028.25
304.741	1043.25
304.971	1025.25
305.201	1008.25
305.431	982.25
305.661	1033.25
305.891	1015.25
306.121	1042.25
306.352	1034.25
306.582	1029.25
306.812	1003.25
307.042	1026.25
307.272	996.25
307.502	1020.25
307.731	1008.25
307.961	1033.25
308.191	1000.25
308.421	1011.25
308.651	1014.25
308.881	1009.25
309.111	999.25
309.341	1005.25
309.571	1038.25
309.8	1010.25
310.03	1068.25
310.26	1056.25
310.49	1026.25
310.72	1020.25
310.949	1020.25
311.179	1063.25
311.409	1027.25
311.639	1027.25
311.868	1061.25
312.098	1068.25
312.328	1045.25
312.557	1058.25
312.787	1046.25
313.017	1044.25
313.246	1085.25
313.476	1071.25
313.706	1078.25
313.935	1090.25
314.165	1101.25
314.394	1098.25
314.624	1108.25
314.853	1117.25
315.083	1086.25
315.312	1112.25
315.542	1125.25
315.771	1076.25
316.001	1068.25
316.23	1096.25
316.46	1092.25
316.689	1109.25
316.919	1090.25
317.148	1115.25
317.377	1031.25
317.607	1072.25
317.836	1095.25
318.065	1112.25
318.295	1123.25
318.524	1090.25
318.753	1081.25
318.983	1099.25
319.212	1098.25
319.441	1074.25
319.67	1081.25
319.9	1066.25
320.129	1085.25
320.358	1085.25
320.587	1084.25
320.816	1086.25
321.046	1081.25
321.275	1112.25
321.504	1102.25
321.733	1103.25
321.962	1112.25
322.191	1117.25
322.42	1114.25
322.649	1123.25
322.878	1103.25
323.108	1102.25
323.337	1145.25
323.566	1106.25
323.795	1116.25
324.024	1147.25
324.253	1133.25
324.482	1116.25
324.71	1140.25
324.939	1139.25
325.168	1152.25
325.397	1130.25
325.626	1174.25
325.855	1197.25
326.084	1173.25
326.313	1195.25
326.542	1195.25
326.77	1177.25
326.999	1182.25
327.228	1128.25
327.457	1162.25
327.686	1145.25
327.914	1177.25
328.143	1174.25
328.372	1230.25
328.6	1212.25
328.829	1193.25
329.058	1197.25
329.287	1201.25
329.515	1201.25
329.744	1216.25
329.972	1239.25
330.201	1207.25
330.43	1225.25
330.658	1214.25
330.887	1242.25
331.115	1217.25
331.344	1259.25
331.572	1243.25
331.801	1266.25
332.03	1290.25
332.258	1335.25
332.486	1346.25
332.715	1364.25
332.943	1396.25
333.172	1456.25
333.4	1490.25
333.629	1504.25
333.857	1540.25
334.085	1556.25
334.314	1529.25
334.542	1485.25
334.771	1488.25
334.999	1470.25
335.227	1476.25
335.455	1455.25
335.684	1435.25
335.912	1441.25
336.14	1442.25
336.369	1436.25
336.597	1443.25
336.825	1431.25
337.053	1451.25
337.281	1389.25
337.51	1356.25
337.738	1355.25
337.966	1330.25
338.194	1320.25
338.422	1335.25
338.65	1305.25
338.878	1336.25
339.106	1297.25
339.334	1320.25
339.562	1293.25
339.79	1260.25
340.018	1236.25
340.246	1251.25
340.474	1242.25
340.702	1250.25
340.93	1238.25
341.158	1224.25
341.386	1274.25
341.614	1267.25
341.842	1249.25
342.07	1262.25
342.298	1244.25
342.526	1243.25
342.754	1243.25
342.981	1226.25
343.209	1275.25
343.437	1363.25
343.665	1342.25
343.893	1475.25
344.12	1452.25
344.348	1432.25
344.576	1383.25
344.804	1369.25
345.031	1334.25
345.259	1282.25
345.487	1264.25
345.714	1257.25
345.942	1236.25
346.17	1234.25
346.397	1228.25
346.625	1243.25
346.853	1210.25
347.08	1189.25
347.308	1205.25
347.535	1216.25
347.763	1222.25
347.99	1210.25
348.218	1198.25
348.445	1204.25
348.673	1192.25
348.9	1220.25
349.128	1221.25
349.355	1155.25
349.583	1184.25
349.81	1201.25
350.037	1202.25
350.265	1183.25
350.492	1140.25
350.72	1176.25
350.947	1171.25
351.174	1152.25
351.402	1189.25
351.629	1165.25
351.856	1173.25
352.083	1132.25
352.311	1145.25
352.538	1124.25
352.765	1121.25
352.992	1154.25
353.22	1140.25
353.447	1172.25
353.674	1145.25
353.901	1163.25
354.128	1184.25
354.355	1172.25
354.583	1159.25
354.81	1113.25
355.037	1160.25
355.264	1148.25
355.491	1158.25
355.718	1179.25
355.945	1156.25
356.172	1145.25
356.399	1193.25
356.626	1178.25
356.853	1165.25
357.08	1165.25
357.307	1167.25
357.534	1188.25
357.761	1173.25
357.988	1188.25
358.215	1126.25
358.441	1164.25
358.668	1150.25
358.895	1170.25
359.122	1150.25
359.349	1129.25
359.576	1156.25
359.802	1143.25
360.029	1134.25
360.256	1184.25
360.483	1161.25
360.709	1188.25
360.936	1186.25
361.163	1145.25
361.39	1144.25
361.616	1156.25
361.843	1160.25
362.07	1154.25
362.296	1138.25
362.523	1156.25
362.749	1171.25
362.976	1168.25
363.203	1158.25
363.429	1134.25
363.656	1156.25
363.882	1174.25
364.109	1160.25
364.335	1152.25
364.562	1156.25
364.788	1160.25
365.015	1172.25
365.241	1168.25
365.468	1165.25
365.694	1158.25
365.92	1163.25
366.147	1174.25
366.373	1148.25
366.599	1178.25
366.826	1178.25
367.052	1156.25
367.278	1155.25
367.505	1190.25
367.731	1169.25
367.957	1154.25
368.184	1184.25
368.41	1180.25
368.636	1224.25
368.862	1204.25
369.089	1190.25
369.315	1216.25
369.541	1226.25
369.767	1200.25
369.993	1214.25
370.219	1220.25
370.445	1215.25
370.672	1213.25
370.898	1261.25
371.124	1260.25
371.35	1260.25
371.576	1309.25
371.802	1247.25
372.028	1230.25
372.254	1221.25
372.48	1270.25
372.706	1282.25
372.932	1321.25
373.158	1309.25
373.384	1296.25
373.61	1301.25
373.835	1282.25
374.061	1293.25
374.287	1282.25
374.513	1286.25
374.739	1322.25
374.965	1350.25
375.191	1387.25
375.416	1384.25
375.642	1310.25
375.868	1312.25
376.094	1280.25
376.319	1268.25
376.545	1281.25
376.771	1257.25
376.997	1261.25
377.222	1234.25
377.448	1260.25
377.674	1246.25
377.899	1245.25
378.125	1261.25
378.35	1210.25
378.576	1249.25
378.802	1228.25
379.027	1230.25
379.253	1241.25
379.478	1224.25
379.704	1241.25
379.929	1237.25
380.155	1267.25
380.38	1244.25
380.606	1267.25
380.831	1232.25
381.057	1246.25
381.282	1253.25
381.507	1265.25
381.733	1283.25
381.958	1236.25
382.184	1281.25
382.409	1312.25
382.634	1282.25
382.86	1295.25
383.085	1352.25
383.31	1351.25
383.535	1369.25
383.761	1324.25
383.986	1393.25
384.211	1428.25
384.436	1416.25
384.662	1421.25
384.887	1439.25
385.112	1487.25
385.337	1496.25
385.562	1452.25
385.787	1498.25
386.013	1510.25
386.238	1488.25
386.463	1473.25
386.688	1517.25
386.913	1485.25
387.138	1486.25
387.363	1467.25
387.588	1490.25
387.813	1494.25
388.038	1475.25
388.263	1478.25
388.488	1505.25
388.713	1523.25
388.938	1494.25
389.163	1453.25
389.387	1475.25
389.612	1472.25
389.837	1458.25
390.062	1466.25
390.287	1522.25
390.512	1480.25
390.736	1508.25
390.961	1533.25
391.186	1540.25
391.411	1547.25
391.636	1635.25
391.86	1661.25
392.085	1649.25
392.31	1639.25
392.534	1630.25
392.759	1624.25
392.984	1601.25
393.208	1592.25
393.433	1611.25
393.658	1552.25
393.882	1561.25
394.107	1578.25
394.331	1585.25
394.556	1553.25
394.78	1570.25
395.005	1642.25
395.229	1556.25
395.454	1624.25
395.678	1693.25
395.903	1658.25
396.127	1635.25
396.352	1622.25
396.576	1606.25
396.801	1604.25
397.025	1611.25
397.249	1660.25
397.474	1682.25
397.698	1660.25
397.922	1674.25
398.147	1701.25
398.371	1686.25
398.595	1801.25
398.82	1878.25
399.044	1970.25
399.268	2100.25
399.492	2312.25
399.717	2498.25
399.941	2566.25
400.165	2415.25
400.389	2221.25
400.613	2107.25
400.837	1996.25
401.062	1933.25
401.286	1896.25
401.51	1876.25
401.734	1840.25
401.958	1866.25
402.182	1894.25
402.406	1906.25
402.63	1904.25
402.854	1933.25
403.078	1953.25
403.302	1981.25
403.526	1978.25
403.75	1989.25
403.974	2022.25
404.198	2049.25
404.422	2034.25
404.645	2012.25
404.869	1994.25
405.093	2044.25
405.317	1992.25
405.541	1981.25
405.765	1987.25
405.988	2001.25
406.212	2008.25
406.436	2032.25
406.66	2086.25
406.883	2091.25
407.107	2157.25
407.331	2253.25
407.555	2326.25
407.778	2322.25
408.002	2318.25
408.226	2240.25
408.449	2189.25
408.673	2155.25
408.896	2104.25
409.12	2115.25
409.344	2090.25
409.567	2068.25
409.791	2082.25
410.014	2063.25
410.238	2012.25
410.461	2055.25
410.685	1987.25
410.908	2002.25
411.132	1982.25
411.355	1922.25
411.578	1944.25
411.802	1920.25
412.025	1972.25
412.249	1983.25
412.472	1991.25
412.695	1885.25
412.919	1884.25
413.142	1872.25
413.365	1891.25
413.589	1855.25
413.812	1843.25
414.035	1827.25
414.258	1845.25
414.482	1907.25
414.705	1884.25
414.928	1909.25
415.151	1858.25
415.374	1855.25
415.597	1848.25
415.821	1814.25
416.044	1776.25
416.267	1813.25
416.49	1764.25
416.713	1749.25
416.936	1765.25
417.159	1782.25
417.382	1769.25
417.605	1737.25
417.828	1734.25
418.051	1808.25
418.274	1798.25
418.497	1783.25
418.72	1807.25
418.943	1830.25
419.166	1913.25
419.389	2072.25
419.611	1991.25
419.834	1933.25
420.057	1890.25
420.28	1797.25
420.503	1767.25
420.726	1765.25
420.948	1749.25
421.171	1751.25
421.394	1806.25
421.617	1750.25
421.839	1806.25
422.062	1826.25
422.285	1783.25
422.507	1840.25
422.73	1804.25
422.953	1842.25
423.175	1849.25
423.398	1833.25
423.621	1816.25
423.843	1874.25
424.066	1865.25
424.288	1850.25
424.511	1816.25
424.733	1791.25
424.956	1777.25
425.178	1771.25
425.401	1794.25
425.623	1796.25
425.846	1743.25
426.068	1728.25
426.291	1720.25
426.513	1718.25
426.735	1691.25
426.958	1737.25
427.18	1680.25
427.402	1668.25
427.625	1653.25
427.847	1644.25
428.069	1660.25
428.292	1655.25
428.514	1598.25
428.736	1611.25
428.958	1640.25
429.181	1605.25
429.403	1589.25
429.625	1594.25
429.847	1604.25
430.069	1611.25
430.292	1575.25
430.514	1605.25
430.736	1588.25
430.958	1610.25
431.18	1658.25
431.402	1645.25
431.624	1582.25
431.846	1638.25
432.068	1696.25
432.29	1669.25
432.512	1626.25
432.734	1626.25
432.956	1640.25
433.178	1653.25
433.4	1656.25
433.622	1668.25
433.844	1707.25
434.066	1723.25
434.287	1690.25
434.509	1718.25
434.731	1761.25
434.953	1845.25
435.175	1813.25
435.397	1813.25
435.618	1725.25
435.84	1731.25
436.062	1708.25
436.284	1661.25
436.505	1634.25
436.727	1638.25
436.949	1619.25
437.17	1625.25
437.392	1678.25
437.614	1622.25
437.835	1551.25
438.057	1560.25
438.278	1553.25
438.5	1553.25
438.721	1545.25
438.943	1542.25
439.165	1550.25
439.386	1515.25
439.608	1591.25
439.829	1613.25
440.05	1607.25
440.272	1597.25
440.493	1571.25
440.715	1624.25
440.936	1662.25
441.158	1685.25
441.379	1672.25
441.6	1737.25
441.822	1789.25
442.043	1744.25
442.264	1769.25
442.486	1707.25
442.707	1718.25
442.928	1706.25
443.149	1721.25
443.371	1719.25
443.592	1768.25
443.813	1750.25
444.034	1734.25
444.255	1809.25
444.476	1898.25
444.698	1989.25
444.919	2011.25
445.14	2125.25
445.361	1940.25
445.582	1827.25
445.803	1748.25
446.024	1725.25
446.245	1680.25
446.466	1653.25
446.687	1593.25
446.908	1640.25
447.129	1558.25
447.35	1544.25
447.571	1536.25
447.792	1516.25
448.013	1501.25
448.234	1473.25
448.455	1469.25
448.675	1514.25
448.896	1470.25
449.117	1438.25
449.338	1437.25
449.559	1447.25
449.779	1417.25
450	1439.25
450.221	1414.25
450.442	1422.25
450.662	1449.25
450.883	1458.25
451.104	1448.25
451.324	1487.25
451.545	1483.25
451.766	1450.25
451.986	1454.25
452.207	1444.25
452.428	1444.25
452.648	1432.25
452.869	1412.25
453.089	1403.25
453.31	1389.25
453.53	1397.25
453.751	1401.25
453.971	1393.25
454.192	1416.25
454.412	1357.25
454.633	1372.25
454.853	1352.25
455.073	1364.25
455.294	1371.25
455.514	1365.25
455.734	1349.25
455.955	1361.25
456.175	1356.25
456.395	1366.25
456.616	1378.25
456.836	1370.25
457.056	1370.25
457.276	1349.25
457.497	1383.25
457.717	1392.25
457.937	1386.25
458.157	1404.25
458.377	1408.25
458.598	1478.25
458.818	1460.25
459.038	1499.25
459.258	1581.25
459.478	1556.25
459.698	1643.25
459.918	1667.25
460.138	1734.25
460.358	1803.25
460.578	1755.25
460.798	1818.25
461.018	1840.25
461.238	1827.25
461.458	1835.25
461.678	1824.25
461.898	1854.25
462.118	1868.25
462.338	1969.25
462.558	1986.25
462.777	2027.25
462.997	2201.25
463.217	2259.25
463.437	2319.25
463.657	2180.25
463.876	2132.25
464.096	2130.25
464.316	2091.25
464.536	2080.25
464.755	2013.25
464.975	1982.25
465.195	1887.25
465.414	1764.25
465.634	1678.25
465.854	1648.25
466.073	1611.25
466.293	1600.25
466.512	1567.25
466.732	1554.25
466.951	1539.25
467.171	1550.25
467.391	1556.25
467.61	1512.25
467.829	1480.25
468.049	1499.25
468.268	1462.25
468.488	1486.25
468.707	1469.25
468.927	1486.25
469.146	1472.25
469.365	1489.25
469.585	1492.25
469.804	1534.25
470.023	1541.25
470.243	1549.25
470.462	1587.25
470.681	1564.25
470.901	1563.25
471.12	1575.25
471.339	1509.25
471.558	1536.25
471.777	1506.25
471.997	1489.25
472.216	1465.25
472.435	1455.25
472.654	1457.25
472.873	1422.25
473.092	1454.25
473.311	1462.25
473.53	1483.25
473.749	1446.25
473.968	1436.25
474.187	1435.25
474.406	1469.25
474.625	1450.25
474.844	1498.25
475.063	1484.25
475.282	1477.25
475.501	1481.25
475.72	1487.25
475.939	1513.25
476.158	1501.25
476.377	1528.25
476.596	1524.25
476.814	1538.25
477.033	1547.25
477.252	1602.25
477.471	1622.25
477.69	1642.25
477.908	1692.25
478.127	1728.25
478.346	1744.25
478.564	1773.25
478.783	1781.25
479.002	1810.25
479.22	1805.25
479.439	1823.25
479.658	1851.25
479.876	1824.25
480.095	1892.25
480.313	1926.25
480.532	1948.25
480.751	1953.25
480.969	1939.25
481.188	1870.25
481.406	1846.25
481.624	1851.25
481.843	1796.25
482.061	1805.25
482.28	1813.25
482.498	1782.25
482.717	1748.25
482.935	1778.25
483.153	1821.25
483.372	1809.25
483.59	1819.25
483.808	1834.25
484.027	1836.25
484.245	1870.25
484.463	1896.25
484.681	1906.25
484.9	1978.25
485.118	1954.25
485.336	1965.25
485.554	1968.25
485.772	1986.25
485.99	1989.25
486.209	1969.25
486.427	1978.25
486.645	1959.25
486.863	1974.25
487.081	1950.25
487.299	1967.25
487.517	1930.25
487.735	1950.25
487.953	1938.25
488.171	1920.25
488.389	1902.25
488.607	1905.25
488.825	1912.25
489.043	1849.25
489.261	1860.25
489.479	1875.25
489.696	1870.25
489.914	1869.25
