Data from NiCl2@0.0625M.TitratingCurve.Agarose3%dH2O.NegLispCup.LampEnergy10.LIBS07252019_HRD10591_18-32-56-576.txt Node
Date: Thu Jul 25 18:32:56 EDT 2019
User: cochatt
Spectrometer: HR+D1059
Trigger mode: 1
Integration Time (sec): 1.000000E-1
Scans to average: 1
Electric dark correction enabled: true
Nonlinearity correction enabled: false
Boxcar width: 0
XAxis mode: Wavelengths
Number of Pixels in Spectrum: 2048
>>>>>Begin Spectral Data<<<<<
223.165	-3.75
223.4	-3.75
223.635	-3.75
223.869	-13.75
224.104	-10.75
224.338	-22.75
224.573	-11.75
224.808	-22.75
225.042	-10.75
225.277	0.25
225.511	-6.75
225.746	5.25
225.98	-9.75
226.215	5.25
226.449	17.25
226.683	31.25
226.918	28.25
227.152	25.25
227.387	33.25
227.621	30.25
227.856	41.25
228.09	58.25
228.324	55.25
228.559	69.25
228.793	77.25
229.027	129.25
229.262	144.25
229.496	155.25
229.73	173.25
229.964	163.25
230.199	162.25
230.433	176.25
230.667	160.25
230.901	173.25
231.136	177.25
231.37	165.25
231.604	173.25
231.838	185.25
232.072	196.25
232.306	203.25
232.541	184.25
232.775	197.25
233.009	198.25
233.243	201.25
233.477	203.25
233.711	198.25
233.945	209.25
234.179	213.25
234.413	203.25
234.647	207.25
234.881	207.25
235.115	215.25
235.349	219.25
235.583	218.25
235.817	217.25
236.051	223.25
236.285	211.25
236.519	232.25
236.753	224.25
236.987	221.25
237.221	229.25
237.455	231.25
237.689	220.25
237.922	212.25
238.156	228.25
238.39	239.25
238.624	264.25
238.858	248.25
239.091	250.25
239.325	250.25
239.559	246.25
239.793	272.25
240.027	271.25
240.26	249.25
240.494	285.25
240.728	259.25
240.961	271.25
241.195	281.25
241.429	272.25
241.662	274.25
241.896	294.25
242.13	303.25
242.363	296.25
242.597	289.25
242.83	280.25
243.064	309.25
243.298	304.25
243.531	311.25
243.765	325.25
243.998	320.25
244.232	313.25
244.465	318.25
244.699	322.25
244.932	325.25
245.166	325.25
245.399	344.25
245.633	327.25
245.866	334.25
246.099	334.25
246.333	338.25
246.566	337.25
246.8	339.25
247.033	350.25
247.266	348.25
247.5	344.25
247.733	352.25
247.966	357.25
248.2	382.25
248.433	375.25
248.666	363.25
248.899	373.25
249.133	364.25
249.366	363.25
249.599	373.25
249.832	394.25
250.066	381.25
250.299	393.25
250.532	389.25
250.765	376.25
250.998	406.25
251.231	414.25
251.465	418.25
251.698	415.25
251.931	426.25
252.164	424.25
252.397	423.25
252.63	419.25
252.863	426.25
253.096	409.25
253.329	425.25
253.562	409.25
253.795	409.25
254.028	427.25
254.261	440.25
254.494	455.25
254.727	418.25
254.96	446.25
255.193	452.25
255.426	462.25
255.659	451.25
255.892	463.25
256.124	464.25
256.357	465.25
256.59	461.25
256.823	466.25
257.056	439.25
257.289	468.25
257.521	465.25
257.754	473.25
257.987	465.25
258.22	487.25
258.452	466.25
258.685	490.25
258.918	485.25
259.151	509.25
259.383	499.25
259.616	462.25
259.849	480.25
260.081	497.25
260.314	508.25
260.547	504.25
260.779	496.25
261.012	511.25
261.244	536.25
261.477	516.25
261.71	545.25
261.942	512.25
262.175	529.25
262.407	529.25
262.64	509.25
262.872	531.25
263.105	536.25
263.337	518.25
263.57	537.25
263.802	543.25
264.035	551.25
264.267	542.25
264.499	515.25
264.732	562.25
264.964	549.25
265.197	568.25
265.429	530.25
265.661	548.25
265.894	583.25
266.126	582.25
266.358	591.25
266.591	576.25
266.823	578.25
267.055	580.25
267.287	569.25
267.52	578.25
267.752	570.25
267.984	577.25
268.216	573.25
268.448	593.25
268.681	594.25
268.913	596.25
269.145	563.25
269.377	605.25
269.609	596.25
269.841	596.25
270.073	601.25
270.306	611.25
270.538	620.25
270.77	594.25
271.002	612.25
271.234	626.25
271.466	629.25
271.698	626.25
271.93	625.25
272.162	625.25
272.394	628.25
272.626	659.25
272.858	657.25
273.09	660.25
273.322	652.25
273.553	651.25
273.785	648.25
274.017	626.25
274.249	665.25
274.481	671.25
274.713	651.25
274.945	692.25
275.176	665.25
275.408	679.25
275.64	671.25
275.872	676.25
276.104	680.25
276.335	670.25
276.567	677.25
276.799	668.25
277.031	698.25
277.262	687.25
277.494	697.25
277.726	704.25
277.957	709.25
278.189	716.25
278.421	711.25
278.652	717.25
278.884	713.25
279.115	734.25
279.347	764.25
279.579	731.25
279.81	737.25
280.042	725.25
280.273	736.25
280.505	746.25
280.736	754.25
280.968	739.25
281.199	775.25
281.431	773.25
281.662	755.25
281.894	756.25
282.125	737.25
282.356	776.25
282.588	773.25
282.819	776.25
283.051	767.25
283.282	791.25
283.513	782.25
283.745	782.25
283.976	782.25
284.207	779.25
284.439	775.25
284.67	826.25
284.901	797.25
285.132	809.25
285.364	781.25
285.595	794.25
285.826	771.25
286.057	807.25
286.288	787.25
286.52	822.25
286.751	809.25
286.982	813.25
287.213	820.25
287.444	836.25
287.675	816.25
287.906	829.25
288.138	841.25
288.369	815.25
288.6	855.25
288.831	860.25
289.062	841.25
289.293	855.25
289.524	841.25
289.755	852.25
289.986	860.25
290.217	855.25
290.448	857.25
290.679	868.25
290.91	855.25
291.141	857.25
291.371	831.25
291.602	868.25
291.833	865.25
292.064	868.25
292.295	865.25
292.526	862.25
292.757	850.25
292.987	850.25
293.218	875.25
293.449	888.25
293.68	878.25
293.91	855.25
294.141	869.25
294.372	859.25
294.603	862.25
294.833	875.25
295.064	895.25
295.295	860.25
295.525	856.25
295.756	879.25
295.987	888.25
296.217	915.25
296.448	895.25
296.679	887.25
296.909	906.25
297.14	924.25
297.37	931.25
297.601	927.25
297.831	931.25
298.062	912.25
298.292	935.25
298.523	944.25
298.753	938.25
298.984	928.25
299.214	896.25
299.445	916.25
299.675	927.25
299.905	931.25
300.136	929.25
300.366	954.25
300.597	927.25
300.827	974.25
301.057	965.25
301.288	988.25
301.518	979.25
301.748	973.25
301.979	984.25
302.209	994.25
302.439	979.25
302.669	983.25
302.9	1008.25
303.13	973.25
303.36	984.25
303.59	980.25
303.82	1005.25
304.051	1025.25
304.281	1026.25
304.511	996.25
304.741	983.25
304.971	989.25
305.201	1015.25
305.431	979.25
305.661	969.25
305.891	965.25
306.121	967.25
306.352	973.25
306.582	957.25
306.812	976.25
307.042	994.25
307.272	967.25
307.502	980.25
307.731	934.25
307.961	979.25
308.191	964.25
308.421	969.25
308.651	971.25
308.881	958.25
309.111	961.25
309.341	960.25
309.571	991.25
309.8	983.25
310.03	976.25
310.26	993.25
310.49	997.25
310.72	980.25
310.949	962.25
311.179	976.25
311.409	983.25
311.639	1019.25
311.868	1005.25
312.098	1026.25
312.328	1016.25
312.557	1016.25
312.787	1031.25
313.017	1030.25
313.246	999.25
313.476	1029.25
313.706	1047.25
313.935	1056.25
314.165	1082.25
314.394	1060.25
314.624	1050.25
314.853	996.25
315.083	1071.25
315.312	1049.25
315.542	1040.25
315.771	1035.25
316.001	1045.25
316.23	1060.25
316.46	1050.25
316.689	1078.25
316.919	1053.25
317.148	1059.25
317.377	1015.25
317.607	1045.25
317.836	1024.25
318.065	1045.25
318.295	1043.25
318.524	1028.25
318.753	1048.25
318.983	1028.25
319.212	1050.25
319.441	1028.25
319.67	1045.25
319.9	1021.25
320.129	1033.25
320.358	1042.25
320.587	1036.25
320.816	1048.25
321.046	1023.25
321.275	1079.25
321.504	1068.25
321.733	1071.25
321.962	1059.25
322.191	1079.25
322.42	1075.25
322.649	1064.25
322.878	1071.25
323.108	1098.25
323.337	1061.25
323.566	1047.25
323.795	1113.25
324.024	1077.25
324.253	1092.25
324.482	1092.25
324.71	1101.25
324.939	1107.25
325.168	1117.25
325.397	1082.25
325.626	1126.25
325.855	1099.25
326.084	1129.25
326.313	1119.25
326.542	1130.25
326.77	1144.25
326.999	1152.25
327.228	1127.25
327.457	1137.25
327.686	1125.25
327.914	1132.25
328.143	1114.25
328.372	1142.25
328.6	1119.25
328.829	1133.25
329.058	1130.25
329.287	1183.25
329.515	1148.25
329.744	1164.25
329.972	1158.25
330.201	1163.25
330.43	1167.25
330.658	1145.25
330.887	1184.25
331.115	1155.25
331.344	1187.25
331.572	1192.25
331.801	1210.25
332.03	1240.25
332.258	1260.25
332.486	1305.25
332.715	1301.25
332.943	1345.25
333.172	1381.25
333.4	1417.25
333.629	1461.25
333.857	1465.25
334.085	1462.25
334.314	1442.25
334.542	1408.25
334.771	1367.25
334.999	1393.25
335.227	1429.25
335.455	1420.25
335.684	1373.25
335.912	1382.25
336.14	1350.25
336.369	1380.25
336.597	1341.25
336.825	1359.25
337.053	1376.25
337.281	1340.25
337.51	1324.25
337.738	1319.25
337.966	1264.25
338.194	1282.25
338.422	1236.25
338.65	1236.25
338.878	1226.25
339.106	1267.25
339.334	1268.25
339.562	1248.25
339.79	1190.25
340.018	1177.25
340.246	1199.25
340.474	1225.25
340.702	1216.25
340.93	1219.25
341.158	1235.25
341.386	1217.25
341.614	1207.25
341.842	1175.25
342.07	1200.25
342.298	1205.25
342.526	1199.25
342.754	1182.25
342.981	1230.25
343.209	1200.25
343.437	1262.25
343.665	1330.25
343.893	1411.25
344.12	1432.25
344.348	1386.25
344.576	1363.25
344.804	1309.25
345.031	1241.25
345.259	1222.25
345.487	1203.25
345.714	1201.25
345.942	1178.25
346.17	1167.25
346.397	1175.25
346.625	1167.25
346.853	1175.25
347.08	1122.25
347.308	1126.25
347.535	1156.25
347.763	1155.25
347.99	1151.25
348.218	1128.25
348.445	1120.25
348.673	1129.25
348.9	1155.25
349.128	1155.25
349.355	1147.25
349.583	1140.25
349.81	1139.25
350.037	1117.25
350.265	1114.25
350.492	1123.25
350.72	1100.25
350.947	1127.25
351.174	1120.25
351.402	1105.25
351.629	1121.25
351.856	1143.25
352.083	1097.25
352.311	1087.25
352.538	1121.25
352.765	1120.25
352.992	1104.25
353.22	1081.25
353.447	1075.25
353.674	1095.25
353.901	1088.25
354.128	1107.25
354.355	1075.25
354.583	1101.25
354.81	1079.25
355.037	1113.25
355.264	1121.25
355.491	1106.25
355.718	1119.25
355.945	1089.25
356.172	1108.25
356.399	1101.25
356.626	1081.25
356.853	1150.25
357.08	1157.25
357.307	1121.25
357.534	1127.25
357.761	1120.25
357.988	1101.25
358.215	1116.25
358.441	1117.25
358.668	1107.25
358.895	1083.25
359.122	1127.25
359.349	1155.25
359.576	1135.25
359.802	1094.25
360.029	1092.25
360.256	1111.25
360.483	1114.25
360.709	1133.25
360.936	1100.25
361.163	1101.25
361.39	1107.25
361.616	1107.25
361.843	1103.25
362.07	1102.25
362.296	1114.25
362.523	1109.25
362.749	1143.25
362.976	1105.25
363.203	1124.25
363.429	1080.25
363.656	1127.25
363.882	1128.25
364.109	1083.25
364.335	1148.25
364.562	1104.25
364.788	1109.25
365.015	1085.25
365.241	1109.25
365.468	1080.25
365.694	1101.25
365.92	1085.25
366.147	1149.25
366.373	1113.25
366.599	1090.25
366.826	1115.25
367.052	1112.25
367.278	1123.25
367.505	1114.25
367.731	1156.25
367.957	1115.25
368.184	1134.25
368.41	1113.25
368.636	1138.25
368.862	1107.25
369.089	1147.25
369.315	1172.25
369.541	1161.25
369.767	1161.25
369.993	1145.25
370.219	1174.25
370.445	1160.25
370.672	1175.25
370.898	1183.25
371.124	1204.25
371.35	1203.25
371.576	1212.25
371.802	1228.25
372.028	1203.25
372.254	1215.25
372.48	1220.25
372.706	1225.25
372.932	1249.25
373.158	1220.25
373.384	1228.25
373.61	1219.25
373.835	1217.25
374.061	1218.25
374.287	1258.25
374.513	1223.25
374.739	1246.25
374.965	1294.25
375.191	1311.25
375.416	1315.25
375.642	1293.25
375.868	1287.25
376.094	1265.25
376.319	1203.25
376.545	1213.25
376.771	1210.25
376.997	1204.25
377.222	1211.25
377.448	1217.25
377.674	1236.25
377.899	1212.25
378.125	1203.25
378.35	1183.25
378.576	1192.25
378.802	1171.25
379.027	1192.25
379.253	1195.25
379.478	1194.25
379.704	1188.25
379.929	1196.25
380.155	1187.25
380.38	1199.25
380.606	1223.25
380.831	1200.25
381.057	1184.25
381.282	1179.25
381.507	1227.25
381.733	1201.25
381.958	1205.25
382.184	1222.25
382.409	1271.25
382.634	1235.25
382.86	1244.25
383.085	1283.25
383.31	1291.25
383.535	1299.25
383.761	1277.25
383.986	1332.25
384.211	1365.25
384.436	1370.25
384.662	1363.25
384.887	1430.25
385.112	1393.25
385.337	1448.25
385.562	1433.25
385.787	1433.25
386.013	1434.25
386.238	1453.25
386.463	1456.25
386.688	1465.25
386.913	1426.25
387.138	1413.25
387.363	1458.25
387.588	1403.25
387.813	1431.25
388.038	1393.25
388.263	1442.25
388.488	1440.25
388.713	1452.25
388.938	1387.25
389.163	1391.25
389.387	1441.25
389.612	1409.25
389.837	1419.25
390.062	1436.25
390.287	1412.25
390.512	1417.25
390.736	1423.25
390.961	1478.25
391.186	1471.25
391.411	1515.25
391.636	1533.25
391.86	1585.25
392.085	1617.25
392.31	1591.25
392.534	1558.25
392.759	1559.25
392.984	1526.25
393.208	1530.25
393.433	1559.25
393.658	1589.25
393.882	1517.25
394.107	1497.25
394.331	1542.25
394.556	1556.25
394.78	1517.25
395.005	1575.25
395.229	1567.25
395.454	1583.25
395.678	1599.25
395.903	1565.25
396.127	1619.25
396.352	1544.25
396.576	1527.25
396.801	1575.25
397.025	1583.25
397.249	1631.25
397.474	1594.25
397.698	1613.25
397.922	1636.25
398.147	1627.25
398.371	1661.25
398.595	1731.25
398.82	1761.25
399.044	1869.25
399.268	2037.25
399.492	2227.25
399.717	2445.25
399.941	2470.25
400.165	2300.25
400.389	2107.25
400.613	2004.25
400.837	1883.25
401.062	1839.25
401.286	1817.25
401.51	1817.25
401.734	1761.25
401.958	1786.25
402.182	1806.25
402.406	1781.25
402.63	1807.25
402.854	1864.25
403.078	1832.25
403.302	1875.25
403.526	1848.25
403.75	1857.25
403.974	1956.25
404.198	1953.25
404.422	1960.25
404.645	1947.25
404.869	1934.25
405.093	1928.25
405.317	1915.25
405.541	1918.25
405.765	1908.25
405.988	1927.25
406.212	1949.25
406.436	1923.25
406.66	1977.25
406.883	2004.25
407.107	2115.25
407.331	2166.25
407.555	2242.25
407.778	2243.25
408.002	2162.25
408.226	2115.25
408.449	2112.25
408.673	2069.25
408.896	1996.25
409.12	1988.25
409.344	2010.25
409.567	1966.25
409.791	1996.25
410.014	1975.25
410.238	1944.25
410.461	1962.25
410.685	1957.25
410.908	1907.25
411.132	1899.25
411.355	1841.25
411.578	1823.25
411.802	1854.25
412.025	1910.25
412.249	1896.25
412.472	1861.25
412.695	1819.25
412.919	1809.25
413.142	1818.25
413.365	1826.25
413.589	1799.25
413.812	1773.25
414.035	1775.25
414.258	1768.25
414.482	1791.25
414.705	1803.25
414.928	1763.25
415.151	1789.25
415.374	1785.25
415.597	1766.25
415.821	1733.25
416.044	1711.25
416.267	1729.25
416.49	1683.25
416.713	1704.25
416.936	1714.25
417.159	1716.25
417.382	1720.25
417.605	1689.25
417.828	1694.25
418.051	1737.25
418.274	1724.25
418.497	1721.25
418.72	1744.25
418.943	1709.25
419.166	1870.25
419.389	1985.25
419.611	1947.25
419.834	1853.25
420.057	1792.25
420.28	1735.25
420.503	1686.25
420.726	1655.25
420.948	1650.25
421.171	1675.25
421.394	1719.25
421.617	1716.25
421.839	1693.25
422.062	1713.25
422.285	1732.25
422.507	1766.25
422.73	1737.25
422.953	1738.25
423.175	1751.25
423.398	1749.25
423.621	1706.25
423.843	1759.25
424.066	1813.25
424.288	1757.25
424.511	1740.25
424.733	1709.25
424.956	1711.25
425.178	1735.25
425.401	1709.25
425.623	1735.25
425.846	1681.25
426.068	1648.25
426.291	1679.25
426.513	1676.25
426.735	1645.25
426.958	1648.25
427.18	1601.25
427.402	1627.25
427.625	1618.25
427.847	1566.25
428.069	1574.25
428.292	1593.25
428.514	1544.25
428.736	1555.25
428.958	1541.25
429.181	1537.25
429.403	1516.25
429.625	1532.25
429.847	1536.25
430.069	1505.25
430.292	1535.25
430.514	1554.25
430.736	1573.25
430.958	1548.25
431.18	1557.25
431.402	1581.25
431.624	1525.25
431.846	1555.25
432.068	1572.25
432.29	1599.25
432.512	1588.25
432.734	1595.25
432.956	1565.25
433.178	1571.25
433.4	1599.25
433.622	1597.25
433.844	1635.25
434.066	1623.25
434.287	1638.25
434.509	1662.25
434.731	1656.25
434.953	1717.25
435.175	1727.25
435.397	1724.25
435.618	1672.25
435.84	1628.25
436.062	1567.25
436.284	1609.25
436.505	1577.25
436.727	1600.25
436.949	1564.25
437.17	1562.25
437.392	1548.25
437.614	1563.25
437.835	1488.25
438.057	1511.25
438.278	1450.25
438.5	1489.25
438.721	1480.25
438.943	1501.25
439.165	1493.25
439.386	1482.25
439.608	1550.25
439.829	1535.25
440.05	1519.25
440.272	1540.25
440.493	1554.25
440.715	1564.25
440.936	1603.25
441.158	1634.25
441.379	1671.25
441.6	1655.25
441.822	1715.25
442.043	1713.25
442.264	1689.25
442.486	1660.25
442.707	1655.25
442.928	1638.25
443.149	1661.25
443.371	1647.25
443.592	1653.25
443.813	1676.25
444.034	1685.25
444.255	1771.25
444.476	1845.25
444.698	1893.25
444.919	1943.25
445.14	2025.25
445.361	1860.25
445.582	1778.25
445.803	1665.25
446.024	1607.25
446.245	1606.25
446.466	1590.25
446.687	1544.25
446.908	1546.25
447.129	1492.25
447.35	1484.25
447.571	1502.25
447.792	1462.25
448.013	1483.25
448.234	1444.25
448.455	1439.25
448.675	1419.25
448.896	1427.25
449.117	1357.25
449.338	1384.25
449.559	1376.25
449.779	1357.25
450	1387.25
450.221	1381.25
450.442	1400.25
450.662	1387.25
450.883	1435.25
451.104	1422.25
451.324	1407.25
451.545	1374.25
451.766	1373.25
451.986	1341.25
452.207	1350.25
452.428	1400.25
452.648	1389.25
452.869	1362.25
453.089	1341.25
453.31	1359.25
453.53	1350.25
453.751	1329.25
453.971	1339.25
454.192	1347.25
454.412	1346.25
454.633	1301.25
454.853	1344.25
455.073	1316.25
455.294	1291.25
455.514	1316.25
455.734	1327.25
455.955	1255.25
456.175	1327.25
456.395	1288.25
456.616	1268.25
456.836	1335.25
457.056	1327.25
457.276	1311.25
457.497	1362.25
457.717	1330.25
457.937	1319.25
458.157	1352.25
458.377	1386.25
458.598	1411.25
458.818	1409.25
459.038	1456.25
459.258	1485.25
459.478	1542.25
459.698	1583.25
459.918	1603.25
460.138	1666.25
460.358	1715.25
460.578	1727.25
460.798	1724.25
461.018	1801.25
461.238	1754.25
461.458	1766.25
461.678	1719.25
461.898	1774.25
462.118	1809.25
462.338	1815.25
462.558	1898.25
462.777	1985.25
462.997	2079.25
463.217	2271.25
463.437	2264.25
463.657	2091.25
463.876	2037.25
464.096	2028.25
464.316	2018.25
464.536	2000.25
464.755	1972.25
464.975	1925.25
465.195	1823.25
465.414	1752.25
465.634	1631.25
465.854	1585.25
466.073	1519.25
466.293	1524.25
466.512	1531.25
466.732	1476.25
466.951	1507.25
467.171	1479.25
467.391	1486.25
467.61	1470.25
467.829	1445.25
468.049	1441.25
468.268	1407.25
468.488	1444.25
468.707	1437.25
468.927	1442.25
469.146	1424.25
469.365	1441.25
469.585	1432.25
469.804	1475.25
470.023	1491.25
470.243	1488.25
470.462	1511.25
470.681	1504.25
470.901	1537.25
471.12	1513.25
471.339	1500.25
471.558	1481.25
471.777	1468.25
471.997	1439.25
472.216	1451.25
472.435	1404.25
472.654	1420.25
472.873	1390.25
473.092	1410.25
473.311	1397.25
473.53	1437.25
473.749	1429.25
473.968	1422.25
474.187	1408.25
474.406	1376.25
474.625	1387.25
474.844	1410.25
475.063	1405.25
475.282	1419.25
475.501	1445.25
475.72	1462.25
475.939	1466.25
476.158	1479.25
476.377	1477.25
476.596	1495.25
476.814	1447.25
477.033	1507.25
477.252	1536.25
477.471	1567.25
477.69	1586.25
477.908	1645.25
478.127	1670.25
478.346	1679.25
478.564	1707.25
478.783	1705.25
479.002	1739.25
479.22	1727.25
479.439	1751.25
479.658	1744.25
479.876	1776.25
480.095	1758.25
480.313	1851.25
480.532	1853.25
480.751	1886.25
480.969	1836.25
481.188	1780.25
481.406	1761.25
481.624	1747.25
481.843	1713.25
482.061	1703.25
482.28	1706.25
482.498	1718.25
482.717	1677.25
482.935	1709.25
483.153	1711.25
483.372	1690.25
483.59	1734.25
483.808	1744.25
484.027	1732.25
484.245	1783.25
484.463	1765.25
484.681	1781.25
484.9	1789.25
485.118	1772.25
485.336	1747.25
485.554	1810.25
485.772	1856.25
485.99	1819.25
486.209	1825.25
486.427	1809.25
486.645	1812.25
486.863	1792.25
487.081	1811.25
487.299	1805.25
487.517	1794.25
487.735	1791.25
487.953	1775.25
488.171	1800.25
488.389	1802.25
488.607	1748.25
488.825	1738.25
489.043	1744.25
489.261	1789.25
489.479	1768.25
489.696	1778.25
489.914	1753.25
490.132	1750.25
490.35	1757.25
490.568	1801.25
