Data from NiCl2@0.125M.TitratingCurve.Agarose3%dH2O.NegLispCup.LampEnergy10.LIBS07252019_HRD10591_18-27-55-577.txt Node
Date: Thu Jul 25 18:27:55 EDT 2019
User: cochatt
Spectrometer: HR+D1059
Trigger mode: 1
Integration Time (sec): 1.000000E-1
Scans to average: 1
Electric dark correction enabled: true
Nonlinearity correction enabled: false
Boxcar width: 0
XAxis mode: Wavelengths
Number of Pixels in Spectrum: 2048
>>>>>Begin Spectral Data<<<<<
223.165	-15.88
223.4	-15.88
223.635	-15.88
223.869	-23.88
224.104	-23.88
224.338	-15.88
224.573	-8.88
224.808	-11.88
225.042	-11.88
225.277	-9.88
225.511	-9.88
225.746	3.12
225.98	6.12
226.215	3.12
226.449	28.12
226.683	23.12
226.918	32.12
227.152	36.12
227.387	24.12
227.621	53.12
227.856	45.12
228.09	41.12
228.324	41.12
228.559	51.12
228.793	65.12
229.027	107.12
229.262	127.12
229.496	111.12
229.73	116.12
229.964	132.12
230.199	105.12
230.433	145.12
230.667	148.12
230.901	143.12
231.136	135.12
231.37	149.12
231.604	149.12
231.838	159.12
232.072	156.12
232.306	140.12
232.541	159.12
232.775	155.12
233.009	142.12
233.243	143.12
233.477	158.12
233.711	159.12
233.945	152.12
234.179	164.12
234.413	155.12
234.647	170.12
234.881	155.12
235.115	159.12
235.349	168.12
235.583	179.12
235.817	157.12
236.051	175.12
236.285	153.12
236.519	162.12
236.753	163.12
236.987	175.12
237.221	172.12
237.455	193.12
237.689	179.12
237.922	182.12
238.156	171.12
238.39	168.12
238.624	181.12
238.858	177.12
239.091	185.12
239.325	184.12
239.559	187.12
239.793	193.12
240.027	200.12
240.26	204.12
240.494	193.12
240.728	184.12
240.961	197.12
241.195	200.12
241.429	207.12
241.662	198.12
241.896	198.12
242.13	209.12
242.363	213.12
242.597	203.12
242.83	219.12
243.064	229.12
243.298	222.12
243.531	217.12
243.765	235.12
243.998	219.12
244.232	239.12
244.465	235.12
244.699	235.12
244.932	222.12
245.166	237.12
245.399	239.12
245.633	242.12
245.866	243.12
246.099	259.12
246.333	249.12
246.566	260.12
246.8	251.12
247.033	235.12
247.266	228.12
247.5	269.12
247.733	260.12
247.966	253.12
248.2	275.12
248.433	261.12
248.666	251.12
248.899	278.12
249.133	259.12
249.366	253.12
249.599	277.12
249.832	283.12
250.066	283.12
250.299	275.12
250.532	278.12
250.765	279.12
250.998	270.12
251.231	280.12
251.465	286.12
251.698	293.12
251.931	281.12
252.164	287.12
252.397	300.12
252.63	307.12
252.863	297.12
253.096	310.12
253.329	301.12
253.562	304.12
253.795	303.12
254.028	309.12
254.261	323.12
254.494	338.12
254.727	304.12
254.96	321.12
255.193	299.12
255.426	293.12
255.659	319.12
255.892	315.12
256.124	320.12
256.357	332.12
256.59	326.12
256.823	310.12
257.056	327.12
257.289	336.12
257.521	327.12
257.754	326.12
257.987	306.12
258.22	331.12
258.452	327.12
258.685	342.12
258.918	325.12
259.151	337.12
259.383	347.12
259.616	357.12
259.849	368.12
260.081	345.12
260.314	371.12
260.547	361.12
260.779	346.12
261.012	349.12
261.244	355.12
261.477	356.12
261.71	357.12
261.942	375.12
262.175	357.12
262.407	366.12
262.64	361.12
262.872	380.12
263.105	380.12
263.337	382.12
263.57	368.12
263.802	381.12
264.035	380.12
264.267	364.12
264.499	374.12
264.732	388.12
264.964	377.12
265.197	384.12
265.429	396.12
265.661	391.12
265.894	387.12
266.126	397.12
266.358	390.12
266.591	397.12
266.823	387.12
267.055	397.12
267.287	414.12
267.52	392.12
267.752	408.12
267.984	417.12
268.216	406.12
268.448	409.12
268.681	401.12
268.913	405.12
269.145	406.12
269.377	413.12
269.609	429.12
269.841	435.12
270.073	405.12
270.306	417.12
270.538	418.12
270.77	421.12
271.002	402.12
271.234	402.12
271.466	429.12
271.698	414.12
271.93	407.12
272.162	406.12
272.394	416.12
272.626	433.12
272.858	445.12
273.09	457.12
273.322	473.12
273.553	433.12
273.785	446.12
274.017	441.12
274.249	458.12
274.481	456.12
274.713	438.12
274.945	445.12
275.176	448.12
275.408	457.12
275.64	453.12
275.872	470.12
276.104	467.12
276.335	460.12
276.567	443.12
276.799	473.12
277.031	472.12
277.262	481.12
277.494	464.12
277.726	463.12
277.957	469.12
278.189	469.12
278.421	497.12
278.652	470.12
278.884	488.12
279.115	486.12
279.347	495.12
279.579	508.12
279.81	502.12
280.042	514.12
280.273	511.12
280.505	502.12
280.736	507.12
280.968	495.12
281.199	497.12
281.431	510.12
281.662	500.12
281.894	513.12
282.125	507.12
282.356	537.12
282.588	528.12
282.819	529.12
283.051	525.12
283.282	508.12
283.513	512.12
283.745	532.12
283.976	535.12
284.207	524.12
284.439	544.12
284.67	542.12
284.901	557.12
285.132	539.12
285.364	537.12
285.595	568.12
285.826	538.12
286.057	545.12
286.288	584.12
286.52	553.12
286.751	547.12
286.982	524.12
287.213	534.12
287.444	555.12
287.675	568.12
287.906	567.12
288.138	582.12
288.369	563.12
288.6	581.12
288.831	574.12
289.062	577.12
289.293	584.12
289.524	568.12
289.755	590.12
289.986	555.12
290.217	582.12
290.448	599.12
290.679	579.12
290.91	575.12
291.141	604.12
291.371	598.12
291.602	602.12
291.833	587.12
292.064	600.12
292.295	607.12
292.526	596.12
292.757	595.12
292.987	572.12
293.218	581.12
293.449	596.12
293.68	602.12
293.91	593.12
294.141	607.12
294.372	585.12
294.603	598.12
294.833	622.12
295.064	585.12
295.295	575.12
295.525	605.12
295.756	599.12
295.987	620.12
296.217	591.12
296.448	608.12
296.679	622.12
296.909	613.12
297.14	601.12
297.37	636.12
297.601	639.12
297.831	639.12
298.062	654.12
298.292	643.12
298.523	659.12
298.753	666.12
298.984	665.12
299.214	647.12
299.445	646.12
299.675	617.12
299.905	650.12
300.136	649.12
300.366	649.12
300.597	630.12
300.827	665.12
301.057	684.12
301.288	645.12
301.518	688.12
301.748	661.12
301.979	681.12
302.209	676.12
302.439	676.12
302.669	680.12
302.9	669.12
303.13	647.12
303.36	663.12
303.59	676.12
303.82	669.12
304.051	679.12
304.281	649.12
304.511	668.12
304.741	682.12
304.971	677.12
305.201	673.12
305.431	652.12
305.661	659.12
305.891	641.12
306.121	658.12
306.352	664.12
306.582	650.12
306.812	644.12
307.042	647.12
307.272	669.12
307.502	647.12
307.731	663.12
307.961	631.12
308.191	642.12
308.421	629.12
308.651	632.12
308.881	641.12
309.111	633.12
309.341	654.12
309.571	667.12
309.8	666.12
310.03	629.12
310.26	670.12
310.49	658.12
310.72	671.12
310.949	636.12
311.179	672.12
311.409	670.12
311.639	653.12
311.868	670.12
312.098	675.12
312.328	656.12
312.557	657.12
312.787	662.12
313.017	686.12
313.246	689.12
313.476	695.12
313.706	683.12
313.935	716.12
314.165	709.12
314.394	708.12
314.624	718.12
314.853	678.12
315.083	703.12
315.312	711.12
315.542	670.12
315.771	693.12
316.001	705.12
316.23	702.12
316.46	678.12
316.689	728.12
316.919	708.12
317.148	699.12
317.377	704.12
317.607	664.12
317.836	663.12
318.065	683.12
318.295	680.12
318.524	672.12
318.753	685.12
318.983	691.12
319.212	687.12
319.441	688.12
319.67	683.12
319.9	665.12
320.129	696.12
320.358	683.12
320.587	688.12
320.816	687.12
321.046	696.12
321.275	691.12
321.504	675.12
321.733	694.12
321.962	686.12
322.191	672.12
322.42	691.12
322.649	691.12
322.878	688.12
323.108	712.12
323.337	699.12
323.566	714.12
323.795	713.12
324.024	707.12
324.253	704.12
324.482	694.12
324.71	703.12
324.939	707.12
325.168	728.12
325.397	717.12
325.626	731.12
325.855	754.12
326.084	742.12
326.313	766.12
326.542	757.12
326.77	765.12
326.999	768.12
327.228	725.12
327.457	728.12
327.686	747.12
327.914	744.12
328.143	753.12
328.372	739.12
328.6	752.12
328.829	758.12
329.058	750.12
329.287	739.12
329.515	780.12
329.744	739.12
329.972	765.12
330.201	725.12
330.43	760.12
330.658	771.12
330.887	777.12
331.115	762.12
331.344	793.12
331.572	816.12
331.801	793.12
332.03	827.12
332.258	855.12
332.486	873.12
332.715	922.12
332.943	945.12
333.172	985.12
333.4	1013.12
333.629	1047.12
333.857	1049.12
334.085	1008.12
334.314	992.12
334.542	957.12
334.771	961.12
334.999	932.12
335.227	971.12
335.455	916.12
335.684	927.12
335.912	919.12
336.14	891.12
336.369	891.12
336.597	935.12
336.825	918.12
337.053	918.12
337.281	906.12
337.51	868.12
337.738	899.12
337.966	849.12
338.194	813.12
338.422	845.12
338.65	819.12
338.878	826.12
339.106	847.12
339.334	809.12
339.562	822.12
339.79	787.12
340.018	797.12
340.246	783.12
340.474	784.12
340.702	775.12
340.93	802.12
341.158	785.12
341.386	795.12
341.614	804.12
341.842	785.12
342.07	740.12
342.298	781.12
342.526	777.12
342.754	789.12
342.981	802.12
343.209	823.12
343.437	836.12
343.665	861.12
343.893	963.12
344.12	1017.12
344.348	968.12
344.576	879.12
344.804	833.12
345.031	812.12
345.259	803.12
345.487	783.12
345.714	771.12
345.942	790.12
346.17	777.12
346.397	792.12
346.625	763.12
346.853	767.12
347.08	767.12
347.308	742.12
347.535	776.12
347.763	783.12
347.99	772.12
348.218	753.12
348.445	751.12
348.673	765.12
348.9	732.12
349.128	754.12
349.355	753.12
349.583	756.12
349.81	731.12
350.037	732.12
350.265	737.12
350.492	743.12
350.72	721.12
350.947	750.12
351.174	729.12
351.402	737.12
351.629	727.12
351.856	724.12
352.083	732.12
352.311	712.12
352.538	701.12
352.765	721.12
352.992	715.12
353.22	734.12
353.447	740.12
353.674	723.12
353.901	709.12
354.128	727.12
354.355	735.12
354.583	725.12
354.81	726.12
355.037	753.12
355.264	765.12
355.491	725.12
355.718	729.12
355.945	768.12
356.172	723.12
356.399	732.12
356.626	731.12
356.853	732.12
357.08	727.12
357.307	734.12
357.534	722.12
357.761	730.12
357.988	760.12
358.215	713.12
358.441	724.12
358.668	718.12
358.895	728.12
359.122	734.12
359.349	712.12
359.576	721.12
359.802	715.12
360.029	714.12
360.256	770.12
360.483	723.12
360.709	731.12
360.936	740.12
361.163	733.12
361.39	706.12
361.616	733.12
361.843	711.12
362.07	740.12
362.296	720.12
362.523	726.12
362.749	729.12
362.976	713.12
363.203	717.12
363.429	713.12
363.656	727.12
363.882	721.12
364.109	737.12
364.335	745.12
364.562	731.12
364.788	721.12
365.015	707.12
365.241	701.12
365.468	713.12
365.694	712.12
365.92	721.12
366.147	725.12
366.373	721.12
366.599	713.12
366.826	741.12
367.052	729.12
367.278	719.12
367.505	710.12
367.731	722.12
367.957	711.12
368.184	737.12
368.41	741.12
368.636	719.12
368.862	739.12
369.089	724.12
369.315	749.12
369.541	755.12
369.767	765.12
369.993	758.12
370.219	774.12
370.445	780.12
370.672	778.12
370.898	788.12
371.124	786.12
371.35	798.12
371.576	816.12
371.802	816.12
372.028	786.12
372.254	792.12
372.48	794.12
372.706	822.12
372.932	840.12
373.158	809.12
373.384	791.12
373.61	809.12
373.835	800.12
374.061	788.12
374.287	783.12
374.513	823.12
374.739	846.12
374.965	879.12
375.191	895.12
375.416	902.12
375.642	847.12
375.868	865.12
376.094	835.12
376.319	825.12
376.545	809.12
376.771	822.12
376.997	778.12
377.222	790.12
377.448	812.12
377.674	808.12
377.899	779.12
378.125	797.12
378.35	790.12
378.576	802.12
378.802	759.12
379.027	812.12
379.253	790.12
379.478	812.12
379.704	793.12
379.929	782.12
380.155	751.12
380.38	766.12
380.606	797.12
380.831	793.12
381.057	799.12
381.282	798.12
381.507	797.12
381.733	795.12
381.958	797.12
382.184	825.12
382.409	823.12
382.634	836.12
382.86	843.12
383.085	847.12
383.31	848.12
383.535	876.12
383.761	877.12
383.986	904.12
384.211	925.12
384.436	923.12
384.662	943.12
384.887	963.12
385.112	956.12
385.337	940.12
385.562	964.12
385.787	949.12
386.013	1013.12
386.238	972.12
386.463	968.12
386.688	996.12
386.913	964.12
387.138	951.12
387.363	948.12
387.588	915.12
387.813	933.12
388.038	933.12
388.263	902.12
388.488	939.12
388.713	951.12
388.938	947.12
389.163	928.12
389.387	953.12
389.612	934.12
389.837	966.12
390.062	921.12
390.287	926.12
390.512	925.12
390.736	958.12
390.961	941.12
391.186	963.12
391.411	1006.12
391.636	1032.12
391.86	1077.12
392.085	1098.12
392.31	1088.12
392.534	1063.12
392.759	1037.12
392.984	1030.12
393.208	1013.12
393.433	1011.12
393.658	1013.12
393.882	1051.12
394.107	1011.12
394.331	1072.12
394.556	994.12
394.78	1048.12
395.005	1045.12
395.229	1024.12
395.454	1077.12
395.678	1098.12
395.903	1097.12
396.127	1063.12
396.352	1021.12
396.576	998.12
396.801	975.12
397.025	1013.12
397.249	1061.12
397.474	1056.12
397.698	1076.12
397.922	1060.12
398.147	1031.12
398.371	1102.12
398.595	1149.12
398.82	1149.12
399.044	1266.12
399.268	1408.12
399.492	1639.12
399.717	1921.12
399.941	1917.12
400.165	1649.12
400.389	1461.12
400.613	1373.12
400.837	1269.12
401.062	1221.12
401.286	1208.12
401.51	1179.12
401.734	1212.12
401.958	1236.12
402.182	1226.12
402.406	1231.12
402.63	1268.12
402.854	1291.12
403.078	1336.12
403.302	1368.12
403.526	1390.12
403.75	1405.12
403.974	1427.12
404.198	1431.12
404.422	1443.12
404.645	1413.12
404.869	1392.12
405.093	1373.12
405.317	1362.12
405.541	1348.12
405.765	1330.12
405.988	1318.12
406.212	1342.12
406.436	1339.12
406.66	1359.12
406.883	1350.12
407.107	1473.12
407.331	1554.12
407.555	1583.12
407.778	1589.12
408.002	1534.12
408.226	1502.12
408.449	1452.12
408.673	1379.12
408.896	1356.12
409.12	1334.12
409.344	1345.12
409.567	1376.12
409.791	1377.12
410.014	1388.12
410.238	1353.12
410.461	1359.12
410.685	1359.12
410.908	1314.12
411.132	1292.12
411.355	1230.12
411.578	1278.12
411.802	1281.12
412.025	1255.12
412.249	1271.12
412.472	1288.12
412.695	1252.12
412.919	1185.12
413.142	1218.12
413.365	1205.12
413.589	1227.12
413.812	1187.12
414.035	1179.12
414.258	1210.12
414.482	1182.12
414.705	1230.12
414.928	1208.12
415.151	1214.12
415.374	1222.12
415.597	1228.12
415.821	1197.12
416.044	1183.12
416.267	1159.12
416.49	1192.12
416.713	1171.12
416.936	1192.12
417.159	1187.12
417.382	1186.12
417.605	1202.12
417.828	1205.12
418.051	1213.12
418.274	1183.12
418.497	1240.12
418.72	1220.12
418.943	1231.12
419.166	1304.12
419.389	1427.12
419.611	1374.12
419.834	1291.12
420.057	1234.12
420.28	1216.12
420.503	1192.12
420.726	1168.12
420.948	1182.12
421.171	1186.12
421.394	1182.12
421.617	1172.12
421.839	1190.12
422.062	1172.12
422.285	1197.12
422.507	1234.12
422.73	1221.12
422.953	1248.12
423.175	1266.12
423.398	1310.12
423.621	1279.12
423.843	1300.12
424.066	1314.12
424.288	1249.12
424.511	1263.12
424.733	1247.12
424.956	1238.12
425.178	1217.12
425.401	1210.12
425.623	1203.12
425.846	1181.12
426.068	1158.12
426.291	1175.12
426.513	1109.12
426.735	1093.12
426.958	1117.12
427.18	1105.12
427.402	1095.12
427.625	1088.12
427.847	1056.12
428.069	1080.12
428.292	1087.12
428.514	1075.12
428.736	1033.12
428.958	1045.12
429.181	1034.12
429.403	990.12
429.625	1029.12
429.847	1025.12
430.069	1025.12
430.292	1025.12
430.514	1037.12
430.736	1055.12
430.958	1050.12
431.18	1025.12
431.402	1053.12
431.624	1007.12
431.846	1047.12
432.068	1088.12
432.29	1069.12
432.512	1039.12
432.734	1047.12
432.956	1033.12
433.178	1059.12
433.4	1054.12
433.622	1051.12
433.844	1083.12
434.066	1092.12
434.287	1081.12
434.509	1103.12
434.731	1147.12
434.953	1206.12
435.175	1171.12
435.397	1187.12
435.618	1114.12
435.84	1075.12
436.062	1102.12
436.284	1064.12
436.505	1057.12
436.727	1068.12
436.949	1057.12
437.17	1049.12
437.392	1043.12
437.614	1040.12
437.835	1025.12
438.057	1026.12
438.278	1005.12
438.5	1009.12
438.721	1022.12
438.943	1052.12
439.165	1007.12
439.386	1029.12
439.608	1072.12
439.829	1073.12
440.05	1057.12
440.272	1074.12
440.493	1075.12
440.715	1093.12
440.936	1109.12
441.158	1081.12
441.379	1150.12
441.6	1205.12
441.822	1218.12
442.043	1215.12
442.264	1169.12
442.486	1164.12
442.707	1185.12
442.928	1200.12
443.149	1188.12
443.371	1163.12
443.592	1168.12
443.813	1195.12
444.034	1204.12
444.255	1232.12
444.476	1305.12
444.698	1396.12
444.919	1483.12
445.14	1530.12
445.361	1376.12
445.582	1248.12
445.803	1140.12
446.024	1115.12
446.245	1149.12
446.466	1087.12
446.687	1069.12
446.908	1077.12
447.129	1059.12
447.35	1038.12
447.571	1033.12
447.792	1017.12
448.013	1007.12
448.234	974.12
448.455	990.12
448.675	975.12
448.896	960.12
449.117	943.12
449.338	964.12
449.559	984.12
449.779	951.12
450	959.12
450.221	965.12
450.442	965.12
450.662	988.12
450.883	978.12
451.104	1024.12
451.324	1003.12
451.545	981.12
451.766	1006.12
451.986	1009.12
452.207	995.12
452.428	987.12
452.648	990.12
452.869	957.12
453.089	952.12
453.31	962.12
453.53	951.12
453.751	947.12
453.971	916.12
454.192	951.12
454.412	899.12
454.633	929.12
454.853	926.12
455.073	893.12
455.294	929.12
455.514	926.12
455.734	908.12
455.955	917.12
456.175	892.12
456.395	899.12
456.616	889.12
456.836	885.12
457.056	906.12
457.276	904.12
457.497	932.12
457.717	892.12
457.937	934.12
458.157	921.12
458.377	909.12
458.598	955.12
458.818	963.12
459.038	969.12
459.258	1053.12
459.478	1043.12
459.698	1132.12
459.918	1101.12
460.138	1125.12
460.358	1242.12
460.578	1251.12
460.798	1272.12
461.018	1251.12
461.238	1228.12
461.458	1237.12
461.678	1238.12
461.898	1248.12
462.118	1239.12
462.338	1343.12
462.558	1381.12
462.777	1417.12
462.997	1509.12
463.217	1729.12
463.437	1747.12
463.657	1544.12
463.876	1471.12
464.096	1461.12
464.316	1441.12
464.536	1495.12
464.755	1415.12
464.975	1362.12
465.195	1279.12
465.414	1225.12
465.634	1153.12
465.854	1104.12
466.073	1077.12
466.293	1055.12
466.512	1040.12
466.732	1018.12
466.951	1019.12
467.171	1021.12
467.391	1024.12
467.61	1009.12
467.829	991.12
468.049	985.12
468.268	989.12
468.488	969.12
468.707	968.12
468.927	973.12
469.146	969.12
469.365	992.12
469.585	990.12
469.804	993.12
470.023	1055.12
470.243	1047.12
470.462	1076.12
470.681	1057.12
470.901	1053.12
471.12	1016.12
471.339	1023.12
471.558	1009.12
471.777	985.12
471.997	990.12
472.216	965.12
472.435	936.12
472.654	933.12
472.873	923.12
473.092	946.12
473.311	943.12
473.53	937.12
473.749	924.12
473.968	917.12
474.187	932.12
474.406	930.12
474.625	946.12
474.844	949.12
475.063	955.12
475.282	941.12
475.501	961.12
475.72	959.12
475.939	932.12
476.158	969.12
476.377	978.12
476.596	981.12
476.814	973.12
477.033	980.12
477.252	1034.12
477.471	1026.12
477.69	1053.12
477.908	1066.12
478.127	1109.12
478.346	1142.12
478.564	1145.12
478.783	1165.12
479.002	1185.12
479.22	1181.12
479.439	1198.12
479.658	1169.12
479.876	1183.12
480.095	1190.12
480.313	1241.12
480.532	1269.12
480.751	1269.12
480.969	1193.12
481.188	1156.12
481.406	1134.12
481.624	1078.12
481.843	1086.12
482.061	1106.12
482.28	1083.12
482.498	1059.12
482.717	1044.12
482.935	1051.12
483.153	1063.12
483.372	1039.12
483.59	1047.12
483.808	1070.12
484.027	1057.12
484.245	1071.12
484.463	1091.12
484.681	1106.12
484.9	1084.12
485.118	1075.12
485.336	1107.12
485.554	1095.12
485.772	1125.12
485.99	1116.12
486.209	1169.12
486.427	1138.12
486.645	1115.12
486.863	1101.12
487.081	1125.12
487.299	1125.12
487.517	1137.12
487.735	1113.12
487.953	1112.12
488.171	1106.12
488.389	1101.12
488.607	1101.12
488.825	1078.12
489.043	1059.12
489.261	1097.12
489.479	1094.12
489.696	1116.12
489.914	1085.12
490.132	1118.12
490.35	1136.12
490.568	1101.12
490.786	1093.12
491.003	1129.12
491.221	1138.12
491.439	1128.12
491.657	1135.12
491.874	1138.12
492.092	1124.12
492.31	1109.12
492.527	1142.12
492.745	1144.12
492.963	1154.12
493.18	1175.12
493.398	1169.12
493.615	1142.12
493.833	1185.12
494.05	1184.12
494.268	1200.12
494.485	1168.12
494.703	1174.12
494.92	1173.12
495.138	1192.12
495.355	1193.12
495.573	1162.12
495.79	1191.12
496.008	1206.12
496.225	1215.12
