Data from NiCl2@0.25M.TitratingCurve.Agarose3%dH2O.NegLispCup.LampEnergy10.LIBS07252019_HRD10591_18-24-21-573.txt Node
Date: Thu Jul 25 18:24:21 EDT 2019
User: cochatt
Spectrometer: HR+D1059
Trigger mode: 1
Integration Time (sec): 1.000000E-1
Scans to average: 1
Electric dark correction enabled: true
Nonlinearity correction enabled: false
Boxcar width: 0
XAxis mode: Wavelengths
Number of Pixels in Spectrum: 2048
>>>>>Begin Spectral Data<<<<<
223.165	-14.5
223.4	-14.5
223.635	-14.5
223.869	-10.5
224.104	-19.5
224.338	-23.5
224.573	-31.5
224.808	-15.5
225.042	-10.5
225.277	-7.5
225.511	-0.5
225.746	-7.5
225.98	5.5
226.215	1.5
226.449	21.5
226.683	39.5
226.918	32.5
227.152	40.5
227.387	49.5
227.621	49.5
227.856	32.5
228.09	36.5
228.324	72.5
228.559	53.5
228.793	86.5
229.027	117.5
229.262	117.5
229.496	121.5
229.73	134.5
229.964	136.5
230.199	141.5
230.433	139.5
230.667	155.5
230.901	139.5
231.136	148.5
231.37	143.5
231.604	162.5
231.838	171.5
232.072	142.5
232.306	161.5
232.541	169.5
232.775	152.5
233.009	155.5
233.243	164.5
233.477	167.5
233.711	147.5
233.945	152.5
234.179	155.5
234.413	159.5
234.647	180.5
234.881	163.5
235.115	172.5
235.349	164.5
235.583	145.5
235.817	161.5
236.051	188.5
236.285	157.5
236.519	167.5
236.753	179.5
236.987	165.5
237.221	180.5
237.455	181.5
237.689	180.5
237.922	172.5
238.156	175.5
238.39	186.5
238.624	183.5
238.858	175.5
239.091	190.5
239.325	196.5
239.559	194.5
239.793	189.5
240.027	200.5
240.26	200.5
240.494	189.5
240.728	186.5
240.961	214.5
241.195	205.5
241.429	221.5
241.662	216.5
241.896	219.5
242.13	211.5
242.363	215.5
242.597	213.5
242.83	244.5
243.064	225.5
243.298	217.5
243.531	243.5
243.765	247.5
243.998	222.5
244.232	213.5
244.465	236.5
244.699	233.5
244.932	239.5
245.166	240.5
245.399	255.5
245.633	246.5
245.866	236.5
246.099	226.5
246.333	249.5
246.566	258.5
246.8	245.5
247.033	239.5
247.266	231.5
247.5	244.5
247.733	261.5
247.966	269.5
248.2	272.5
248.433	275.5
248.666	264.5
248.899	266.5
249.133	280.5
249.366	278.5
249.599	277.5
249.832	269.5
250.066	283.5
250.299	295.5
250.532	294.5
250.765	281.5
250.998	282.5
251.231	281.5
251.465	276.5
251.698	322.5
251.931	295.5
252.164	297.5
252.397	292.5
252.63	296.5
252.863	300.5
253.096	306.5
253.329	319.5
253.562	308.5
253.795	307.5
254.028	347.5
254.261	316.5
254.494	300.5
254.727	300.5
254.96	316.5
255.193	300.5
255.426	317.5
255.659	305.5
255.892	324.5
256.124	328.5
256.357	322.5
256.59	308.5
256.823	332.5
257.056	329.5
257.289	333.5
257.521	332.5
257.754	319.5
257.987	330.5
258.22	336.5
258.452	359.5
258.685	328.5
258.918	343.5
259.151	356.5
259.383	343.5
259.616	334.5
259.849	352.5
260.081	346.5
260.314	348.5
260.547	358.5
260.779	361.5
261.012	363.5
261.244	370.5
261.477	341.5
261.71	373.5
261.942	355.5
262.175	369.5
262.407	373.5
262.64	363.5
262.872	381.5
263.105	373.5
263.337	364.5
263.57	375.5
263.802	369.5
264.035	382.5
264.267	396.5
264.499	396.5
264.732	392.5
264.964	383.5
265.197	386.5
265.429	401.5
265.661	392.5
265.894	411.5
266.126	389.5
266.358	392.5
266.591	409.5
266.823	405.5
267.055	397.5
267.287	393.5
267.52	403.5
267.752	418.5
267.984	400.5
268.216	431.5
268.448	423.5
268.681	412.5
268.913	433.5
269.145	399.5
269.377	401.5
269.609	425.5
269.841	406.5
270.073	407.5
270.306	411.5
270.538	421.5
270.77	426.5
271.002	430.5
271.234	431.5
271.466	428.5
271.698	440.5
271.93	435.5
272.162	424.5
272.394	431.5
272.626	447.5
272.858	433.5
273.09	455.5
273.322	458.5
273.553	448.5
273.785	457.5
274.017	461.5
274.249	466.5
274.481	470.5
274.713	472.5
274.945	440.5
275.176	446.5
275.408	467.5
275.64	488.5
275.872	474.5
276.104	488.5
276.335	481.5
276.567	468.5
276.799	469.5
277.031	455.5
277.262	497.5
277.494	494.5
277.726	490.5
277.957	500.5
278.189	473.5
278.421	481.5
278.652	500.5
278.884	515.5
279.115	484.5
279.347	516.5
279.579	515.5
279.81	513.5
280.042	505.5
280.273	525.5
280.505	514.5
280.736	522.5
280.968	519.5
281.199	517.5
281.431	523.5
281.662	525.5
281.894	500.5
282.125	526.5
282.356	548.5
282.588	535.5
282.819	522.5
283.051	545.5
283.282	542.5
283.513	538.5
283.745	537.5
283.976	539.5
284.207	539.5
284.439	552.5
284.67	539.5
284.901	557.5
285.132	559.5
285.364	546.5
285.595	539.5
285.826	535.5
286.057	549.5
286.288	563.5
286.52	547.5
286.751	547.5
286.982	571.5
287.213	573.5
287.444	575.5
287.675	556.5
287.906	586.5
288.138	594.5
288.369	592.5
288.6	588.5
288.831	587.5
289.062	597.5
289.293	577.5
289.524	575.5
289.755	571.5
289.986	593.5
290.217	590.5
290.448	592.5
290.679	590.5
290.91	609.5
291.141	581.5
291.371	599.5
291.602	611.5
291.833	610.5
292.064	597.5
292.295	579.5
292.526	580.5
292.757	603.5
292.987	600.5
293.218	577.5
293.449	619.5
293.68	613.5
293.91	609.5
294.141	607.5
294.372	593.5
294.603	620.5
294.833	610.5
295.064	597.5
295.295	599.5
295.525	631.5
295.756	613.5
295.987	584.5
296.217	647.5
296.448	616.5
296.679	636.5
296.909	628.5
297.14	623.5
297.37	634.5
297.601	649.5
297.831	625.5
298.062	646.5
298.292	660.5
298.523	661.5
298.753	687.5
298.984	670.5
299.214	647.5
299.445	663.5
299.675	650.5
299.905	665.5
300.136	657.5
300.366	646.5
300.597	659.5
300.827	663.5
301.057	659.5
301.288	681.5
301.518	654.5
301.748	691.5
301.979	684.5
302.209	684.5
302.439	676.5
302.669	675.5
302.9	698.5
303.13	702.5
303.36	658.5
303.59	654.5
303.82	675.5
304.051	680.5
304.281	693.5
304.511	681.5
304.741	674.5
304.971	695.5
305.201	679.5
305.431	671.5
305.661	667.5
305.891	701.5
306.121	667.5
306.352	678.5
306.582	672.5
306.812	666.5
307.042	667.5
307.272	660.5
307.502	659.5
307.731	668.5
307.961	680.5
308.191	641.5
308.421	655.5
308.651	682.5
308.881	660.5
309.111	661.5
309.341	664.5
309.571	681.5
309.8	663.5
310.03	664.5
310.26	667.5
310.49	687.5
310.72	663.5
310.949	683.5
311.179	684.5
311.409	674.5
311.639	653.5
311.868	681.5
312.098	679.5
312.328	695.5
312.557	687.5
312.787	693.5
313.017	714.5
313.246	688.5
313.476	709.5
313.706	701.5
313.935	704.5
314.165	716.5
314.394	699.5
314.624	727.5
314.853	725.5
315.083	701.5
315.312	716.5
315.542	716.5
315.771	703.5
316.001	723.5
316.23	710.5
316.46	675.5
316.689	689.5
316.919	691.5
317.148	693.5
317.377	715.5
317.607	705.5
317.836	691.5
318.065	690.5
318.295	688.5
318.524	690.5
318.753	688.5
318.983	698.5
319.212	667.5
319.441	693.5
319.67	699.5
319.9	697.5
320.129	704.5
320.358	726.5
320.587	696.5
320.816	697.5
321.046	710.5
321.275	708.5
321.504	714.5
321.733	708.5
321.962	737.5
322.191	705.5
322.42	714.5
322.649	706.5
322.878	723.5
323.108	705.5
323.337	699.5
323.566	722.5
323.795	710.5
324.024	712.5
324.253	721.5
324.482	735.5
324.71	743.5
324.939	713.5
325.168	737.5
325.397	744.5
325.626	768.5
325.855	751.5
326.084	766.5
326.313	776.5
326.542	788.5
326.77	799.5
326.999	754.5
327.228	754.5
327.457	744.5
327.686	761.5
327.914	743.5
328.143	773.5
328.372	767.5
328.6	755.5
328.829	779.5
329.058	773.5
329.287	804.5
329.515	800.5
329.744	789.5
329.972	788.5
330.201	791.5
330.43	792.5
330.658	787.5
330.887	787.5
331.115	808.5
331.344	811.5
331.572	831.5
331.801	845.5
332.03	851.5
332.258	886.5
332.486	887.5
332.715	891.5
332.943	920.5
333.172	955.5
333.4	964.5
333.629	994.5
333.857	1035.5
334.085	1005.5
334.314	1010.5
334.542	1001.5
334.771	1018.5
334.999	980.5
335.227	991.5
335.455	992.5
335.684	986.5
335.912	951.5
336.14	960.5
336.369	947.5
336.597	934.5
336.825	935.5
337.053	924.5
337.281	907.5
337.51	896.5
337.738	910.5
337.966	885.5
338.194	871.5
338.422	849.5
338.65	829.5
338.878	853.5
339.106	832.5
339.334	855.5
339.562	853.5
339.79	797.5
340.018	822.5
340.246	811.5
340.474	829.5
340.702	808.5
340.93	814.5
341.158	833.5
341.386	820.5
341.614	804.5
341.842	805.5
342.07	817.5
342.298	789.5
342.526	808.5
342.754	815.5
342.981	807.5
343.209	833.5
343.437	874.5
343.665	896.5
343.893	947.5
344.12	983.5
344.348	931.5
344.576	927.5
344.804	894.5
345.031	880.5
345.259	833.5
345.487	828.5
345.714	794.5
345.942	788.5
346.17	787.5
346.397	810.5
346.625	779.5
346.853	754.5
347.08	790.5
347.308	777.5
347.535	784.5
347.763	784.5
347.99	792.5
348.218	792.5
348.445	778.5
348.673	758.5
348.9	790.5
349.128	770.5
349.355	774.5
349.583	764.5
349.81	757.5
350.037	738.5
350.265	764.5
350.492	750.5
350.72	754.5
350.947	747.5
351.174	740.5
351.402	751.5
351.629	748.5
351.856	741.5
352.083	742.5
352.311	749.5
352.538	752.5
352.765	780.5
352.992	745.5
353.22	737.5
353.447	746.5
353.674	732.5
353.901	739.5
354.128	744.5
354.355	738.5
354.583	769.5
354.81	735.5
355.037	742.5
355.264	780.5
355.491	767.5
355.718	753.5
355.945	760.5
356.172	771.5
356.399	738.5
356.626	749.5
356.853	727.5
357.08	755.5
357.307	740.5
357.534	763.5
357.761	756.5
357.988	773.5
358.215	741.5
358.441	723.5
358.668	739.5
358.895	720.5
359.122	753.5
359.349	747.5
359.576	736.5
359.802	752.5
360.029	741.5
360.256	744.5
360.483	739.5
360.709	752.5
360.936	769.5
361.163	746.5
361.39	787.5
361.616	751.5
361.843	769.5
362.07	752.5
362.296	751.5
362.523	727.5
362.749	748.5
362.976	728.5
363.203	715.5
363.429	743.5
363.656	759.5
363.882	760.5
364.109	739.5
364.335	744.5
364.562	746.5
364.788	763.5
365.015	754.5
365.241	753.5
365.468	732.5
365.694	768.5
365.92	754.5
366.147	732.5
366.373	761.5
366.599	744.5
366.826	747.5
367.052	739.5
367.278	745.5
367.505	760.5
367.731	751.5
367.957	745.5
368.184	751.5
368.41	771.5
368.636	759.5
368.862	762.5
369.089	768.5
369.315	787.5
369.541	780.5
369.767	773.5
369.993	762.5
370.219	777.5
370.445	790.5
370.672	808.5
370.898	800.5
371.124	826.5
371.35	813.5
371.576	813.5
371.802	821.5
372.028	830.5
372.254	842.5
372.48	839.5
372.706	826.5
372.932	841.5
373.158	839.5
373.384	844.5
373.61	830.5
373.835	839.5
374.061	806.5
374.287	834.5
374.513	839.5
374.739	877.5
374.965	885.5
375.191	921.5
375.416	957.5
375.642	875.5
375.868	854.5
376.094	853.5
376.319	828.5
376.545	818.5
376.771	829.5
376.997	803.5
377.222	792.5
377.448	815.5
377.674	813.5
377.899	841.5
378.125	807.5
378.35	813.5
378.576	794.5
378.802	800.5
379.027	822.5
379.253	817.5
379.478	796.5
379.704	780.5
379.929	820.5
380.155	808.5
380.38	791.5
380.606	801.5
380.831	810.5
381.057	829.5
381.282	819.5
381.507	832.5
381.733	805.5
381.958	831.5
382.184	831.5
382.409	831.5
382.634	838.5
382.86	834.5
383.085	835.5
383.31	872.5
383.535	897.5
383.761	882.5
383.986	883.5
384.211	919.5
384.436	939.5
384.662	933.5
384.887	953.5
385.112	978.5
385.337	980.5
385.562	957.5
385.787	979.5
386.013	1010.5
386.238	997.5
386.463	992.5
386.688	980.5
386.913	1008.5
387.138	986.5
387.363	993.5
387.588	988.5
387.813	974.5
388.038	983.5
388.263	957.5
388.488	984.5
388.713	965.5
388.938	957.5
389.163	960.5
389.387	969.5
389.612	936.5
389.837	991.5
390.062	958.5
390.287	966.5
390.512	983.5
390.736	968.5
390.961	995.5
391.186	1033.5
391.411	1040.5
391.636	1061.5
391.86	1111.5
392.085	1118.5
392.31	1082.5
392.534	1081.5
392.759	1043.5
392.984	1063.5
393.208	1037.5
393.433	1052.5
393.658	1071.5
393.882	1041.5
394.107	1055.5
394.331	1017.5
394.556	1039.5
394.78	1041.5
395.005	1037.5
395.229	1046.5
395.454	1081.5
395.678	1119.5
395.903	1120.5
396.127	1092.5
396.352	1065.5
396.576	1054.5
396.801	1055.5
397.025	1050.5
397.249	1095.5
397.474	1097.5
397.698	1133.5
397.922	1137.5
398.147	1127.5
398.371	1169.5
398.595	1178.5
398.82	1251.5
399.044	1283.5
399.268	1441.5
399.492	1621.5
399.717	1834.5
399.941	1832.5
400.165	1665.5
400.389	1567.5
400.613	1444.5
400.837	1356.5
401.062	1279.5
401.286	1263.5
401.51	1252.5
401.734	1229.5
401.958	1266.5
402.182	1295.5
402.406	1311.5
402.63	1284.5
402.854	1332.5
403.078	1318.5
403.302	1346.5
403.526	1373.5
403.75	1389.5
403.974	1436.5
404.198	1396.5
404.422	1375.5
404.645	1396.5
404.869	1395.5
405.093	1381.5
405.317	1381.5
405.541	1379.5
405.765	1374.5
405.988	1359.5
406.212	1385.5
406.436	1360.5
406.66	1397.5
406.883	1397.5
407.107	1527.5
407.331	1542.5
407.555	1592.5
407.778	1596.5
408.002	1575.5
408.226	1509.5
408.449	1489.5
408.673	1450.5
408.896	1403.5
409.12	1411.5
409.344	1403.5
409.567	1402.5
409.791	1367.5
410.014	1417.5
410.238	1364.5
410.461	1358.5
410.685	1354.5
410.908	1331.5
411.132	1321.5
411.355	1278.5
411.578	1297.5
411.802	1309.5
412.025	1308.5
412.249	1333.5
412.472	1278.5
412.695	1284.5
412.919	1256.5
413.142	1268.5
413.365	1254.5
413.589	1258.5
413.812	1211.5
414.035	1233.5
414.258	1210.5
414.482	1253.5
414.705	1265.5
414.928	1259.5
415.151	1219.5
415.374	1250.5
415.597	1213.5
415.821	1232.5
416.044	1209.5
416.267	1195.5
416.49	1237.5
416.713	1213.5
416.936	1202.5
417.159	1227.5
417.382	1203.5
417.605	1213.5
417.828	1189.5
418.051	1243.5
418.274	1225.5
418.497	1231.5
418.72	1270.5
418.943	1248.5
419.166	1334.5
419.389	1455.5
419.611	1387.5
419.834	1344.5
420.057	1290.5
420.28	1231.5
420.503	1203.5
420.726	1184.5
420.948	1200.5
421.171	1210.5
421.394	1224.5
421.617	1229.5
421.839	1245.5
422.062	1221.5
422.285	1243.5
422.507	1236.5
422.73	1238.5
422.953	1227.5
423.175	1251.5
423.398	1272.5
423.621	1304.5
423.843	1259.5
424.066	1284.5
424.288	1274.5
424.511	1249.5
424.733	1259.5
424.956	1241.5
425.178	1247.5
425.401	1243.5
425.623	1212.5
425.846	1205.5
426.068	1173.5
426.291	1196.5
426.513	1187.5
426.735	1158.5
426.958	1140.5
427.18	1132.5
427.402	1119.5
427.625	1137.5
427.847	1116.5
428.069	1103.5
428.292	1100.5
428.514	1081.5
428.736	1105.5
428.958	1098.5
429.181	1081.5
429.403	1068.5
429.625	1097.5
429.847	1060.5
430.069	1045.5
430.292	1044.5
430.514	1060.5
430.736	1057.5
430.958	1056.5
431.18	1078.5
431.402	1052.5
431.624	1073.5
431.846	1073.5
432.068	1112.5
432.29	1132.5
432.512	1079.5
432.734	1097.5
432.956	1078.5
433.178	1113.5
433.4	1091.5
433.622	1101.5
433.844	1125.5
434.066	1133.5
434.287	1113.5
434.509	1151.5
434.731	1176.5
434.953	1203.5
435.175	1242.5
435.397	1219.5
435.618	1139.5
435.84	1147.5
436.062	1098.5
436.284	1090.5
436.505	1085.5
436.727	1091.5
436.949	1084.5
437.17	1074.5
437.392	1048.5
437.614	1068.5
437.835	1044.5
438.057	1054.5
438.278	1048.5
438.5	1042.5
438.721	1019.5
438.943	1032.5
439.165	1074.5
439.386	1045.5
439.608	1106.5
439.829	1103.5
440.05	1083.5
440.272	1111.5
440.493	1076.5
440.715	1109.5
440.936	1136.5
441.158	1160.5
441.379	1169.5
441.6	1227.5
441.822	1251.5
442.043	1212.5
442.264	1213.5
442.486	1183.5
442.707	1180.5
442.928	1186.5
443.149	1176.5
443.371	1187.5
443.592	1228.5
443.813	1235.5
444.034	1199.5
444.255	1252.5
444.476	1308.5
444.698	1346.5
444.919	1394.5
445.14	1524.5
445.361	1383.5
445.582	1271.5
445.803	1177.5
446.024	1168.5
446.245	1131.5
446.466	1146.5
446.687	1113.5
446.908	1111.5
447.129	1073.5
447.35	1031.5
447.571	1018.5
447.792	1060.5
448.013	1016.5
448.234	1016.5
448.455	1001.5
448.675	1000.5
448.896	1030.5
449.117	987.5
449.338	984.5
449.559	988.5
449.779	967.5
450	969.5
450.221	985.5
450.442	1023.5
450.662	999.5
450.883	998.5
451.104	1011.5
451.324	994.5
451.545	983.5
451.766	983.5
451.986	1015.5
452.207	1015.5
452.428	969.5
452.648	964.5
452.869	970.5
453.089	959.5
453.31	965.5
453.53	976.5
453.751	938.5
453.971	957.5
454.192	952.5
454.412	935.5
454.633	967.5
454.853	937.5
455.073	931.5
455.294	930.5
455.514	928.5
455.734	929.5
455.955	917.5
456.175	890.5
456.395	930.5
456.616	917.5
456.836	918.5
457.056	928.5
457.276	927.5
457.497	954.5
457.717	935.5
457.937	946.5
458.157	962.5
458.377	939.5
458.598	984.5
458.818	1029.5
459.038	1013.5
459.258	1092.5
459.478	1087.5
459.698	1158.5
459.918	1169.5
460.138	1201.5
460.358	1267.5
460.578	1296.5
460.798	1293.5
461.018	1292.5
461.238	1311.5
461.458	1315.5
461.678	1289.5
461.898	1266.5
462.118	1351.5
462.338	1370.5
462.558	1425.5
462.777	1459.5
462.997	1548.5
463.217	1641.5
463.437	1680.5
463.657	1624.5
463.876	1542.5
464.096	1493.5
464.316	1496.5
464.536	1513.5
464.755	1451.5
464.975	1407.5
465.195	1309.5
465.414	1269.5
465.634	1177.5
465.854	1151.5
466.073	1135.5
466.293	1111.5
466.512	1101.5
466.732	1083.5
466.951	1062.5
467.171	1055.5
467.391	1047.5
467.61	1023.5
467.829	1032.5
468.049	1028.5
468.268	1013.5
468.488	976.5
468.707	1007.5
468.927	1034.5
469.146	993.5
469.365	1012.5
469.585	1063.5
469.804	1045.5
470.023	1072.5
470.243	1087.5
470.462	1088.5
470.681	1108.5
470.901	1061.5
471.12	1016.5
471.339	1053.5
471.558	1020.5
471.777	1046.5
471.997	1020.5
472.216	1012.5
472.435	1015.5
472.654	1010.5
472.873	963.5
473.092	988.5
473.311	971.5
473.53	991.5
473.749	992.5
473.968	989.5
474.187	986.5
474.406	971.5
474.625	983.5
474.844	971.5
475.063	1009.5
475.282	981.5
475.501	982.5
475.72	988.5
475.939	1008.5
476.158	1035.5
476.377	1033.5
476.596	1056.5
476.814	1034.5
477.033	1034.5
477.252	1044.5
477.471	1098.5
477.69	1117.5
477.908	1117.5
478.127	1154.5
478.346	1170.5
478.564	1197.5
478.783	1194.5
479.002	1201.5
479.22	1224.5
479.439	1216.5
479.658	1215.5
479.876	1236.5
480.095	1247.5
480.313	1277.5
480.532	1329.5
480.751	1311.5
480.969	1247.5
481.188	1222.5
481.406	1184.5
481.624	1179.5
481.843	1136.5
482.061	1148.5
482.28	1132.5
482.498	1136.5
482.717	1126.5
482.935	1102.5
483.153	1103.5
483.372	1111.5
483.59	1109.5
483.808	1115.5
484.027	1109.5
484.245	1118.5
484.463	1151.5
484.681	1139.5
484.9	1166.5
485.118	1179.5
485.336	1156.5
485.554	1199.5
485.772	1154.5
485.99	1223.5
486.209	1192.5
486.427	1183.5
486.645	1200.5
486.863	1199.5
487.081	1156.5
487.299	1165.5
487.517	1189.5
487.735	1211.5
487.953	1178.5
488.171	1195.5
488.389	1143.5
488.607	1146.5
488.825	1154.5
489.043	1153.5
489.261	1163.5
489.479	1160.5
489.696	1157.5
489.914	1199.5
490.132	1187.5
490.35	1207.5
490.568	1190.5
490.786	1174.5
491.003	1194.5
491.221	1198.5
491.439	1190.5
491.657	1196.5
491.874	1211.5
492.092	1162.5
492.31	1188.5
492.527	1202.5
492.745	1239.5
492.963	1221.5
493.18	1248.5
493.398	1231.5
493.615	1235.5
493.833	1236.5
494.05	1252.5
494.268	1243.5
494.485	1272.5
494.703	1260.5
494.92	1265.5
495.138	1291.5
495.355	1258.5
495.573	1278.5
495.79	1315.5
496.008	1324.5
496.225	1314.5
496.442	1325.5
496.66	1337.5
496.877	1331.5
497.094	1350.5
497.312	1410.5
497.529	1440.5
497.746	1470.5
497.963	1477.5
498.181	1540.5
498.398	1624.5
498.615	1756.5
498.832	1848.5
499.049	1983.5
499.267	2181.5
499.484	2360.5
499.701	2543.5
499.918	2809.5
500.135	3214.5
500.352	3531.5
500.569	3707.5
500.786	3659.5
501.003	3471.5
501.22	3114.5
501.437	2894.5
501.654	2563.5
501.871	2329.5
502.088	2113.5
502.305	1968.5
502.522	1877.5
502.739	1832.5
502.956	1721.5
503.172	1629.5
503.389	1575.5
503.606	1518.5
503.823	1511.5
504.04	1479.5
504.256	1467.5
504.473	1466.5
504.69	1509.5
504.907	1492.5
505.123	1439.5
505.34	1338.5
505.557	1301.5
505.773	1265.5
505.99	1254.5
506.207	1175.5
506.423	1176.5
506.64	1169.5
506.856	1167.5
507.073	1176.5
507.289	1151.5
507.506	1155.5
507.722	1151.5
507.939	1110.5
508.155	1089.5
508.372	1087.5
508.588	1095.5
508.805	1109.5
509.021	1067.5
509.238	1059.5
509.454	1040.5
509.67	1039.5
509.887	1023.5
510.103	1056.5
510.319	1043.5
510.536	1041.5
510.752	1024.5
510.968	1035.5
511.184	1040.5
511.401	1043.5
511.617	1000.5
511.833	1017.5
512.049	1014.5
512.265	1015.5
