Data from NiCl2@0.25M.TitratingCurve.Agarose3%dH2O.NegLispCup.LampEnergy10.LIBS07252019_HRD10591_18-24-16-573.txt Node
Date: Thu Jul 25 18:24:16 EDT 2019
User: cochatt
Spectrometer: HR+D1059
Trigger mode: 1
Integration Time (sec): 1.000000E-1
Scans to average: 1
Electric dark correction enabled: true
Nonlinearity correction enabled: false
Boxcar width: 0
XAxis mode: Wavelengths
Number of Pixels in Spectrum: 2048
>>>>>Begin Spectral Data<<<<<
223.165	-7.81
223.4	-7.81
223.635	-7.81
223.869	-18.81
224.104	-19.81
224.338	-28.81
224.573	0.19
224.808	-0.81
225.042	-9.81
225.277	-5.81
225.511	-4.81
225.746	11.19
225.98	0.19
226.215	0.19
226.449	16.19
226.683	19.19
226.918	24.19
227.152	25.19
227.387	34.19
227.621	39.19
227.856	52.19
228.09	50.19
228.324	55.19
228.559	58.19
228.793	78.19
229.027	102.19
229.262	118.19
229.496	108.19
229.73	124.19
229.964	111.19
230.199	116.19
230.433	142.19
230.667	128.19
230.901	128.19
231.136	131.19
231.37	135.19
231.604	143.19
231.838	157.19
232.072	158.19
232.306	148.19
232.541	141.19
232.775	151.19
233.009	148.19
233.243	149.19
233.477	147.19
233.711	135.19
233.945	149.19
234.179	134.19
234.413	152.19
234.647	143.19
234.881	150.19
235.115	150.19
235.349	163.19
235.583	162.19
235.817	156.19
236.051	148.19
236.285	152.19
236.519	143.19
236.753	152.19
236.987	142.19
237.221	159.19
237.455	167.19
237.689	153.19
237.922	185.19
238.156	162.19
238.39	160.19
238.624	164.19
238.858	163.19
239.091	178.19
239.325	171.19
239.559	188.19
239.793	165.19
240.027	176.19
240.26	175.19
240.494	170.19
240.728	195.19
240.961	183.19
241.195	179.19
241.429	180.19
241.662	183.19
241.896	211.19
242.13	197.19
242.363	189.19
242.597	218.19
242.83	195.19
243.064	183.19
243.298	190.19
243.531	197.19
243.765	202.19
243.998	190.19
244.232	197.19
244.465	206.19
244.699	194.19
244.932	216.19
245.166	233.19
245.399	201.19
245.633	228.19
245.866	223.19
246.099	212.19
246.333	214.19
246.566	233.19
246.8	218.19
247.033	214.19
247.266	227.19
247.5	217.19
247.733	227.19
247.966	239.19
248.2	219.19
248.433	229.19
248.666	223.19
248.899	251.19
249.133	248.19
249.366	261.19
249.599	250.19
249.832	264.19
250.066	252.19
250.299	245.19
250.532	236.19
250.765	244.19
250.998	242.19
251.231	270.19
251.465	252.19
251.698	262.19
251.931	238.19
252.164	276.19
252.397	274.19
252.63	259.19
252.863	271.19
253.096	260.19
253.329	262.19
253.562	256.19
253.795	262.19
254.028	275.19
254.261	282.19
254.494	284.19
254.727	268.19
254.96	278.19
255.193	280.19
255.426	275.19
255.659	282.19
255.892	286.19
256.124	271.19
256.357	282.19
256.59	281.19
256.823	278.19
257.056	287.19
257.289	279.19
257.521	291.19
257.754	288.19
257.987	288.19
258.22	299.19
258.452	307.19
258.685	305.19
258.918	300.19
259.151	284.19
259.383	308.19
259.616	299.19
259.849	294.19
260.081	298.19
260.314	301.19
260.547	302.19
260.779	321.19
261.012	306.19
261.244	321.19
261.477	328.19
261.71	325.19
261.942	325.19
262.175	319.19
262.407	323.19
262.64	331.19
262.872	321.19
263.105	322.19
263.337	322.19
263.57	328.19
263.802	320.19
264.035	297.19
264.267	333.19
264.499	332.19
264.732	349.19
264.964	347.19
265.197	325.19
265.429	325.19
265.661	337.19
265.894	359.19
266.126	346.19
266.358	352.19
266.591	345.19
266.823	352.19
267.055	363.19
267.287	352.19
267.52	332.19
267.752	351.19
267.984	358.19
268.216	354.19
268.448	366.19
268.681	365.19
268.913	381.19
269.145	368.19
269.377	360.19
269.609	355.19
269.841	379.19
270.073	354.19
270.306	347.19
270.538	361.19
270.77	351.19
271.002	360.19
271.234	361.19
271.466	380.19
271.698	375.19
271.93	361.19
272.162	402.19
272.394	366.19
272.626	364.19
272.858	383.19
273.09	388.19
273.322	390.19
273.553	382.19
273.785	388.19
274.017	390.19
274.249	379.19
274.481	395.19
274.713	398.19
274.945	404.19
275.176	391.19
275.408	395.19
275.64	398.19
275.872	408.19
276.104	412.19
276.335	393.19
276.567	420.19
276.799	407.19
277.031	405.19
277.262	411.19
277.494	419.19
277.726	423.19
277.957	424.19
278.189	423.19
278.421	410.19
278.652	423.19
278.884	416.19
279.115	435.19
279.347	418.19
279.579	431.19
279.81	430.19
280.042	443.19
280.273	435.19
280.505	424.19
280.736	432.19
280.968	441.19
281.199	446.19
281.431	447.19
281.662	447.19
281.894	447.19
282.125	448.19
282.356	452.19
282.588	454.19
282.819	463.19
283.051	467.19
283.282	448.19
283.513	453.19
283.745	449.19
283.976	462.19
284.207	470.19
284.439	490.19
284.67	456.19
284.901	476.19
285.132	490.19
285.364	476.19
285.595	488.19
285.826	469.19
286.057	479.19
286.288	463.19
286.52	480.19
286.751	501.19
286.982	487.19
287.213	494.19
287.444	461.19
287.675	486.19
287.906	489.19
288.138	490.19
288.369	509.19
288.6	520.19
288.831	502.19
289.062	499.19
289.293	507.19
289.524	488.19
289.755	482.19
289.986	486.19
290.217	491.19
290.448	494.19
290.679	520.19
290.91	527.19
291.141	507.19
291.371	510.19
291.602	517.19
291.833	501.19
292.064	521.19
292.295	488.19
292.526	508.19
292.757	510.19
292.987	528.19
293.218	486.19
293.449	526.19
293.68	503.19
293.91	490.19
294.141	522.19
294.372	516.19
294.603	514.19
294.833	525.19
295.064	526.19
295.295	518.19
295.525	494.19
295.756	492.19
295.987	506.19
296.217	526.19
296.448	530.19
296.679	534.19
296.909	525.19
297.14	552.19
297.37	543.19
297.601	550.19
297.831	551.19
298.062	551.19
298.292	545.19
298.523	581.19
298.753	575.19
298.984	568.19
299.214	548.19
299.445	556.19
299.675	570.19
299.905	557.19
300.136	542.19
300.366	579.19
300.597	578.19
300.827	590.19
301.057	612.19
301.288	560.19
301.518	587.19
301.748	606.19
301.979	599.19
302.209	597.19
302.439	600.19
302.669	592.19
302.9	560.19
303.13	579.19
303.36	586.19
303.59	557.19
303.82	588.19
304.051	574.19
304.281	558.19
304.511	579.19
304.741	568.19
304.971	575.19
305.201	580.19
305.431	578.19
305.661	563.19
305.891	574.19
306.121	587.19
306.352	547.19
306.582	554.19
306.812	542.19
307.042	570.19
307.272	562.19
307.502	570.19
307.731	556.19
307.961	556.19
308.191	583.19
308.421	558.19
308.651	558.19
308.881	559.19
309.111	572.19
309.341	579.19
309.571	586.19
309.8	577.19
310.03	589.19
310.26	581.19
310.49	557.19
310.72	573.19
310.949	583.19
311.179	577.19
311.409	582.19
311.639	588.19
311.868	584.19
312.098	574.19
312.328	591.19
312.557	599.19
312.787	602.19
313.017	603.19
313.246	592.19
313.476	608.19
313.706	618.19
313.935	619.19
314.165	607.19
314.394	628.19
314.624	621.19
314.853	622.19
315.083	616.19
315.312	634.19
315.542	626.19
315.771	600.19
316.001	617.19
316.23	599.19
316.46	603.19
316.689	597.19
316.919	596.19
317.148	609.19
317.377	608.19
317.607	613.19
317.836	592.19
318.065	591.19
318.295	616.19
318.524	599.19
318.753	597.19
318.983	608.19
319.212	599.19
319.441	600.19
319.67	622.19
319.9	607.19
320.129	605.19
320.358	609.19
320.587	602.19
320.816	597.19
321.046	599.19
321.275	621.19
321.504	604.19
321.733	610.19
321.962	601.19
322.191	621.19
322.42	607.19
322.649	598.19
322.878	598.19
323.108	624.19
323.337	629.19
323.566	608.19
323.795	598.19
324.024	630.19
324.253	616.19
324.482	607.19
324.71	615.19
324.939	628.19
325.168	634.19
325.397	635.19
325.626	645.19
325.855	683.19
326.084	646.19
326.313	658.19
326.542	650.19
326.77	657.19
326.999	654.19
327.228	671.19
327.457	656.19
327.686	643.19
327.914	642.19
328.143	652.19
328.372	643.19
328.6	686.19
328.829	671.19
329.058	666.19
329.287	677.19
329.515	655.19
329.744	665.19
329.972	704.19
330.201	670.19
330.43	679.19
330.658	674.19
330.887	698.19
331.115	686.19
331.344	694.19
331.572	685.19
331.801	719.19
332.03	719.19
332.258	744.19
332.486	774.19
332.715	811.19
332.943	812.19
333.172	866.19
333.4	869.19
333.629	916.19
333.857	891.19
334.085	882.19
334.314	878.19
334.542	868.19
334.771	847.19
334.999	826.19
335.227	841.19
335.455	842.19
335.684	813.19
335.912	851.19
336.14	802.19
336.369	791.19
336.597	804.19
336.825	801.19
337.053	801.19
337.281	792.19
337.51	769.19
337.738	764.19
337.966	742.19
338.194	732.19
338.422	732.19
338.65	733.19
338.878	734.19
339.106	698.19
339.334	723.19
339.562	716.19
339.79	693.19
340.018	690.19
340.246	679.19
340.474	687.19
340.702	676.19
340.93	701.19
341.158	724.19
341.386	692.19
341.614	709.19
341.842	692.19
342.07	678.19
342.298	698.19
342.526	682.19
342.754	688.19
342.981	678.19
343.209	722.19
343.437	739.19
343.665	814.19
343.893	842.19
344.12	835.19
344.348	810.19
344.576	772.19
344.804	751.19
345.031	721.19
345.259	696.19
345.487	684.19
345.714	691.19
345.942	702.19
346.17	673.19
346.397	698.19
346.625	686.19
346.853	669.19
347.08	678.19
347.308	653.19
347.535	665.19
347.763	647.19
347.99	674.19
348.218	674.19
348.445	683.19
348.673	644.19
348.9	646.19
349.128	679.19
349.355	655.19
349.583	652.19
349.81	647.19
350.037	647.19
350.265	655.19
350.492	650.19
350.72	647.19
350.947	644.19
351.174	652.19
351.402	629.19
351.629	650.19
351.856	646.19
352.083	651.19
352.311	645.19
352.538	634.19
352.765	648.19
352.992	643.19
353.22	676.19
353.447	632.19
353.674	634.19
353.901	646.19
354.128	652.19
354.355	628.19
354.583	666.19
354.81	659.19
355.037	668.19
355.264	642.19
355.491	662.19
355.718	649.19
355.945	674.19
356.172	628.19
356.399	644.19
356.626	644.19
356.853	651.19
357.08	654.19
357.307	618.19
357.534	664.19
357.761	654.19
357.988	659.19
358.215	634.19
358.441	646.19
358.668	639.19
358.895	636.19
359.122	635.19
359.349	642.19
359.576	664.19
359.802	649.19
360.029	628.19
360.256	628.19
360.483	652.19
360.709	636.19
360.936	639.19
361.163	643.19
361.39	640.19
361.616	646.19
361.843	668.19
362.07	647.19
362.296	666.19
362.523	623.19
362.749	644.19
362.976	642.19
363.203	651.19
363.429	647.19
363.656	650.19
363.882	649.19
364.109	646.19
364.335	644.19
364.562	656.19
364.788	663.19
365.015	626.19
365.241	635.19
365.468	668.19
365.694	620.19
365.92	642.19
366.147	638.19
366.373	644.19
366.599	639.19
366.826	655.19
367.052	627.19
367.278	658.19
367.505	627.19
367.731	627.19
367.957	620.19
368.184	648.19
368.41	647.19
368.636	651.19
368.862	656.19
369.089	655.19
369.315	672.19
369.541	661.19
369.767	661.19
369.993	673.19
370.219	666.19
370.445	696.19
370.672	669.19
370.898	692.19
371.124	687.19
371.35	695.19
371.576	710.19
371.802	704.19
372.028	682.19
372.254	670.19
372.48	730.19
372.706	728.19
372.932	722.19
373.158	726.19
373.384	690.19
373.61	667.19
373.835	715.19
374.061	686.19
374.287	689.19
374.513	738.19
374.739	740.19
374.965	747.19
375.191	770.19
375.416	780.19
375.642	772.19
375.868	741.19
376.094	711.19
376.319	704.19
376.545	726.19
376.771	711.19
376.997	706.19
377.222	708.19
377.448	697.19
377.674	713.19
377.899	709.19
378.125	704.19
378.35	712.19
378.576	694.19
378.802	710.19
379.027	678.19
379.253	694.19
379.478	692.19
379.704	715.19
379.929	729.19
380.155	694.19
380.38	687.19
380.606	683.19
380.831	692.19
381.057	717.19
381.282	702.19
381.507	710.19
381.733	692.19
381.958	688.19
382.184	735.19
382.409	711.19
382.634	708.19
382.86	746.19
383.085	770.19
383.31	758.19
383.535	781.19
383.761	791.19
383.986	797.19
384.211	819.19
384.436	824.19
384.662	824.19
384.887	848.19
385.112	852.19
385.337	844.19
385.562	840.19
385.787	860.19
386.013	873.19
386.238	860.19
386.463	864.19
386.688	874.19
386.913	833.19
387.138	838.19
387.363	866.19
387.588	819.19
387.813	824.19
388.038	845.19
388.263	856.19
388.488	857.19
388.713	860.19
388.938	810.19
389.163	803.19
389.387	844.19
389.612	848.19
389.837	823.19
390.062	842.19
390.287	832.19
390.512	828.19
390.736	842.19
390.961	858.19
391.186	882.19
391.411	897.19
391.636	940.19
391.86	936.19
392.085	970.19
392.31	954.19
392.534	937.19
392.759	919.19
392.984	902.19
393.208	902.19
393.433	893.19
393.658	877.19
393.882	882.19
394.107	914.19
394.331	912.19
394.556	902.19
394.78	911.19
395.005	899.19
395.229	908.19
395.454	929.19
395.678	950.19
395.903	931.19
396.127	950.19
396.352	900.19
396.576	888.19
396.801	884.19
397.025	896.19
397.249	927.19
397.474	960.19
397.698	958.19
397.922	957.19
398.147	931.19
398.371	974.19
398.595	1023.19
398.82	1048.19
399.044	1131.19
399.268	1249.19
399.492	1415.19
399.717	1615.19
399.941	1594.19
400.165	1428.19
400.389	1297.19
400.613	1187.19
400.837	1135.19
401.062	1080.19
401.286	1068.19
401.51	1094.19
401.734	1048.19
401.958	1078.19
402.182	1085.19
402.406	1094.19
402.63	1105.19
402.854	1138.19
403.078	1167.19
403.302	1181.19
403.526	1176.19
403.75	1235.19
403.974	1219.19
404.198	1241.19
404.422	1257.19
404.645	1212.19
404.869	1190.19
405.093	1191.19
405.317	1208.19
405.541	1164.19
405.765	1173.19
405.988	1189.19
406.212	1191.19
406.436	1170.19
406.66	1191.19
406.883	1227.19
407.107	1297.19
407.331	1361.19
407.555	1408.19
407.778	1358.19
408.002	1357.19
408.226	1290.19
408.449	1270.19
408.673	1199.19
408.896	1224.19
409.12	1162.19
409.344	1208.19
409.567	1209.19
409.791	1241.19
410.014	1203.19
410.238	1180.19
410.461	1169.19
410.685	1156.19
410.908	1144.19
411.132	1116.19
411.355	1092.19
411.578	1108.19
411.802	1099.19
412.025	1111.19
412.249	1136.19
412.472	1128.19
412.695	1078.19
412.919	1064.19
413.142	1055.19
413.365	1069.19
413.589	1082.19
413.812	1062.19
414.035	1048.19
414.258	1031.19
414.482	1059.19
414.705	1080.19
414.928	1084.19
415.151	1084.19
415.374	1048.19
415.597	1052.19
415.821	1064.19
416.044	1052.19
416.267	1033.19
416.49	1019.19
416.713	1032.19
416.936	1068.19
417.159	1052.19
417.382	1040.19
417.605	1060.19
417.828	1048.19
418.051	1046.19
418.274	1071.19
418.497	1061.19
418.72	1063.19
418.943	1066.19
419.166	1152.19
419.389	1208.19
419.611	1187.19
419.834	1160.19
420.057	1110.19
420.28	1099.19
420.503	1032.19
420.726	1057.19
420.948	1032.19
421.171	1036.19
421.394	1054.19
421.617	1046.19
421.839	1039.19
422.062	1060.19
422.285	1022.19
422.507	1074.19
422.73	1090.19
422.953	1086.19
423.175	1070.19
423.398	1111.19
423.621	1099.19
423.843	1088.19
424.066	1119.19
424.288	1122.19
424.511	1101.19
424.733	1094.19
424.956	1095.19
425.178	1064.19
425.401	1054.19
425.623	1045.19
425.846	1024.19
426.068	1033.19
426.291	1003.19
426.513	964.19
426.735	962.19
426.958	952.19
427.18	942.19
427.402	972.19
427.625	948.19
427.847	910.19
428.069	946.19
428.292	948.19
428.514	924.19
428.736	906.19
428.958	956.19
429.181	915.19
429.403	904.19
429.625	919.19
429.847	891.19
430.069	920.19
430.292	929.19
430.514	916.19
430.736	906.19
430.958	909.19
431.18	933.19
431.402	922.19
431.624	927.19
431.846	935.19
432.068	938.19
432.29	935.19
432.512	921.19
432.734	928.19
432.956	920.19
433.178	925.19
433.4	920.19
433.622	926.19
433.844	976.19
434.066	975.19
434.287	958.19
434.509	991.19
434.731	1013.19
434.953	1022.19
435.175	1027.19
435.397	1028.19
435.618	974.19
435.84	965.19
436.062	947.19
436.284	913.19
436.505	935.19
436.727	944.19
436.949	920.19
437.17	895.19
437.392	921.19
437.614	917.19
437.835	898.19
438.057	902.19
438.278	871.19
438.5	886.19
438.721	878.19
438.943	934.19
439.165	902.19
439.386	894.19
439.608	925.19
439.829	925.19
440.05	900.19
440.272	962.19
440.493	938.19
440.715	966.19
440.936	957.19
441.158	972.19
441.379	975.19
441.6	1051.19
441.822	1060.19
442.043	1054.19
442.264	1022.19
442.486	1008.19
442.707	1038.19
442.928	1016.19
443.149	1019.19
443.371	1029.19
443.592	1032.19
443.813	1030.19
444.034	1069.19
444.255	1116.19
444.476	1112.19
444.698	1226.19
444.919	1248.19
445.14	1317.19
445.361	1170.19
445.582	1048.19
445.803	1011.19
446.024	997.19
446.245	979.19
446.466	952.19
446.687	929.19
446.908	950.19
447.129	888.19
447.35	900.19
447.571	877.19
447.792	868.19
448.013	858.19
448.234	855.19
448.455	851.19
448.675	858.19
448.896	846.19
449.117	861.19
449.338	832.19
449.559	830.19
449.779	831.19
450	830.19
450.221	863.19
450.442	845.19
450.662	857.19
450.883	867.19
451.104	866.19
451.324	858.19
451.545	843.19
451.766	861.19
451.986	848.19
452.207	848.19
452.428	829.19
452.648	847.19
452.869	839.19
453.089	808.19
453.31	824.19
453.53	802.19
453.751	824.19
453.971	804.19
454.192	822.19
454.412	803.19
454.633	820.19
454.853	763.19
455.073	790.19
455.294	802.19
455.514	793.19
455.734	795.19
455.955	775.19
456.175	795.19
456.395	807.19
456.616	774.19
456.836	804.19
457.056	783.19
457.276	780.19
457.497	782.19
457.717	782.19
457.937	777.19
458.157	804.19
458.377	822.19
458.598	855.19
458.818	851.19
459.038	866.19
459.258	903.19
459.478	943.19
459.698	998.19
459.918	999.19
460.138	1050.19
460.358	1062.19
460.578	1093.19
460.798	1129.19
461.018	1110.19
461.238	1077.19
461.458	1090.19
461.678	1067.19
461.898	1093.19
462.118	1133.19
462.338	1164.19
462.558	1192.19
462.777	1223.19
462.997	1326.19
463.217	1435.19
463.437	1500.19
463.657	1376.19
463.876	1273.19
464.096	1268.19
464.316	1271.19
464.536	1281.19
464.755	1229.19
464.975	1191.19
465.195	1116.19
465.414	1064.19
465.634	971.19
465.854	964.19
466.073	960.19
466.293	947.19
466.512	915.19
466.732	895.19
466.951	904.19
467.171	916.19
467.391	896.19
467.61	904.19
467.829	890.19
468.049	871.19
468.268	896.19
468.488	852.19
468.707	854.19
468.927	864.19
469.146	839.19
469.365	868.19
469.585	853.19
469.804	887.19
470.023	897.19
470.243	927.19
470.462	905.19
470.681	897.19
470.901	926.19
471.12	924.19
471.339	901.19
471.558	888.19
471.777	875.19
471.997	867.19
472.216	837.19
472.435	831.19
472.654	830.19
472.873	809.19
473.092	852.19
473.311	822.19
473.53	820.19
473.749	826.19
473.968	845.19
474.187	803.19
474.406	799.19
474.625	838.19
474.844	830.19
475.063	819.19
475.282	826.19
475.501	844.19
475.72	860.19
475.939	870.19
476.158	854.19
476.377	842.19
476.596	855.19
476.814	895.19
477.033	877.19
477.252	877.19
477.471	882.19
477.69	935.19
477.908	969.19
478.127	1003.19
478.346	1014.19
478.564	1006.19
478.783	1006.19
479.002	1043.19
479.22	1030.19
479.439	1036.19
479.658	1030.19
479.876	1045.19
480.095	1051.19
480.313	1094.19
480.532	1098.19
480.751	1101.19
480.969	1080.19
481.188	1030.19
481.406	1008.19
481.624	1003.19
481.843	942.19
482.061	945.19
482.28	953.19
482.498	954.19
482.717	937.19
482.935	946.19
483.153	949.19
483.372	960.19
483.59	948.19
483.808	958.19
484.027	953.19
484.245	958.19
484.463	963.19
484.681	960.19
484.9	983.19
485.118	991.19
485.336	992.19
485.554	964.19
485.772	975.19
485.99	995.19
486.209	1019.19
486.427	995.19
486.645	1005.19
486.863	1006.19
487.081	1002.19
487.299	997.19
487.517	984.19
487.735	1002.19
487.953	1010.19
488.171	983.19
488.389	975.19
488.607	980.19
488.825	965.19
489.043	970.19
489.261	982.19
489.479	974.19
489.696	982.19
489.914	982.19
490.132	996.19
490.35	974.19
490.568	1010.19
490.786	987.19
491.003	1004.19
491.221	1003.19
491.439	998.19
491.657	1020.19
491.874	996.19
492.092	1032.19
492.31	1030.19
492.527	1004.19
492.745	1042.19
492.963	1034.19
493.18	1003.19
493.398	1012.19
493.615	1021.19
493.833	1021.19
494.05	1048.19
494.268	1086.19
494.485	1094.19
494.703	1073.19
494.92	1066.19
495.138	1065.19
495.355	1069.19
495.573	1082.19
495.79	1064.19
496.008	1089.19
496.225	1077.19
496.442	1082.19
496.66	1109.19
496.877	1107.19
497.094	1151.19
497.312	1156.19
497.529	1198.19
497.746	1224.19
497.963	1280.19
498.181	1308.19
498.398	1341.19
498.615	1439.19
