Data from NiCl2@0.5M.TitratingCurve.Agarose3%dH2O.NegLispCup.LampEnergy10.LIBS07252019_HRD10591_18-20-11-574.txt Node
Date: Thu Jul 25 18:20:11 EDT 2019
User: cochatt
Spectrometer: HR+D1059
Trigger mode: 1
Integration Time (sec): 1.000000E-1
Scans to average: 1
Electric dark correction enabled: true
Nonlinearity correction enabled: false
Boxcar width: 0
XAxis mode: Wavelengths
Number of Pixels in Spectrum: 2048
>>>>>Begin Spectral Data<<<<<
223.165	-9.06
223.4	-9.06
223.635	-9.06
223.869	-24.06
224.104	-21.06
224.338	-9.06
224.573	-15.06
224.808	-15.06
225.042	2.94
225.277	-3.06
225.511	-1.06
225.746	0.94
225.98	5.94
226.215	25.94
226.449	5.94
226.683	12.94
226.918	19.94
227.152	22.94
227.387	40.94
227.621	38.94
227.856	45.94
228.09	51.94
228.324	48.94
228.559	53.94
228.793	59.94
229.027	107.94
229.262	110.94
229.496	119.94
229.73	135.94
229.964	122.94
230.199	138.94
230.433	134.94
230.667	138.94
230.901	139.94
231.136	145.94
231.37	128.94
231.604	142.94
231.838	147.94
232.072	121.94
232.306	145.94
232.541	141.94
232.775	142.94
233.009	142.94
233.243	138.94
233.477	143.94
233.711	122.94
233.945	126.94
234.179	150.94
234.413	140.94
234.647	151.94
234.881	150.94
235.115	152.94
235.349	141.94
235.583	141.94
235.817	149.94
236.051	143.94
236.285	157.94
236.519	149.94
236.753	139.94
236.987	146.94
237.221	147.94
237.455	151.94
237.689	145.94
237.922	162.94
238.156	142.94
238.39	164.94
238.624	141.94
238.858	148.94
239.091	148.94
239.325	165.94
239.559	177.94
239.793	159.94
240.027	164.94
240.26	175.94
240.494	201.94
240.728	181.94
240.961	177.94
241.195	189.94
241.429	205.94
241.662	168.94
241.896	191.94
242.13	185.94
242.363	182.94
242.597	175.94
242.83	184.94
243.064	177.94
243.298	195.94
243.531	182.94
243.765	187.94
243.998	187.94
244.232	197.94
244.465	181.94
244.699	200.94
244.932	202.94
245.166	215.94
245.399	203.94
245.633	205.94
245.866	209.94
246.099	216.94
246.333	202.94
246.566	206.94
246.8	210.94
247.033	195.94
247.266	209.94
247.5	203.94
247.733	214.94
247.966	207.94
248.2	234.94
248.433	208.94
248.666	218.94
248.899	253.94
249.133	222.94
249.366	239.94
249.599	244.94
249.832	227.94
250.066	223.94
250.299	230.94
250.532	257.94
250.765	219.94
250.998	214.94
251.231	226.94
251.465	247.94
251.698	229.94
251.931	250.94
252.164	255.94
252.397	257.94
252.63	246.94
252.863	241.94
253.096	250.94
253.329	252.94
253.562	251.94
253.795	271.94
254.028	255.94
254.261	271.94
254.494	264.94
254.727	271.94
254.96	265.94
255.193	273.94
255.426	251.94
255.659	270.94
255.892	271.94
256.124	274.94
256.357	266.94
256.59	279.94
256.823	281.94
257.056	286.94
257.289	255.94
257.521	282.94
257.754	291.94
257.987	278.94
258.22	276.94
258.452	278.94
258.685	295.94
258.918	285.94
259.151	269.94
259.383	310.94
259.616	292.94
259.849	282.94
260.081	285.94
260.314	292.94
260.547	295.94
260.779	309.94
261.012	294.94
261.244	291.94
261.477	306.94
261.71	295.94
261.942	291.94
262.175	294.94
262.407	321.94
262.64	308.94
262.872	304.94
263.105	321.94
263.337	299.94
263.57	315.94
263.802	330.94
264.035	330.94
264.267	305.94
264.499	307.94
264.732	309.94
264.964	317.94
265.197	328.94
265.429	304.94
265.661	332.94
265.894	339.94
266.126	339.94
266.358	342.94
266.591	324.94
266.823	340.94
267.055	323.94
267.287	332.94
267.52	346.94
267.752	327.94
267.984	346.94
268.216	350.94
268.448	342.94
268.681	356.94
268.913	340.94
269.145	351.94
269.377	351.94
269.609	347.94
269.841	340.94
270.073	348.94
270.306	351.94
270.538	350.94
270.77	378.94
271.002	348.94
271.234	353.94
271.466	362.94
271.698	360.94
271.93	372.94
272.162	380.94
272.394	370.94
272.626	366.94
272.858	371.94
273.09	362.94
273.322	387.94
273.553	375.94
273.785	375.94
274.017	357.94
274.249	379.94
274.481	382.94
274.713	399.94
274.945	392.94
275.176	390.94
275.408	380.94
275.64	394.94
275.872	405.94
276.104	401.94
276.335	401.94
276.567	412.94
276.799	403.94
277.031	411.94
277.262	395.94
277.494	403.94
277.726	394.94
277.957	409.94
278.189	431.94
278.421	394.94
278.652	410.94
278.884	433.94
279.115	403.94
279.347	412.94
279.579	429.94
279.81	435.94
280.042	417.94
280.273	424.94
280.505	421.94
280.736	443.94
280.968	408.94
281.199	422.94
281.431	450.94
281.662	421.94
281.894	441.94
282.125	438.94
282.356	442.94
282.588	462.94
282.819	456.94
283.051	451.94
283.282	454.94
283.513	457.94
283.745	443.94
283.976	455.94
284.207	443.94
284.439	462.94
284.67	459.94
284.901	460.94
285.132	462.94
285.364	443.94
285.595	462.94
285.826	469.94
286.057	464.94
286.288	459.94
286.52	465.94
286.751	479.94
286.982	464.94
287.213	466.94
287.444	475.94
287.675	471.94
287.906	482.94
288.138	480.94
288.369	475.94
288.6	479.94
288.831	475.94
289.062	495.94
289.293	493.94
289.524	474.94
289.755	493.94
289.986	475.94
290.217	469.94
290.448	475.94
290.679	489.94
290.91	493.94
291.141	499.94
291.371	496.94
291.602	510.94
291.833	498.94
292.064	507.94
292.295	511.94
292.526	495.94
292.757	492.94
292.987	495.94
293.218	506.94
293.449	523.94
293.68	498.94
293.91	479.94
294.141	495.94
294.372	484.94
294.603	519.94
294.833	515.94
295.064	513.94
295.295	520.94
295.525	501.94
295.756	499.94
295.987	526.94
296.217	494.94
296.448	502.94
296.679	505.94
296.909	521.94
297.14	511.94
297.37	526.94
297.601	510.94
297.831	549.94
298.062	535.94
298.292	545.94
298.523	548.94
298.753	570.94
298.984	541.94
299.214	546.94
299.445	544.94
299.675	545.94
299.905	542.94
300.136	558.94
300.366	560.94
300.597	573.94
300.827	567.94
301.057	571.94
301.288	578.94
301.518	552.94
301.748	569.94
301.979	564.94
302.209	588.94
302.439	584.94
302.669	563.94
302.9	565.94
303.13	558.94
303.36	563.94
303.59	569.94
303.82	583.94
304.051	581.94
304.281	568.94
304.511	568.94
304.741	571.94
304.971	576.94
305.201	583.94
305.431	579.94
305.661	591.94
305.891	561.94
306.121	588.94
306.352	585.94
306.582	573.94
306.812	569.94
307.042	585.94
307.272	564.94
307.502	549.94
307.731	557.94
307.961	565.94
308.191	553.94
308.421	561.94
308.651	573.94
308.881	559.94
309.111	549.94
309.341	583.94
309.571	586.94
309.8	565.94
310.03	584.94
310.26	587.94
310.49	591.94
310.72	594.94
310.949	597.94
311.179	582.94
311.409	575.94
311.639	577.94
311.868	597.94
312.098	603.94
312.328	596.94
312.557	596.94
312.787	608.94
313.017	600.94
313.246	612.94
313.476	598.94
313.706	626.94
313.935	633.94
314.165	602.94
314.394	582.94
314.624	615.94
314.853	618.94
315.083	622.94
315.312	610.94
315.542	620.94
315.771	595.94
316.001	624.94
316.23	610.94
316.46	617.94
316.689	618.94
316.919	603.94
317.148	615.94
317.377	621.94
317.607	599.94
317.836	614.94
318.065	603.94
318.295	600.94
318.524	599.94
318.753	608.94
318.983	613.94
319.212	617.94
319.441	618.94
319.67	620.94
319.9	603.94
320.129	610.94
320.358	606.94
320.587	625.94
320.816	615.94
321.046	615.94
321.275	608.94
321.504	651.94
321.733	621.94
321.962	618.94
322.191	647.94
322.42	612.94
322.649	645.94
322.878	611.94
323.108	637.94
323.337	629.94
323.566	642.94
323.795	644.94
324.024	633.94
324.253	638.94
324.482	637.94
324.71	639.94
324.939	640.94
325.168	650.94
325.397	665.94
325.626	659.94
325.855	649.94
326.084	680.94
326.313	675.94
326.542	644.94
326.77	645.94
326.999	642.94
327.228	657.94
327.457	650.94
327.686	658.94
327.914	681.94
328.143	653.94
328.372	663.94
328.6	671.94
328.829	640.94
329.058	669.94
329.287	678.94
329.515	668.94
329.744	672.94
329.972	672.94
330.201	659.94
330.43	710.94
330.658	680.94
330.887	687.94
331.115	682.94
331.344	682.94
331.572	718.94
331.801	706.94
332.03	713.94
332.258	731.94
332.486	734.94
332.715	756.94
332.943	747.94
333.172	793.94
333.4	798.94
333.629	817.94
333.857	839.94
334.085	845.94
334.314	827.94
334.542	825.94
334.771	823.94
334.999	778.94
335.227	789.94
335.455	813.94
335.684	821.94
335.912	808.94
336.14	806.94
336.369	810.94
336.597	821.94
336.825	793.94
337.053	800.94
337.281	823.94
337.51	780.94
337.738	756.94
337.966	770.94
338.194	734.94
338.422	741.94
338.65	728.94
338.878	734.94
339.106	728.94
339.334	720.94
339.562	740.94
339.79	702.94
340.018	702.94
340.246	677.94
340.474	715.94
340.702	669.94
340.93	691.94
341.158	703.94
341.386	691.94
341.614	717.94
341.842	737.94
342.07	715.94
342.298	693.94
342.526	701.94
342.754	698.94
342.981	687.94
343.209	714.94
343.437	732.94
343.665	791.94
343.893	799.94
344.12	782.94
344.348	775.94
344.576	747.94
344.804	763.94
345.031	730.94
345.259	728.94
345.487	710.94
345.714	702.94
345.942	707.94
346.17	736.94
346.397	713.94
346.625	677.94
346.853	703.94
347.08	642.94
347.308	685.94
347.535	691.94
347.763	679.94
347.99	673.94
348.218	662.94
348.445	667.94
348.673	687.94
348.9	669.94
349.128	665.94
349.355	661.94
349.583	669.94
349.81	667.94
350.037	649.94
350.265	645.94
350.492	662.94
350.72	656.94
350.947	671.94
351.174	678.94
351.402	666.94
351.629	696.94
351.856	680.94
352.083	657.94
352.311	683.94
352.538	660.94
352.765	701.94
352.992	658.94
353.22	637.94
353.447	641.94
353.674	631.94
353.901	656.94
354.128	625.94
354.355	644.94
354.583	640.94
354.81	618.94
355.037	651.94
355.264	650.94
355.491	654.94
355.718	631.94
355.945	646.94
356.172	649.94
356.399	630.94
356.626	640.94
356.853	677.94
357.08	671.94
357.307	626.94
357.534	628.94
357.761	623.94
357.988	650.94
358.215	647.94
358.441	637.94
358.668	651.94
358.895	646.94
359.122	637.94
359.349	673.94
359.576	634.94
359.802	650.94
360.029	639.94
360.256	652.94
360.483	625.94
360.709	629.94
360.936	647.94
361.163	645.94
361.39	644.94
361.616	642.94
361.843	631.94
362.07	671.94
362.296	664.94
362.523	625.94
362.749	626.94
362.976	605.94
363.203	633.94
363.429	628.94
363.656	628.94
363.882	633.94
364.109	651.94
364.335	623.94
364.562	635.94
364.788	632.94
365.015	634.94
365.241	634.94
365.468	616.94
365.694	611.94
365.92	630.94
366.147	633.94
366.373	631.94
366.599	635.94
366.826	621.94
367.052	615.94
367.278	618.94
367.505	618.94
367.731	648.94
367.957	629.94
368.184	652.94
368.41	629.94
368.636	641.94
368.862	629.94
369.089	647.94
369.315	656.94
369.541	641.94
369.767	646.94
369.993	649.94
370.219	637.94
370.445	632.94
370.672	667.94
370.898	665.94
371.124	673.94
371.35	680.94
371.576	659.94
371.802	663.94
372.028	671.94
372.254	682.94
372.48	676.94
372.706	704.94
372.932	696.94
373.158	673.94
373.384	689.94
373.61	672.94
373.835	692.94
374.061	645.94
374.287	680.94
374.513	679.94
374.739	706.94
374.965	691.94
375.191	707.94
375.416	712.94
375.642	702.94
375.868	720.94
376.094	688.94
376.319	685.94
376.545	676.94
376.771	685.94
376.997	687.94
377.222	674.94
377.448	680.94
377.674	677.94
377.899	669.94
378.125	679.94
378.35	643.94
378.576	651.94
378.802	661.94
379.027	656.94
379.253	642.94
379.478	644.94
379.704	654.94
379.929	657.94
380.155	658.94
380.38	647.94
380.606	667.94
380.831	642.94
381.057	650.94
381.282	656.94
381.507	652.94
381.733	650.94
381.958	670.94
382.184	682.94
382.409	681.94
382.634	669.94
382.86	711.94
383.085	692.94
383.31	686.94
383.535	713.94
383.761	717.94
383.986	718.94
384.211	712.94
384.436	728.94
384.662	759.94
384.887	759.94
385.112	761.94
385.337	785.94
385.562	751.94
385.787	767.94
386.013	790.94
386.238	765.94
386.463	744.94
386.688	752.94
386.913	753.94
387.138	787.94
387.363	746.94
387.588	733.94
387.813	753.94
388.038	778.94
388.263	786.94
388.488	773.94
388.713	783.94
388.938	757.94
389.163	763.94
389.387	745.94
389.612	765.94
389.837	782.94
390.062	771.94
390.287	765.94
390.512	772.94
390.736	787.94
390.961	769.94
391.186	799.94
391.411	801.94
391.636	837.94
391.86	836.94
392.085	824.94
392.31	851.94
392.534	826.94
392.759	829.94
392.984	805.94
393.208	805.94
393.433	809.94
393.658	800.94
393.882	833.94
394.107	815.94
394.331	813.94
394.556	815.94
394.78	820.94
395.005	841.94
395.229	845.94
395.454	847.94
395.678	824.94
395.903	827.94
396.127	814.94
396.352	820.94
396.576	848.94
396.801	826.94
397.025	813.94
397.249	853.94
397.474	842.94
397.698	871.94
397.922	868.94
398.147	884.94
398.371	899.94
398.595	913.94
398.82	915.94
399.044	954.94
399.268	1030.94
399.492	1171.94
399.717	1243.94
399.941	1216.94
400.165	1185.94
400.389	1087.94
400.613	1032.94
400.837	1012.94
401.062	992.94
401.286	936.94
401.51	942.94
401.734	921.94
401.958	928.94
402.182	943.94
402.406	945.94
402.63	949.94
402.854	980.94
403.078	965.94
403.302	999.94
403.526	994.94
403.75	1019.94
403.974	1027.94
404.198	1045.94
404.422	1040.94
404.645	1012.94
404.869	983.94
405.093	987.94
405.317	984.94
405.541	985.94
405.765	994.94
405.988	1017.94
406.212	994.94
406.436	1027.94
406.66	1060.94
406.883	1051.94
407.107	1089.94
407.331	1120.94
407.555	1133.94
407.778	1153.94
408.002	1147.94
408.226	1123.94
408.449	1114.94
408.673	1065.94
408.896	1061.94
409.12	1048.94
409.344	1042.94
409.567	1040.94
409.791	1066.94
410.014	1045.94
410.238	1013.94
410.461	1064.94
410.685	1028.94
410.908	1018.94
411.132	1022.94
411.355	971.94
411.578	1002.94
411.802	963.94
412.025	1001.94
412.249	994.94
412.472	1010.94
412.695	977.94
412.919	943.94
413.142	967.94
413.365	945.94
413.589	987.94
413.812	960.94
414.035	935.94
414.258	932.94
414.482	967.94
414.705	951.94
414.928	979.94
415.151	951.94
415.374	960.94
415.597	966.94
415.821	948.94
416.044	930.94
416.267	950.94
416.49	956.94
416.713	928.94
416.936	955.94
417.159	940.94
417.382	951.94
417.605	910.94
417.828	919.94
418.051	947.94
418.274	951.94
418.497	959.94
418.72	951.94
418.943	939.94
419.166	1016.94
419.389	1089.94
419.611	1049.94
419.834	1003.94
420.057	993.94
420.28	975.94
420.503	935.94
420.726	952.94
420.948	925.94
421.171	922.94
421.394	941.94
421.617	940.94
421.839	950.94
422.062	960.94
422.285	932.94
422.507	927.94
422.73	923.94
422.953	941.94
423.175	961.94
423.398	954.94
423.621	943.94
423.843	990.94
424.066	997.94
424.288	968.94
424.511	985.94
424.733	950.94
424.956	929.94
425.178	976.94
425.401	959.94
425.623	951.94
425.846	910.94
426.068	927.94
426.291	922.94
426.513	907.94
426.735	899.94
426.958	905.94
427.18	891.94
427.402	877.94
427.625	925.94
427.847	898.94
428.069	882.94
428.292	875.94
428.514	890.94
428.736	865.94
428.958	892.94
429.181	840.94
429.403	874.94
429.625	905.94
429.847	854.94
430.069	866.94
430.292	906.94
430.514	857.94
430.736	870.94
430.958	867.94
431.18	874.94
431.402	883.94
431.624	870.94
431.846	842.94
432.068	879.94
432.29	880.94
432.512	888.94
432.734	892.94
432.956	872.94
433.178	916.94
433.4	902.94
433.622	870.94
433.844	906.94
434.066	924.94
434.287	921.94
434.509	935.94
434.731	938.94
434.953	965.94
435.175	950.94
435.397	970.94
435.618	938.94
435.84	899.94
436.062	890.94
436.284	913.94
436.505	881.94
436.727	877.94
436.949	906.94
437.17	899.94
437.392	882.94
437.614	883.94
437.835	850.94
438.057	862.94
438.278	860.94
438.5	855.94
438.721	875.94
438.943	871.94
439.165	837.94
439.386	867.94
439.608	886.94
439.829	902.94
440.05	893.94
440.272	891.94
440.493	880.94
440.715	932.94
440.936	924.94
441.158	934.94
441.379	929.94
441.6	974.94
441.822	966.94
442.043	1014.94
442.264	965.94
442.486	935.94
442.707	944.94
442.928	973.94
443.149	981.94
443.371	1008.94
443.592	977.94
443.813	1005.94
444.034	986.94
444.255	1039.94
444.476	1066.94
444.698	1082.94
444.919	1089.94
445.14	1155.94
445.361	1095.94
445.582	1011.94
445.803	949.94
446.024	952.94
446.245	986.94
446.466	905.94
446.687	906.94
446.908	913.94
447.129	890.94
447.35	885.94
447.571	864.94
447.792	886.94
448.013	867.94
448.234	815.94
448.455	836.94
448.675	822.94
448.896	854.94
449.117	827.94
449.338	825.94
449.559	842.94
449.779	831.94
450	826.94
450.221	836.94
450.442	837.94
450.662	848.94
450.883	837.94
451.104	842.94
451.324	822.94
451.545	855.94
451.766	846.94
451.986	843.94
452.207	806.94
452.428	815.94
452.648	825.94
452.869	814.94
453.089	797.94
453.31	805.94
453.53	799.94
453.751	801.94
453.971	795.94
454.192	807.94
454.412	805.94
454.633	790.94
454.853	805.94
455.073	783.94
455.294	799.94
455.514	795.94
455.734	802.94
455.955	819.94
456.175	802.94
456.395	808.94
456.616	770.94
456.836	775.94
457.056	764.94
457.276	790.94
457.497	806.94
457.717	790.94
457.937	796.94
458.157	783.94
458.377	819.94
458.598	844.94
458.818	858.94
459.038	894.94
459.258	887.94
459.478	912.94
459.698	937.94
459.918	961.94
460.138	975.94
460.358	1007.94
460.578	1022.94
460.798	1010.94
461.018	1069.94
461.238	1065.94
461.458	1029.94
461.678	1033.94
461.898	1015.94
462.118	1043.94
462.338	1115.94
462.558	1133.94
462.777	1150.94
462.997	1235.94
463.217	1238.94
463.437	1234.94
463.657	1209.94
463.876	1166.94
464.096	1178.94
464.316	1148.94
464.536	1139.94
464.755	1124.94
464.975	1105.94
465.195	1069.94
465.414	1012.94
465.634	952.94
465.854	965.94
466.073	951.94
466.293	925.94
466.512	890.94
466.732	906.94
466.951	903.94
467.171	893.94
467.391	894.94
467.61	884.94
467.829	865.94
468.049	849.94
468.268	856.94
468.488	843.94
468.707	865.94
468.927	853.94
469.146	851.94
469.365	855.94
469.585	875.94
469.804	884.94
470.023	903.94
470.243	893.94
470.462	869.94
470.681	901.94
470.901	890.94
471.12	906.94
471.339	889.94
471.558	890.94
471.777	872.94
471.997	877.94
472.216	869.94
472.435	840.94
472.654	835.94
472.873	836.94
473.092	840.94
473.311	854.94
473.53	875.94
473.749	840.94
473.968	834.94
474.187	838.94
474.406	829.94
474.625	868.94
474.844	857.94
475.063	846.94
475.282	865.94
475.501	886.94
475.72	877.94
475.939	874.94
476.158	895.94
476.377	909.94
476.596	891.94
476.814	889.94
477.033	893.94
477.252	913.94
477.471	906.94
477.69	968.94
477.908	975.94
478.127	969.94
478.346	997.94
478.564	978.94
478.783	1034.94
479.002	1043.94
479.22	1013.94
479.439	1030.94
479.658	1009.94
479.876	1023.94
480.095	1025.94
480.313	1057.94
480.532	1091.94
480.751	1080.94
480.969	1050.94
481.188	1029.94
481.406	1008.94
481.624	997.94
481.843	1006.94
482.061	975.94
482.28	987.94
482.498	991.94
482.717	967.94
482.935	989.94
483.153	1007.94
483.372	991.94
483.59	1006.94
483.808	971.94
484.027	972.94
484.245	975.94
484.463	996.94
484.681	1010.94
484.9	1023.94
485.118	999.94
485.336	1017.94
485.554	1001.94
485.772	1007.94
485.99	994.94
486.209	1023.94
486.427	1015.94
486.645	1011.94
486.863	1019.94
487.081	1024.94
487.299	1003.94
487.517	991.94
487.735	1041.94
487.953	1045.94
488.171	1012.94
488.389	1020.94
488.607	1012.94
488.825	996.94
489.043	1017.94
489.261	1022.94
489.479	996.94
489.696	1026.94
489.914	1032.94
490.132	1029.94
490.35	1043.94
490.568	1011.94
490.786	1032.94
491.003	1042.94
491.221	1022.94
491.439	1081.94
491.657	1030.94
491.874	1065.94
492.092	1083.94
492.31	1083.94
492.527	1072.94
492.745	1089.94
492.963	1090.94
493.18	1057.94
493.398	1102.94
493.615	1088.94
493.833	1099.94
494.05	1073.94
494.268	1082.94
494.485	1098.94
494.703	1101.94
494.92	1085.94
495.138	1085.94
495.355	1111.94
495.573	1113.94
495.79	1126.94
496.008	1117.94
496.225	1126.94
496.442	1137.94
496.66	1133.94
496.877	1139.94
497.094	1219.94
497.312	1194.94
497.529	1221.94
497.746	1245.94
497.963	1309.94
498.181	1297.94
498.398	1371.94
498.615	1437.94
498.832	1485.94
499.049	1601.94
499.267	1681.94
499.484	1743.94
