Data from NiCl2@0.125M.TitratingCurve.Agarose3%dH2O.NegLispCup.LampEnergy10.LIBS07252019_HRD10591_18-28-42-574.txt Node
Date: Thu Jul 25 18:28:42 EDT 2019
User: cochatt
Spectrometer: HR+D1059
Trigger mode: 1
Integration Time (sec): 1.000000E-1
Scans to average: 1
Electric dark correction enabled: true
Nonlinearity correction enabled: false
Boxcar width: 0
XAxis mode: Wavelengths
Number of Pixels in Spectrum: 2048
>>>>>Begin Spectral Data<<<<<
223.165	-16.75
223.4	-16.75
223.635	-16.75
223.869	-18.75
224.104	-13.75
224.338	-12.75
224.573	-15.75
224.808	-13.75
225.042	-10.75
225.277	-5.75
225.511	-7.75
225.746	2.25
225.98	12.25
226.215	9.25
226.449	21.25
226.683	13.25
226.918	26.25
227.152	31.25
227.387	32.25
227.621	37.25
227.856	39.25
228.09	55.25
228.324	68.25
228.559	60.25
228.793	80.25
229.027	111.25
229.262	120.25
229.496	114.25
229.73	122.25
229.964	133.25
230.199	140.25
230.433	129.25
230.667	139.25
230.901	137.25
231.136	128.25
231.37	141.25
231.604	139.25
231.838	141.25
232.072	147.25
232.306	172.25
232.541	163.25
232.775	159.25
233.009	152.25
233.243	140.25
233.477	164.25
233.711	150.25
233.945	158.25
234.179	157.25
234.413	158.25
234.647	153.25
234.881	154.25
235.115	150.25
235.349	157.25
235.583	164.25
235.817	170.25
236.051	156.25
236.285	155.25
236.519	180.25
236.753	166.25
236.987	162.25
237.221	164.25
237.455	190.25
237.689	182.25
237.922	170.25
238.156	191.25
238.39	159.25
238.624	178.25
238.858	179.25
239.091	192.25
239.325	188.25
239.559	172.25
239.793	194.25
240.027	183.25
240.26	188.25
240.494	200.25
240.728	197.25
240.961	205.25
241.195	189.25
241.429	206.25
241.662	207.25
241.896	213.25
242.13	204.25
242.363	191.25
242.597	215.25
242.83	209.25
243.064	220.25
243.298	228.25
243.531	214.25
243.765	220.25
243.998	226.25
244.232	231.25
244.465	232.25
244.699	221.25
244.932	229.25
245.166	222.25
245.399	239.25
245.633	230.25
245.866	242.25
246.099	237.25
246.333	228.25
246.566	245.25
246.8	239.25
247.033	252.25
247.266	245.25
247.5	255.25
247.733	245.25
247.966	237.25
248.2	248.25
248.433	258.25
248.666	254.25
248.899	259.25
249.133	271.25
249.366	250.25
249.599	269.25
249.832	285.25
250.066	269.25
250.299	302.25
250.532	270.25
250.765	283.25
250.998	264.25
251.231	270.25
251.465	273.25
251.698	285.25
251.931	278.25
252.164	279.25
252.397	303.25
252.63	304.25
252.863	291.25
253.096	301.25
253.329	301.25
253.562	291.25
253.795	304.25
254.028	305.25
254.261	303.25
254.494	308.25
254.727	298.25
254.96	302.25
255.193	299.25
255.426	298.25
255.659	308.25
255.892	314.25
256.124	310.25
256.357	317.25
256.59	326.25
256.823	308.25
257.056	310.25
257.289	316.25
257.521	325.25
257.754	327.25
257.987	326.25
258.22	317.25
258.452	334.25
258.685	338.25
258.918	339.25
259.151	338.25
259.383	343.25
259.616	342.25
259.849	356.25
260.081	354.25
260.314	344.25
260.547	359.25
260.779	354.25
261.012	333.25
261.244	354.25
261.477	359.25
261.71	345.25
261.942	350.25
262.175	354.25
262.407	354.25
262.64	358.25
262.872	348.25
263.105	360.25
263.337	367.25
263.57	354.25
263.802	354.25
264.035	381.25
264.267	368.25
264.499	367.25
264.732	376.25
264.964	381.25
265.197	383.25
265.429	383.25
265.661	390.25
265.894	395.25
266.126	377.25
266.358	387.25
266.591	377.25
266.823	379.25
267.055	395.25
267.287	413.25
267.52	414.25
267.752	399.25
267.984	398.25
268.216	392.25
268.448	391.25
268.681	411.25
268.913	397.25
269.145	391.25
269.377	398.25
269.609	379.25
269.841	420.25
270.073	396.25
270.306	416.25
270.538	405.25
270.77	411.25
271.002	406.25
271.234	404.25
271.466	419.25
271.698	392.25
271.93	419.25
272.162	418.25
272.394	418.25
272.626	409.25
272.858	434.25
273.09	431.25
273.322	461.25
273.553	436.25
273.785	445.25
274.017	440.25
274.249	452.25
274.481	452.25
274.713	436.25
274.945	450.25
275.176	438.25
275.408	452.25
275.64	445.25
275.872	454.25
276.104	432.25
276.335	466.25
276.567	463.25
276.799	453.25
277.031	460.25
277.262	453.25
277.494	474.25
277.726	462.25
277.957	463.25
278.189	446.25
278.421	484.25
278.652	484.25
278.884	462.25
279.115	461.25
279.347	461.25
279.579	475.25
279.81	476.25
280.042	502.25
280.273	482.25
280.505	502.25
280.736	457.25
280.968	510.25
281.199	487.25
281.431	496.25
281.662	519.25
281.894	532.25
282.125	502.25
282.356	525.25
282.588	479.25
282.819	509.25
283.051	505.25
283.282	520.25
283.513	504.25
283.745	507.25
283.976	503.25
284.207	500.25
284.439	535.25
284.67	527.25
284.901	519.25
285.132	529.25
285.364	535.25
285.595	525.25
285.826	498.25
286.057	509.25
286.288	558.25
286.52	541.25
286.751	518.25
286.982	527.25
287.213	566.25
287.444	539.25
287.675	534.25
287.906	553.25
288.138	557.25
288.369	567.25
288.6	541.25
288.831	548.25
289.062	545.25
289.293	541.25
289.524	535.25
289.755	564.25
289.986	580.25
290.217	558.25
290.448	559.25
290.679	587.25
290.91	569.25
291.141	552.25
291.371	568.25
291.602	561.25
291.833	565.25
292.064	570.25
292.295	552.25
292.526	575.25
292.757	551.25
292.987	569.25
293.218	557.25
293.449	583.25
293.68	567.25
293.91	600.25
294.141	552.25
294.372	567.25
294.603	567.25
294.833	579.25
295.064	571.25
295.295	578.25
295.525	584.25
295.756	605.25
295.987	586.25
296.217	596.25
296.448	614.25
296.679	585.25
296.909	605.25
297.14	585.25
297.37	604.25
297.601	606.25
297.831	616.25
298.062	630.25
298.292	614.25
298.523	652.25
298.753	644.25
298.984	602.25
299.214	607.25
299.445	620.25
299.675	605.25
299.905	636.25
300.136	627.25
300.366	630.25
300.597	620.25
300.827	632.25
301.057	633.25
301.288	670.25
301.518	656.25
301.748	650.25
301.979	668.25
302.209	666.25
302.439	637.25
302.669	652.25
302.9	640.25
303.13	642.25
303.36	628.25
303.59	615.25
303.82	642.25
304.051	635.25
304.281	640.25
304.511	631.25
304.741	631.25
304.971	655.25
305.201	639.25
305.431	620.25
305.661	654.25
305.891	614.25
306.121	646.25
306.352	644.25
306.582	613.25
306.812	603.25
307.042	632.25
307.272	628.25
307.502	613.25
307.731	634.25
307.961	608.25
308.191	619.25
308.421	628.25
308.651	629.25
308.881	623.25
309.111	630.25
309.341	624.25
309.571	604.25
309.8	630.25
310.03	626.25
310.26	639.25
310.49	642.25
310.72	619.25
310.949	623.25
311.179	623.25
311.409	631.25
311.639	631.25
311.868	626.25
312.098	656.25
312.328	646.25
312.557	624.25
312.787	634.25
313.017	655.25
313.246	660.25
313.476	655.25
313.706	670.25
313.935	670.25
314.165	675.25
314.394	670.25
314.624	647.25
314.853	650.25
315.083	671.25
315.312	669.25
315.542	645.25
315.771	651.25
316.001	640.25
316.23	657.25
316.46	638.25
316.689	656.25
316.919	651.25
317.148	647.25
317.377	659.25
317.607	656.25
317.836	657.25
318.065	644.25
318.295	652.25
318.524	639.25
318.753	663.25
318.983	647.25
319.212	645.25
319.441	643.25
319.67	639.25
319.9	658.25
320.129	646.25
320.358	656.25
320.587	679.25
320.816	655.25
321.046	650.25
321.275	649.25
321.504	653.25
321.733	658.25
321.962	643.25
322.191	659.25
322.42	650.25
322.649	662.25
322.878	650.25
323.108	655.25
323.337	646.25
323.566	696.25
323.795	675.25
324.024	688.25
324.253	679.25
324.482	687.25
324.71	678.25
324.939	680.25
325.168	680.25
325.397	664.25
325.626	682.25
325.855	685.25
326.084	702.25
326.313	726.25
326.542	704.25
326.77	716.25
326.999	714.25
327.228	707.25
327.457	714.25
327.686	712.25
327.914	702.25
328.143	732.25
328.372	718.25
328.6	716.25
328.829	706.25
329.058	714.25
329.287	698.25
329.515	717.25
329.744	708.25
329.972	742.25
330.201	692.25
330.43	714.25
330.658	725.25
330.887	735.25
331.115	725.25
331.344	749.25
331.572	752.25
331.801	761.25
332.03	762.25
332.258	791.25
332.486	818.25
332.715	826.25
332.943	873.25
333.172	905.25
333.4	952.25
333.629	958.25
333.857	961.25
334.085	970.25
334.314	949.25
334.542	927.25
334.771	918.25
334.999	898.25
335.227	888.25
335.455	875.25
335.684	865.25
335.912	832.25
336.14	866.25
336.369	854.25
336.597	853.25
336.825	834.25
337.053	857.25
337.281	846.25
337.51	824.25
337.738	822.25
337.966	805.25
338.194	798.25
338.422	768.25
338.65	763.25
338.878	785.25
339.106	788.25
339.334	766.25
339.562	789.25
339.79	739.25
340.018	748.25
340.246	733.25
340.474	752.25
340.702	739.25
340.93	759.25
341.158	762.25
341.386	743.25
341.614	749.25
341.842	742.25
342.07	721.25
342.298	730.25
342.526	742.25
342.754	750.25
342.981	734.25
343.209	749.25
343.437	792.25
343.665	840.25
343.893	871.25
344.12	918.25
344.348	892.25
344.576	868.25
344.804	818.25
345.031	770.25
345.259	771.25
345.487	749.25
345.714	758.25
345.942	768.25
346.17	729.25
346.397	738.25
346.625	739.25
346.853	734.25
347.08	732.25
347.308	742.25
347.535	719.25
347.763	734.25
347.99	734.25
348.218	760.25
348.445	712.25
348.673	690.25
348.9	734.25
349.128	722.25
349.355	710.25
349.583	724.25
349.81	716.25
350.037	707.25
350.265	700.25
350.492	704.25
350.72	695.25
350.947	700.25
351.174	702.25
351.402	691.25
351.629	692.25
351.856	704.25
352.083	700.25
352.311	690.25
352.538	701.25
352.765	714.25
352.992	652.25
353.22	680.25
353.447	674.25
353.674	683.25
353.901	686.25
354.128	694.25
354.355	681.25
354.583	707.25
354.81	694.25
355.037	689.25
355.264	701.25
355.491	682.25
355.718	702.25
355.945	698.25
356.172	677.25
356.399	707.25
356.626	694.25
356.853	692.25
357.08	680.25
357.307	680.25
357.534	723.25
357.761	670.25
357.988	704.25
358.215	708.25
358.441	708.25
358.668	694.25
358.895	678.25
359.122	681.25
359.349	675.25
359.576	700.25
359.802	713.25
360.029	672.25
360.256	704.25
360.483	678.25
360.709	681.25
360.936	665.25
361.163	687.25
361.39	712.25
361.616	694.25
361.843	677.25
362.07	698.25
362.296	690.25
362.523	699.25
362.749	691.25
362.976	685.25
363.203	700.25
363.429	674.25
363.656	682.25
363.882	711.25
364.109	670.25
364.335	706.25
364.562	672.25
364.788	692.25
365.015	687.25
365.241	678.25
365.468	672.25
365.694	666.25
365.92	682.25
366.147	674.25
366.373	685.25
366.599	670.25
366.826	670.25
367.052	693.25
367.278	670.25
367.505	694.25
367.731	688.25
367.957	704.25
368.184	700.25
368.41	721.25
368.636	726.25
368.862	704.25
369.089	723.25
369.315	712.25
369.541	701.25
369.767	754.25
369.993	738.25
370.219	734.25
370.445	734.25
370.672	736.25
370.898	728.25
371.124	735.25
371.35	739.25
371.576	758.25
371.802	760.25
372.028	741.25
372.254	734.25
372.48	762.25
372.706	758.25
372.932	799.25
373.158	784.25
373.384	780.25
373.61	758.25
373.835	767.25
374.061	748.25
374.287	786.25
374.513	780.25
374.739	802.25
374.965	818.25
375.191	847.25
375.416	826.25
375.642	783.25
375.868	806.25
376.094	802.25
376.319	790.25
376.545	745.25
376.771	759.25
376.997	747.25
377.222	747.25
377.448	758.25
377.674	764.25
377.899	745.25
378.125	730.25
378.35	723.25
378.576	760.25
378.802	749.25
379.027	740.25
379.253	749.25
379.478	732.25
379.704	748.25
379.929	747.25
380.155	744.25
380.38	740.25
380.606	727.25
380.831	758.25
381.057	746.25
381.282	730.25
381.507	760.25
381.733	766.25
381.958	754.25
382.184	769.25
382.409	758.25
382.634	795.25
382.86	798.25
383.085	815.25
383.31	812.25
383.535	826.25
383.761	837.25
383.986	824.25
384.211	847.25
384.436	883.25
384.662	899.25
384.887	890.25
385.112	930.25
385.337	925.25
385.562	905.25
385.787	928.25
386.013	923.25
386.238	918.25
386.463	926.25
386.688	910.25
386.913	918.25
387.138	922.25
387.363	874.25
387.588	884.25
387.813	873.25
388.038	875.25
388.263	916.25
388.488	876.25
388.713	897.25
388.938	897.25
389.163	902.25
389.387	898.25
389.612	877.25
389.837	916.25
390.062	892.25
390.287	879.25
390.512	858.25
390.736	869.25
390.961	881.25
391.186	931.25
391.411	930.25
391.636	943.25
391.86	1018.25
392.085	1031.25
392.31	1029.25
392.534	1000.25
392.759	954.25
392.984	967.25
393.208	963.25
393.433	965.25
393.658	962.25
393.882	920.25
394.107	968.25
394.331	946.25
394.556	980.25
394.78	967.25
395.005	990.25
395.229	970.25
395.454	996.25
395.678	1040.25
395.903	1015.25
396.127	1004.25
396.352	953.25
396.576	972.25
396.801	953.25
397.025	942.25
397.249	961.25
397.474	1000.25
397.698	1003.25
397.922	1017.25
398.147	968.25
398.371	1028.25
398.595	1072.25
398.82	1117.25
399.044	1165.25
399.268	1297.25
399.492	1469.25
399.717	1684.25
399.941	1779.25
400.165	1563.25
400.389	1376.25
400.613	1293.25
400.837	1179.25
401.062	1172.25
401.286	1149.25
401.51	1135.25
401.734	1119.25
401.958	1138.25
402.182	1150.25
402.406	1159.25
402.63	1175.25
402.854	1220.25
403.078	1227.25
403.302	1268.25
403.526	1275.25
403.75	1306.25
403.974	1326.25
404.198	1301.25
404.422	1316.25
404.645	1309.25
404.869	1255.25
405.093	1292.25
405.317	1259.25
405.541	1246.25
405.765	1239.25
405.988	1244.25
406.212	1280.25
406.436	1230.25
406.66	1279.25
406.883	1271.25
407.107	1383.25
407.331	1408.25
407.555	1471.25
407.778	1475.25
408.002	1437.25
408.226	1413.25
408.449	1373.25
408.673	1326.25
408.896	1315.25
409.12	1248.25
409.344	1304.25
409.567	1291.25
409.791	1297.25
410.014	1302.25
410.238	1262.25
410.461	1257.25
410.685	1252.25
410.908	1231.25
411.132	1186.25
411.355	1190.25
411.578	1170.25
411.802	1183.25
412.025	1170.25
412.249	1202.25
412.472	1187.25
412.695	1182.25
412.919	1150.25
413.142	1151.25
413.365	1135.25
413.589	1150.25
413.812	1138.25
414.035	1093.25
414.258	1156.25
414.482	1128.25
414.705	1177.25
414.928	1144.25
415.151	1124.25
415.374	1133.25
415.597	1143.25
415.821	1160.25
416.044	1130.25
416.267	1132.25
416.49	1115.25
416.713	1101.25
416.936	1090.25
417.159	1099.25
417.382	1144.25
417.605	1125.25
417.828	1122.25
418.051	1112.25
418.274	1116.25
418.497	1108.25
418.72	1135.25
418.943	1163.25
419.166	1231.25
419.389	1348.25
419.611	1268.25
419.834	1223.25
420.057	1214.25
420.28	1152.25
420.503	1116.25
420.726	1136.25
420.948	1098.25
421.171	1131.25
421.394	1116.25
421.617	1129.25
421.839	1133.25
422.062	1150.25
422.285	1118.25
422.507	1153.25
422.73	1152.25
422.953	1127.25
423.175	1188.25
423.398	1198.25
423.621	1166.25
423.843	1185.25
424.066	1195.25
424.288	1160.25
424.511	1174.25
424.733	1227.25
424.956	1196.25
425.178	1155.25
425.401	1138.25
425.623	1154.25
425.846	1107.25
426.068	1094.25
426.291	1115.25
426.513	1078.25
426.735	1069.25
426.958	1096.25
427.18	1012.25
427.402	1023.25
427.625	1013.25
427.847	1030.25
428.069	999.25
428.292	1011.25
428.514	987.25
428.736	999.25
428.958	1030.25
429.181	980.25
429.403	994.25
429.625	996.25
429.847	998.25
430.069	968.25
430.292	987.25
430.514	977.25
430.736	965.25
430.958	964.25
431.18	958.25
431.402	979.25
431.624	962.25
431.846	1005.25
432.068	1014.25
432.29	1032.25
432.512	971.25
432.734	1019.25
432.956	1026.25
433.178	1050.25
433.4	1014.25
433.622	1008.25
433.844	1054.25
434.066	1013.25
434.287	1033.25
434.509	1086.25
434.731	1102.25
434.953	1121.25
435.175	1160.25
435.397	1143.25
435.618	1083.25
435.84	1087.25
436.062	1039.25
436.284	1022.25
436.505	1024.25
436.727	1032.25
436.949	1031.25
437.17	1031.25
437.392	997.25
437.614	994.25
437.835	954.25
438.057	973.25
438.278	971.25
438.5	979.25
438.721	980.25
438.943	964.25
439.165	976.25
439.386	962.25
439.608	1014.25
439.829	1027.25
440.05	1045.25
440.272	988.25
440.493	1010.25
440.715	1014.25
440.936	1051.25
441.158	1049.25
441.379	1102.25
441.6	1161.25
441.822	1158.25
442.043	1148.25
442.264	1158.25
442.486	1090.25
442.707	1103.25
442.928	1107.25
443.149	1101.25
443.371	1133.25
443.592	1122.25
443.813	1150.25
444.034	1162.25
444.255	1182.25
444.476	1252.25
444.698	1307.25
444.919	1370.25
445.14	1474.25
445.361	1332.25
445.582	1218.25
445.803	1125.25
446.024	1107.25
446.245	1094.25
446.466	1057.25
446.687	1056.25
446.908	1038.25
447.129	995.25
447.35	998.25
447.571	989.25
447.792	964.25
448.013	987.25
448.234	975.25
448.455	966.25
448.675	934.25
448.896	918.25
449.117	923.25
449.338	968.25
449.559	954.25
449.779	912.25
450	909.25
450.221	923.25
450.442	935.25
450.662	931.25
450.883	951.25
451.104	951.25
451.324	975.25
451.545	943.25
451.766	976.25
451.986	944.25
452.207	946.25
452.428	922.25
452.648	936.25
452.869	938.25
453.089	923.25
453.31	924.25
453.53	918.25
453.751	920.25
453.971	880.25
454.192	904.25
454.412	889.25
454.633	904.25
454.853	902.25
455.073	886.25
455.294	915.25
455.514	872.25
455.734	884.25
455.955	884.25
456.175	864.25
456.395	874.25
456.616	843.25
456.836	904.25
457.056	868.25
457.276	889.25
457.497	856.25
457.717	875.25
457.937	874.25
458.157	871.25
458.377	875.25
458.598	926.25
458.818	911.25
459.038	962.25
459.258	968.25
459.478	1044.25
459.698	1021.25
459.918	1069.25
460.138	1114.25
460.358	1153.25
460.578	1206.25
460.798	1206.25
461.018	1193.25
461.238	1201.25
461.458	1162.25
461.678	1234.25
461.898	1212.25
462.118	1230.25
462.338	1262.25
462.558	1313.25
462.777	1356.25
462.997	1479.25
463.217	1622.25
463.437	1679.25
463.657	1516.25
463.876	1452.25
464.096	1410.25
464.316	1439.25
464.536	1397.25
464.755	1363.25
464.975	1302.25
465.195	1255.25
465.414	1196.25
465.634	1140.25
465.854	1108.25
466.073	1077.25
466.293	1063.25
466.512	1018.25
466.732	999.25
466.951	992.25
467.171	980.25
467.391	998.25
467.61	1001.25
467.829	967.25
468.049	973.25
468.268	941.25
468.488	956.25
468.707	955.25
468.927	973.25
469.146	934.25
469.365	961.25
469.585	968.25
469.804	986.25
470.023	984.25
470.243	1002.25
470.462	998.25
470.681	1030.25
470.901	1038.25
471.12	1012.25
471.339	970.25
471.558	964.25
471.777	973.25
471.997	940.25
472.216	952.25
472.435	980.25
472.654	955.25
472.873	902.25
473.092	929.25
473.311	924.25
473.53	918.25
473.749	927.25
473.968	927.25
474.187	910.25
474.406	916.25
474.625	908.25
474.844	932.25
475.063	916.25
475.282	936.25
475.501	933.25
475.72	936.25
475.939	950.25
476.158	956.25
476.377	944.25
476.596	962.25
476.814	975.25
477.033	989.25
477.252	997.25
477.471	974.25
477.69	1027.25
477.908	1065.25
478.127	1054.25
478.346	1068.25
478.564	1108.25
478.783	1123.25
479.002	1114.25
479.22	1153.25
479.439	1135.25
479.658	1162.25
479.876	1146.25
480.095	1151.25
480.313	1179.25
480.532	1231.25
480.751	1245.25
480.969	1205.25
481.188	1138.25
481.406	1101.25
481.624	1074.25
481.843	1062.25
482.061	1050.25
482.28	1064.25
482.498	1048.25
482.717	1016.25
482.935	1059.25
483.153	1019.25
483.372	1038.25
483.59	1063.25
483.808	1034.25
484.027	1068.25
484.245	1071.25
484.463	1043.25
484.681	1056.25
484.9	1085.25
485.118	1071.25
485.336	1086.25
485.554	1093.25
485.772	1142.25
485.99	1124.25
486.209	1113.25
486.427	1122.25
486.645	1139.25
486.863	1104.25
487.081	1112.25
487.299	1096.25
487.517	1120.25
487.735	1112.25
487.953	1094.25
488.171	1103.25
488.389	1081.25
488.607	1063.25
488.825	1106.25
489.043	1062.25
489.261	1102.25
489.479	1088.25
489.696	1095.25
489.914	1087.25
490.132	1085.25
490.35	1090.25
490.568	1084.25
490.786	1086.25
491.003	1089.25
491.221	1119.25
491.439	1104.25
491.657	1083.25
491.874	1081.25
492.092	1136.25
492.31	1130.25
492.527	1136.25
492.745	1128.25
492.963	1127.25
493.18	1125.25
493.398	1122.25
493.615	1124.25
493.833	1158.25
494.05	1150.25
494.268	1158.25
494.485	1163.25
494.703	1179.25
494.92	1174.25
495.138	1155.25
495.355	1177.25
495.573	1170.25
495.79	1177.25
496.008	1190.25
496.225	1182.25
496.442	1203.25
496.66	1199.25
496.877	1219.25
497.094	1255.25
