Data from NiCl2@0.125M.TitratingCurve.Agarose3%dH2O.NegLispCup.LampEnergy10.LIBS07252019_HRD10591_18-27-25-597.txt Node
Date: Thu Jul 25 18:27:25 EDT 2019
User: cochatt
Spectrometer: HR+D1059
Trigger mode: 1
Integration Time (sec): 1.000000E-1
Scans to average: 1
Electric dark correction enabled: true
Nonlinearity correction enabled: false
Boxcar width: 0
XAxis mode: Wavelengths
Number of Pixels in Spectrum: 2048
>>>>>Begin Spectral Data<<<<<
223.165	-19.62
223.4	-19.62
223.635	-19.62
223.869	-17.62
224.104	-27.62
224.338	-16.62
224.573	-13.62
224.808	-3.62
225.042	-6.62
225.277	-5.62
225.511	1.38
225.746	0.38
225.98	-2.62
226.215	4.38
226.449	12.38
226.683	28.38
226.918	34.38
227.152	32.38
227.387	39.38
227.621	47.38
227.856	38.38
228.09	52.38
228.324	54.38
228.559	42.38
228.793	75.38
229.027	107.38
229.262	112.38
229.496	114.38
229.73	114.38
229.964	123.38
230.199	112.38
230.433	123.38
230.667	125.38
230.901	124.38
231.136	146.38
231.37	144.38
231.604	146.38
231.838	147.38
232.072	138.38
232.306	142.38
232.541	138.38
232.775	146.38
233.009	155.38
233.243	144.38
233.477	158.38
233.711	138.38
233.945	142.38
234.179	131.38
234.413	146.38
234.647	144.38
234.881	144.38
235.115	145.38
235.349	150.38
235.583	150.38
235.817	152.38
236.051	155.38
236.285	151.38
236.519	150.38
236.753	156.38
236.987	150.38
237.221	154.38
237.455	163.38
237.689	152.38
237.922	159.38
238.156	165.38
238.39	162.38
238.624	158.38
238.858	150.38
239.091	166.38
239.325	174.38
239.559	188.38
239.793	176.38
240.027	175.38
240.26	164.38
240.494	166.38
240.728	164.38
240.961	168.38
241.195	176.38
241.429	173.38
241.662	185.38
241.896	196.38
242.13	180.38
242.363	185.38
242.597	190.38
242.83	191.38
243.064	188.38
243.298	180.38
243.531	219.38
243.765	217.38
243.998	222.38
244.232	199.38
244.465	204.38
244.699	202.38
244.932	199.38
245.166	211.38
245.399	202.38
245.633	203.38
245.866	218.38
246.099	207.38
246.333	211.38
246.566	216.38
246.8	215.38
247.033	213.38
247.266	203.38
247.5	216.38
247.733	217.38
247.966	218.38
248.2	237.38
248.433	236.38
248.666	246.38
248.899	251.38
249.133	231.38
249.366	238.38
249.599	238.38
249.832	231.38
250.066	266.38
250.299	252.38
250.532	259.38
250.765	247.38
250.998	256.38
251.231	240.38
251.465	260.38
251.698	263.38
251.931	262.38
252.164	264.38
252.397	274.38
252.63	258.38
252.863	263.38
253.096	282.38
253.329	264.38
253.562	268.38
253.795	278.38
254.028	272.38
254.261	267.38
254.494	296.38
254.727	273.38
254.96	281.38
255.193	274.38
255.426	280.38
255.659	269.38
255.892	307.38
256.124	288.38
256.357	286.38
256.59	282.38
256.823	299.38
257.056	290.38
257.289	293.38
257.521	300.38
257.754	290.38
257.987	299.38
258.22	304.38
258.452	297.38
258.685	295.38
258.918	314.38
259.151	283.38
259.383	290.38
259.616	284.38
259.849	316.38
260.081	308.38
260.314	326.38
260.547	306.38
260.779	298.38
261.012	315.38
261.244	306.38
261.477	341.38
261.71	326.38
261.942	307.38
262.175	315.38
262.407	298.38
262.64	327.38
262.872	320.38
263.105	328.38
263.337	324.38
263.57	323.38
263.802	347.38
264.035	348.38
264.267	342.38
264.499	338.38
264.732	324.38
264.964	337.38
265.197	319.38
265.429	351.38
265.661	363.38
265.894	354.38
266.126	362.38
266.358	344.38
266.591	345.38
266.823	352.38
267.055	352.38
267.287	375.38
267.52	345.38
267.752	362.38
267.984	360.38
268.216	374.38
268.448	370.38
268.681	364.38
268.913	347.38
269.145	372.38
269.377	353.38
269.609	333.38
269.841	369.38
270.073	373.38
270.306	372.38
270.538	357.38
270.77	376.38
271.002	384.38
271.234	380.38
271.466	400.38
271.698	387.38
271.93	370.38
272.162	375.38
272.394	390.38
272.626	378.38
272.858	368.38
273.09	396.38
273.322	373.38
273.553	393.38
273.785	388.38
274.017	390.38
274.249	407.38
274.481	378.38
274.713	402.38
274.945	388.38
275.176	402.38
275.408	421.38
275.64	408.38
275.872	426.38
276.104	402.38
276.335	418.38
276.567	399.38
276.799	409.38
277.031	434.38
277.262	423.38
277.494	410.38
277.726	430.38
277.957	426.38
278.189	438.38
278.421	438.38
278.652	432.38
278.884	433.38
279.115	438.38
279.347	434.38
279.579	438.38
279.81	435.38
280.042	438.38
280.273	438.38
280.505	437.38
280.736	461.38
280.968	433.38
281.199	463.38
281.431	448.38
281.662	470.38
281.894	463.38
282.125	459.38
282.356	454.38
282.588	468.38
282.819	476.38
283.051	448.38
283.282	478.38
283.513	467.38
283.745	480.38
283.976	485.38
284.207	497.38
284.439	480.38
284.67	478.38
284.901	481.38
285.132	462.38
285.364	487.38
285.595	481.38
285.826	480.38
286.057	473.38
286.288	485.38
286.52	491.38
286.751	482.38
286.982	504.38
287.213	475.38
287.444	497.38
287.675	520.38
287.906	499.38
288.138	501.38
288.369	490.38
288.6	516.38
288.831	504.38
289.062	530.38
289.293	496.38
289.524	512.38
289.755	515.38
289.986	523.38
290.217	522.38
290.448	512.38
290.679	527.38
290.91	507.38
291.141	510.38
291.371	526.38
291.602	517.38
291.833	546.38
292.064	512.38
292.295	522.38
292.526	526.38
292.757	519.38
292.987	518.38
293.218	499.38
293.449	533.38
293.68	562.38
293.91	530.38
294.141	502.38
294.372	528.38
294.603	513.38
294.833	540.38
295.064	521.38
295.295	531.38
295.525	542.38
295.756	510.38
295.987	541.38
296.217	545.38
296.448	534.38
296.679	536.38
296.909	556.38
297.14	563.38
297.37	550.38
297.601	556.38
297.831	559.38
298.062	563.38
298.292	547.38
298.523	584.38
298.753	589.38
298.984	573.38
299.214	557.38
299.445	563.38
299.675	569.38
299.905	545.38
300.136	591.38
300.366	581.38
300.597	572.38
300.827	581.38
301.057	595.38
301.288	593.38
301.518	579.38
301.748	605.38
301.979	619.38
302.209	591.38
302.439	594.38
302.669	588.38
302.9	584.38
303.13	599.38
303.36	593.38
303.59	597.38
303.82	584.38
304.051	586.38
304.281	602.38
304.511	580.38
304.741	580.38
304.971	602.38
305.201	599.38
305.431	553.38
305.661	593.38
305.891	626.38
306.121	558.38
306.352	594.38
306.582	562.38
306.812	572.38
307.042	579.38
307.272	580.38
307.502	601.38
307.731	600.38
307.961	580.38
308.191	576.38
308.421	592.38
308.651	577.38
308.881	588.38
309.111	585.38
309.341	599.38
309.571	586.38
309.8	591.38
310.03	569.38
310.26	566.38
310.49	603.38
310.72	584.38
310.949	612.38
311.179	600.38
311.409	592.38
311.639	595.38
311.868	592.38
312.098	612.38
312.328	625.38
312.557	598.38
312.787	611.38
313.017	626.38
313.246	620.38
313.476	603.38
313.706	616.38
313.935	628.38
314.165	642.38
314.394	630.38
314.624	639.38
314.853	646.38
315.083	625.38
315.312	608.38
315.542	634.38
315.771	636.38
316.001	611.38
316.23	627.38
316.46	628.38
316.689	624.38
316.919	626.38
317.148	607.38
317.377	618.38
317.607	615.38
317.836	640.38
318.065	603.38
318.295	603.38
318.524	595.38
318.753	615.38
318.983	612.38
319.212	603.38
319.441	617.38
319.67	615.38
319.9	622.38
320.129	622.38
320.358	618.38
320.587	626.38
320.816	620.38
321.046	608.38
321.275	623.38
321.504	624.38
321.733	599.38
321.962	626.38
322.191	603.38
322.42	620.38
322.649	620.38
322.878	631.38
323.108	620.38
323.337	650.38
323.566	642.38
323.795	656.38
324.024	661.38
324.253	647.38
324.482	656.38
324.71	650.38
324.939	640.38
325.168	664.38
325.397	627.38
325.626	661.38
325.855	682.38
326.084	679.38
326.313	683.38
326.542	698.38
326.77	712.38
326.999	674.38
327.228	678.38
327.457	669.38
327.686	682.38
327.914	687.38
328.143	673.38
328.372	686.38
328.6	698.38
328.829	677.38
329.058	702.38
329.287	692.38
329.515	697.38
329.744	660.38
329.972	690.38
330.201	679.38
330.43	702.38
330.658	686.38
330.887	685.38
331.115	730.38
331.344	720.38
331.572	720.38
331.801	739.38
332.03	766.38
332.258	799.38
332.486	789.38
332.715	836.38
332.943	859.38
333.172	888.38
333.4	920.38
333.629	924.38
333.857	952.38
334.085	924.38
334.314	942.38
334.542	905.38
334.771	891.38
334.999	857.38
335.227	868.38
335.455	846.38
335.684	848.38
335.912	835.38
336.14	820.38
336.369	830.38
336.597	825.38
336.825	830.38
337.053	819.38
337.281	799.38
337.51	780.38
337.738	750.38
337.966	798.38
338.194	776.38
338.422	738.38
338.65	747.38
338.878	728.38
339.106	750.38
339.334	743.38
339.562	717.38
339.79	725.38
340.018	707.38
340.246	706.38
340.474	720.38
340.702	718.38
340.93	724.38
341.158	733.38
341.386	710.38
341.614	724.38
341.842	713.38
342.07	706.38
342.298	699.38
342.526	680.38
342.754	716.38
342.981	734.38
343.209	716.38
343.437	768.38
343.665	823.38
343.893	884.38
344.12	888.38
344.348	842.38
344.576	814.38
344.804	787.38
345.031	746.38
345.259	736.38
345.487	711.38
345.714	716.38
345.942	700.38
346.17	690.38
346.397	690.38
346.625	698.38
346.853	673.38
347.08	659.38
347.308	687.38
347.535	693.38
347.763	706.38
347.99	680.38
348.218	709.38
348.445	702.38
348.673	692.38
348.9	698.38
349.128	679.38
349.355	683.38
349.583	684.38
349.81	679.38
350.037	682.38
350.265	669.38
350.492	667.38
350.72	668.38
350.947	687.38
351.174	676.38
351.402	702.38
351.629	648.38
351.856	646.38
352.083	647.38
352.311	665.38
352.538	676.38
352.765	663.38
352.992	642.38
353.22	668.38
353.447	686.38
353.674	652.38
353.901	663.38
354.128	654.38
354.355	667.38
354.583	684.38
354.81	632.38
355.037	666.38
355.264	660.38
355.491	673.38
355.718	668.38
355.945	693.38
356.172	687.38
356.399	688.38
356.626	689.38
356.853	678.38
357.08	694.38
357.307	656.38
357.534	661.38
357.761	658.38
357.988	687.38
358.215	679.38
358.441	691.38
358.668	670.38
358.895	665.38
359.122	646.38
359.349	678.38
359.576	665.38
359.802	704.38
360.029	673.38
360.256	700.38
360.483	696.38
360.709	663.38
360.936	672.38
361.163	653.38
361.39	662.38
361.616	673.38
361.843	660.38
362.07	650.38
362.296	656.38
362.523	652.38
362.749	670.38
362.976	680.38
363.203	648.38
363.429	661.38
363.656	664.38
363.882	667.38
364.109	649.38
364.335	650.38
364.562	691.38
364.788	631.38
365.015	666.38
365.241	641.38
365.468	652.38
365.694	679.38
365.92	668.38
366.147	669.38
366.373	666.38
366.599	660.38
366.826	671.38
367.052	661.38
367.278	685.38
367.505	658.38
367.731	641.38
367.957	682.38
368.184	697.38
368.41	679.38
368.636	697.38
368.862	682.38
369.089	668.38
369.315	663.38
369.541	710.38
369.767	700.38
369.993	697.38
370.219	703.38
370.445	732.38
370.672	722.38
370.898	721.38
371.124	688.38
371.35	726.38
371.576	728.38
371.802	734.38
372.028	733.38
372.254	749.38
372.48	715.38
372.706	733.38
372.932	735.38
373.158	738.38
373.384	752.38
373.61	727.38
373.835	723.38
374.061	726.38
374.287	738.38
374.513	754.38
374.739	774.38
374.965	784.38
375.191	816.38
375.416	806.38
375.642	786.38
375.868	756.38
376.094	761.38
376.319	748.38
376.545	714.38
376.771	735.38
376.997	737.38
377.222	745.38
377.448	708.38
377.674	724.38
377.899	711.38
378.125	740.38
378.35	754.38
378.576	714.38
378.802	711.38
379.027	710.38
379.253	715.38
379.478	705.38
379.704	708.38
379.929	697.38
380.155	685.38
380.38	728.38
380.606	729.38
380.831	731.38
381.057	754.38
381.282	715.38
381.507	718.38
381.733	729.38
381.958	730.38
382.184	740.38
382.409	754.38
382.634	769.38
382.86	720.38
383.085	771.38
383.31	772.38
383.535	777.38
383.761	827.38
383.986	810.38
384.211	830.38
384.436	831.38
384.662	873.38
384.887	879.38
385.112	860.38
385.337	879.38
385.562	868.38
385.787	900.38
386.013	914.38
386.238	876.38
386.463	879.38
386.688	860.38
386.913	862.38
387.138	870.38
387.363	856.38
387.588	850.38
387.813	876.38
388.038	848.38
388.263	863.38
388.488	856.38
388.713	890.38
388.938	858.38
389.163	840.38
389.387	863.38
389.612	867.38
389.837	834.38
390.062	840.38
390.287	842.38
390.512	856.38
390.736	848.38
390.961	910.38
391.186	878.38
391.411	922.38
391.636	959.38
391.86	1002.38
392.085	1031.38
392.31	978.38
392.534	961.38
392.759	953.38
392.984	939.38
393.208	923.38
393.433	915.38
393.658	945.38
393.882	922.38
394.107	955.38
394.331	952.38
394.556	951.38
394.78	955.38
395.005	935.38
395.229	944.38
395.454	944.38
395.678	984.38
395.903	993.38
396.127	1006.38
396.352	966.38
396.576	930.38
396.801	932.38
397.025	962.38
397.249	942.38
397.474	976.38
397.698	985.38
397.922	1011.38
398.147	986.38
398.371	1001.38
398.595	1008.38
398.82	1078.38
399.044	1167.38
399.268	1300.38
399.492	1504.38
399.717	1727.38
399.941	1628.38
400.165	1488.38
400.389	1315.38
400.613	1257.38
400.837	1162.38
401.062	1119.38
401.286	1096.38
401.51	1130.38
401.734	1088.38
401.958	1136.38
402.182	1142.38
402.406	1124.38
402.63	1140.38
402.854	1158.38
403.078	1218.38
403.302	1227.38
403.526	1228.38
403.75	1276.38
403.974	1291.38
404.198	1273.38
404.422	1292.38
404.645	1280.38
404.869	1240.38
405.093	1218.38
405.317	1237.38
405.541	1232.38
405.765	1233.38
405.988	1209.38
406.212	1231.38
406.436	1197.38
406.66	1242.38
406.883	1265.38
407.107	1334.38
407.331	1384.38
407.555	1451.38
407.778	1424.38
408.002	1397.38
408.226	1329.38
408.449	1316.38
408.673	1274.38
408.896	1264.38
409.12	1225.38
409.344	1266.38
409.567	1226.38
409.791	1248.38
410.014	1264.38
410.238	1226.38
410.461	1238.38
410.685	1222.38
410.908	1189.38
411.132	1161.38
411.355	1150.38
411.578	1157.38
411.802	1140.38
412.025	1123.38
412.249	1186.38
412.472	1164.38
412.695	1134.38
412.919	1107.38
413.142	1112.38
413.365	1127.38
413.589	1113.38
413.812	1103.38
414.035	1072.38
414.258	1105.38
414.482	1107.38
414.705	1138.38
414.928	1146.38
415.151	1115.38
415.374	1106.38
415.597	1104.38
415.821	1076.38
416.044	1082.38
416.267	1068.38
416.49	1082.38
416.713	1082.38
416.936	1055.38
417.159	1111.38
417.382	1079.38
417.605	1082.38
417.828	1100.38
418.051	1105.38
418.274	1134.38
418.497	1080.38
418.72	1161.38
418.943	1139.38
419.166	1186.38
419.389	1262.38
419.611	1220.38
419.834	1190.38
420.057	1144.38
420.28	1132.38
420.503	1087.38
420.726	1081.38
420.948	1087.38
421.171	1118.38
421.394	1090.38
421.617	1092.38
421.839	1098.38
422.062	1079.38
422.285	1089.38
422.507	1127.38
422.73	1155.38
422.953	1145.38
423.175	1152.38
423.398	1157.38
423.621	1163.38
423.843	1189.38
424.066	1194.38
424.288	1162.38
424.511	1155.38
424.733	1166.38
424.956	1119.38
425.178	1099.38
425.401	1093.38
425.623	1095.38
425.846	1068.38
426.068	1045.38
426.291	1055.38
426.513	1039.38
426.735	1004.38
426.958	1015.38
427.18	999.38
427.402	967.38
427.625	959.38
427.847	970.38
428.069	979.38
428.292	958.38
428.514	961.38
428.736	991.38
428.958	971.38
429.181	948.38
429.403	974.38
429.625	945.38
429.847	944.38
430.069	966.38
430.292	951.38
430.514	937.38
430.736	938.38
430.958	934.38
431.18	928.38
431.402	948.38
431.624	952.38
431.846	962.38
432.068	984.38
432.29	983.38
432.512	969.38
432.734	970.38
432.956	960.38
433.178	999.38
433.4	981.38
433.622	983.38
433.844	972.38
434.066	996.38
434.287	982.38
434.509	1034.38
434.731	1056.38
434.953	1106.38
435.175	1086.38
435.397	1083.38
435.618	1012.38
435.84	997.38
436.062	966.38
436.284	953.38
436.505	948.38
436.727	993.38
436.949	991.38
437.17	962.38
437.392	945.38
437.614	932.38
437.835	935.38
438.057	952.38
438.278	913.38
438.5	913.38
438.721	924.38
438.943	965.38
439.165	924.38
439.386	963.38
439.608	960.38
439.829	1003.38
440.05	979.38
440.272	988.38
440.493	982.38
440.715	993.38
440.936	1002.38
441.158	1045.38
441.379	1054.38
441.6	1135.38
441.822	1109.38
442.043	1106.38
442.264	1075.38
442.486	1086.38
442.707	1080.38
442.928	1073.38
443.149	1104.38
443.371	1051.38
443.592	1090.38
443.813	1093.38
444.034	1119.38
444.255	1159.38
444.476	1216.38
444.698	1278.38
444.919	1316.38
445.14	1400.38
445.361	1229.38
445.582	1147.38
445.803	1090.38
446.024	1033.38
446.245	1011.38
446.466	1000.38
446.687	989.38
446.908	982.38
447.129	961.38
447.35	971.38
447.571	940.38
447.792	928.38
448.013	930.38
448.234	925.38
448.455	895.38
448.675	916.38
448.896	929.38
449.117	905.38
449.338	895.38
449.559	914.38
449.779	858.38
450	882.38
450.221	895.38
450.442	890.38
450.662	919.38
450.883	921.38
451.104	918.38
451.324	894.38
451.545	903.38
451.766	907.38
451.986	895.38
452.207	919.38
452.428	867.38
452.648	896.38
452.869	843.38
453.089	856.38
453.31	899.38
453.53	843.38
453.751	848.38
453.971	833.38
454.192	835.38
454.412	840.38
454.633	847.38
454.853	854.38
455.073	841.38
455.294	838.38
455.514	834.38
455.734	820.38
455.955	846.38
456.175	816.38
456.395	809.38
456.616	814.38
456.836	834.38
457.056	829.38
457.276	812.38
457.497	860.38
457.717	843.38
457.937	852.38
458.157	847.38
458.377	865.38
458.598	856.38
458.818	857.38
459.038	895.38
459.258	972.38
459.478	977.38
459.698	1009.38
459.918	1028.38
460.138	1064.38
460.358	1107.38
460.578	1126.38
460.798	1156.38
461.018	1168.38
461.238	1146.38
461.458	1108.38
461.678	1097.38
461.898	1168.38
462.118	1162.38
462.338	1225.38
462.558	1275.38
462.777	1319.38
462.997	1393.38
463.217	1538.38
463.437	1520.38
463.657	1436.38
463.876	1307.38
464.096	1323.38
464.316	1316.38
464.536	1379.38
464.755	1319.38
464.975	1290.38
465.195	1170.38
465.414	1131.38
465.634	1058.38
465.854	1020.38
466.073	971.38
466.293	992.38
466.512	954.38
466.732	946.38
466.951	946.38
467.171	919.38
467.391	937.38
467.61	916.38
467.829	907.38
468.049	900.38
468.268	884.38
468.488	887.38
468.707	875.38
468.927	888.38
469.146	891.38
469.365	911.38
469.585	922.38
469.804	913.38
470.023	951.38
470.243	944.38
470.462	953.38
470.681	959.38
470.901	976.38
471.12	942.38
471.339	950.38
471.558	954.38
471.777	901.38
471.997	886.38
472.216	881.38
472.435	881.38
472.654	880.38
472.873	851.38
473.092	851.38
473.311	852.38
473.53	856.38
473.749	854.38
473.968	863.38
474.187	840.38
474.406	854.38
474.625	884.38
474.844	841.38
475.063	873.38
475.282	854.38
475.501	879.38
475.72	888.38
475.939	861.38
476.158	890.38
476.377	915.38
476.596	918.38
476.814	928.38
477.033	912.38
477.252	915.38
477.471	946.38
477.69	952.38
477.908	981.38
478.127	1038.38
478.346	1050.38
478.564	1060.38
478.783	1055.38
479.002	1065.38
479.22	1098.38
479.439	1104.38
479.658	1054.38
479.876	1055.38
480.095	1089.38
480.313	1140.38
480.532	1204.38
480.751	1166.38
480.969	1107.38
481.188	1058.38
481.406	1004.38
481.624	1012.38
481.843	1003.38
482.061	989.38
482.28	1018.38
482.498	981.38
482.717	978.38
482.935	976.38
483.153	983.38
483.372	992.38
483.59	991.38
483.808	974.38
484.027	982.38
484.245	992.38
484.463	985.38
484.681	1008.38
484.9	1034.38
485.118	1016.38
485.336	1003.38
485.554	1030.38
485.772	1030.38
485.99	1027.38
486.209	1014.38
486.427	1024.38
486.645	1035.38
486.863	1041.38
487.081	1045.38
487.299	1050.38
487.517	1013.38
487.735	1030.38
487.953	1013.38
488.171	1050.38
488.389	1027.38
488.607	1017.38
488.825	1030.38
489.043	1010.38
489.261	1032.38
489.479	980.38
489.696	1037.38
489.914	1068.38
490.132	1006.38
490.35	1027.38
490.568	1031.38
490.786	1065.38
491.003	1046.38
491.221	1058.38
491.439	1064.38
491.657	1047.38
491.874	1044.38
492.092	1059.38
492.31	1076.38
492.527	1059.38
492.745	1078.38
492.963	1047.38
493.18	1070.38
493.398	1073.38
493.615	1130.38
493.833	1111.38
494.05	1109.38
494.268	1092.38
494.485	1108.38
494.703	1087.38
494.92	1085.38
495.138	1073.38
495.355	1101.38
495.573	1083.38
495.79	1115.38
496.008	1132.38
496.225	1135.38
496.442	1112.38
496.66	1150.38
496.877	1152.38
497.094	1171.38
497.312	1196.38
497.529	1237.38
497.746	1230.38
497.963	1288.38
