Data from NiCl2@0.125M.TitratingCurve.Agarose3%dH2O.NegLispCup.LampEnergy10.LIBS07252019_HRD10591_18-28-02-575.txt Node
Date: Thu Jul 25 18:28:02 EDT 2019
User: cochatt
Spectrometer: HR+D1059
Trigger mode: 1
Integration Time (sec): 1.000000E-1
Scans to average: 1
Electric dark correction enabled: true
Nonlinearity correction enabled: false
Boxcar width: 0
XAxis mode: Wavelengths
Number of Pixels in Spectrum: 2048
>>>>>Begin Spectral Data<<<<<
223.165	-18.12
223.4	-18.12
223.635	-18.12
223.869	-19.12
224.104	-13.12
224.338	-11.12
224.573	-11.12
224.808	-21.12
225.042	3.88
225.277	-11.12
225.511	-6.12
225.746	11.88
225.98	12.88
226.215	8.88
226.449	28.88
226.683	4.88
226.918	15.88
227.152	23.88
227.387	42.88
227.621	33.88
227.856	46.88
228.09	42.88
228.324	58.88
228.559	42.88
228.793	74.88
229.027	91.88
229.262	97.88
229.496	115.88
229.73	120.88
229.964	120.88
230.199	117.88
230.433	128.88
230.667	118.88
230.901	146.88
231.136	120.88
231.37	137.88
231.604	144.88
231.838	128.88
232.072	148.88
232.306	148.88
232.541	129.88
232.775	142.88
233.009	164.88
233.243	143.88
233.477	146.88
233.711	131.88
233.945	120.88
234.179	149.88
234.413	135.88
234.647	127.88
234.881	133.88
235.115	138.88
235.349	147.88
235.583	138.88
235.817	156.88
236.051	146.88
236.285	136.88
236.519	150.88
236.753	142.88
236.987	158.88
237.221	140.88
237.455	141.88
237.689	147.88
237.922	154.88
238.156	158.88
238.39	143.88
238.624	138.88
238.858	150.88
239.091	182.88
239.325	165.88
239.559	168.88
239.793	140.88
240.027	176.88
240.26	161.88
240.494	170.88
240.728	168.88
240.961	175.88
241.195	162.88
241.429	170.88
241.662	174.88
241.896	174.88
242.13	179.88
242.363	180.88
242.597	154.88
242.83	192.88
243.064	176.88
243.298	178.88
243.531	187.88
243.765	189.88
243.998	163.88
244.232	190.88
244.465	180.88
244.699	201.88
244.932	204.88
245.166	189.88
245.399	177.88
245.633	193.88
245.866	199.88
246.099	217.88
246.333	199.88
246.566	194.88
246.8	195.88
247.033	189.88
247.266	213.88
247.5	189.88
247.733	199.88
247.966	211.88
248.2	208.88
248.433	210.88
248.666	205.88
248.899	217.88
249.133	208.88
249.366	225.88
249.599	218.88
249.832	220.88
250.066	222.88
250.299	231.88
250.532	231.88
250.765	214.88
250.998	222.88
251.231	232.88
251.465	245.88
251.698	252.88
251.931	245.88
252.164	238.88
252.397	250.88
252.63	244.88
252.863	238.88
253.096	253.88
253.329	242.88
253.562	237.88
253.795	236.88
254.028	250.88
254.261	256.88
254.494	251.88
254.727	245.88
254.96	234.88
255.193	251.88
255.426	254.88
255.659	261.88
255.892	255.88
256.124	257.88
256.357	245.88
256.59	236.88
256.823	248.88
257.056	237.88
257.289	262.88
257.521	274.88
257.754	268.88
257.987	280.88
258.22	285.88
258.452	268.88
258.685	253.88
258.918	272.88
259.151	278.88
259.383	281.88
259.616	272.88
259.849	275.88
260.081	286.88
260.314	291.88
260.547	278.88
260.779	264.88
261.012	279.88
261.244	298.88
261.477	306.88
261.71	302.88
261.942	308.88
262.175	294.88
262.407	313.88
262.64	284.88
262.872	305.88
263.105	296.88
263.337	296.88
263.57	315.88
263.802	306.88
264.035	311.88
264.267	306.88
264.499	282.88
264.732	298.88
264.964	310.88
265.197	309.88
265.429	323.88
265.661	299.88
265.894	334.88
266.126	299.88
266.358	307.88
266.591	311.88
266.823	326.88
267.055	314.88
267.287	308.88
267.52	317.88
267.752	331.88
267.984	336.88
268.216	330.88
268.448	327.88
268.681	349.88
268.913	342.88
269.145	335.88
269.377	312.88
269.609	330.88
269.841	333.88
270.073	332.88
270.306	333.88
270.538	322.88
270.77	324.88
271.002	356.88
271.234	337.88
271.466	339.88
271.698	338.88
271.93	351.88
272.162	358.88
272.394	355.88
272.626	360.88
272.858	358.88
273.09	342.88
273.322	341.88
273.553	353.88
273.785	354.88
274.017	370.88
274.249	347.88
274.481	359.88
274.713	363.88
274.945	353.88
275.176	384.88
275.408	380.88
275.64	372.88
275.872	370.88
276.104	375.88
276.335	363.88
276.567	374.88
276.799	373.88
277.031	376.88
277.262	373.88
277.494	366.88
277.726	382.88
277.957	380.88
278.189	401.88
278.421	394.88
278.652	374.88
278.884	404.88
279.115	398.88
279.347	394.88
279.579	386.88
279.81	400.88
280.042	381.88
280.273	392.88
280.505	416.88
280.736	408.88
280.968	409.88
281.199	422.88
281.431	400.88
281.662	417.88
281.894	408.88
282.125	413.88
282.356	416.88
282.588	436.88
282.819	427.88
283.051	429.88
283.282	411.88
283.513	426.88
283.745	427.88
283.976	420.88
284.207	413.88
284.439	440.88
284.67	435.88
284.901	442.88
285.132	436.88
285.364	425.88
285.595	432.88
285.826	450.88
286.057	409.88
286.288	442.88
286.52	427.88
286.751	443.88
286.982	439.88
287.213	441.88
287.444	461.88
287.675	435.88
287.906	458.88
288.138	445.88
288.369	446.88
288.6	459.88
288.831	444.88
289.062	473.88
289.293	441.88
289.524	435.88
289.755	452.88
289.986	462.88
290.217	475.88
290.448	452.88
290.679	469.88
290.91	476.88
291.141	436.88
291.371	454.88
291.602	468.88
291.833	461.88
292.064	460.88
292.295	470.88
292.526	482.88
292.757	470.88
292.987	466.88
293.218	460.88
293.449	483.88
293.68	480.88
293.91	478.88
294.141	490.88
294.372	450.88
294.603	444.88
294.833	461.88
295.064	467.88
295.295	470.88
295.525	487.88
295.756	469.88
295.987	479.88
296.217	492.88
296.448	487.88
296.679	476.88
296.909	494.88
297.14	491.88
297.37	502.88
297.601	522.88
297.831	477.88
298.062	499.88
298.292	509.88
298.523	513.88
298.753	540.88
298.984	521.88
299.214	516.88
299.445	493.88
299.675	497.88
299.905	500.88
300.136	498.88
300.366	520.88
300.597	516.88
300.827	534.88
301.057	534.88
301.288	534.88
301.518	507.88
301.748	530.88
301.979	540.88
302.209	538.88
302.439	539.88
302.669	520.88
302.9	558.88
303.13	512.88
303.36	526.88
303.59	525.88
303.82	535.88
304.051	536.88
304.281	533.88
304.511	537.88
304.741	526.88
304.971	546.88
305.201	527.88
305.431	530.88
305.661	524.88
305.891	534.88
306.121	533.88
306.352	539.88
306.582	535.88
306.812	534.88
307.042	550.88
307.272	500.88
307.502	482.88
307.731	510.88
307.961	542.88
308.191	487.88
308.421	534.88
308.651	504.88
308.881	523.88
309.111	534.88
309.341	505.88
309.571	499.88
309.8	553.88
310.03	534.88
310.26	536.88
310.49	535.88
310.72	543.88
310.949	533.88
311.179	545.88
311.409	521.88
311.639	528.88
311.868	532.88
312.098	526.88
312.328	512.88
312.557	552.88
312.787	557.88
313.017	525.88
313.246	554.88
313.476	549.88
313.706	550.88
313.935	564.88
314.165	549.88
314.394	568.88
314.624	564.88
314.853	540.88
315.083	563.88
315.312	551.88
315.542	557.88
315.771	576.88
316.001	554.88
316.23	542.88
316.46	554.88
316.689	550.88
316.919	554.88
317.148	564.88
317.377	548.88
317.607	563.88
317.836	533.88
318.065	547.88
318.295	533.88
318.524	548.88
318.753	563.88
318.983	560.88
319.212	544.88
319.441	553.88
319.67	538.88
319.9	548.88
320.129	544.88
320.358	556.88
320.587	556.88
320.816	563.88
321.046	548.88
321.275	563.88
321.504	544.88
321.733	558.88
321.962	570.88
322.191	580.88
322.42	564.88
322.649	558.88
322.878	564.88
323.108	553.88
323.337	546.88
323.566	560.88
323.795	544.88
324.024	564.88
324.253	574.88
324.482	572.88
324.71	537.88
324.939	594.88
325.168	562.88
325.397	571.88
325.626	582.88
325.855	620.88
326.084	582.88
326.313	596.88
326.542	583.88
326.77	618.88
326.999	602.88
327.228	584.88
327.457	574.88
327.686	594.88
327.914	599.88
328.143	595.88
328.372	596.88
328.6	594.88
328.829	598.88
329.058	598.88
329.287	587.88
329.515	620.88
329.744	622.88
329.972	608.88
330.201	616.88
330.43	600.88
330.658	606.88
330.887	640.88
331.115	632.88
331.344	642.88
331.572	638.88
331.801	644.88
332.03	637.88
332.258	673.88
332.486	670.88
332.715	716.88
332.943	740.88
333.172	753.88
333.4	766.88
333.629	767.88
333.857	795.88
334.085	813.88
334.314	801.88
334.542	787.88
334.771	786.88
334.999	770.88
335.227	742.88
335.455	758.88
335.684	733.88
335.912	747.88
336.14	703.88
336.369	727.88
336.597	718.88
336.825	698.88
337.053	720.88
337.281	706.88
337.51	729.88
337.738	699.88
337.966	690.88
338.194	664.88
338.422	669.88
338.65	654.88
338.878	672.88
339.106	678.88
339.334	653.88
339.562	677.88
339.79	654.88
340.018	621.88
340.246	637.88
340.474	615.88
340.702	608.88
340.93	640.88
341.158	635.88
341.386	660.88
341.614	653.88
341.842	650.88
342.07	613.88
342.298	646.88
342.526	636.88
342.754	615.88
342.981	624.88
343.209	666.88
343.437	646.88
343.665	698.88
343.893	735.88
344.12	757.88
344.348	784.88
344.576	732.88
344.804	692.88
345.031	671.88
345.259	662.88
345.487	637.88
345.714	638.88
345.942	661.88
346.17	637.88
346.397	627.88
346.625	611.88
346.853	610.88
347.08	598.88
347.308	597.88
347.535	625.88
347.763	614.88
347.99	608.88
348.218	634.88
348.445	610.88
348.673	609.88
348.9	617.88
349.128	625.88
349.355	624.88
349.583	601.88
349.81	613.88
350.037	591.88
350.265	581.88
350.492	597.88
350.72	578.88
350.947	577.88
351.174	596.88
351.402	608.88
351.629	611.88
351.856	586.88
352.083	590.88
352.311	594.88
352.538	604.88
352.765	617.88
352.992	596.88
353.22	585.88
353.447	565.88
353.674	586.88
353.901	580.88
354.128	590.88
354.355	588.88
354.583	600.88
354.81	631.88
355.037	588.88
355.264	589.88
355.491	576.88
355.718	592.88
355.945	590.88
356.172	618.88
356.399	593.88
356.626	619.88
356.853	605.88
357.08	601.88
357.307	605.88
357.534	626.88
357.761	580.88
357.988	596.88
358.215	576.88
358.441	596.88
358.668	594.88
358.895	591.88
359.122	606.88
359.349	604.88
359.576	589.88
359.802	593.88
360.029	597.88
360.256	602.88
360.483	584.88
360.709	577.88
360.936	608.88
361.163	613.88
361.39	594.88
361.616	621.88
361.843	603.88
362.07	624.88
362.296	616.88
362.523	589.88
362.749	589.88
362.976	608.88
363.203	594.88
363.429	564.88
363.656	586.88
363.882	627.88
364.109	610.88
364.335	594.88
364.562	601.88
364.788	610.88
365.015	589.88
365.241	582.88
365.468	590.88
365.694	598.88
365.92	606.88
366.147	600.88
366.373	585.88
366.599	596.88
366.826	578.88
367.052	590.88
367.278	601.88
367.505	606.88
367.731	602.88
367.957	600.88
368.184	596.88
368.41	593.88
368.636	594.88
368.862	604.88
369.089	596.88
369.315	612.88
369.541	589.88
369.767	628.88
369.993	630.88
370.219	604.88
370.445	622.88
370.672	616.88
370.898	628.88
371.124	625.88
371.35	629.88
371.576	642.88
371.802	647.88
372.028	642.88
372.254	652.88
372.48	659.88
372.706	663.88
372.932	651.88
373.158	647.88
373.384	654.88
373.61	644.88
373.835	662.88
374.061	643.88
374.287	631.88
374.513	635.88
374.739	662.88
374.965	712.88
375.191	698.88
375.416	699.88
375.642	696.88
375.868	681.88
376.094	668.88
376.319	658.88
376.545	656.88
376.771	634.88
376.997	658.88
377.222	635.88
377.448	658.88
377.674	644.88
377.899	646.88
378.125	647.88
378.35	648.88
378.576	633.88
378.802	632.88
379.027	636.88
379.253	630.88
379.478	642.88
379.704	635.88
379.929	630.88
380.155	619.88
380.38	640.88
380.606	644.88
380.831	646.88
381.057	644.88
381.282	645.88
381.507	651.88
381.733	636.88
381.958	648.88
382.184	666.88
382.409	663.88
382.634	668.88
382.86	668.88
383.085	665.88
383.31	694.88
383.535	703.88
383.761	720.88
383.986	702.88
384.211	730.88
384.436	761.88
384.662	756.88
384.887	750.88
385.112	751.88
385.337	776.88
385.562	773.88
385.787	774.88
386.013	770.88
386.238	791.88
386.463	791.88
386.688	779.88
386.913	802.88
387.138	756.88
387.363	777.88
387.588	743.88
387.813	769.88
388.038	753.88
388.263	799.88
388.488	766.88
388.713	753.88
388.938	757.88
389.163	736.88
389.387	736.88
389.612	747.88
389.837	766.88
390.062	740.88
390.287	754.88
390.512	762.88
390.736	769.88
390.961	736.88
391.186	786.88
391.411	802.88
391.636	805.88
391.86	833.88
392.085	888.88
392.31	880.88
392.534	810.88
392.759	826.88
392.984	811.88
393.208	816.88
393.433	840.88
393.658	839.88
393.882	817.88
394.107	821.88
394.331	829.88
394.556	813.88
394.78	826.88
395.005	840.88
395.229	839.88
395.454	844.88
395.678	865.88
395.903	862.88
396.127	868.88
396.352	832.88
396.576	836.88
396.801	829.88
397.025	849.88
397.249	862.88
397.474	888.88
397.698	872.88
397.922	894.88
398.147	878.88
398.371	900.88
398.595	920.88
398.82	973.88
399.044	1045.88
399.268	1162.88
399.492	1263.88
399.717	1384.88
399.941	1408.88
400.165	1326.88
400.389	1214.88
400.613	1146.88
400.837	1057.88
401.062	1030.88
401.286	997.88
401.51	965.88
401.734	988.88
401.958	997.88
402.182	997.88
402.406	1013.88
402.63	1035.88
402.854	1026.88
403.078	1049.88
403.302	1026.88
403.526	1034.88
403.75	1068.88
403.974	1081.88
404.198	1074.88
404.422	1080.88
404.645	1110.88
404.869	1077.88
405.093	1061.88
405.317	1061.88
405.541	1094.88
405.765	1100.88
405.988	1075.88
406.212	1094.88
406.436	1053.88
406.66	1112.88
406.883	1096.88
407.107	1139.88
407.331	1193.88
407.555	1287.88
407.778	1242.88
408.002	1220.88
408.226	1172.88
408.449	1150.88
408.673	1124.88
408.896	1105.88
409.12	1074.88
409.344	1092.88
409.567	1054.88
409.791	1144.88
410.014	1078.88
410.238	1036.88
410.461	1084.88
410.685	1056.88
410.908	1007.88
411.132	1034.88
411.355	964.88
411.578	996.88
411.802	1016.88
412.025	1011.88
412.249	1028.88
412.472	1061.88
412.695	990.88
412.919	991.88
413.142	973.88
413.365	1010.88
413.589	947.88
413.812	980.88
414.035	960.88
414.258	961.88
414.482	957.88
414.705	980.88
414.928	980.88
415.151	977.88
415.374	972.88
415.597	965.88
415.821	967.88
416.044	973.88
416.267	954.88
416.49	928.88
416.713	921.88
416.936	951.88
417.159	970.88
417.382	967.88
417.605	937.88
417.828	968.88
418.051	973.88
418.274	977.88
418.497	946.88
418.72	1000.88
418.943	962.88
419.166	1023.88
419.389	1107.88
419.611	1111.88
419.834	1035.88
420.057	1009.88
420.28	989.88
420.503	951.88
420.726	941.88
420.948	952.88
421.171	942.88
421.394	967.88
421.617	940.88
421.839	986.88
422.062	966.88
422.285	938.88
422.507	973.88
422.73	972.88
422.953	965.88
423.175	984.88
423.398	1012.88
423.621	971.88
423.843	1022.88
424.066	1016.88
424.288	985.88
424.511	995.88
424.733	970.88
424.956	968.88
425.178	991.88
425.401	966.88
425.623	968.88
425.846	924.88
426.068	939.88
426.291	928.88
426.513	929.88
426.735	921.88
426.958	911.88
427.18	894.88
427.402	895.88
427.625	887.88
427.847	909.88
428.069	893.88
428.292	909.88
428.514	869.88
428.736	860.88
428.958	878.88
429.181	841.88
429.403	880.88
429.625	878.88
429.847	864.88
430.069	863.88
430.292	883.88
430.514	850.88
430.736	862.88
430.958	846.88
431.18	847.88
431.402	890.88
431.624	884.88
431.846	857.88
432.068	880.88
432.29	932.88
432.512	885.88
432.734	854.88
432.956	884.88
433.178	886.88
433.4	881.88
433.622	868.88
433.844	896.88
434.066	914.88
434.287	891.88
434.509	948.88
434.731	974.88
434.953	956.88
435.175	987.88
435.397	981.88
435.618	940.88
435.84	916.88
436.062	896.88
436.284	893.88
436.505	882.88
436.727	889.88
436.949	901.88
437.17	891.88
437.392	884.88
437.614	862.88
437.835	826.88
438.057	844.88
438.278	859.88
438.5	823.88
438.721	842.88
438.943	874.88
439.165	845.88
439.386	869.88
439.608	852.88
439.829	866.88
440.05	886.88
440.272	880.88
440.493	872.88
440.715	914.88
440.936	893.88
441.158	931.88
441.379	937.88
441.6	989.88
441.822	1004.88
442.043	974.88
442.264	980.88
442.486	965.88
442.707	948.88
442.928	952.88
443.149	972.88
443.371	987.88
443.592	985.88
443.813	978.88
444.034	1001.88
444.255	1002.88
444.476	1062.88
444.698	1086.88
444.919	1158.88
445.14	1244.88
445.361	1121.88
445.582	1044.88
445.803	957.88
446.024	965.88
446.245	929.88
446.466	896.88
446.687	916.88
446.908	890.88
447.129	877.88
447.35	878.88
447.571	868.88
447.792	857.88
448.013	840.88
448.234	838.88
448.455	820.88
448.675	845.88
448.896	820.88
449.117	804.88
449.338	817.88
449.559	802.88
449.779	796.88
450	802.88
450.221	821.88
450.442	817.88
450.662	811.88
450.883	809.88
451.104	822.88
451.324	811.88
451.545	816.88
451.766	854.88
451.986	795.88
452.207	822.88
452.428	789.88
452.648	807.88
452.869	760.88
453.089	782.88
453.31	823.88
453.53	788.88
453.751	774.88
453.971	771.88
454.192	758.88
454.412	771.88
454.633	757.88
454.853	762.88
455.073	778.88
455.294	778.88
455.514	785.88
455.734	778.88
455.955	756.88
456.175	772.88
456.395	781.88
456.616	747.88
456.836	757.88
457.056	774.88
457.276	739.88
457.497	794.88
457.717	745.88
457.937	769.88
458.157	769.88
458.377	798.88
458.598	786.88
458.818	820.88
459.038	841.88
459.258	852.88
459.478	889.88
459.698	923.88
459.918	954.88
460.138	981.88
460.358	1004.88
460.578	1053.88
460.798	1051.88
461.018	1057.88
461.238	1055.88
461.458	1076.88
461.678	1042.88
461.898	1062.88
462.118	1071.88
462.338	1103.88
462.558	1161.88
462.777	1204.88
462.997	1308.88
463.217	1337.88
463.437	1368.88
463.657	1300.88
463.876	1250.88
464.096	1240.88
464.316	1208.88
464.536	1239.88
464.755	1170.88
464.975	1147.88
465.195	1109.88
465.414	1034.88
465.634	979.88
465.854	936.88
466.073	950.88
466.293	913.88
466.512	890.88
466.732	870.88
466.951	856.88
467.171	876.88
467.391	863.88
467.61	876.88
467.829	866.88
468.049	866.88
468.268	831.88
468.488	830.88
468.707	849.88
468.927	839.88
469.146	823.88
469.365	840.88
469.585	842.88
469.804	855.88
470.023	877.88
470.243	867.88
470.462	869.88
470.681	894.88
470.901	891.88
471.12	884.88
471.339	884.88
471.558	852.88
471.777	867.88
471.997	858.88
472.216	842.88
472.435	852.88
472.654	826.88
472.873	802.88
473.092	820.88
473.311	832.88
473.53	825.88
473.749	811.88
473.968	786.88
474.187	812.88
474.406	801.88
474.625	818.88
474.844	820.88
475.063	807.88
475.282	790.88
475.501	828.88
475.72	836.88
475.939	825.88
476.158	865.88
476.377	853.88
476.596	847.88
476.814	850.88
477.033	855.88
477.252	896.88
477.471	892.88
477.69	924.88
477.908	936.88
478.127	947.88
478.346	961.88
478.564	1001.88
478.783	1008.88
479.002	1016.88
479.22	1028.88
479.439	1004.88
479.658	996.88
479.876	1024.88
480.095	1000.88
480.313	1060.88
480.532	1060.88
480.751	1073.88
480.969	1027.88
481.188	1022.88
481.406	964.88
481.624	957.88
481.843	946.88
482.061	930.88
482.28	950.88
482.498	940.88
482.717	935.88
482.935	936.88
483.153	935.88
483.372	929.88
483.59	915.88
483.808	945.88
484.027	964.88
484.245	947.88
484.463	979.88
484.681	973.88
484.9	951.88
485.118	981.88
485.336	971.88
485.554	966.88
485.772	1003.88
485.99	982.88
486.209	999.88
486.427	992.88
486.645	973.88
486.863	989.88
487.081	950.88
487.299	973.88
487.517	971.88
487.735	976.88
487.953	987.88
488.171	966.88
488.389	956.88
488.607	955.88
488.825	946.88
489.043	934.88
489.261	956.88
489.479	996.88
489.696	982.88
489.914	1001.88
490.132	963.88
490.35	997.88
490.568	986.88
490.786	987.88
491.003	996.88
491.221	1010.88
491.439	996.88
491.657	1012.88
491.874	989.88
492.092	1007.88
492.31	1028.88
492.527	1026.88
492.745	1017.88
492.963	1013.88
493.18	1030.88
493.398	1004.88
493.615	1003.88
493.833	1036.88
494.05	1069.88
494.268	1042.88
494.485	1017.88
494.703	1030.88
494.92	1075.88
495.138	1072.88
495.355	1035.88
495.573	1047.88
495.79	1026.88
496.008	1048.88
496.225	1059.88
496.442	1087.88
496.66	1056.88
496.877	1088.88
497.094	1117.88
497.312	1117.88
497.529	1140.88
497.746	1158.88
497.963	1209.88
498.181	1294.88
498.398	1346.88
498.615	1359.88
498.832	1440.88
499.049	1542.88
499.267	1709.88
499.484	1875.88
