Data from NiCl2@0.0625M.TitratingCurve.Agarose3%dH2O.NegLispCup.LampEnergy10.LIBS07252019_HRD10591_18-34-08-576.txt Node
Date: Thu Jul 25 18:34:08 EDT 2019
User: cochatt
Spectrometer: HR+D1059
Trigger mode: 1
Integration Time (sec): 1.000000E-1
Scans to average: 1
Electric dark correction enabled: true
Nonlinearity correction enabled: false
Boxcar width: 0
XAxis mode: Wavelengths
Number of Pixels in Spectrum: 2048
>>>>>Begin Spectral Data<<<<<
223.165	-17.69
223.4	-17.69
223.635	-17.69
223.869	-23.69
224.104	-13.69
224.338	-14.69
224.573	-10.69
224.808	-4.69
225.042	-16.69
225.277	14.31
225.511	-7.69
225.746	1.31
225.98	12.31
226.215	13.31
226.449	12.31
226.683	9.31
226.918	23.31
227.152	23.31
227.387	29.31
227.621	38.31
227.856	42.31
228.09	45.31
228.324	60.31
228.559	40.31
228.793	83.31
229.027	137.31
229.262	153.31
229.496	146.31
229.73	174.31
229.964	177.31
230.199	170.31
230.433	177.31
230.667	184.31
230.901	186.31
231.136	188.31
231.37	180.31
231.604	199.31
231.838	188.31
232.072	188.31
232.306	170.31
232.541	198.31
232.775	216.31
233.009	195.31
233.243	202.31
233.477	192.31
233.711	211.31
233.945	208.31
234.179	216.31
234.413	211.31
234.647	216.31
234.881	191.31
235.115	199.31
235.349	217.31
235.583	200.31
235.817	226.31
236.051	227.31
236.285	223.31
236.519	231.31
236.753	216.31
236.987	240.31
237.221	222.31
237.455	227.31
237.689	250.31
237.922	234.31
238.156	229.31
238.39	233.31
238.624	257.31
238.858	246.31
239.091	244.31
239.325	250.31
239.559	252.31
239.793	270.31
240.027	272.31
240.26	265.31
240.494	251.31
240.728	263.31
240.961	259.31
241.195	287.31
241.429	289.31
241.662	294.31
241.896	289.31
242.13	299.31
242.363	288.31
242.597	280.31
242.83	313.31
243.064	295.31
243.298	304.31
243.531	297.31
243.765	305.31
243.998	333.31
244.232	312.31
244.465	313.31
244.699	330.31
244.932	329.31
245.166	324.31
245.399	321.31
245.633	325.31
245.866	332.31
246.099	317.31
246.333	352.31
246.566	352.31
246.8	323.31
247.033	361.31
247.266	353.31
247.5	356.31
247.733	348.31
247.966	350.31
248.2	356.31
248.433	360.31
248.666	390.31
248.899	381.31
249.133	383.31
249.366	388.31
249.599	388.31
249.832	380.31
250.066	400.31
250.299	388.31
250.532	396.31
250.765	365.31
250.998	403.31
251.231	405.31
251.465	417.31
251.698	400.31
251.931	410.31
252.164	410.31
252.397	415.31
252.63	421.31
252.863	432.31
253.096	429.31
253.329	442.31
253.562	413.31
253.795	425.31
254.028	431.31
254.261	425.31
254.494	437.31
254.727	449.31
254.96	426.31
255.193	435.31
255.426	458.31
255.659	453.31
255.892	457.31
256.124	450.31
256.357	435.31
256.59	456.31
256.823	477.31
257.056	477.31
257.289	483.31
257.521	483.31
257.754	480.31
257.987	462.31
258.22	490.31
258.452	489.31
258.685	481.31
258.918	500.31
259.151	503.31
259.383	508.31
259.616	499.31
259.849	509.31
260.081	504.31
260.314	516.31
260.547	513.31
260.779	479.31
261.012	501.31
261.244	517.31
261.477	521.31
261.71	512.31
261.942	513.31
262.175	531.31
262.407	537.31
262.64	528.31
262.872	536.31
263.105	509.31
263.337	538.31
263.57	547.31
263.802	558.31
264.035	564.31
264.267	558.31
264.499	531.31
264.732	544.31
264.964	557.31
265.197	551.31
265.429	549.31
265.661	585.31
265.894	569.31
266.126	581.31
266.358	573.31
266.591	588.31
266.823	571.31
267.055	585.31
267.287	575.31
267.52	620.31
267.752	609.31
267.984	589.31
268.216	586.31
268.448	579.31
268.681	595.31
268.913	586.31
269.145	604.31
269.377	604.31
269.609	593.31
269.841	597.31
270.073	613.31
270.306	593.31
270.538	614.31
270.77	608.31
271.002	620.31
271.234	615.31
271.466	639.31
271.698	647.31
271.93	647.31
272.162	624.31
272.394	656.31
272.626	645.31
272.858	635.31
273.09	627.31
273.322	646.31
273.553	657.31
273.785	663.31
274.017	637.31
274.249	671.31
274.481	645.31
274.713	667.31
274.945	688.31
275.176	662.31
275.408	683.31
275.64	680.31
275.872	686.31
276.104	687.31
276.335	678.31
276.567	682.31
276.799	708.31
277.031	701.31
277.262	702.31
277.494	722.31
277.726	699.31
277.957	725.31
278.189	703.31
278.421	692.31
278.652	708.31
278.884	727.31
279.115	709.31
279.347	738.31
279.579	747.31
279.81	724.31
280.042	735.31
280.273	730.31
280.505	754.31
280.736	730.31
280.968	715.31
281.199	747.31
281.431	751.31
281.662	764.31
281.894	761.31
282.125	759.31
282.356	780.31
282.588	767.31
282.819	775.31
283.051	777.31
283.282	780.31
283.513	789.31
283.745	798.31
283.976	795.31
284.207	781.31
284.439	791.31
284.67	791.31
284.901	803.31
285.132	810.31
285.364	783.31
285.595	805.31
285.826	792.31
286.057	822.31
286.288	800.31
286.52	816.31
286.751	837.31
286.982	826.31
287.213	808.31
287.444	832.31
287.675	837.31
287.906	827.31
288.138	839.31
288.369	819.31
288.6	849.31
288.831	837.31
289.062	838.31
289.293	845.31
289.524	842.31
289.755	855.31
289.986	858.31
290.217	831.31
290.448	838.31
290.679	868.31
290.91	852.31
291.141	856.31
291.371	845.31
291.602	865.31
291.833	843.31
292.064	833.31
292.295	851.31
292.526	849.31
292.757	844.31
292.987	877.31
293.218	857.31
293.449	847.31
293.68	859.31
293.91	859.31
294.141	868.31
294.372	870.31
294.603	860.31
294.833	887.31
295.064	901.31
295.295	901.31
295.525	873.31
295.756	880.31
295.987	886.31
296.217	909.31
296.448	894.31
296.679	909.31
296.909	881.31
297.14	911.31
297.37	917.31
297.601	927.31
297.831	903.31
298.062	935.31
298.292	916.31
298.523	908.31
298.753	942.31
298.984	924.31
299.214	935.31
299.445	950.31
299.675	939.31
299.905	947.31
300.136	951.31
300.366	920.31
300.597	915.31
300.827	944.31
301.057	969.31
301.288	960.31
301.518	940.31
301.748	991.31
301.979	998.31
302.209	995.31
302.439	971.31
302.669	981.31
302.9	985.31
303.13	965.31
303.36	972.31
303.59	993.31
303.82	1000.31
304.051	997.31
304.281	984.31
304.511	978.31
304.741	963.31
304.971	965.31
305.201	976.31
305.431	956.31
305.661	989.31
305.891	976.31
306.121	1008.31
306.352	1005.31
306.582	987.31
306.812	977.31
307.042	996.31
307.272	961.31
307.502	970.31
307.731	955.31
307.961	952.31
308.191	977.31
308.421	966.31
308.651	965.31
308.881	969.31
309.111	988.31
309.341	977.31
309.571	983.31
309.8	981.31
310.03	981.31
310.26	965.31
310.49	1004.31
310.72	964.31
310.949	991.31
311.179	953.31
311.409	981.31
311.639	1001.31
311.868	980.31
312.098	1007.31
312.328	1021.31
312.557	1031.31
312.787	1021.31
313.017	1064.31
313.246	1046.31
313.476	1044.31
313.706	1038.31
313.935	1040.31
314.165	1064.31
314.394	1051.31
314.624	1053.31
314.853	1055.31
315.083	1053.31
315.312	1063.31
315.542	1058.31
315.771	1075.31
316.001	1036.31
316.23	1059.31
316.46	1059.31
316.689	1080.31
316.919	1029.31
317.148	1037.31
317.377	1041.31
317.607	1042.31
317.836	1027.31
318.065	1046.31
318.295	1065.31
318.524	1039.31
318.753	1033.31
318.983	1029.31
319.212	1025.31
319.441	1045.31
319.67	1035.31
319.9	1015.31
320.129	1033.31
320.358	1043.31
320.587	1035.31
320.816	1044.31
321.046	1063.31
321.275	1048.31
321.504	1046.31
321.733	1075.31
321.962	1050.31
322.191	1060.31
322.42	1067.31
322.649	1066.31
322.878	1051.31
323.108	1049.31
323.337	1063.31
323.566	1090.31
323.795	1117.31
324.024	1114.31
324.253	1074.31
324.482	1081.31
324.71	1092.31
324.939	1083.31
325.168	1121.31
325.397	1101.31
325.626	1109.31
325.855	1101.31
326.084	1136.31
326.313	1132.31
326.542	1135.31
326.77	1155.31
326.999	1131.31
327.228	1113.31
327.457	1124.31
327.686	1114.31
327.914	1117.31
328.143	1155.31
328.372	1160.31
328.6	1142.31
328.829	1155.31
329.058	1125.31
329.287	1164.31
329.515	1141.31
329.744	1161.31
329.972	1155.31
330.201	1156.31
330.43	1160.31
330.658	1169.31
330.887	1176.31
331.115	1197.31
331.344	1239.31
331.572	1205.31
331.801	1188.31
332.03	1216.31
332.258	1245.31
332.486	1276.31
332.715	1304.31
332.943	1323.31
333.172	1365.31
333.4	1381.31
333.629	1385.31
333.857	1416.31
334.085	1421.31
334.314	1433.31
334.542	1423.31
334.771	1427.31
334.999	1395.31
335.227	1361.31
335.455	1395.31
335.684	1416.31
335.912	1393.31
336.14	1341.31
336.369	1404.31
336.597	1361.31
336.825	1328.31
337.053	1357.31
337.281	1327.31
337.51	1317.31
337.738	1294.31
337.966	1298.31
338.194	1272.31
338.422	1276.31
338.65	1242.31
338.878	1291.31
339.106	1265.31
339.334	1244.31
339.562	1233.31
339.79	1206.31
340.018	1181.31
340.246	1157.31
340.474	1156.31
340.702	1208.31
340.93	1220.31
341.158	1212.31
341.386	1208.31
341.614	1213.31
341.842	1180.31
342.07	1203.31
342.298	1168.31
342.526	1177.31
342.754	1199.31
342.981	1201.31
343.209	1173.31
343.437	1244.31
343.665	1288.31
343.893	1380.31
344.12	1396.31
344.348	1361.31
344.576	1323.31
344.804	1281.31
345.031	1226.31
345.259	1244.31
345.487	1209.31
345.714	1207.31
345.942	1176.31
346.17	1179.31
346.397	1171.31
346.625	1154.31
346.853	1131.31
347.08	1150.31
347.308	1161.31
347.535	1177.31
347.763	1146.31
347.99	1142.31
348.218	1164.31
348.445	1161.31
348.673	1132.31
348.9	1148.31
349.128	1155.31
349.355	1144.31
349.583	1164.31
349.81	1139.31
350.037	1107.31
350.265	1120.31
350.492	1111.31
350.72	1109.31
350.947	1135.31
351.174	1104.31
351.402	1132.31
351.629	1100.31
351.856	1118.31
352.083	1098.31
352.311	1090.31
352.538	1089.31
352.765	1101.31
352.992	1103.31
353.22	1087.31
353.447	1111.31
353.674	1096.31
353.901	1090.31
354.128	1108.31
354.355	1121.31
354.583	1086.31
354.81	1086.31
355.037	1097.31
355.264	1119.31
355.491	1094.31
355.718	1109.31
355.945	1113.31
356.172	1094.31
356.399	1092.31
356.626	1102.31
356.853	1107.31
357.08	1132.31
357.307	1091.31
357.534	1117.31
357.761	1118.31
357.988	1108.31
358.215	1107.31
358.441	1086.31
358.668	1086.31
358.895	1091.31
359.122	1110.31
359.349	1135.31
359.576	1102.31
359.802	1091.31
360.029	1098.31
360.256	1109.31
360.483	1126.31
360.709	1126.31
360.936	1136.31
361.163	1096.31
361.39	1095.31
361.616	1129.31
361.843	1125.31
362.07	1113.31
362.296	1115.31
362.523	1091.31
362.749	1121.31
362.976	1125.31
363.203	1139.31
363.429	1097.31
363.656	1112.31
363.882	1150.31
364.109	1105.31
364.335	1083.31
364.562	1127.31
364.788	1108.31
365.015	1081.31
365.241	1083.31
365.468	1104.31
365.694	1108.31
365.92	1112.31
366.147	1124.31
366.373	1115.31
366.599	1137.31
366.826	1094.31
367.052	1118.31
367.278	1143.31
367.505	1119.31
367.731	1102.31
367.957	1120.31
368.184	1117.31
368.41	1143.31
368.636	1126.31
368.862	1155.31
369.089	1145.31
369.315	1151.31
369.541	1147.31
369.767	1170.31
369.993	1175.31
370.219	1167.31
370.445	1180.31
370.672	1188.31
370.898	1191.31
371.124	1201.31
371.35	1200.31
371.576	1227.31
371.802	1207.31
372.028	1207.31
372.254	1199.31
372.48	1199.31
372.706	1255.31
372.932	1235.31
373.158	1234.31
373.384	1207.31
373.61	1209.31
373.835	1232.31
374.061	1222.31
374.287	1256.31
374.513	1231.31
374.739	1289.31
374.965	1307.31
375.191	1287.31
375.416	1294.31
375.642	1307.31
375.868	1278.31
376.094	1251.31
376.319	1213.31
376.545	1221.31
376.771	1235.31
376.997	1224.31
377.222	1251.31
377.448	1176.31
377.674	1181.31
377.899	1195.31
378.125	1215.31
378.35	1162.31
378.576	1175.31
378.802	1195.31
379.027	1196.31
379.253	1210.31
379.478	1157.31
379.704	1200.31
379.929	1171.31
380.155	1199.31
380.38	1199.31
380.606	1194.31
380.831	1168.31
381.057	1185.31
381.282	1192.31
381.507	1175.31
381.733	1209.31
381.958	1194.31
382.184	1236.31
382.409	1215.31
382.634	1219.31
382.86	1259.31
383.085	1239.31
383.31	1285.31
383.535	1267.31
383.761	1273.31
383.986	1319.31
384.211	1320.31
384.436	1322.31
384.662	1345.31
384.887	1354.31
385.112	1359.31
385.337	1380.31
385.562	1399.31
385.787	1388.31
386.013	1421.31
386.238	1403.31
386.463	1396.31
386.688	1421.31
386.913	1384.31
387.138	1414.31
387.363	1409.31
387.588	1417.31
387.813	1416.31
388.038	1397.31
388.263	1413.31
388.488	1441.31
388.713	1411.31
388.938	1395.31
389.163	1397.31
389.387	1367.31
389.612	1386.31
389.837	1397.31
390.062	1411.31
390.287	1401.31
390.512	1424.31
390.736	1433.31
390.961	1438.31
391.186	1447.31
391.411	1490.31
391.636	1496.31
391.86	1549.31
392.085	1571.31
392.31	1553.31
392.534	1516.31
392.759	1506.31
392.984	1486.31
393.208	1484.31
393.433	1482.31
393.658	1480.31
393.882	1429.31
394.107	1437.31
394.331	1502.31
394.556	1477.31
394.78	1466.31
395.005	1480.31
395.229	1506.31
395.454	1569.31
395.678	1571.31
395.903	1509.31
396.127	1575.31
396.352	1519.31
396.576	1511.31
396.801	1507.31
397.025	1551.31
397.249	1530.31
397.474	1580.31
397.698	1580.31
397.922	1603.31
398.147	1567.31
398.371	1626.31
398.595	1656.31
398.82	1745.31
399.044	1834.31
399.268	1928.31
399.492	2148.31
399.717	2288.31
399.941	2289.31
400.165	2219.31
400.389	2053.31
400.613	1930.31
400.837	1837.31
401.062	1779.31
401.286	1740.31
401.51	1749.31
401.734	1723.31
401.958	1767.31
402.182	1774.31
402.406	1772.31
402.63	1768.31
402.854	1776.31
403.078	1780.31
403.302	1790.31
403.526	1872.31
403.75	1861.31
403.974	1869.31
404.198	1865.31
404.422	1902.31
404.645	1859.31
404.869	1870.31
405.093	1887.31
405.317	1898.31
405.541	1877.31
405.765	1871.31
405.988	1860.31
406.212	1900.31
406.436	1872.31
406.66	1959.31
406.883	1933.31
407.107	2035.31
407.331	2107.31
407.555	2133.31
407.778	2173.31
408.002	2134.31
408.226	2095.31
408.449	2025.31
408.673	1984.31
408.896	1970.31
409.12	1967.31
409.344	1948.31
409.567	1927.31
409.791	1935.31
410.014	1923.31
410.238	1880.31
410.461	1889.31
410.685	1898.31
410.908	1834.31
411.132	1806.31
411.355	1788.31
411.578	1837.31
411.802	1816.31
412.025	1832.31
412.249	1839.31
412.472	1883.31
412.695	1783.31
412.919	1779.31
413.142	1772.31
413.365	1768.31
413.589	1741.31
413.812	1724.31
414.035	1707.31
414.258	1719.31
414.482	1761.31
414.705	1731.31
414.928	1727.31
415.151	1721.31
415.374	1732.31
415.597	1720.31
415.821	1676.31
416.044	1708.31
416.267	1671.31
416.49	1660.31
416.713	1668.31
416.936	1666.31
417.159	1641.31
417.382	1659.31
417.605	1667.31
417.828	1638.31
418.051	1675.31
418.274	1653.31
418.497	1660.31
418.72	1710.31
418.943	1711.31
419.166	1775.31
419.389	1909.31
419.611	1944.31
419.834	1819.31
420.057	1794.31
420.28	1680.31
420.503	1680.31
420.726	1622.31
420.948	1673.31
421.171	1641.31
421.394	1634.31
421.617	1648.31
421.839	1701.31
422.062	1632.31
422.285	1659.31
422.507	1691.31
422.73	1698.31
422.953	1656.31
423.175	1704.31
423.398	1692.31
423.621	1688.31
423.843	1693.31
424.066	1744.31
424.288	1717.31
424.511	1687.31
424.733	1679.31
424.956	1681.31
425.178	1656.31
425.401	1673.31
425.623	1655.31
425.846	1635.31
426.068	1639.31
426.291	1627.31
426.513	1612.31
426.735	1560.31
426.958	1590.31
427.18	1579.31
427.402	1606.31
427.625	1546.31
427.847	1565.31
428.069	1513.31
428.292	1572.31
428.514	1531.31
428.736	1557.31
428.958	1544.31
429.181	1528.31
429.403	1507.31
429.625	1518.31
429.847	1487.31
430.069	1479.31
430.292	1505.31
430.514	1506.31
430.736	1520.31
430.958	1502.31
431.18	1502.31
431.402	1559.31
431.624	1523.31
431.846	1523.31
432.068	1574.31
432.29	1571.31
432.512	1507.31
432.734	1526.31
432.956	1512.31
433.178	1580.31
433.4	1550.31
433.622	1573.31
433.844	1571.31
434.066	1593.31
434.287	1599.31
434.509	1613.31
434.731	1648.31
434.953	1674.31
435.175	1707.31
435.397	1664.31
435.618	1621.31
435.84	1601.31
436.062	1576.31
436.284	1563.31
436.505	1511.31
436.727	1523.31
436.949	1552.31
437.17	1503.31
437.392	1514.31
437.614	1467.31
437.835	1448.31
438.057	1479.31
438.278	1467.31
438.5	1488.31
438.721	1482.31
438.943	1446.31
439.165	1438.31
439.386	1452.31
439.608	1482.31
439.829	1480.31
440.05	1467.31
440.272	1520.31
440.493	1515.31
440.715	1516.31
440.936	1543.31
441.158	1573.31
441.379	1604.31
441.6	1643.31
441.822	1665.31
442.043	1664.31
442.264	1632.31
442.486	1600.31
442.707	1611.31
442.928	1618.31
443.149	1656.31
443.371	1607.31
443.592	1629.31
443.813	1625.31
444.034	1618.31
444.255	1686.31
444.476	1781.31
444.698	1787.31
444.919	1884.31
445.14	1958.31
445.361	1846.31
445.582	1711.31
445.803	1625.31
446.024	1574.31
446.245	1577.31
446.466	1571.31
446.687	1495.31
446.908	1512.31
447.129	1452.31
447.35	1434.31
447.571	1428.31
447.792	1435.31
448.013	1430.31
448.234	1379.31
448.455	1395.31
448.675	1396.31
448.896	1376.31
449.117	1340.31
449.338	1345.31
449.559	1339.31
449.779	1326.31
450	1318.31
450.221	1359.31
450.442	1360.31
450.662	1345.31
450.883	1363.31
451.104	1368.31
451.324	1348.31
451.545	1379.31
451.766	1382.31
451.986	1346.31
452.207	1384.31
452.428	1334.31
452.648	1344.31
452.869	1327.31
453.089	1312.31
453.31	1312.31
453.53	1332.31
453.751	1323.31
453.971	1338.31
454.192	1325.31
454.412	1263.31
454.633	1318.31
454.853	1322.31
455.073	1288.31
455.294	1320.31
455.514	1309.31
455.734	1310.31
455.955	1278.31
456.175	1297.31
456.395	1294.31
456.616	1254.31
456.836	1296.31
457.056	1329.31
457.276	1269.31
457.497	1323.31
457.717	1307.31
457.937	1312.31
458.157	1349.31
458.377	1302.31
458.598	1376.31
458.818	1398.31
459.038	1413.31
459.258	1465.31
459.478	1504.31
459.698	1541.31
459.918	1554.31
460.138	1607.31
460.358	1697.31
460.578	1667.31
460.798	1714.31
461.018	1718.31
461.238	1659.31
461.458	1707.31
461.678	1705.31
461.898	1749.31
462.118	1718.31
462.338	1790.31
462.558	1814.31
462.777	1888.31
462.997	2021.31
463.217	2099.31
463.437	2121.31
463.657	2011.31
463.876	1919.31
464.096	1950.31
464.316	1949.31
464.536	1926.31
464.755	1904.31
464.975	1796.31
465.195	1773.31
465.414	1700.31
465.634	1623.31
465.854	1593.31
466.073	1500.31
466.293	1488.31
466.512	1497.31
466.732	1422.31
466.951	1439.31
467.171	1432.31
467.391	1443.31
467.61	1444.31
467.829	1433.31
468.049	1419.31
468.268	1391.31
468.488	1401.31
468.707	1406.31
468.927	1366.31
469.146	1393.31
469.365	1391.31
469.585	1401.31
469.804	1471.31
470.023	1446.31
470.243	1440.31
470.462	1439.31
470.681	1433.31
470.901	1468.31
471.12	1455.31
471.339	1449.31
471.558	1389.31
471.777	1419.31
471.997	1400.31
472.216	1404.31
472.435	1381.31
472.654	1376.31
472.873	1396.31
473.092	1378.31
473.311	1395.31
473.53	1358.31
473.749	1377.31
473.968	1395.31
474.187	1363.31
474.406	1365.31
474.625	1384.31
474.844	1401.31
475.063	1415.31
475.282	1411.31
475.501	1428.31
475.72	1431.31
475.939	1411.31
476.158	1437.31
476.377	1477.31
476.596	1468.31
476.814	1473.31
477.033	1497.31
477.252	1518.31
477.471	1548.31
477.69	1554.31
477.908	1563.31
478.127	1620.31
478.346	1589.31
478.564	1659.31
478.783	1653.31
479.002	1669.31
479.22	1718.31
479.439	1693.31
479.658	1721.31
479.876	1729.31
480.095	1709.31
480.313	1807.31
480.532	1833.31
480.751	1832.31
480.969	1758.31
481.188	1732.31
481.406	1689.31
481.624	1656.31
481.843	1677.31
482.061	1671.31
482.28	1686.31
482.498	1672.31
482.717	1672.31
482.935	1698.31
483.153	1724.31
483.372	1706.31
483.59	1696.31
483.808	1722.31
484.027	1784.31
484.245	1753.31
484.463	1759.31
484.681	1820.31
484.9	1797.31
485.118	1799.31
485.336	1787.31
485.554	1806.31
485.772	1855.31
485.99	1831.31
486.209	1839.31
486.427	1821.31
486.645	1806.31
486.863	1859.31
487.081	1847.31
487.299	1835.31
487.517	1845.31
487.735	1803.31
487.953	1780.31
488.171	1770.31
488.389	1787.31
488.607	1776.31
488.825	1738.31
489.043	1719.31
489.261	1771.31
489.479	1781.31
489.696	1746.31
489.914	1721.31
490.132	1764.31
490.35	1714.31
490.568	1719.31
