Data from NiCl2@0.5M.TitratingCurve.Agarose3%dH2O.NegLispCup.LampEnergy10.LIBS07252019_HRD10591_18-21-03-572.txt Node
Date: Thu Jul 25 18:21:03 EDT 2019
User: cochatt
Spectrometer: HR+D1059
Trigger mode: 1
Integration Time (sec): 1.000000E-1
Scans to average: 1
Electric dark correction enabled: true
Nonlinearity correction enabled: false
Boxcar width: 0
XAxis mode: Wavelengths
Number of Pixels in Spectrum: 2048
>>>>>Begin Spectral Data<<<<<
223.165	-15.81
223.4	-15.81
223.635	-15.81
223.869	-12.81
224.104	-12.81
224.338	-11.81
224.573	-13.81
224.808	-16.81
225.042	-3.81
225.277	-4.81
225.511	-12.81
225.746	5.19
225.98	13.19
226.215	11.19
226.449	8.19
226.683	19.19
226.918	21.19
227.152	27.19
227.387	21.19
227.621	31.19
227.856	37.19
228.09	56.19
228.324	66.19
228.559	66.19
228.793	68.19
229.027	79.19
229.262	117.19
229.496	99.19
229.73	105.19
229.964	113.19
230.199	111.19
230.433	124.19
230.667	110.19
230.901	113.19
231.136	112.19
231.37	123.19
231.604	108.19
231.838	123.19
232.072	125.19
232.306	134.19
232.541	141.19
232.775	137.19
233.009	124.19
233.243	132.19
233.477	139.19
233.711	139.19
233.945	131.19
234.179	133.19
234.413	142.19
234.647	139.19
234.881	142.19
235.115	133.19
235.349	139.19
235.583	126.19
235.817	135.19
236.051	127.19
236.285	151.19
236.519	139.19
236.753	140.19
236.987	128.19
237.221	144.19
237.455	146.19
237.689	135.19
237.922	157.19
238.156	139.19
238.39	152.19
238.624	169.19
238.858	168.19
239.091	143.19
239.325	160.19
239.559	151.19
239.793	145.19
240.027	151.19
240.26	163.19
240.494	149.19
240.728	164.19
240.961	147.19
241.195	157.19
241.429	162.19
241.662	169.19
241.896	165.19
242.13	176.19
242.363	165.19
242.597	167.19
242.83	173.19
243.064	178.19
243.298	184.19
243.531	189.19
243.765	196.19
243.998	170.19
244.232	172.19
244.465	172.19
244.699	170.19
244.932	198.19
245.166	191.19
245.399	202.19
245.633	184.19
245.866	161.19
246.099	184.19
246.333	202.19
246.566	180.19
246.8	186.19
247.033	193.19
247.266	188.19
247.5	207.19
247.733	204.19
247.966	199.19
248.2	205.19
248.433	218.19
248.666	198.19
248.899	202.19
249.133	219.19
249.366	205.19
249.599	211.19
249.832	209.19
250.066	209.19
250.299	205.19
250.532	222.19
250.765	219.19
250.998	213.19
251.231	232.19
251.465	233.19
251.698	227.19
251.931	234.19
252.164	222.19
252.397	217.19
252.63	224.19
252.863	233.19
253.096	227.19
253.329	212.19
253.562	247.19
253.795	228.19
254.028	234.19
254.261	232.19
254.494	237.19
254.727	221.19
254.96	234.19
255.193	247.19
255.426	255.19
255.659	241.19
255.892	231.19
256.124	242.19
256.357	239.19
256.59	247.19
256.823	242.19
257.056	253.19
257.289	244.19
257.521	246.19
257.754	242.19
257.987	252.19
258.22	251.19
258.452	261.19
258.685	243.19
258.918	260.19
259.151	254.19
259.383	266.19
259.616	261.19
259.849	287.19
260.081	280.19
260.314	262.19
260.547	258.19
260.779	268.19
261.012	277.19
261.244	290.19
261.477	282.19
261.71	278.19
261.942	279.19
262.175	276.19
262.407	281.19
262.64	284.19
262.872	276.19
263.105	271.19
263.337	281.19
263.57	293.19
263.802	296.19
264.035	305.19
264.267	297.19
264.499	291.19
264.732	288.19
264.964	299.19
265.197	304.19
265.429	291.19
265.661	291.19
265.894	298.19
266.126	295.19
266.358	313.19
266.591	287.19
266.823	307.19
267.055	305.19
267.287	335.19
267.52	321.19
267.752	320.19
267.984	316.19
268.216	312.19
268.448	305.19
268.681	306.19
268.913	329.19
269.145	307.19
269.377	317.19
269.609	321.19
269.841	315.19
270.073	313.19
270.306	324.19
270.538	309.19
270.77	311.19
271.002	335.19
271.234	320.19
271.466	331.19
271.698	323.19
271.93	333.19
272.162	339.19
272.394	332.19
272.626	327.19
272.858	325.19
273.09	333.19
273.322	335.19
273.553	333.19
273.785	343.19
274.017	328.19
274.249	333.19
274.481	346.19
274.713	353.19
274.945	342.19
275.176	340.19
275.408	377.19
275.64	331.19
275.872	338.19
276.104	356.19
276.335	343.19
276.567	363.19
276.799	358.19
277.031	378.19
277.262	362.19
277.494	368.19
277.726	373.19
277.957	382.19
278.189	378.19
278.421	363.19
278.652	344.19
278.884	369.19
279.115	375.19
279.347	386.19
279.579	369.19
279.81	371.19
280.042	365.19
280.273	395.19
280.505	385.19
280.736	376.19
280.968	393.19
281.199	388.19
281.431	395.19
281.662	395.19
281.894	415.19
282.125	393.19
282.356	403.19
282.588	408.19
282.819	389.19
283.051	383.19
283.282	397.19
283.513	405.19
283.745	400.19
283.976	407.19
284.207	384.19
284.439	391.19
284.67	407.19
284.901	396.19
285.132	423.19
285.364	419.19
285.595	428.19
285.826	388.19
286.057	414.19
286.288	413.19
286.52	417.19
286.751	428.19
286.982	421.19
287.213	414.19
287.444	431.19
287.675	413.19
287.906	444.19
288.138	429.19
288.369	426.19
288.6	418.19
288.831	438.19
289.062	432.19
289.293	443.19
289.524	439.19
289.755	439.19
289.986	424.19
290.217	446.19
290.448	452.19
290.679	443.19
290.91	431.19
291.141	433.19
291.371	453.19
291.602	437.19
291.833	434.19
292.064	440.19
292.295	457.19
292.526	449.19
292.757	472.19
292.987	458.19
293.218	466.19
293.449	446.19
293.68	463.19
293.91	445.19
294.141	450.19
294.372	459.19
294.603	453.19
294.833	447.19
295.064	461.19
295.295	466.19
295.525	451.19
295.756	459.19
295.987	444.19
296.217	444.19
296.448	470.19
296.679	449.19
296.909	473.19
297.14	469.19
297.37	467.19
297.601	483.19
297.831	471.19
298.062	489.19
298.292	485.19
298.523	524.19
298.753	504.19
298.984	481.19
299.214	504.19
299.445	479.19
299.675	498.19
299.905	486.19
300.136	499.19
300.366	513.19
300.597	516.19
300.827	526.19
301.057	523.19
301.288	518.19
301.518	524.19
301.748	515.19
301.979	517.19
302.209	531.19
302.439	534.19
302.669	529.19
302.9	513.19
303.13	520.19
303.36	490.19
303.59	514.19
303.82	530.19
304.051	539.19
304.281	502.19
304.511	513.19
304.741	530.19
304.971	504.19
305.201	531.19
305.431	515.19
305.661	533.19
305.891	524.19
306.121	529.19
306.352	499.19
306.582	508.19
306.812	500.19
307.042	510.19
307.272	520.19
307.502	499.19
307.731	491.19
307.961	506.19
308.191	500.19
308.421	485.19
308.651	511.19
308.881	492.19
309.111	490.19
309.341	519.19
309.571	503.19
309.8	514.19
310.03	511.19
310.26	524.19
310.49	524.19
310.72	515.19
310.949	521.19
311.179	509.19
311.409	489.19
311.639	515.19
311.868	517.19
312.098	522.19
312.328	499.19
312.557	538.19
312.787	525.19
313.017	514.19
313.246	527.19
313.476	545.19
313.706	550.19
313.935	560.19
314.165	551.19
314.394	538.19
314.624	546.19
314.853	543.19
315.083	585.19
315.312	542.19
315.542	565.19
315.771	551.19
316.001	530.19
316.23	546.19
316.46	538.19
316.689	557.19
316.919	552.19
317.148	537.19
317.377	531.19
317.607	551.19
317.836	538.19
318.065	523.19
318.295	541.19
318.524	525.19
318.753	555.19
318.983	543.19
319.212	549.19
319.441	536.19
319.67	537.19
319.9	544.19
320.129	540.19
320.358	533.19
320.587	534.19
320.816	535.19
321.046	555.19
321.275	552.19
321.504	548.19
321.733	551.19
321.962	537.19
322.191	551.19
322.42	552.19
322.649	537.19
322.878	553.19
323.108	550.19
323.337	569.19
323.566	586.19
323.795	559.19
324.024	567.19
324.253	564.19
324.482	550.19
324.71	572.19
324.939	572.19
325.168	559.19
325.397	586.19
325.626	564.19
325.855	585.19
326.084	595.19
326.313	583.19
326.542	595.19
326.77	589.19
326.999	604.19
327.228	596.19
327.457	590.19
327.686	584.19
327.914	583.19
328.143	586.19
328.372	568.19
328.6	577.19
328.829	595.19
329.058	592.19
329.287	579.19
329.515	602.19
329.744	584.19
329.972	597.19
330.201	601.19
330.43	617.19
330.658	588.19
330.887	599.19
331.115	614.19
331.344	629.19
331.572	647.19
331.801	645.19
332.03	645.19
332.258	657.19
332.486	685.19
332.715	663.19
332.943	715.19
333.172	725.19
333.4	753.19
333.629	734.19
333.857	753.19
334.085	779.19
334.314	755.19
334.542	758.19
334.771	749.19
334.999	751.19
335.227	729.19
335.455	725.19
335.684	725.19
335.912	744.19
336.14	724.19
336.369	731.19
336.597	735.19
336.825	716.19
337.053	738.19
337.281	735.19
337.51	713.19
337.738	709.19
337.966	672.19
338.194	648.19
338.422	662.19
338.65	644.19
338.878	636.19
339.106	661.19
339.334	663.19
339.562	653.19
339.79	635.19
340.018	640.19
340.246	631.19
340.474	616.19
340.702	604.19
340.93	598.19
341.158	625.19
341.386	647.19
341.614	664.19
341.842	650.19
342.07	609.19
342.298	597.19
342.526	611.19
342.754	614.19
342.981	607.19
343.209	641.19
343.437	666.19
343.665	683.19
343.893	709.19
344.12	732.19
344.348	731.19
344.576	702.19
344.804	688.19
345.031	668.19
345.259	633.19
345.487	631.19
345.714	629.19
345.942	618.19
346.17	627.19
346.397	617.19
346.625	621.19
346.853	597.19
347.08	581.19
347.308	603.19
347.535	606.19
347.763	612.19
347.99	580.19
348.218	603.19
348.445	590.19
348.673	604.19
348.9	602.19
349.128	592.19
349.355	571.19
349.583	623.19
349.81	602.19
350.037	586.19
350.265	579.19
350.492	588.19
350.72	574.19
350.947	588.19
351.174	570.19
351.402	585.19
351.629	603.19
351.856	591.19
352.083	597.19
352.311	581.19
352.538	599.19
352.765	608.19
352.992	586.19
353.22	558.19
353.447	579.19
353.674	567.19
353.901	551.19
354.128	556.19
354.355	541.19
354.583	561.19
354.81	566.19
355.037	577.19
355.264	559.19
355.491	582.19
355.718	574.19
355.945	556.19
356.172	548.19
356.399	569.19
356.626	575.19
356.853	600.19
357.08	577.19
357.307	562.19
357.534	581.19
357.761	559.19
357.988	581.19
358.215	560.19
358.441	569.19
358.668	566.19
358.895	561.19
359.122	585.19
359.349	548.19
359.576	561.19
359.802	556.19
360.029	594.19
360.256	565.19
360.483	562.19
360.709	577.19
360.936	607.19
361.163	579.19
361.39	580.19
361.616	562.19
361.843	565.19
362.07	571.19
362.296	586.19
362.523	570.19
362.749	584.19
362.976	545.19
363.203	553.19
363.429	547.19
363.656	563.19
363.882	567.19
364.109	559.19
364.335	552.19
364.562	567.19
364.788	552.19
365.015	585.19
365.241	547.19
365.468	565.19
365.694	570.19
365.92	550.19
366.147	560.19
366.373	537.19
366.599	554.19
366.826	555.19
367.052	553.19
367.278	553.19
367.505	572.19
367.731	584.19
367.957	564.19
368.184	565.19
368.41	550.19
368.636	567.19
368.862	584.19
369.089	588.19
369.315	589.19
369.541	595.19
369.767	577.19
369.993	581.19
370.219	586.19
370.445	597.19
370.672	580.19
370.898	596.19
371.124	595.19
371.35	600.19
371.576	599.19
371.802	625.19
372.028	603.19
372.254	590.19
372.48	599.19
372.706	619.19
372.932	607.19
373.158	621.19
373.384	594.19
373.61	627.19
373.835	608.19
374.061	614.19
374.287	607.19
374.513	635.19
374.739	641.19
374.965	628.19
375.191	667.19
375.416	633.19
375.642	665.19
375.868	639.19
376.094	623.19
376.319	602.19
376.545	616.19
376.771	595.19
376.997	626.19
377.222	580.19
377.448	617.19
377.674	610.19
377.899	601.19
378.125	602.19
378.35	609.19
378.576	595.19
378.802	587.19
379.027	604.19
379.253	582.19
379.478	609.19
379.704	584.19
379.929	585.19
380.155	597.19
380.38	597.19
380.606	596.19
380.831	588.19
381.057	610.19
381.282	588.19
381.507	601.19
381.733	596.19
381.958	589.19
382.184	605.19
382.409	624.19
382.634	601.19
382.86	636.19
383.085	623.19
383.31	644.19
383.535	652.19
383.761	647.19
383.986	644.19
384.211	679.19
384.436	669.19
384.662	659.19
384.887	712.19
385.112	706.19
385.337	700.19
385.562	727.19
385.787	693.19
386.013	727.19
386.238	715.19
386.463	707.19
386.688	718.19
386.913	704.19
387.138	714.19
387.363	678.19
387.588	713.19
387.813	708.19
388.038	712.19
388.263	729.19
388.488	726.19
388.713	726.19
388.938	704.19
389.163	713.19
389.387	697.19
389.612	709.19
389.837	716.19
390.062	707.19
390.287	713.19
390.512	673.19
390.736	727.19
390.961	725.19
391.186	730.19
391.411	754.19
391.636	773.19
391.86	763.19
392.085	813.19
392.31	804.19
392.534	759.19
392.759	785.19
392.984	786.19
393.208	776.19
393.433	774.19
393.658	781.19
393.882	746.19
394.107	749.19
394.331	784.19
394.556	751.19
394.78	789.19
395.005	770.19
395.229	784.19
395.454	835.19
395.678	815.19
395.903	809.19
396.127	789.19
396.352	783.19
396.576	768.19
396.801	771.19
397.025	760.19
397.249	819.19
397.474	789.19
397.698	801.19
397.922	835.19
398.147	837.19
398.371	829.19
398.595	869.19
398.82	887.19
399.044	956.19
399.268	1026.19
399.492	1136.19
399.717	1266.19
399.941	1264.19
400.165	1158.19
400.389	1081.19
400.613	969.19
400.837	978.19
401.062	931.19
401.286	905.19
401.51	919.19
401.734	886.19
401.958	905.19
402.182	913.19
402.406	887.19
402.63	919.19
402.854	951.19
403.078	921.19
403.302	987.19
403.526	1009.19
403.75	1024.19
403.974	997.19
404.198	1000.19
404.422	971.19
404.645	984.19
404.869	969.19
405.093	957.19
405.317	966.19
405.541	994.19
405.765	974.19
405.988	939.19
406.212	968.19
406.436	993.19
406.66	990.19
406.883	1018.19
407.107	1090.19
407.331	1124.19
407.555	1151.19
407.778	1131.19
408.002	1111.19
408.226	1067.19
408.449	1077.19
408.673	1022.19
408.896	1041.19
409.12	991.19
409.344	1027.19
409.567	1021.19
409.791	1032.19
410.014	1025.19
410.238	1025.19
410.461	1018.19
410.685	996.19
410.908	980.19
411.132	958.19
411.355	942.19
411.578	944.19
411.802	939.19
412.025	966.19
412.249	967.19
412.472	922.19
412.695	905.19
412.919	938.19
413.142	921.19
413.365	885.19
413.589	919.19
413.812	940.19
414.035	907.19
414.258	935.19
414.482	884.19
414.705	923.19
414.928	953.19
415.151	929.19
415.374	936.19
415.597	924.19
415.821	905.19
416.044	877.19
416.267	887.19
416.49	887.19
416.713	887.19
416.936	873.19
417.159	872.19
417.382	892.19
417.605	897.19
417.828	890.19
418.051	914.19
418.274	898.19
418.497	906.19
418.72	917.19
418.943	884.19
419.166	967.19
419.389	1011.19
419.611	995.19
419.834	968.19
420.057	940.19
420.28	899.19
420.503	882.19
420.726	879.19
420.948	906.19
421.171	896.19
421.394	872.19
421.617	883.19
421.839	883.19
422.062	918.19
422.285	864.19
422.507	897.19
422.73	887.19
422.953	928.19
423.175	928.19
423.398	921.19
423.621	913.19
423.843	943.19
424.066	906.19
424.288	925.19
424.511	953.19
424.733	926.19
424.956	892.19
425.178	901.19
425.401	886.19
425.623	908.19
425.846	885.19
426.068	884.19
426.291	880.19
426.513	852.19
426.735	879.19
426.958	845.19
427.18	863.19
427.402	819.19
427.625	839.19
427.847	811.19
428.069	838.19
428.292	841.19
428.514	817.19
428.736	838.19
428.958	857.19
429.181	814.19
429.403	807.19
429.625	835.19
429.847	793.19
430.069	799.19
430.292	819.19
430.514	832.19
430.736	817.19
430.958	780.19
431.18	815.19
431.402	787.19
431.624	819.19
431.846	808.19
432.068	819.19
432.29	840.19
432.512	815.19
432.734	823.19
432.956	828.19
433.178	808.19
433.4	812.19
433.622	825.19
433.844	839.19
434.066	859.19
434.287	859.19
434.509	857.19
434.731	886.19
434.953	909.19
435.175	888.19
435.397	881.19
435.618	847.19
435.84	854.19
436.062	838.19
436.284	831.19
436.505	811.19
436.727	824.19
436.949	821.19
437.17	836.19
437.392	779.19
437.614	811.19
437.835	803.19
438.057	803.19
438.278	794.19
438.5	796.19
438.721	777.19
438.943	808.19
439.165	834.19
439.386	821.19
439.608	860.19
439.829	826.19
440.05	839.19
440.272	823.19
440.493	864.19
440.715	845.19
440.936	857.19
441.158	880.19
441.379	887.19
441.6	905.19
441.822	913.19
442.043	918.19
442.264	911.19
442.486	883.19
442.707	905.19
442.928	875.19
443.149	903.19
443.371	918.19
443.592	925.19
443.813	918.19
444.034	935.19
444.255	921.19
444.476	946.19
444.698	1050.19
444.919	1024.19
445.14	1117.19
445.361	1033.19
445.582	945.19
445.803	917.19
446.024	887.19
446.245	884.19
446.466	893.19
446.687	852.19
446.908	835.19
447.129	826.19
447.35	826.19
447.571	823.19
447.792	792.19
448.013	805.19
448.234	786.19
448.455	758.19
448.675	785.19
448.896	774.19
449.117	788.19
449.338	771.19
449.559	737.19
449.779	730.19
450	749.19
450.221	747.19
450.442	756.19
450.662	773.19
450.883	772.19
451.104	787.19
451.324	757.19
451.545	787.19
451.766	788.19
451.986	765.19
452.207	736.19
452.428	748.19
452.648	772.19
452.869	744.19
453.089	767.19
453.31	751.19
453.53	738.19
453.751	723.19
453.971	720.19
454.192	752.19
454.412	708.19
454.633	740.19
454.853	721.19
455.073	721.19
455.294	707.19
455.514	713.19
455.734	715.19
455.955	740.19
456.175	718.19
456.395	731.19
456.616	728.19
456.836	721.19
457.056	707.19
457.276	700.19
457.497	745.19
457.717	719.19
457.937	703.19
458.157	753.19
458.377	721.19
458.598	747.19
458.818	752.19
459.038	837.19
459.258	824.19
459.478	855.19
459.698	860.19
459.918	879.19
460.138	911.19
460.358	951.19
460.578	960.19
460.798	975.19
461.018	989.19
461.238	954.19
461.458	979.19
461.678	942.19
461.898	988.19
462.118	996.19
462.338	1036.19
462.558	1059.19
462.777	1094.19
462.997	1155.19
463.217	1223.19
463.437	1265.19
463.657	1182.19
463.876	1161.19
464.096	1147.19
464.316	1122.19
464.536	1094.19
464.755	1106.19
464.975	1027.19
465.195	1003.19
465.414	963.19
465.634	898.19
465.854	876.19
466.073	864.19
466.293	848.19
466.512	833.19
466.732	845.19
466.951	808.19
467.171	808.19
467.391	828.19
467.61	822.19
467.829	815.19
468.049	793.19
468.268	757.19
468.488	787.19
468.707	793.19
468.927	790.19
469.146	774.19
469.365	804.19
469.585	816.19
469.804	821.19
470.023	842.19
470.243	799.19
470.462	837.19
470.681	797.19
470.901	820.19
471.12	809.19
471.339	823.19
471.558	795.19
471.777	820.19
471.997	819.19
472.216	782.19
472.435	769.19
472.654	755.19
472.873	752.19
473.092	773.19
473.311	757.19
473.53	737.19
473.749	744.19
473.968	751.19
474.187	739.19
474.406	771.19
474.625	742.19
474.844	757.19
475.063	791.19
475.282	770.19
475.501	762.19
475.72	766.19
475.939	783.19
476.158	781.19
476.377	776.19
476.596	807.19
476.814	802.19
477.033	812.19
477.252	842.19
477.471	843.19
477.69	839.19
477.908	858.19
478.127	924.19
478.346	898.19
478.564	915.19
478.783	909.19
479.002	951.19
479.22	959.19
479.439	928.19
479.658	928.19
479.876	973.19
480.095	931.19
480.313	983.19
480.532	1002.19
480.751	975.19
480.969	943.19
481.188	923.19
481.406	901.19
481.624	887.19
481.843	866.19
482.061	886.19
482.28	863.19
482.498	877.19
482.717	892.19
482.935	873.19
483.153	865.19
483.372	881.19
483.59	897.19
483.808	897.19
484.027	869.19
484.245	868.19
484.463	885.19
484.681	881.19
484.9	899.19
485.118	919.19
485.336	911.19
485.554	894.19
485.772	919.19
485.99	905.19
486.209	912.19
486.427	889.19
486.645	907.19
486.863	932.19
487.081	917.19
487.299	925.19
487.517	885.19
487.735	926.19
487.953	900.19
488.171	909.19
488.389	931.19
488.607	901.19
488.825	908.19
489.043	913.19
489.261	892.19
489.479	909.19
489.696	916.19
489.914	877.19
490.132	883.19
490.35	903.19
490.568	913.19
490.786	951.19
491.003	928.19
491.221	952.19
491.439	951.19
491.657	933.19
491.874	950.19
492.092	936.19
492.31	951.19
492.527	962.19
492.745	963.19
492.963	969.19
493.18	948.19
493.398	947.19
493.615	1002.19
493.833	963.19
494.05	981.19
494.268	992.19
494.485	951.19
494.703	981.19
494.92	962.19
495.138	981.19
495.355	967.19
495.573	977.19
495.79	989.19
496.008	1016.19
496.225	1039.19
496.442	1042.19
496.66	1057.19
496.877	1043.19
497.094	1060.19
497.312	1096.19
497.529	1084.19
497.746	1123.19
497.963	1154.19
498.181	1231.19
498.398	1239.19
498.615	1340.19
498.832	1412.19
499.049	1479.19
499.267	1599.19
499.484	1743.19
499.701	1895.19
499.918	2044.19
500.135	2230.19
500.352	2490.19
500.569	2591.19
500.786	2587.19
