Data from NiCl2@0.5M.TitratingCurve.Agarose3%dH2O.NegLispCup.LampEnergy10.LIBS07252019_HRD10591_18-20-49-571.txt Node
Date: Thu Jul 25 18:20:49 EDT 2019
User: cochatt
Spectrometer: HR+D1059
Trigger mode: 1
Integration Time (sec): 1.000000E-1
Scans to average: 1
Electric dark correction enabled: true
Nonlinearity correction enabled: false
Boxcar width: 0
XAxis mode: Wavelengths
Number of Pixels in Spectrum: 2048
>>>>>Begin Spectral Data<<<<<
223.165	-14.38
223.4	-14.38
223.635	-14.38
223.869	-11.38
224.104	-14.38
224.338	-21.38
224.573	-13.38
224.808	-9.38
225.042	-1.38
225.277	-8.38
225.511	8.62
225.746	9.62
225.98	15.62
226.215	4.62
226.449	2.62
226.683	7.62
226.918	26.62
227.152	18.62
227.387	24.62
227.621	26.62
227.856	35.62
228.09	65.62
228.324	47.62
228.559	44.62
228.793	73.62
229.027	102.62
229.262	93.62
229.496	119.62
229.73	110.62
229.964	112.62
230.199	122.62
230.433	124.62
230.667	137.62
230.901	136.62
231.136	122.62
231.37	118.62
231.604	134.62
231.838	138.62
232.072	133.62
232.306	140.62
232.541	140.62
232.775	133.62
233.009	134.62
233.243	144.62
233.477	150.62
233.711	145.62
233.945	138.62
234.179	152.62
234.413	146.62
234.647	142.62
234.881	138.62
235.115	128.62
235.349	143.62
235.583	147.62
235.817	142.62
236.051	138.62
236.285	160.62
236.519	131.62
236.753	128.62
236.987	151.62
237.221	122.62
237.455	146.62
237.689	151.62
237.922	144.62
238.156	152.62
238.39	160.62
238.624	160.62
238.858	151.62
239.091	163.62
239.325	174.62
239.559	172.62
239.793	168.62
240.027	158.62
240.26	148.62
240.494	162.62
240.728	160.62
240.961	154.62
241.195	152.62
241.429	159.62
241.662	176.62
241.896	169.62
242.13	169.62
242.363	176.62
242.597	164.62
242.83	170.62
243.064	169.62
243.298	174.62
243.531	190.62
243.765	190.62
243.998	196.62
244.232	196.62
244.465	192.62
244.699	157.62
244.932	196.62
245.166	193.62
245.399	208.62
245.633	200.62
245.866	199.62
246.099	200.62
246.333	192.62
246.566	202.62
246.8	201.62
247.033	199.62
247.266	183.62
247.5	194.62
247.733	203.62
247.966	208.62
248.2	230.62
248.433	216.62
248.666	197.62
248.899	197.62
249.133	199.62
249.366	212.62
249.599	232.62
249.832	224.62
250.066	228.62
250.299	209.62
250.532	222.62
250.765	232.62
250.998	225.62
251.231	225.62
251.465	248.62
251.698	239.62
251.931	232.62
252.164	220.62
252.397	252.62
252.63	234.62
252.863	236.62
253.096	223.62
253.329	225.62
253.562	235.62
253.795	232.62
254.028	240.62
254.261	224.62
254.494	237.62
254.727	240.62
254.96	241.62
255.193	240.62
255.426	237.62
255.659	230.62
255.892	244.62
256.124	263.62
256.357	252.62
256.59	256.62
256.823	266.62
257.056	267.62
257.289	260.62
257.521	258.62
257.754	261.62
257.987	264.62
258.22	264.62
258.452	249.62
258.685	265.62
258.918	266.62
259.151	256.62
259.383	271.62
259.616	263.62
259.849	273.62
260.081	272.62
260.314	274.62
260.547	262.62
260.779	276.62
261.012	278.62
261.244	284.62
261.477	281.62
261.71	272.62
261.942	292.62
262.175	297.62
262.407	307.62
262.64	298.62
262.872	314.62
263.105	291.62
263.337	284.62
263.57	282.62
263.802	289.62
264.035	304.62
264.267	293.62
264.499	274.62
264.732	319.62
264.964	289.62
265.197	301.62
265.429	313.62
265.661	310.62
265.894	312.62
266.126	308.62
266.358	318.62
266.591	307.62
266.823	317.62
267.055	318.62
267.287	316.62
267.52	330.62
267.752	342.62
267.984	328.62
268.216	322.62
268.448	349.62
268.681	328.62
268.913	313.62
269.145	328.62
269.377	341.62
269.609	328.62
269.841	321.62
270.073	350.62
270.306	326.62
270.538	337.62
270.77	340.62
271.002	337.62
271.234	341.62
271.466	344.62
271.698	345.62
271.93	351.62
272.162	344.62
272.394	345.62
272.626	339.62
272.858	326.62
273.09	353.62
273.322	356.62
273.553	352.62
273.785	359.62
274.017	352.62
274.249	354.62
274.481	366.62
274.713	349.62
274.945	370.62
275.176	346.62
275.408	356.62
275.64	372.62
275.872	372.62
276.104	356.62
276.335	372.62
276.567	352.62
276.799	356.62
277.031	365.62
277.262	364.62
277.494	371.62
277.726	392.62
277.957	386.62
278.189	369.62
278.421	376.62
278.652	398.62
278.884	402.62
279.115	396.62
279.347	392.62
279.579	377.62
279.81	376.62
280.042	408.62
280.273	404.62
280.505	397.62
280.736	406.62
280.968	401.62
281.199	421.62
281.431	404.62
281.662	395.62
281.894	414.62
282.125	408.62
282.356	400.62
282.588	415.62
282.819	417.62
283.051	436.62
283.282	428.62
283.513	390.62
283.745	419.62
283.976	421.62
284.207	413.62
284.439	415.62
284.67	412.62
284.901	443.62
285.132	432.62
285.364	418.62
285.595	426.62
285.826	456.62
286.057	443.62
286.288	432.62
286.52	446.62
286.751	457.62
286.982	438.62
287.213	449.62
287.444	444.62
287.675	441.62
287.906	438.62
288.138	442.62
288.369	458.62
288.6	450.62
288.831	429.62
289.062	459.62
289.293	442.62
289.524	457.62
289.755	467.62
289.986	435.62
290.217	458.62
290.448	455.62
290.679	441.62
290.91	449.62
291.141	453.62
291.371	461.62
291.602	462.62
291.833	463.62
292.064	449.62
292.295	449.62
292.526	465.62
292.757	451.62
292.987	471.62
293.218	441.62
293.449	459.62
293.68	461.62
293.91	488.62
294.141	471.62
294.372	452.62
294.603	454.62
294.833	468.62
295.064	478.62
295.295	475.62
295.525	469.62
295.756	484.62
295.987	476.62
296.217	466.62
296.448	449.62
296.679	494.62
296.909	482.62
297.14	510.62
297.37	507.62
297.601	483.62
297.831	509.62
298.062	492.62
298.292	509.62
298.523	522.62
298.753	517.62
298.984	517.62
299.214	498.62
299.445	519.62
299.675	508.62
299.905	528.62
300.136	513.62
300.366	528.62
300.597	535.62
300.827	524.62
301.057	537.62
301.288	554.62
301.518	528.62
301.748	526.62
301.979	525.62
302.209	541.62
302.439	561.62
302.669	515.62
302.9	531.62
303.13	527.62
303.36	529.62
303.59	532.62
303.82	546.62
304.051	534.62
304.281	545.62
304.511	543.62
304.741	523.62
304.971	516.62
305.201	533.62
305.431	535.62
305.661	534.62
305.891	542.62
306.121	530.62
306.352	527.62
306.582	532.62
306.812	533.62
307.042	527.62
307.272	543.62
307.502	523.62
307.731	558.62
307.961	526.62
308.191	522.62
308.421	535.62
308.651	533.62
308.881	518.62
309.111	532.62
309.341	516.62
309.571	537.62
309.8	554.62
310.03	541.62
310.26	560.62
310.49	543.62
310.72	532.62
310.949	517.62
311.179	526.62
311.409	521.62
311.639	542.62
311.868	530.62
312.098	556.62
312.328	554.62
312.557	544.62
312.787	537.62
313.017	556.62
313.246	564.62
313.476	552.62
313.706	581.62
313.935	562.62
314.165	549.62
314.394	562.62
314.624	569.62
314.853	593.62
315.083	591.62
315.312	562.62
315.542	586.62
315.771	544.62
316.001	536.62
316.23	585.62
316.46	555.62
316.689	570.62
316.919	568.62
317.148	546.62
317.377	566.62
317.607	568.62
317.836	545.62
318.065	552.62
318.295	593.62
318.524	567.62
318.753	534.62
318.983	565.62
319.212	551.62
319.441	570.62
319.67	545.62
319.9	567.62
320.129	586.62
320.358	551.62
320.587	579.62
320.816	564.62
321.046	563.62
321.275	568.62
321.504	558.62
321.733	589.62
321.962	577.62
322.191	573.62
322.42	558.62
322.649	535.62
322.878	575.62
323.108	579.62
323.337	570.62
323.566	569.62
323.795	592.62
324.024	596.62
324.253	597.62
324.482	584.62
324.71	584.62
324.939	577.62
325.168	596.62
325.397	601.62
325.626	600.62
325.855	573.62
326.084	623.62
326.313	612.62
326.542	611.62
326.77	609.62
326.999	623.62
327.228	627.62
327.457	616.62
327.686	627.62
327.914	631.62
328.143	613.62
328.372	640.62
328.6	619.62
328.829	625.62
329.058	611.62
329.287	597.62
329.515	616.62
329.744	604.62
329.972	630.62
330.201	617.62
330.43	616.62
330.658	618.62
330.887	625.62
331.115	630.62
331.344	662.62
331.572	649.62
331.801	680.62
332.03	645.62
332.258	677.62
332.486	688.62
332.715	710.62
332.943	728.62
333.172	748.62
333.4	736.62
333.629	788.62
333.857	786.62
334.085	788.62
334.314	792.62
334.542	769.62
334.771	780.62
334.999	768.62
335.227	814.62
335.455	759.62
335.684	782.62
335.912	768.62
336.14	763.62
336.369	760.62
336.597	763.62
336.825	753.62
337.053	720.62
337.281	768.62
337.51	698.62
337.738	698.62
337.966	706.62
338.194	680.62
338.422	695.62
338.65	674.62
338.878	677.62
339.106	714.62
339.334	696.62
339.562	666.62
339.79	658.62
340.018	649.62
340.246	647.62
340.474	653.62
340.702	645.62
340.93	630.62
341.158	661.62
341.386	662.62
341.614	696.62
341.842	669.62
342.07	621.62
342.298	653.62
342.526	651.62
342.754	643.62
342.981	635.62
343.209	664.62
343.437	711.62
343.665	735.62
343.893	752.62
344.12	766.62
344.348	738.62
344.576	747.62
344.804	711.62
345.031	681.62
345.259	660.62
345.487	682.62
345.714	663.62
345.942	657.62
346.17	673.62
346.397	653.62
346.625	648.62
346.853	631.62
347.08	621.62
347.308	615.62
347.535	652.62
347.763	617.62
347.99	610.62
348.218	621.62
348.445	620.62
348.673	635.62
348.9	616.62
349.128	626.62
349.355	650.62
349.583	631.62
349.81	621.62
350.037	592.62
350.265	600.62
350.492	597.62
350.72	595.62
350.947	587.62
351.174	605.62
351.402	594.62
351.629	633.62
351.856	621.62
352.083	605.62
352.311	616.62
352.538	651.62
352.765	630.62
352.992	589.62
353.22	582.62
353.447	577.62
353.674	586.62
353.901	566.62
354.128	590.62
354.355	590.62
354.583	584.62
354.81	590.62
355.037	584.62
355.264	598.62
355.491	609.62
355.718	585.62
355.945	604.62
356.172	590.62
356.399	588.62
356.626	615.62
356.853	626.62
357.08	587.62
357.307	594.62
357.534	588.62
357.761	602.62
357.988	603.62
358.215	586.62
358.441	601.62
358.668	586.62
358.895	574.62
359.122	599.62
359.349	589.62
359.576	590.62
359.802	583.62
360.029	608.62
360.256	596.62
360.483	611.62
360.709	593.62
360.936	599.62
361.163	612.62
361.39	607.62
361.616	607.62
361.843	604.62
362.07	633.62
362.296	641.62
362.523	586.62
362.749	613.62
362.976	575.62
363.203	590.62
363.429	592.62
363.656	589.62
363.882	580.62
364.109	572.62
364.335	589.62
364.562	577.62
364.788	558.62
365.015	600.62
365.241	594.62
365.468	585.62
365.694	609.62
365.92	588.62
366.147	575.62
366.373	577.62
366.599	594.62
366.826	568.62
367.052	560.62
367.278	580.62
367.505	597.62
367.731	591.62
367.957	593.62
368.184	589.62
368.41	609.62
368.636	597.62
368.862	608.62
369.089	599.62
369.315	598.62
369.541	626.62
369.767	626.62
369.993	595.62
370.219	595.62
370.445	594.62
370.672	630.62
370.898	596.62
371.124	610.62
371.35	607.62
371.576	648.62
371.802	610.62
372.028	610.62
372.254	618.62
372.48	641.62
372.706	649.62
372.932	656.62
373.158	643.62
373.384	624.62
373.61	627.62
373.835	654.62
374.061	633.62
374.287	640.62
374.513	647.62
374.739	672.62
374.965	650.62
375.191	678.62
375.416	705.62
375.642	666.62
375.868	670.62
376.094	633.62
376.319	638.62
376.545	629.62
376.771	637.62
376.997	623.62
377.222	618.62
377.448	622.62
377.674	608.62
377.899	605.62
378.125	641.62
378.35	618.62
378.576	628.62
378.802	599.62
379.027	628.62
379.253	601.62
379.478	615.62
379.704	611.62
379.929	622.62
380.155	608.62
380.38	632.62
380.606	604.62
380.831	609.62
381.057	618.62
381.282	631.62
381.507	613.62
381.733	648.62
381.958	626.62
382.184	623.62
382.409	648.62
382.634	631.62
382.86	656.62
383.085	640.62
383.31	657.62
383.535	674.62
383.761	656.62
383.986	684.62
384.211	685.62
384.436	693.62
384.662	692.62
384.887	723.62
385.112	692.62
385.337	733.62
385.562	742.62
385.787	724.62
386.013	749.62
386.238	732.62
386.463	736.62
386.688	741.62
386.913	740.62
387.138	722.62
387.363	719.62
387.588	733.62
387.813	740.62
388.038	716.62
388.263	721.62
388.488	738.62
388.713	753.62
388.938	735.62
389.163	727.62
389.387	731.62
389.612	749.62
389.837	736.62
390.062	705.62
390.287	732.62
390.512	742.62
390.736	725.62
390.961	755.62
391.186	758.62
391.411	794.62
391.636	796.62
391.86	795.62
392.085	818.62
392.31	824.62
392.534	788.62
392.759	798.62
392.984	801.62
393.208	791.62
393.433	801.62
393.658	784.62
393.882	793.62
394.107	790.62
394.331	790.62
394.556	786.62
394.78	813.62
395.005	810.62
395.229	794.62
395.454	823.62
395.678	852.62
395.903	827.62
396.127	814.62
396.352	784.62
396.576	806.62
396.801	806.62
397.025	816.62
397.249	816.62
397.474	841.62
397.698	849.62
397.922	845.62
398.147	853.62
398.371	864.62
398.595	867.62
398.82	932.62
399.044	950.62
399.268	1077.62
399.492	1163.62
399.717	1242.62
399.941	1256.62
400.165	1141.62
400.389	1107.62
400.613	1020.62
400.837	986.62
401.062	983.62
401.286	930.62
401.51	920.62
401.734	952.62
401.958	982.62
402.182	903.62
402.406	937.62
402.63	944.62
402.854	967.62
403.078	954.62
403.302	980.62
403.526	991.62
403.75	1018.62
403.974	1024.62
404.198	1019.62
404.422	1011.62
404.645	1012.62
404.869	963.62
405.093	1020.62
405.317	972.62
405.541	1008.62
405.765	997.62
405.988	995.62
406.212	1009.62
406.436	1016.62
406.66	1030.62
406.883	1045.62
407.107	1089.62
407.331	1135.62
407.555	1164.62
407.778	1181.62
408.002	1142.62
408.226	1139.62
408.449	1109.62
408.673	1075.62
408.896	1093.62
409.12	1020.62
409.344	1069.62
409.567	1028.62
409.791	1040.62
410.014	1054.62
410.238	1044.62
410.461	1066.62
410.685	1022.62
410.908	1012.62
411.132	968.62
411.355	963.62
411.578	965.62
411.802	974.62
412.025	975.62
412.249	984.62
412.472	999.62
412.695	971.62
412.919	950.62
413.142	919.62
413.365	922.62
413.589	966.62
413.812	960.62
414.035	938.62
414.258	941.62
414.482	946.62
414.705	976.62
414.928	960.62
415.151	919.62
415.374	938.62
415.597	942.62
415.821	914.62
416.044	892.62
416.267	923.62
416.49	907.62
416.713	910.62
416.936	935.62
417.159	912.62
417.382	900.62
417.605	896.62
417.828	905.62
418.051	889.62
418.274	943.62
418.497	913.62
418.72	924.62
418.943	958.62
419.166	999.62
419.389	1051.62
419.611	1065.62
419.834	1011.62
420.057	956.62
420.28	960.62
420.503	923.62
420.726	888.62
420.948	902.62
421.171	902.62
421.394	924.62
421.617	927.62
421.839	962.62
422.062	936.62
422.285	902.62
422.507	944.62
422.73	919.62
422.953	906.62
423.175	953.62
423.398	940.62
423.621	937.62
423.843	937.62
424.066	953.62
424.288	954.62
424.511	953.62
424.733	907.62
424.956	914.62
425.178	927.62
425.401	918.62
425.623	907.62
425.846	881.62
426.068	906.62
426.291	890.62
426.513	876.62
426.735	869.62
426.958	892.62
427.18	867.62
427.402	876.62
427.625	884.62
427.847	867.62
428.069	865.62
428.292	858.62
428.514	847.62
428.736	824.62
428.958	864.62
429.181	829.62
429.403	825.62
429.625	841.62
429.847	809.62
430.069	846.62
430.292	879.62
430.514	814.62
430.736	849.62
430.958	831.62
431.18	828.62
431.402	845.62
431.624	826.62
431.846	840.62
432.068	848.62
432.29	865.62
432.512	853.62
432.734	865.62
432.956	848.62
433.178	865.62
433.4	856.62
433.622	842.62
433.844	879.62
434.066	906.62
434.287	880.62
434.509	906.62
434.731	897.62
434.953	928.62
435.175	927.62
435.397	950.62
435.618	903.62
435.84	884.62
436.062	853.62
436.284	830.62
436.505	857.62
436.727	826.62
436.949	836.62
437.17	860.62
437.392	842.62
437.614	864.62
437.835	800.62
438.057	836.62
438.278	810.62
438.5	822.62
438.721	833.62
438.943	814.62
439.165	845.62
439.386	845.62
439.608	862.62
439.829	860.62
440.05	846.62
440.272	858.62
440.493	860.62
440.715	884.62
440.936	882.62
441.158	892.62
441.379	919.62
441.6	973.62
441.822	946.62
442.043	946.62
442.264	916.62
442.486	901.62
442.707	919.62
442.928	921.62
443.149	927.62
443.371	918.62
443.592	928.62
443.813	950.62
444.034	966.62
444.255	970.62
444.476	986.62
444.698	1028.62
444.919	1065.62
445.14	1154.62
445.361	1045.62
445.582	989.62
445.803	957.62
446.024	894.62
446.245	907.62
446.466	894.62
446.687	867.62
446.908	864.62
447.129	852.62
447.35	856.62
447.571	833.62
447.792	828.62
448.013	780.62
448.234	791.62
448.455	822.62
448.675	833.62
448.896	826.62
449.117	817.62
449.338	820.62
449.559	801.62
449.779	775.62
450	800.62
450.221	790.62
450.442	792.62
450.662	786.62
450.883	812.62
451.104	845.62
451.324	818.62
451.545	800.62
451.766	807.62
451.986	792.62
452.207	790.62
452.428	779.62
452.648	806.62
452.869	765.62
453.089	745.62
453.31	806.62
453.53	751.62
453.751	770.62
453.971	758.62
454.192	771.62
454.412	767.62
454.633	744.62
454.853	735.62
455.073	751.62
455.294	732.62
455.514	768.62
455.734	752.62
455.955	735.62
456.175	726.62
456.395	700.62
456.616	722.62
456.836	739.62
457.056	729.62
457.276	727.62
457.497	727.62
457.717	775.62
457.937	773.62
458.157	772.62
458.377	770.62
458.598	779.62
458.818	800.62
459.038	796.62
459.258	810.62
459.478	870.62
459.698	913.62
459.918	906.62
460.138	908.62
460.358	976.62
460.578	961.62
460.798	985.62
461.018	1001.62
461.238	994.62
461.458	967.62
461.678	982.62
461.898	979.62
462.118	1010.62
462.338	1074.62
462.558	1107.62
462.777	1150.62
462.997	1193.62
463.217	1245.62
463.437	1254.62
463.657	1194.62
463.876	1167.62
464.096	1188.62
464.316	1158.62
464.536	1143.62
464.755	1105.62
464.975	1062.62
465.195	1020.62
465.414	993.62
465.634	936.62
465.854	927.62
466.073	884.62
466.293	896.62
466.512	876.62
466.732	862.62
466.951	850.62
467.171	844.62
467.391	820.62
467.61	818.62
467.829	816.62
468.049	819.62
468.268	806.62
468.488	802.62
468.707	818.62
468.927	836.62
469.146	800.62
469.365	822.62
469.585	846.62
469.804	829.62
470.023	822.62
470.243	853.62
470.462	865.62
470.681	856.62
470.901	888.62
471.12	879.62
471.339	837.62
471.558	808.62
471.777	852.62
471.997	836.62
472.216	824.62
472.435	768.62
472.654	800.62
472.873	795.62
473.092	778.62
473.311	774.62
473.53	784.62
473.749	796.62
473.968	768.62
474.187	781.62
474.406	777.62
474.625	798.62
474.844	802.62
475.063	826.62
475.282	807.62
475.501	803.62
475.72	789.62
475.939	806.62
476.158	801.62
476.377	806.62
476.596	814.62
476.814	819.62
477.033	832.62
477.252	859.62
477.471	886.62
477.69	894.62
477.908	916.62
478.127	921.62
478.346	893.62
478.564	918.62
478.783	931.62
479.002	985.62
479.22	977.62
479.439	991.62
479.658	961.62
479.876	962.62
480.095	967.62
480.313	1017.62
480.532	1008.62
480.751	1021.62
480.969	996.62
481.188	937.62
481.406	937.62
481.624	930.62
481.843	913.62
482.061	906.62
482.28	896.62
482.498	882.62
482.717	886.62
482.935	887.62
483.153	908.62
483.372	906.62
483.59	952.62
483.808	929.62
484.027	900.62
484.245	900.62
484.463	927.62
484.681	950.62
484.9	947.62
485.118	964.62
485.336	946.62
485.554	981.62
485.772	938.62
485.99	970.62
486.209	959.62
486.427	942.62
486.645	983.62
486.863	978.62
487.081	932.62
487.299	925.62
487.517	937.62
487.735	961.62
487.953	945.62
488.171	961.62
488.389	941.62
488.607	918.62
488.825	964.62
489.043	915.62
489.261	915.62
489.479	929.62
489.696	920.62
489.914	944.62
490.132	958.62
490.35	942.62
490.568	952.62
490.786	982.62
491.003	966.62
491.221	965.62
491.439	963.62
491.657	966.62
491.874	981.62
492.092	987.62
492.31	988.62
492.527	981.62
492.745	967.62
492.963	983.62
493.18	983.62
493.398	974.62
493.615	1000.62
493.833	1007.62
494.05	1000.62
494.268	1014.62
494.485	1011.62
494.703	1034.62
494.92	1032.62
495.138	1025.62
495.355	1045.62
495.573	1026.62
495.79	1062.62
496.008	1050.62
496.225	1056.62
496.442	1053.62
496.66	1067.62
496.877	1076.62
497.094	1097.62
497.312	1142.62
497.529	1150.62
497.746	1154.62
497.963	1198.62
498.181	1246.62
498.398	1316.62
498.615	1352.62
498.832	1423.62
499.049	1500.62
499.267	1606.62
499.484	1742.62
499.701	1928.62
499.918	2076.62
500.135	2297.62
500.352	2476.62
