Data from NiCl2@0.25M.TitratingCurve.Agarose3%dH2O.NegLispCup.LampEnergy10.LIBS07252019_HRD10591_18-23-38-573.txt Node
Date: Thu Jul 25 18:23:38 EDT 2019
User: cochatt
Spectrometer: HR+D1059
Trigger mode: 1
Integration Time (sec): 1.000000E-1
Scans to average: 1
Electric dark correction enabled: true
Nonlinearity correction enabled: false
Boxcar width: 0
XAxis mode: Wavelengths
Number of Pixels in Spectrum: 2048
>>>>>Begin Spectral Data<<<<<
223.165	-19.94
223.4	-19.94
223.635	-19.94
223.869	-24.94
224.104	2.06
224.338	-24.94
224.573	-3.94
224.808	-26.94
225.042	-6.94
225.277	-10.94
225.511	1.06
225.746	4.06
225.98	7.06
226.215	9.06
226.449	12.06
226.683	36.06
226.918	19.06
227.152	28.06
227.387	32.06
227.621	41.06
227.856	38.06
228.09	42.06
228.324	48.06
228.559	51.06
228.793	76.06
229.027	103.06
229.262	109.06
229.496	109.06
229.73	110.06
229.964	136.06
230.199	116.06
230.433	119.06
230.667	140.06
230.901	124.06
231.136	128.06
231.37	118.06
231.604	139.06
231.838	122.06
232.072	138.06
232.306	132.06
232.541	145.06
232.775	126.06
233.009	127.06
233.243	140.06
233.477	128.06
233.711	133.06
233.945	132.06
234.179	141.06
234.413	142.06
234.647	141.06
234.881	146.06
235.115	136.06
235.349	129.06
235.583	132.06
235.817	135.06
236.051	134.06
236.285	138.06
236.519	139.06
236.753	140.06
236.987	141.06
237.221	136.06
237.455	142.06
237.689	154.06
237.922	150.06
238.156	141.06
238.39	155.06
238.624	152.06
238.858	163.06
239.091	152.06
239.325	166.06
239.559	155.06
239.793	162.06
240.027	168.06
240.26	168.06
240.494	150.06
240.728	188.06
240.961	156.06
241.195	161.06
241.429	183.06
241.662	169.06
241.896	166.06
242.13	180.06
242.363	174.06
242.597	169.06
242.83	183.06
243.064	173.06
243.298	159.06
243.531	186.06
243.765	189.06
243.998	192.06
244.232	196.06
244.465	200.06
244.699	185.06
244.932	188.06
245.166	196.06
245.399	194.06
245.633	206.06
245.866	190.06
246.099	193.06
246.333	182.06
246.566	201.06
246.8	203.06
247.033	201.06
247.266	207.06
247.5	208.06
247.733	185.06
247.966	202.06
248.2	193.06
248.433	213.06
248.666	201.06
248.899	205.06
249.133	226.06
249.366	200.06
249.599	204.06
249.832	217.06
250.066	229.06
250.299	213.06
250.532	208.06
250.765	220.06
250.998	228.06
251.231	221.06
251.465	219.06
251.698	215.06
251.931	227.06
252.164	227.06
252.397	237.06
252.63	227.06
252.863	234.06
253.096	252.06
253.329	250.06
253.562	251.06
253.795	246.06
254.028	248.06
254.261	239.06
254.494	236.06
254.727	245.06
254.96	240.06
255.193	242.06
255.426	223.06
255.659	233.06
255.892	253.06
256.124	248.06
256.357	259.06
256.59	254.06
256.823	264.06
257.056	252.06
257.289	261.06
257.521	260.06
257.754	266.06
257.987	267.06
258.22	277.06
258.452	269.06
258.685	262.06
258.918	269.06
259.151	271.06
259.383	272.06
259.616	256.06
259.849	269.06
260.081	270.06
260.314	264.06
260.547	288.06
260.779	280.06
261.012	264.06
261.244	277.06
261.477	274.06
261.71	280.06
261.942	277.06
262.175	274.06
262.407	285.06
262.64	294.06
262.872	286.06
263.105	282.06
263.337	289.06
263.57	292.06
263.802	315.06
264.035	301.06
264.267	300.06
264.499	314.06
264.732	293.06
264.964	290.06
265.197	295.06
265.429	284.06
265.661	293.06
265.894	304.06
266.126	316.06
266.358	324.06
266.591	306.06
266.823	294.06
267.055	312.06
267.287	326.06
267.52	313.06
267.752	333.06
267.984	312.06
268.216	331.06
268.448	324.06
268.681	307.06
268.913	320.06
269.145	327.06
269.377	337.06
269.609	320.06
269.841	326.06
270.073	326.06
270.306	311.06
270.538	332.06
270.77	340.06
271.002	354.06
271.234	331.06
271.466	326.06
271.698	325.06
271.93	324.06
272.162	356.06
272.394	355.06
272.626	342.06
272.858	322.06
273.09	362.06
273.322	348.06
273.553	351.06
273.785	342.06
274.017	354.06
274.249	352.06
274.481	345.06
274.713	352.06
274.945	354.06
275.176	364.06
275.408	338.06
275.64	349.06
275.872	361.06
276.104	371.06
276.335	362.06
276.567	376.06
276.799	372.06
277.031	368.06
277.262	367.06
277.494	378.06
277.726	343.06
277.957	378.06
278.189	371.06
278.421	368.06
278.652	370.06
278.884	380.06
279.115	370.06
279.347	393.06
279.579	382.06
279.81	375.06
280.042	373.06
280.273	385.06
280.505	387.06
280.736	379.06
280.968	398.06
281.199	413.06
281.431	391.06
281.662	392.06
281.894	398.06
282.125	404.06
282.356	404.06
282.588	386.06
282.819	390.06
283.051	403.06
283.282	426.06
283.513	398.06
283.745	408.06
283.976	392.06
284.207	409.06
284.439	404.06
284.67	396.06
284.901	416.06
285.132	417.06
285.364	416.06
285.595	420.06
285.826	427.06
286.057	410.06
286.288	428.06
286.52	453.06
286.751	432.06
286.982	437.06
287.213	428.06
287.444	426.06
287.675	436.06
287.906	427.06
288.138	425.06
288.369	438.06
288.6	447.06
288.831	436.06
289.062	443.06
289.293	464.06
289.524	439.06
289.755	445.06
289.986	441.06
290.217	459.06
290.448	440.06
290.679	447.06
290.91	445.06
291.141	449.06
291.371	438.06
291.602	466.06
291.833	448.06
292.064	439.06
292.295	446.06
292.526	453.06
292.757	426.06
292.987	440.06
293.218	461.06
293.449	453.06
293.68	446.06
293.91	446.06
294.141	460.06
294.372	456.06
294.603	464.06
294.833	439.06
295.064	426.06
295.295	450.06
295.525	446.06
295.756	462.06
295.987	459.06
296.217	482.06
296.448	482.06
296.679	486.06
296.909	483.06
297.14	479.06
297.37	483.06
297.601	481.06
297.831	498.06
298.062	475.06
298.292	506.06
298.523	477.06
298.753	504.06
298.984	501.06
299.214	481.06
299.445	506.06
299.675	492.06
299.905	490.06
300.136	500.06
300.366	489.06
300.597	496.06
300.827	525.06
301.057	501.06
301.288	531.06
301.518	498.06
301.748	520.06
301.979	528.06
302.209	554.06
302.439	515.06
302.669	526.06
302.9	516.06
303.13	506.06
303.36	526.06
303.59	519.06
303.82	514.06
304.051	506.06
304.281	503.06
304.511	518.06
304.741	496.06
304.971	516.06
305.201	526.06
305.431	509.06
305.661	505.06
305.891	510.06
306.121	529.06
306.352	520.06
306.582	520.06
306.812	493.06
307.042	506.06
307.272	500.06
307.502	507.06
307.731	486.06
307.961	542.06
308.191	516.06
308.421	522.06
308.651	516.06
308.881	487.06
309.111	500.06
309.341	498.06
309.571	499.06
309.8	511.06
310.03	497.06
310.26	516.06
310.49	514.06
310.72	504.06
310.949	510.06
311.179	506.06
311.409	518.06
311.639	514.06
311.868	506.06
312.098	506.06
312.328	543.06
312.557	550.06
312.787	546.06
313.017	531.06
313.246	540.06
313.476	521.06
313.706	538.06
313.935	544.06
314.165	580.06
314.394	545.06
314.624	542.06
314.853	545.06
315.083	552.06
315.312	544.06
315.542	547.06
315.771	552.06
316.001	561.06
316.23	528.06
316.46	535.06
316.689	537.06
316.919	561.06
317.148	552.06
317.377	546.06
317.607	530.06
317.836	526.06
318.065	534.06
318.295	530.06
318.524	532.06
318.753	530.06
318.983	531.06
319.212	536.06
319.441	532.06
319.67	535.06
319.9	539.06
320.129	539.06
320.358	545.06
320.587	546.06
320.816	525.06
321.046	538.06
321.275	543.06
321.504	538.06
321.733	525.06
321.962	548.06
322.191	528.06
322.42	561.06
322.649	571.06
322.878	541.06
323.108	538.06
323.337	564.06
323.566	553.06
323.795	552.06
324.024	548.06
324.253	557.06
324.482	586.06
324.71	563.06
324.939	556.06
325.168	569.06
325.397	562.06
325.626	584.06
325.855	597.06
326.084	590.06
326.313	595.06
326.542	601.06
326.77	597.06
326.999	594.06
327.228	593.06
327.457	595.06
327.686	598.06
327.914	579.06
328.143	585.06
328.372	606.06
328.6	587.06
328.829	581.06
329.058	600.06
329.287	585.06
329.515	579.06
329.744	588.06
329.972	598.06
330.201	605.06
330.43	597.06
330.658	605.06
330.887	615.06
331.115	616.06
331.344	627.06
331.572	630.06
331.801	637.06
332.03	648.06
332.258	668.06
332.486	682.06
332.715	707.06
332.943	736.06
333.172	744.06
333.4	781.06
333.629	810.06
333.857	806.06
334.085	791.06
334.314	776.06
334.542	765.06
334.771	731.06
334.999	734.06
335.227	737.06
335.455	752.06
335.684	710.06
335.912	711.06
336.14	721.06
336.369	694.06
336.597	712.06
336.825	713.06
337.053	699.06
337.281	681.06
337.51	689.06
337.738	666.06
337.966	671.06
338.194	653.06
338.422	675.06
338.65	651.06
338.878	655.06
339.106	649.06
339.334	654.06
339.562	650.06
339.79	641.06
340.018	622.06
340.246	622.06
340.474	618.06
340.702	601.06
340.93	643.06
341.158	629.06
341.386	603.06
341.614	610.06
341.842	632.06
342.07	616.06
342.298	607.06
342.526	617.06
342.754	612.06
342.981	609.06
343.209	630.06
343.437	662.06
343.665	699.06
343.893	752.06
344.12	772.06
344.348	746.06
344.576	706.06
344.804	683.06
345.031	652.06
345.259	652.06
345.487	612.06
345.714	633.06
345.942	603.06
346.17	621.06
346.397	624.06
346.625	598.06
346.853	585.06
347.08	601.06
347.308	608.06
347.535	604.06
347.763	577.06
347.99	597.06
348.218	598.06
348.445	596.06
348.673	587.06
348.9	576.06
349.128	597.06
349.355	564.06
349.583	605.06
349.81	595.06
350.037	593.06
350.265	579.06
350.492	587.06
350.72	583.06
350.947	568.06
351.174	590.06
351.402	563.06
351.629	600.06
351.856	557.06
352.083	565.06
352.311	564.06
352.538	599.06
352.765	574.06
352.992	577.06
353.22	556.06
353.447	582.06
353.674	560.06
353.901	587.06
354.128	587.06
354.355	553.06
354.583	594.06
354.81	579.06
355.037	564.06
355.264	589.06
355.491	568.06
355.718	564.06
355.945	593.06
356.172	597.06
356.399	575.06
356.626	590.06
356.853	578.06
357.08	593.06
357.307	599.06
357.534	606.06
357.761	592.06
357.988	586.06
358.215	558.06
358.441	574.06
358.668	564.06
358.895	584.06
359.122	587.06
359.349	601.06
359.576	569.06
359.802	555.06
360.029	567.06
360.256	559.06
360.483	589.06
360.709	590.06
360.936	567.06
361.163	579.06
361.39	569.06
361.616	583.06
361.843	588.06
362.07	583.06
362.296	594.06
362.523	594.06
362.749	581.06
362.976	596.06
363.203	582.06
363.429	563.06
363.656	589.06
363.882	589.06
364.109	587.06
364.335	600.06
364.562	560.06
364.788	569.06
365.015	582.06
365.241	584.06
365.468	565.06
365.694	578.06
365.92	553.06
366.147	569.06
366.373	563.06
366.599	583.06
366.826	600.06
367.052	573.06
367.278	560.06
367.505	596.06
367.731	593.06
367.957	570.06
368.184	586.06
368.41	578.06
368.636	588.06
368.862	597.06
369.089	607.06
369.315	597.06
369.541	602.06
369.767	600.06
369.993	592.06
370.219	580.06
370.445	628.06
370.672	624.06
370.898	640.06
371.124	603.06
371.35	670.06
371.576	639.06
371.802	640.06
372.028	642.06
372.254	627.06
372.48	624.06
372.706	639.06
372.932	646.06
373.158	640.06
373.384	633.06
373.61	641.06
373.835	626.06
374.061	646.06
374.287	655.06
374.513	665.06
374.739	681.06
374.965	680.06
375.191	695.06
375.416	692.06
375.642	664.06
375.868	680.06
376.094	665.06
376.319	652.06
376.545	644.06
376.771	621.06
376.997	616.06
377.222	634.06
377.448	638.06
377.674	630.06
377.899	633.06
378.125	633.06
378.35	609.06
378.576	625.06
378.802	607.06
379.027	642.06
379.253	636.06
379.478	606.06
379.704	622.06
379.929	628.06
380.155	602.06
380.38	630.06
380.606	615.06
380.831	608.06
381.057	621.06
381.282	615.06
381.507	639.06
381.733	618.06
381.958	640.06
382.184	660.06
382.409	649.06
382.634	649.06
382.86	649.06
383.085	668.06
383.31	666.06
383.535	679.06
383.761	724.06
383.986	690.06
384.211	718.06
384.436	749.06
384.662	732.06
384.887	729.06
385.112	760.06
385.337	776.06
385.562	742.06
385.787	743.06
386.013	753.06
386.238	753.06
386.463	745.06
386.688	747.06
386.913	768.06
387.138	727.06
387.363	757.06
387.588	706.06
387.813	746.06
388.038	750.06
388.263	746.06
388.488	747.06
388.713	714.06
388.938	734.06
389.163	744.06
389.387	728.06
389.612	727.06
389.837	721.06
390.062	725.06
390.287	726.06
390.512	711.06
390.736	729.06
390.961	770.06
391.186	793.06
391.411	781.06
391.636	824.06
391.86	861.06
392.085	855.06
392.31	854.06
392.534	852.06
392.759	805.06
392.984	813.06
393.208	795.06
393.433	779.06
393.658	786.06
393.882	766.06
394.107	810.06
394.331	793.06
394.556	781.06
394.78	804.06
395.005	796.06
395.229	796.06
395.454	833.06
395.678	849.06
395.903	857.06
396.127	846.06
396.352	810.06
396.576	784.06
396.801	787.06
397.025	808.06
397.249	834.06
397.474	832.06
397.698	835.06
397.922	850.06
398.147	854.06
398.371	888.06
398.595	893.06
398.82	921.06
399.044	975.06
399.268	1108.06
399.492	1264.06
399.717	1437.06
399.941	1401.06
400.165	1249.06
400.389	1114.06
400.613	1049.06
400.837	1012.06
401.062	984.06
401.286	983.06
401.51	961.06
401.734	961.06
401.958	953.06
402.182	944.06
402.406	949.06
402.63	989.06
402.854	1019.06
403.078	1010.06
403.302	1050.06
403.526	1088.06
403.75	1066.06
403.974	1077.06
404.198	1078.06
404.422	1103.06
404.645	1084.06
404.869	1082.06
405.093	1084.06
405.317	1048.06
405.541	1046.06
405.765	1032.06
405.988	1029.06
406.212	998.06
406.436	1061.06
406.66	1029.06
406.883	1067.06
407.107	1132.06
407.331	1202.06
407.555	1221.06
407.778	1169.06
408.002	1189.06
408.226	1167.06
408.449	1132.06
408.673	1066.06
408.896	1074.06
409.12	1048.06
409.344	1069.06
409.567	1062.06
409.791	1084.06
410.014	1082.06
410.238	1012.06
410.461	1042.06
410.685	1047.06
410.908	1009.06
411.132	1003.06
411.355	989.06
411.578	967.06
411.802	977.06
412.025	970.06
412.249	982.06
412.472	977.06
412.695	953.06
412.919	945.06
413.142	955.06
413.365	971.06
413.589	945.06
413.812	931.06
414.035	921.06
414.258	937.06
414.482	944.06
414.705	964.06
414.928	946.06
415.151	938.06
415.374	921.06
415.597	908.06
415.821	922.06
416.044	920.06
416.267	898.06
416.49	919.06
416.713	944.06
416.936	924.06
417.159	907.06
417.382	928.06
417.605	914.06
417.828	922.06
418.051	982.06
418.274	949.06
418.497	941.06
418.72	983.06
418.943	957.06
419.166	1017.06
419.389	1081.06
419.611	1024.06
419.834	991.06
420.057	976.06
420.28	925.06
420.503	934.06
420.726	925.06
420.948	931.06
421.171	918.06
421.394	950.06
421.617	896.06
421.839	916.06
422.062	929.06
422.285	934.06
422.507	958.06
422.73	950.06
422.953	969.06
423.175	980.06
423.398	990.06
423.621	970.06
423.843	981.06
424.066	1011.06
424.288	952.06
424.511	983.06
424.733	968.06
424.956	947.06
425.178	951.06
425.401	902.06
425.623	883.06
425.846	885.06
426.068	898.06
426.291	897.06
426.513	876.06
426.735	869.06
426.958	868.06
427.18	886.06
427.402	836.06
427.625	846.06
427.847	830.06
428.069	805.06
428.292	842.06
428.514	829.06
428.736	820.06
428.958	826.06
429.181	819.06
429.403	807.06
429.625	808.06
429.847	811.06
430.069	785.06
430.292	817.06
430.514	789.06
430.736	804.06
430.958	840.06
431.18	804.06
431.402	818.06
431.624	816.06
431.846	813.06
432.068	805.06
432.29	839.06
432.512	793.06
432.734	829.06
432.956	807.06
433.178	841.06
433.4	829.06
433.622	859.06
433.844	861.06
434.066	839.06
434.287	865.06
434.509	877.06
434.731	889.06
434.953	929.06
435.175	938.06
435.397	887.06
435.618	852.06
435.84	850.06
436.062	853.06
436.284	805.06
436.505	827.06
436.727	836.06
436.949	832.06
437.17	805.06
437.392	822.06
437.614	809.06
437.835	812.06
438.057	796.06
438.278	760.06
438.5	775.06
438.721	781.06
438.943	791.06
439.165	786.06
439.386	809.06
439.608	820.06
439.829	790.06
440.05	802.06
440.272	801.06
440.493	815.06
440.715	843.06
440.936	844.06
441.158	869.06
441.379	922.06
441.6	940.06
441.822	930.06
442.043	938.06
442.264	907.06
442.486	904.06
442.707	881.06
442.928	910.06
443.149	895.06
443.371	904.06
443.592	895.06
443.813	889.06
444.034	929.06
444.255	972.06
444.476	998.06
444.698	1069.06
444.919	1112.06
445.14	1164.06
445.361	1036.06
445.582	959.06
445.803	871.06
446.024	871.06
446.245	864.06
446.466	850.06
446.687	812.06
446.908	828.06
447.129	782.06
447.35	790.06
447.571	806.06
447.792	755.06
448.013	788.06
448.234	761.06
448.455	765.06
448.675	744.06
448.896	742.06
449.117	727.06
449.338	740.06
449.559	741.06
449.779	741.06
450	738.06
450.221	758.06
450.442	760.06
450.662	756.06
450.883	776.06
451.104	773.06
451.324	784.06
451.545	778.06
451.766	777.06
451.986	760.06
452.207	741.06
452.428	754.06
452.648	749.06
452.869	737.06
453.089	746.06
453.31	725.06
453.53	709.06
453.751	732.06
453.971	749.06
454.192	745.06
454.412	691.06
454.633	731.06
454.853	725.06
455.073	718.06
455.294	702.06
455.514	701.06
455.734	726.06
455.955	701.06
456.175	724.06
456.395	727.06
456.616	692.06
456.836	716.06
457.056	713.06
457.276	707.06
457.497	685.06
457.717	700.06
457.937	719.06
458.157	708.06
458.377	713.06
458.598	742.06
458.818	768.06
459.038	784.06
459.258	801.06
459.478	827.06
459.698	851.06
459.918	865.06
460.138	887.06
460.358	987.06
460.578	968.06
460.798	968.06
461.018	980.06
461.238	958.06
461.458	941.06
461.678	947.06
461.898	978.06
462.118	987.06
462.338	1022.06
462.558	1058.06
462.777	1095.06
462.997	1174.06
463.217	1274.06
463.437	1289.06
463.657	1216.06
463.876	1131.06
464.096	1103.06
464.316	1138.06
464.536	1152.06
464.755	1090.06
464.975	1064.06
465.195	992.06
465.414	953.06
465.634	888.06
465.854	874.06
466.073	838.06
466.293	832.06
466.512	824.06
466.732	788.06
466.951	775.06
467.171	777.06
467.391	806.06
467.61	786.06
467.829	786.06
468.049	796.06
468.268	758.06
468.488	753.06
468.707	743.06
468.927	770.06
469.146	759.06
469.365	769.06
469.585	753.06
469.804	779.06
470.023	826.06
470.243	813.06
470.462	822.06
470.681	813.06
470.901	789.06
471.12	796.06
471.339	803.06
471.558	771.06
471.777	797.06
471.997	759.06
472.216	731.06
472.435	770.06
472.654	750.06
472.873	742.06
473.092	726.06
473.311	731.06
473.53	725.06
473.749	745.06
473.968	736.06
474.187	712.06
474.406	723.06
474.625	747.06
474.844	736.06
475.063	749.06
475.282	731.06
475.501	732.06
475.72	727.06
475.939	753.06
476.158	739.06
476.377	790.06
476.596	749.06
476.814	761.06
477.033	779.06
477.252	797.06
477.471	810.06
477.69	823.06
477.908	834.06
478.127	869.06
478.346	888.06
478.564	880.06
478.783	905.06
479.002	947.06
479.22	952.06
479.439	913.06
479.658	904.06
479.876	897.06
480.095	927.06
480.313	961.06
480.532	984.06
480.751	1006.06
480.969	935.06
481.188	930.06
481.406	901.06
481.624	883.06
481.843	856.06
482.061	838.06
482.28	820.06
482.498	827.06
482.717	841.06
482.935	852.06
483.153	835.06
483.372	847.06
483.59	841.06
483.808	831.06
484.027	853.06
484.245	850.06
484.463	862.06
484.681	886.06
484.9	852.06
485.118	887.06
485.336	880.06
485.554	857.06
485.772	876.06
485.99	897.06
486.209	880.06
486.427	888.06
486.645	870.06
486.863	903.06
487.081	866.06
487.299	877.06
487.517	876.06
487.735	896.06
487.953	904.06
488.171	917.06
488.389	858.06
488.607	863.06
488.825	856.06
489.043	855.06
489.261	867.06
489.479	877.06
489.696	872.06
489.914	898.06
490.132	886.06
490.35	899.06
490.568	883.06
490.786	870.06
491.003	899.06
491.221	931.06
491.439	903.06
491.657	915.06
491.874	876.06
492.092	875.06
492.31	921.06
492.527	912.06
492.745	918.06
492.963	914.06
493.18	913.06
493.398	909.06
493.615	900.06
493.833	922.06
494.05	934.06
494.268	940.06
494.485	924.06
494.703	981.06
494.92	924.06
495.138	958.06
495.355	933.06
495.573	976.06
495.79	957.06
496.008	960.06
496.225	964.06
496.442	964.06
496.66	991.06
496.877	1024.06
497.094	1017.06
497.312	1054.06
497.529	1062.06
497.746	1067.06
497.963	1090.06
498.181	1146.06
498.398	1185.06
498.615	1290.06
498.832	1342.06
499.049	1496.06
499.267	1564.06
499.484	1696.06
499.701	1875.06
499.918	2075.06
500.135	2414.06
500.352	2742.06
500.569	2843.06
