Data from NiCl2@0.0625M.TitratingCurve.Agarose3%dH2O.NegLispCup.LampEnergy10.LIBS07252019_HRD10591_18-33-05-576.txt Node
Date: Thu Jul 25 18:33:05 EDT 2019
User: cochatt
Spectrometer: HR+D1059
Trigger mode: 1
Integration Time (sec): 1.000000E-1
Scans to average: 1
Electric dark correction enabled: true
Nonlinearity correction enabled: false
Boxcar width: 0
XAxis mode: Wavelengths
Number of Pixels in Spectrum: 2048
>>>>>Begin Spectral Data<<<<<
223.165	-12.12
223.4	-12.12
223.635	-12.12
223.869	-18.12
224.104	-33.12
224.338	-14.12
224.573	-12.12
224.808	-19.12
225.042	-5.12
225.277	-0.12
225.511	-5.12
225.746	18.88
225.98	5.88
226.215	6.88
226.449	9.88
226.683	19.88
226.918	22.88
227.152	34.88
227.387	32.88
227.621	33.88
227.856	41.88
228.09	60.88
228.324	46.88
228.559	53.88
228.793	69.88
229.027	142.88
229.262	136.88
229.496	154.88
229.73	160.88
229.964	176.88
230.199	183.88
230.433	176.88
230.667	194.88
230.901	184.88
231.136	183.88
231.37	185.88
231.604	190.88
231.838	198.88
232.072	202.88
232.306	192.88
232.541	201.88
232.775	211.88
233.009	209.88
233.243	210.88
233.477	218.88
233.711	215.88
233.945	206.88
234.179	213.88
234.413	210.88
234.647	196.88
234.881	228.88
235.115	222.88
235.349	212.88
235.583	232.88
235.817	226.88
236.051	217.88
236.285	233.88
236.519	234.88
236.753	231.88
236.987	233.88
237.221	234.88
237.455	242.88
237.689	240.88
237.922	261.88
238.156	238.88
238.39	250.88
238.624	248.88
238.858	253.88
239.091	233.88
239.325	262.88
239.559	267.88
239.793	270.88
240.027	277.88
240.26	281.88
240.494	272.88
240.728	287.88
240.961	274.88
241.195	279.88
241.429	278.88
241.662	297.88
241.896	293.88
242.13	290.88
242.363	300.88
242.597	312.88
242.83	330.88
243.064	312.88
243.298	320.88
243.531	320.88
243.765	321.88
243.998	326.88
244.232	334.88
244.465	342.88
244.699	351.88
244.932	343.88
245.166	335.88
245.399	335.88
245.633	360.88
245.866	336.88
246.099	350.88
246.333	330.88
246.566	333.88
246.8	325.88
247.033	358.88
247.266	360.88
247.5	366.88
247.733	370.88
247.966	373.88
248.2	383.88
248.433	404.88
248.666	376.88
248.899	394.88
249.133	360.88
249.366	376.88
249.599	384.88
249.832	408.88
250.066	407.88
250.299	418.88
250.532	407.88
250.765	385.88
250.998	408.88
251.231	408.88
251.465	442.88
251.698	441.88
251.931	425.88
252.164	432.88
252.397	432.88
252.63	437.88
252.863	433.88
253.096	446.88
253.329	445.88
253.562	453.88
253.795	458.88
254.028	450.88
254.261	445.88
254.494	457.88
254.727	470.88
254.96	461.88
255.193	486.88
255.426	486.88
255.659	446.88
255.892	481.88
256.124	481.88
256.357	477.88
256.59	493.88
256.823	473.88
257.056	484.88
257.289	475.88
257.521	500.88
257.754	490.88
257.987	485.88
258.22	549.88
258.452	494.88
258.685	507.88
258.918	525.88
259.151	511.88
259.383	520.88
259.616	514.88
259.849	515.88
260.081	521.88
260.314	534.88
260.547	552.88
260.779	530.88
261.012	549.88
261.244	545.88
261.477	561.88
261.71	558.88
261.942	535.88
262.175	552.88
262.407	541.88
262.64	541.88
262.872	564.88
263.105	582.88
263.337	565.88
263.57	579.88
263.802	574.88
264.035	574.88
264.267	573.88
264.499	557.88
264.732	592.88
264.964	597.88
265.197	583.88
265.429	613.88
265.661	575.88
265.894	605.88
266.126	597.88
266.358	579.88
266.591	601.88
266.823	584.88
267.055	597.88
267.287	620.88
267.52	598.88
267.752	610.88
267.984	598.88
268.216	602.88
268.448	621.88
268.681	640.88
268.913	611.88
269.145	647.88
269.377	626.88
269.609	668.88
269.841	630.88
270.073	636.88
270.306	621.88
270.538	654.88
270.77	653.88
271.002	637.88
271.234	639.88
271.466	660.88
271.698	651.88
271.93	672.88
272.162	674.88
272.394	643.88
272.626	676.88
272.858	709.88
273.09	704.88
273.322	704.88
273.553	689.88
273.785	704.88
274.017	696.88
274.249	702.88
274.481	718.88
274.713	700.88
274.945	716.88
275.176	732.88
275.408	708.88
275.64	719.88
275.872	717.88
276.104	711.88
276.335	718.88
276.567	743.88
276.799	747.88
277.031	750.88
277.262	733.88
277.494	733.88
277.726	727.88
277.957	749.88
278.189	756.88
278.421	735.88
278.652	764.88
278.884	761.88
279.115	775.88
279.347	791.88
279.579	753.88
279.81	779.88
280.042	779.88
280.273	788.88
280.505	806.88
280.736	787.88
280.968	790.88
281.199	788.88
281.431	777.88
281.662	806.88
281.894	822.88
282.125	794.88
282.356	818.88
282.588	798.88
282.819	818.88
283.051	787.88
283.282	808.88
283.513	833.88
283.745	841.88
283.976	855.88
284.207	820.88
284.439	832.88
284.67	833.88
284.901	854.88
285.132	846.88
285.364	834.88
285.595	848.88
285.826	837.88
286.057	881.88
286.288	850.88
286.52	852.88
286.751	849.88
286.982	876.88
287.213	878.88
287.444	886.88
287.675	887.88
287.906	881.88
288.138	879.88
288.369	886.88
288.6	897.88
288.831	910.88
289.062	881.88
289.293	890.88
289.524	892.88
289.755	910.88
289.986	903.88
290.217	881.88
290.448	914.88
290.679	893.88
290.91	885.88
291.141	907.88
291.371	913.88
291.602	890.88
291.833	903.88
292.064	894.88
292.295	926.88
292.526	904.88
292.757	907.88
292.987	901.88
293.218	884.88
293.449	912.88
293.68	900.88
293.91	913.88
294.141	901.88
294.372	909.88
294.603	910.88
294.833	917.88
295.064	926.88
295.295	933.88
295.525	914.88
295.756	935.88
295.987	935.88
296.217	907.88
296.448	932.88
296.679	943.88
296.909	949.88
297.14	958.88
297.37	977.88
297.601	982.88
297.831	977.88
298.062	957.88
298.292	976.88
298.523	1003.88
298.753	1020.88
298.984	999.88
299.214	996.88
299.445	1035.88
299.675	1002.88
299.905	985.88
300.136	1004.88
300.366	999.88
300.597	1015.88
300.827	1031.88
301.057	1028.88
301.288	1034.88
301.518	1025.88
301.748	1048.88
301.979	1063.88
302.209	1033.88
302.439	1059.88
302.669	1070.88
302.9	1023.88
303.13	1062.88
303.36	1025.88
303.59	1054.88
303.82	1031.88
304.051	1029.88
304.281	1044.88
304.511	1031.88
304.741	1035.88
304.971	1039.88
305.201	1019.88
305.431	1043.88
305.661	1040.88
305.891	1026.88
306.121	1039.88
306.352	1049.88
306.582	1030.88
306.812	1023.88
307.042	1048.88
307.272	1036.88
307.502	1013.88
307.731	1055.88
307.961	1029.88
308.191	1018.88
308.421	1021.88
308.651	1043.88
308.881	1046.88
309.111	1042.88
309.341	1027.88
309.571	1040.88
309.8	1039.88
310.03	1037.88
310.26	1061.88
310.49	1032.88
310.72	1044.88
310.949	1034.88
311.179	1043.88
311.409	1059.88
311.639	1063.88
311.868	1049.88
312.098	1045.88
312.328	1072.88
312.557	1096.88
312.787	1108.88
313.017	1038.88
313.246	1105.88
313.476	1085.88
313.706	1095.88
313.935	1107.88
314.165	1119.88
314.394	1133.88
314.624	1103.88
314.853	1094.88
315.083	1137.88
315.312	1117.88
315.542	1126.88
315.771	1100.88
316.001	1117.88
316.23	1088.88
316.46	1086.88
316.689	1102.88
316.919	1153.88
317.148	1150.88
317.377	1092.88
317.607	1098.88
317.836	1088.88
318.065	1111.88
318.295	1127.88
318.524	1113.88
318.753	1120.88
318.983	1078.88
319.212	1109.88
319.441	1098.88
319.67	1118.88
319.9	1085.88
320.129	1089.88
320.358	1096.88
320.587	1125.88
320.816	1118.88
321.046	1111.88
321.275	1151.88
321.504	1141.88
321.733	1113.88
321.962	1122.88
322.191	1146.88
322.42	1116.88
322.649	1140.88
322.878	1132.88
323.108	1124.88
323.337	1168.88
323.566	1096.88
323.795	1099.88
324.024	1129.88
324.253	1127.88
324.482	1145.88
324.71	1144.88
324.939	1170.88
325.168	1147.88
325.397	1154.88
325.626	1153.88
325.855	1207.88
326.084	1182.88
326.313	1216.88
326.542	1177.88
326.77	1228.88
326.999	1196.88
327.228	1212.88
327.457	1182.88
327.686	1169.88
327.914	1190.88
328.143	1186.88
328.372	1206.88
328.6	1201.88
328.829	1194.88
329.058	1208.88
329.287	1230.88
329.515	1221.88
329.744	1224.88
329.972	1264.88
330.201	1238.88
330.43	1233.88
330.658	1263.88
330.887	1240.88
331.115	1271.88
331.344	1248.88
331.572	1293.88
331.801	1274.88
332.03	1287.88
332.258	1334.88
332.486	1358.88
332.715	1416.88
332.943	1440.88
333.172	1481.88
333.4	1518.88
333.629	1540.88
333.857	1571.88
334.085	1535.88
334.314	1549.88
334.542	1554.88
334.771	1500.88
334.999	1519.88
335.227	1532.88
335.455	1519.88
335.684	1494.88
335.912	1487.88
336.14	1481.88
336.369	1471.88
336.597	1465.88
336.825	1428.88
337.053	1450.88
337.281	1404.88
337.51	1405.88
337.738	1416.88
337.966	1363.88
338.194	1356.88
338.422	1350.88
338.65	1301.88
338.878	1321.88
339.106	1313.88
339.334	1341.88
339.562	1329.88
339.79	1257.88
340.018	1281.88
340.246	1291.88
340.474	1290.88
340.702	1265.88
340.93	1270.88
341.158	1268.88
341.386	1279.88
341.614	1272.88
341.842	1273.88
342.07	1265.88
342.298	1242.88
342.526	1286.88
342.754	1266.88
342.981	1271.88
343.209	1287.88
343.437	1365.88
343.665	1408.88
343.893	1468.88
344.12	1531.88
344.348	1493.88
344.576	1441.88
344.804	1395.88
345.031	1372.88
345.259	1316.88
345.487	1289.88
345.714	1296.88
345.942	1243.88
346.17	1254.88
346.397	1236.88
346.625	1237.88
346.853	1260.88
347.08	1231.88
347.308	1223.88
347.535	1217.88
347.763	1217.88
347.99	1231.88
348.218	1230.88
348.445	1232.88
348.673	1208.88
348.9	1196.88
349.128	1222.88
349.355	1219.88
349.583	1209.88
349.81	1207.88
350.037	1192.88
350.265	1173.88
350.492	1167.88
350.72	1184.88
350.947	1148.88
351.174	1197.88
351.402	1156.88
351.629	1187.88
351.856	1164.88
352.083	1185.88
352.311	1168.88
352.538	1186.88
352.765	1179.88
352.992	1197.88
353.22	1162.88
353.447	1139.88
353.674	1174.88
353.901	1164.88
354.128	1157.88
354.355	1182.88
354.583	1144.88
354.81	1186.88
355.037	1171.88
355.264	1184.88
355.491	1170.88
355.718	1168.88
355.945	1184.88
356.172	1192.88
356.399	1199.88
356.626	1191.88
356.853	1194.88
357.08	1166.88
357.307	1192.88
357.534	1167.88
357.761	1150.88
357.988	1189.88
358.215	1182.88
358.441	1171.88
358.668	1198.88
358.895	1200.88
359.122	1203.88
359.349	1174.88
359.576	1180.88
359.802	1188.88
360.029	1150.88
360.256	1191.88
360.483	1191.88
360.709	1213.88
360.936	1200.88
361.163	1196.88
361.39	1141.88
361.616	1189.88
361.843	1153.88
362.07	1187.88
362.296	1147.88
362.523	1151.88
362.749	1172.88
362.976	1167.88
363.203	1173.88
363.429	1178.88
363.656	1185.88
363.882	1204.88
364.109	1184.88
364.335	1162.88
364.562	1184.88
364.788	1138.88
365.015	1165.88
365.241	1143.88
365.468	1213.88
365.694	1165.88
365.92	1186.88
366.147	1173.88
366.373	1161.88
366.599	1198.88
366.826	1171.88
367.052	1192.88
367.278	1199.88
367.505	1180.88
367.731	1168.88
367.957	1216.88
368.184	1200.88
368.41	1205.88
368.636	1179.88
368.862	1210.88
369.089	1204.88
369.315	1213.88
369.541	1224.88
369.767	1224.88
369.993	1223.88
370.219	1202.88
370.445	1221.88
370.672	1255.88
370.898	1255.88
371.124	1240.88
371.35	1277.88
371.576	1302.88
371.802	1271.88
372.028	1310.88
372.254	1292.88
372.48	1258.88
372.706	1306.88
372.932	1315.88
373.158	1326.88
373.384	1287.88
373.61	1308.88
373.835	1306.88
374.061	1282.88
374.287	1293.88
374.513	1338.88
374.739	1348.88
374.965	1406.88
375.191	1398.88
375.416	1458.88
375.642	1365.88
375.868	1363.88
376.094	1301.88
376.319	1291.88
376.545	1292.88
376.771	1282.88
376.997	1270.88
377.222	1266.88
377.448	1289.88
377.674	1272.88
377.899	1301.88
378.125	1265.88
378.35	1282.88
378.576	1257.88
378.802	1255.88
379.027	1257.88
379.253	1253.88
379.478	1272.88
379.704	1283.88
379.929	1235.88
380.155	1279.88
380.38	1249.88
380.606	1252.88
380.831	1271.88
381.057	1317.88
381.282	1311.88
381.507	1266.88
381.733	1293.88
381.958	1307.88
382.184	1310.88
382.409	1338.88
382.634	1310.88
382.86	1321.88
383.085	1374.88
383.31	1345.88
383.535	1392.88
383.761	1360.88
383.986	1388.88
384.211	1434.88
384.436	1451.88
384.662	1440.88
384.887	1506.88
385.112	1487.88
385.337	1528.88
385.562	1559.88
385.787	1494.88
386.013	1542.88
386.238	1536.88
386.463	1529.88
386.688	1534.88
386.913	1500.88
387.138	1543.88
387.363	1506.88
387.588	1502.88
387.813	1549.88
388.038	1543.88
388.263	1537.88
388.488	1547.88
388.713	1528.88
388.938	1538.88
389.163	1524.88
389.387	1488.88
389.612	1501.88
389.837	1539.88
390.062	1520.88
390.287	1542.88
390.512	1533.88
390.736	1529.88
390.961	1562.88
391.186	1556.88
391.411	1625.88
391.636	1647.88
391.86	1690.88
392.085	1701.88
392.31	1701.88
392.534	1662.88
392.759	1628.88
392.984	1623.88
393.208	1630.88
393.433	1616.88
393.658	1644.88
393.882	1618.88
394.107	1601.88
394.331	1600.88
394.556	1618.88
394.78	1634.88
395.005	1646.88
395.229	1655.88
395.454	1696.88
395.678	1742.88
395.903	1706.88
396.127	1682.88
396.352	1660.88
396.576	1613.88
396.801	1645.88
397.025	1689.88
397.249	1687.88
397.474	1721.88
397.698	1746.88
397.922	1744.88
398.147	1733.88
398.371	1790.88
398.595	1834.88
398.82	1894.88
399.044	1995.88
399.268	2174.88
399.492	2396.88
399.717	2611.88
399.941	2653.88
400.165	2452.88
400.389	2271.88
400.613	2108.88
400.837	2018.88
401.062	1968.88
401.286	1916.88
401.51	1940.88
401.734	1893.88
401.958	1932.88
402.182	1886.88
402.406	1968.88
402.63	1962.88
402.854	1961.88
403.078	1978.88
403.302	2034.88
403.526	2009.88
403.75	2036.88
403.974	2079.88
404.198	2078.88
404.422	2108.88
404.645	2087.88
404.869	2068.88
405.093	2078.88
405.317	2056.88
405.541	2019.88
405.765	2032.88
405.988	2025.88
406.212	2070.88
406.436	2053.88
406.66	2110.88
406.883	2175.88
407.107	2269.88
407.331	2297.88
407.555	2366.88
407.778	2394.88
408.002	2335.88
408.226	2278.88
408.449	2271.88
408.673	2213.88
408.896	2110.88
409.12	2119.88
409.344	2153.88
409.567	2153.88
409.791	2079.88
410.014	2062.88
410.238	2068.88
410.461	2088.88
410.685	2075.88
410.908	2015.88
411.132	2007.88
411.355	2012.88
411.578	1930.88
411.802	1954.88
412.025	1966.88
412.249	2014.88
412.472	1990.88
412.695	1925.88
412.919	1914.88
413.142	1917.88
413.365	1912.88
413.589	1899.88
413.812	1892.88
414.035	1920.88
414.258	1889.88
414.482	1902.88
414.705	1914.88
414.928	1944.88
415.151	1888.88
415.374	1895.88
415.597	1871.88
415.821	1806.88
416.044	1806.88
416.267	1842.88
416.49	1828.88
416.713	1799.88
416.936	1825.88
417.159	1822.88
417.382	1829.88
417.605	1790.88
417.828	1794.88
418.051	1816.88
418.274	1826.88
418.497	1856.88
418.72	1885.88
418.943	1854.88
419.166	1963.88
419.389	2088.88
419.611	2030.88
419.834	1992.88
420.057	1941.88
420.28	1881.88
420.503	1816.88
420.726	1784.88
420.948	1821.88
421.171	1830.88
421.394	1812.88
421.617	1844.88
421.839	1809.88
422.062	1800.88
422.285	1802.88
422.507	1850.88
422.73	1905.88
422.953	1912.88
423.175	1872.88
423.398	1851.88
423.621	1876.88
423.843	1889.88
424.066	1919.88
424.288	1861.88
424.511	1882.88
424.733	1868.88
424.956	1849.88
425.178	1856.88
425.401	1840.88
425.623	1820.88
425.846	1746.88
426.068	1741.88
426.291	1762.88
426.513	1788.88
426.735	1760.88
426.958	1754.88
427.18	1677.88
427.402	1706.88
427.625	1693.88
427.847	1657.88
428.069	1691.88
428.292	1706.88
428.514	1652.88
428.736	1670.88
428.958	1642.88
429.181	1640.88
429.403	1611.88
429.625	1665.88
429.847	1603.88
430.069	1605.88
430.292	1622.88
430.514	1628.88
430.736	1653.88
430.958	1669.88
431.18	1666.88
431.402	1639.88
431.624	1634.88
431.846	1658.88
432.068	1673.88
432.29	1684.88
432.512	1678.88
432.734	1674.88
432.956	1641.88
433.178	1658.88
433.4	1634.88
433.622	1709.88
433.844	1728.88
434.066	1717.88
434.287	1713.88
434.509	1772.88
434.731	1808.88
434.953	1818.88
435.175	1846.88
435.397	1867.88
435.618	1782.88
435.84	1732.88
436.062	1704.88
436.284	1691.88
436.505	1682.88
436.727	1703.88
436.949	1666.88
437.17	1692.88
437.392	1632.88
437.614	1628.88
437.835	1587.88
438.057	1572.88
438.278	1596.88
438.5	1580.88
438.721	1604.88
438.943	1625.88
439.165	1575.88
439.386	1631.88
439.608	1618.88
439.829	1609.88
440.05	1638.88
440.272	1641.88
440.493	1639.88
440.715	1690.88
440.936	1716.88
441.158	1711.88
441.379	1732.88
441.6	1817.88
441.822	1814.88
442.043	1834.88
442.264	1735.88
442.486	1735.88
442.707	1767.88
442.928	1779.88
443.149	1749.88
443.371	1776.88
443.592	1809.88
443.813	1802.88
444.034	1824.88
444.255	1880.88
444.476	1915.88
444.698	1987.88
444.919	2032.88
445.14	2144.88
445.361	1947.88
445.582	1862.88
445.803	1808.88
446.024	1737.88
446.245	1729.88
446.466	1672.88
446.687	1654.88
446.908	1672.88
447.129	1621.88
447.35	1575.88
447.571	1588.88
447.792	1523.88
448.013	1535.88
448.234	1524.88
448.455	1522.88
448.675	1505.88
448.896	1522.88
449.117	1466.88
449.338	1488.88
449.559	1459.88
449.779	1495.88
450	1448.88
450.221	1433.88
450.442	1450.88
450.662	1486.88
450.883	1492.88
451.104	1490.88
451.324	1486.88
451.545	1503.88
451.766	1506.88
451.986	1478.88
452.207	1465.88
452.428	1492.88
452.648	1469.88
452.869	1423.88
453.089	1432.88
453.31	1470.88
453.53	1438.88
453.751	1436.88
453.971	1439.88
454.192	1448.88
454.412	1407.88
454.633	1402.88
454.853	1433.88
455.073	1425.88
455.294	1400.88
455.514	1385.88
455.734	1388.88
455.955	1394.88
456.175	1393.88
456.395	1374.88
456.616	1370.88
456.836	1398.88
457.056	1404.88
457.276	1341.88
457.497	1388.88
457.717	1392.88
457.937	1408.88
458.157	1418.88
458.377	1450.88
458.598	1486.88
458.818	1504.88
459.038	1564.88
459.258	1588.88
459.478	1640.88
459.698	1698.88
459.918	1705.88
460.138	1796.88
460.358	1816.88
460.578	1850.88
460.798	1871.88
461.018	1918.88
461.238	1883.88
461.458	1909.88
461.678	1862.88
461.898	1874.88
462.118	1912.88
462.338	2022.88
462.558	2055.88
462.777	2100.88
462.997	2218.88
463.217	2381.88
463.437	2390.88
463.657	2266.88
463.876	2166.88
464.096	2150.88
464.316	2164.88
464.536	2139.88
464.755	2061.88
464.975	2035.88
465.195	1941.88
465.414	1911.88
465.634	1714.88
465.854	1698.88
466.073	1686.88
466.293	1651.88
466.512	1574.88
466.732	1586.88
466.951	1601.88
467.171	1573.88
467.391	1555.88
467.61	1571.88
467.829	1566.88
468.049	1570.88
468.268	1503.88
468.488	1499.88
468.707	1517.88
468.927	1513.88
469.146	1485.88
469.365	1539.88
469.585	1520.88
469.804	1539.88
470.023	1580.88
470.243	1604.88
470.462	1604.88
470.681	1605.88
470.901	1593.88
471.12	1600.88
471.339	1560.88
471.558	1521.88
471.777	1511.88
471.997	1516.88
472.216	1509.88
472.435	1537.88
472.654	1526.88
472.873	1476.88
473.092	1465.88
473.311	1487.88
473.53	1482.88
473.749	1490.88
473.968	1477.88
474.187	1490.88
474.406	1463.88
474.625	1456.88
474.844	1517.88
475.063	1501.88
475.282	1520.88
475.501	1504.88
475.72	1520.88
475.939	1560.88
476.158	1569.88
476.377	1595.88
476.596	1571.88
476.814	1587.88
477.033	1588.88
477.252	1641.88
477.471	1663.88
477.69	1649.88
477.908	1738.88
478.127	1746.88
478.346	1766.88
478.564	1822.88
478.783	1793.88
479.002	1896.88
479.22	1858.88
479.439	1887.88
479.658	1841.88
479.876	1838.88
480.095	1912.88
480.313	1949.88
480.532	1952.88
480.751	1986.88
480.969	1928.88
481.188	1904.88
481.406	1873.88
481.624	1800.88
481.843	1817.88
482.061	1820.88
482.28	1823.88
482.498	1808.88
482.717	1816.88
482.935	1800.88
483.153	1837.88
483.372	1805.88
483.59	1822.88
483.808	1848.88
484.027	1884.88
484.245	1895.88
484.463	1881.88
484.681	1906.88
484.9	1932.88
485.118	1918.88
485.336	1925.88
485.554	1988.88
485.772	1965.88
485.99	1954.88
486.209	1945.88
486.427	1942.88
486.645	1970.88
486.863	1946.88
487.081	1944.88
487.299	1944.88
487.517	1963.88
487.735	1929.88
487.953	1949.88
488.171	1926.88
488.389	1858.88
488.607	1919.88
488.825	1910.88
489.043	1875.88
489.261	1858.88
489.479	1864.88
489.696	1871.88
489.914	1904.88
