Data from NiCl2@0.125M.TitratingCurve.Agarose3%dH2O.NegLispCup.LampEnergy10.LIBS07252019_HRD10591_18-28-20-574.txt Node
Date: Thu Jul 25 18:28:20 EDT 2019
User: cochatt
Spectrometer: HR+D1059
Trigger mode: 1
Integration Time (sec): 1.000000E-1
Scans to average: 1
Electric dark correction enabled: true
Nonlinearity correction enabled: false
Boxcar width: 0
XAxis mode: Wavelengths
Number of Pixels in Spectrum: 2048
>>>>>Begin Spectral Data<<<<<
223.165	-17.69
223.4	-17.69
223.635	-17.69
223.869	-18.69
224.104	-11.69
224.338	-6.69
224.573	-17.69
224.808	-11.69
225.042	-9.69
225.277	-11.69
225.511	0.31
225.746	7.31
225.98	14.31
226.215	11.31
226.449	5.31
226.683	23.31
226.918	21.31
227.152	22.31
227.387	26.31
227.621	47.31
227.856	32.31
228.09	55.31
228.324	59.31
228.559	57.31
228.793	94.31
229.027	123.31
229.262	120.31
229.496	114.31
229.73	124.31
229.964	123.31
230.199	134.31
230.433	153.31
230.667	150.31
230.901	140.31
231.136	155.31
231.37	143.31
231.604	130.31
231.838	140.31
232.072	144.31
232.306	165.31
232.541	162.31
232.775	164.31
233.009	160.31
233.243	165.31
233.477	154.31
233.711	162.31
233.945	156.31
234.179	153.31
234.413	168.31
234.647	159.31
234.881	160.31
235.115	171.31
235.349	158.31
235.583	142.31
235.817	169.31
236.051	154.31
236.285	167.31
236.519	163.31
236.753	165.31
236.987	164.31
237.221	170.31
237.455	159.31
237.689	180.31
237.922	178.31
238.156	182.31
238.39	173.31
238.624	182.31
238.858	168.31
239.091	177.31
239.325	184.31
239.559	193.31
239.793	182.31
240.027	185.31
240.26	184.31
240.494	197.31
240.728	204.31
240.961	198.31
241.195	203.31
241.429	194.31
241.662	204.31
241.896	205.31
242.13	202.31
242.363	196.31
242.597	204.31
242.83	201.31
243.064	212.31
243.298	231.31
243.531	230.31
243.765	232.31
243.998	223.31
244.232	218.31
244.465	220.31
244.699	224.31
244.932	213.31
245.166	223.31
245.399	240.31
245.633	249.31
245.866	234.31
246.099	229.31
246.333	253.31
246.566	242.31
246.8	234.31
247.033	246.31
247.266	254.31
247.5	253.31
247.733	238.31
247.966	272.31
248.2	255.31
248.433	269.31
248.666	263.31
248.899	256.31
249.133	257.31
249.366	262.31
249.599	248.31
249.832	273.31
250.066	265.31
250.299	266.31
250.532	258.31
250.765	258.31
250.998	306.31
251.231	269.31
251.465	296.31
251.698	287.31
251.931	276.31
252.164	286.31
252.397	291.31
252.63	268.31
252.863	310.31
253.096	287.31
253.329	295.31
253.562	303.31
253.795	312.31
254.028	282.31
254.261	302.31
254.494	299.31
254.727	297.31
254.96	287.31
255.193	307.31
255.426	316.31
255.659	318.31
255.892	313.31
256.124	317.31
256.357	323.31
256.59	313.31
256.823	317.31
257.056	317.31
257.289	339.31
257.521	335.31
257.754	331.31
257.987	320.31
258.22	318.31
258.452	328.31
258.685	327.31
258.918	336.31
259.151	311.31
259.383	327.31
259.616	335.31
259.849	331.31
260.081	342.31
260.314	333.31
260.547	347.31
260.779	322.31
261.012	351.31
261.244	335.31
261.477	335.31
261.71	345.31
261.942	363.31
262.175	363.31
262.407	336.31
262.64	360.31
262.872	355.31
263.105	363.31
263.337	365.31
263.57	361.31
263.802	363.31
264.035	353.31
264.267	372.31
264.499	347.31
264.732	380.31
264.964	370.31
265.197	387.31
265.429	386.31
265.661	385.31
265.894	385.31
266.126	377.31
266.358	390.31
266.591	372.31
266.823	391.31
267.055	394.31
267.287	396.31
267.52	396.31
267.752	382.31
267.984	379.31
268.216	393.31
268.448	395.31
268.681	403.31
268.913	388.31
269.145	380.31
269.377	399.31
269.609	414.31
269.841	399.31
270.073	404.31
270.306	409.31
270.538	421.31
270.77	407.31
271.002	403.31
271.234	392.31
271.466	416.31
271.698	405.31
271.93	405.31
272.162	401.31
272.394	410.31
272.626	402.31
272.858	410.31
273.09	423.31
273.322	440.31
273.553	429.31
273.785	434.31
274.017	438.31
274.249	433.31
274.481	445.31
274.713	454.31
274.945	463.31
275.176	445.31
275.408	417.31
275.64	427.31
275.872	448.31
276.104	436.31
276.335	439.31
276.567	433.31
276.799	454.31
277.031	446.31
277.262	460.31
277.494	460.31
277.726	468.31
277.957	471.31
278.189	467.31
278.421	464.31
278.652	459.31
278.884	471.31
279.115	457.31
279.347	472.31
279.579	485.31
279.81	488.31
280.042	473.31
280.273	489.31
280.505	490.31
280.736	487.31
280.968	468.31
281.199	475.31
281.431	490.31
281.662	516.31
281.894	521.31
282.125	492.31
282.356	473.31
282.588	500.31
282.819	496.31
283.051	491.31
283.282	521.31
283.513	523.31
283.745	499.31
283.976	505.31
284.207	536.31
284.439	516.31
284.67	535.31
284.901	546.31
285.132	526.31
285.364	542.31
285.595	524.31
285.826	535.31
286.057	533.31
286.288	524.31
286.52	544.31
286.751	547.31
286.982	556.31
287.213	554.31
287.444	551.31
287.675	528.31
287.906	534.31
288.138	566.31
288.369	547.31
288.6	556.31
288.831	543.31
289.062	551.31
289.293	539.31
289.524	551.31
289.755	573.31
289.986	579.31
290.217	557.31
290.448	556.31
290.679	587.31
290.91	558.31
291.141	565.31
291.371	570.31
291.602	573.31
291.833	554.31
292.064	583.31
292.295	578.31
292.526	575.31
292.757	555.31
292.987	570.31
293.218	543.31
293.449	582.31
293.68	578.31
293.91	571.31
294.141	559.31
294.372	579.31
294.603	580.31
294.833	565.31
295.064	589.31
295.295	579.31
295.525	556.31
295.756	571.31
295.987	574.31
296.217	573.31
296.448	601.31
296.679	592.31
296.909	588.31
297.14	590.31
297.37	627.31
297.601	592.31
297.831	574.31
298.062	596.31
298.292	635.31
298.523	636.31
298.753	641.31
298.984	647.31
299.214	622.31
299.445	602.31
299.675	617.31
299.905	619.31
300.136	636.31
300.366	631.31
300.597	636.31
300.827	635.31
301.057	634.31
301.288	637.31
301.518	650.31
301.748	670.31
301.979	672.31
302.209	669.31
302.439	657.31
302.669	665.31
302.9	678.31
303.13	618.31
303.36	668.31
303.59	634.31
303.82	644.31
304.051	657.31
304.281	652.31
304.511	633.31
304.741	636.31
304.971	637.31
305.201	649.31
305.431	630.31
305.661	635.31
305.891	649.31
306.121	622.31
306.352	598.31
306.582	626.31
306.812	606.31
307.042	633.31
307.272	622.31
307.502	622.31
307.731	629.31
307.961	604.31
308.191	629.31
308.421	614.31
308.651	625.31
308.881	623.31
309.111	639.31
309.341	644.31
309.571	644.31
309.8	639.31
310.03	609.31
310.26	632.31
310.49	621.31
310.72	631.31
310.949	632.31
311.179	598.31
311.409	654.31
311.639	644.31
311.868	662.31
312.098	637.31
312.328	664.31
312.557	662.31
312.787	667.31
313.017	652.31
313.246	646.31
313.476	677.31
313.706	650.31
313.935	662.31
314.165	653.31
314.394	690.31
314.624	686.31
314.853	652.31
315.083	667.31
315.312	668.31
315.542	669.31
315.771	659.31
316.001	640.31
316.23	662.31
316.46	671.31
316.689	666.31
316.919	666.31
317.148	645.31
317.377	680.31
317.607	662.31
317.836	663.31
318.065	668.31
318.295	674.31
318.524	684.31
318.753	646.31
318.983	669.31
319.212	647.31
319.441	661.31
319.67	651.31
319.9	643.31
320.129	678.31
320.358	671.31
320.587	664.31
320.816	645.31
321.046	668.31
321.275	644.31
321.504	666.31
321.733	655.31
321.962	674.31
322.191	656.31
322.42	680.31
322.649	653.31
322.878	660.31
323.108	647.31
323.337	664.31
323.566	692.31
323.795	672.31
324.024	664.31
324.253	691.31
324.482	667.31
324.71	696.31
324.939	681.31
325.168	666.31
325.397	670.31
325.626	685.31
325.855	680.31
326.084	711.31
326.313	735.31
326.542	724.31
326.77	754.31
326.999	734.31
327.228	713.31
327.457	712.31
327.686	718.31
327.914	719.31
328.143	726.31
328.372	755.31
328.6	736.31
328.829	723.31
329.058	740.31
329.287	738.31
329.515	714.31
329.744	735.31
329.972	740.31
330.201	735.31
330.43	730.31
330.658	755.31
330.887	725.31
331.115	774.31
331.344	747.31
331.572	760.31
331.801	774.31
332.03	787.31
332.258	808.31
332.486	839.31
332.715	862.31
332.943	888.31
333.172	934.31
333.4	990.31
333.629	1016.31
333.857	986.31
334.085	985.31
334.314	981.31
334.542	971.31
334.771	924.31
334.999	930.31
335.227	907.31
335.455	884.31
335.684	886.31
335.912	889.31
336.14	900.31
336.369	896.31
336.597	890.31
336.825	866.31
337.053	863.31
337.281	866.31
337.51	826.31
337.738	823.31
337.966	803.31
338.194	808.31
338.422	787.31
338.65	768.31
338.878	772.31
339.106	818.31
339.334	787.31
339.562	765.31
339.79	760.31
340.018	744.31
340.246	754.31
340.474	754.31
340.702	766.31
340.93	743.31
341.158	759.31
341.386	767.31
341.614	763.31
341.842	743.31
342.07	773.31
342.298	759.31
342.526	739.31
342.754	747.31
342.981	745.31
343.209	768.31
343.437	805.31
343.665	863.31
343.893	912.31
344.12	946.31
344.348	910.31
344.576	864.31
344.804	822.31
345.031	806.31
345.259	785.31
345.487	766.31
345.714	783.31
345.942	736.31
346.17	766.31
346.397	747.31
346.625	722.31
346.853	722.31
347.08	724.31
347.308	754.31
347.535	749.31
347.763	741.31
347.99	741.31
348.218	743.31
348.445	717.31
348.673	730.31
348.9	715.31
349.128	704.31
349.355	730.31
349.583	694.31
349.81	706.31
350.037	727.31
350.265	703.31
350.492	685.31
350.72	722.31
350.947	679.31
351.174	725.31
351.402	688.31
351.629	703.31
351.856	680.31
352.083	733.31
352.311	699.31
352.538	695.31
352.765	691.31
352.992	699.31
353.22	704.31
353.447	693.31
353.674	714.31
353.901	692.31
354.128	689.31
354.355	699.31
354.583	699.31
354.81	705.31
355.037	704.31
355.264	706.31
355.491	723.31
355.718	697.31
355.945	696.31
356.172	706.31
356.399	703.31
356.626	718.31
356.853	715.31
357.08	696.31
357.307	716.31
357.534	717.31
357.761	716.31
357.988	719.31
358.215	723.31
358.441	717.31
358.668	708.31
358.895	703.31
359.122	701.31
359.349	723.31
359.576	703.31
359.802	691.31
360.029	700.31
360.256	700.31
360.483	721.31
360.709	696.31
360.936	740.31
361.163	675.31
361.39	700.31
361.616	694.31
361.843	702.31
362.07	696.31
362.296	712.31
362.523	709.31
362.749	711.31
362.976	692.31
363.203	695.31
363.429	696.31
363.656	699.31
363.882	701.31
364.109	711.31
364.335	696.31
364.562	700.31
364.788	706.31
365.015	701.31
365.241	691.31
365.468	682.31
365.694	700.31
365.92	680.31
366.147	694.31
366.373	709.31
366.599	719.31
366.826	688.31
367.052	684.31
367.278	678.31
367.505	701.31
367.731	694.31
367.957	715.31
368.184	694.31
368.41	732.31
368.636	720.31
368.862	710.31
369.089	714.31
369.315	702.31
369.541	714.31
369.767	729.31
369.993	714.31
370.219	748.31
370.445	745.31
370.672	726.31
370.898	739.31
371.124	742.31
371.35	754.31
371.576	762.31
371.802	781.31
372.028	761.31
372.254	760.31
372.48	780.31
372.706	791.31
372.932	809.31
373.158	808.31
373.384	793.31
373.61	762.31
373.835	770.31
374.061	759.31
374.287	787.31
374.513	804.31
374.739	810.31
374.965	811.31
375.191	843.31
375.416	843.31
375.642	836.31
375.868	790.31
376.094	804.31
376.319	798.31
376.545	786.31
376.771	759.31
376.997	766.31
377.222	779.31
377.448	790.31
377.674	756.31
377.899	763.31
378.125	751.31
378.35	770.31
378.576	780.31
378.802	752.31
379.027	770.31
379.253	770.31
379.478	747.31
379.704	763.31
379.929	762.31
380.155	744.31
380.38	735.31
380.606	756.31
380.831	749.31
381.057	756.31
381.282	732.31
381.507	755.31
381.733	777.31
381.958	772.31
382.184	779.31
382.409	766.31
382.634	780.31
382.86	822.31
383.085	828.31
383.31	843.31
383.535	844.31
383.761	852.31
383.986	856.31
384.211	918.31
384.436	906.31
384.662	914.31
384.887	922.31
385.112	916.31
385.337	923.31
385.562	945.31
385.787	941.31
386.013	946.31
386.238	942.31
386.463	932.31
386.688	940.31
386.913	954.31
387.138	929.31
387.363	933.31
387.588	910.31
387.813	927.31
388.038	892.31
388.263	907.31
388.488	917.31
388.713	924.31
388.938	916.31
389.163	888.31
389.387	890.31
389.612	879.31
389.837	877.31
390.062	892.31
390.287	906.31
390.512	898.31
390.736	874.31
390.961	950.31
391.186	964.31
391.411	972.31
391.636	991.31
391.86	1041.31
392.085	1065.31
392.31	1061.31
392.534	1033.31
392.759	1010.31
392.984	999.31
393.208	953.31
393.433	982.31
393.658	972.31
393.882	957.31
394.107	996.31
394.331	990.31
394.556	1006.31
394.78	1011.31
395.005	1008.31
395.229	1024.31
395.454	1015.31
395.678	1057.31
395.903	1038.31
396.127	1027.31
396.352	993.31
396.576	1007.31
396.801	952.31
397.025	979.31
397.249	1007.31
397.474	1042.31
397.698	1034.31
397.922	1062.31
398.147	1035.31
398.371	1058.31
398.595	1092.31
398.82	1147.31
399.044	1249.31
399.268	1402.31
399.492	1607.31
399.717	1842.31
399.941	1837.31
400.165	1661.31
400.389	1475.31
400.613	1320.31
400.837	1255.31
401.062	1222.31
401.286	1184.31
401.51	1160.31
401.734	1172.31
401.958	1209.31
402.182	1161.31
402.406	1235.31
402.63	1231.31
402.854	1252.31
403.078	1279.31
403.302	1273.31
403.526	1335.31
403.75	1383.31
403.974	1409.31
404.198	1388.31
404.422	1398.31
404.645	1356.31
404.869	1362.31
405.093	1357.31
405.317	1334.31
405.541	1307.31
405.765	1279.31
405.988	1275.31
406.212	1284.31
406.436	1295.31
406.66	1310.31
406.883	1289.31
407.107	1417.31
407.331	1506.31
407.555	1537.31
407.778	1539.31
408.002	1498.31
408.226	1422.31
408.449	1426.31
408.673	1377.31
408.896	1338.31
409.12	1322.31
409.344	1301.31
409.567	1298.31
409.791	1336.31
410.014	1354.31
410.238	1315.31
410.461	1316.31
410.685	1302.31
410.908	1254.31
411.132	1261.31
411.355	1208.31
411.578	1243.31
411.802	1223.31
412.025	1203.31
412.249	1263.31
412.472	1253.31
412.695	1188.31
412.919	1161.31
413.142	1190.31
413.365	1176.31
413.589	1178.31
413.812	1160.31
414.035	1149.31
414.258	1177.31
414.482	1171.31
414.705	1203.31
414.928	1194.31
415.151	1166.31
415.374	1144.31
415.597	1148.31
415.821	1152.31
416.044	1162.31
416.267	1132.31
416.49	1150.31
416.713	1151.31
416.936	1139.31
417.159	1151.31
417.382	1131.31
417.605	1161.31
417.828	1144.31
418.051	1158.31
418.274	1180.31
418.497	1148.31
418.72	1202.31
418.943	1188.31
419.166	1276.31
419.389	1371.31
419.611	1363.31
419.834	1294.31
420.057	1229.31
420.28	1176.31
420.503	1150.31
420.726	1131.31
420.948	1140.31
421.171	1150.31
421.394	1154.31
421.617	1147.31
421.839	1189.31
422.062	1167.31
422.285	1152.31
422.507	1191.31
422.73	1178.31
422.953	1197.31
423.175	1227.31
423.398	1225.31
423.621	1227.31
423.843	1258.31
424.066	1280.31
424.288	1244.31
424.511	1261.31
424.733	1255.31
424.956	1203.31
425.178	1194.31
425.401	1154.31
425.623	1183.31
425.846	1156.31
426.068	1148.31
426.291	1112.31
426.513	1076.31
426.735	1110.31
426.958	1111.31
427.18	1069.31
427.402	1055.31
427.625	1092.31
427.847	1033.31
428.069	1045.31
428.292	1032.31
428.514	1039.31
428.736	1053.31
428.958	1056.31
429.181	1012.31
429.403	1010.31
429.625	1034.31
429.847	990.31
430.069	966.31
430.292	1023.31
430.514	1019.31
430.736	1026.31
430.958	990.31
431.18	996.31
431.402	1007.31
431.624	1018.31
431.846	1014.31
432.068	1062.31
432.29	1041.31
432.512	1001.31
432.734	1030.31
432.956	1016.31
433.178	1027.31
433.4	1045.31
433.622	1091.31
433.844	1067.31
434.066	1038.31
434.287	1043.31
434.509	1109.31
434.731	1129.31
434.953	1182.31
435.175	1172.31
435.397	1149.31
435.618	1114.31
435.84	1056.31
436.062	1042.31
436.284	1015.31
436.505	1029.31
436.727	1058.31
436.949	1046.31
437.17	1026.31
437.392	1024.31
437.614	1007.31
437.835	983.31
438.057	974.31
438.278	989.31
438.5	991.31
438.721	1002.31
438.943	1012.31
439.165	984.31
439.386	1019.31
439.608	1029.31
439.829	1037.31
440.05	1076.31
440.272	1059.31
440.493	1054.31
440.715	1070.31
440.936	1079.31
441.158	1066.31
441.379	1116.31
441.6	1184.31
441.822	1208.31
442.043	1220.31
442.264	1174.31
442.486	1054.31
442.707	1142.31
442.928	1142.31
443.149	1115.31
443.371	1147.31
443.592	1173.31
443.813	1181.31
444.034	1207.31
444.255	1210.31
444.476	1302.31
444.698	1379.31
444.919	1418.31
445.14	1550.31
445.361	1382.31
445.582	1252.31
445.803	1142.31
446.024	1137.31
446.245	1089.31
446.466	1104.31
446.687	1078.31
446.908	1050.31
447.129	1049.31
447.35	1016.31
447.571	1023.31
447.792	979.31
448.013	1014.31
448.234	983.31
448.455	988.31
448.675	957.31
448.896	981.31
449.117	961.31
449.338	935.31
449.559	925.31
449.779	939.31
450	949.31
450.221	945.31
450.442	973.31
450.662	983.31
450.883	988.31
451.104	1005.31
451.324	996.31
451.545	1010.31
451.766	1003.31
451.986	979.31
452.207	949.31
452.428	966.31
452.648	965.31
452.869	928.31
453.089	918.31
453.31	973.31
453.53	935.31
453.751	934.31
453.971	905.31
454.192	918.31
454.412	902.31
454.633	923.31
454.853	927.31
455.073	920.31
455.294	908.31
455.514	900.31
455.734	911.31
455.955	886.31
456.175	878.31
456.395	873.31
456.616	902.31
456.836	890.31
457.056	878.31
457.276	867.31
457.497	896.31
457.717	898.31
457.937	908.31
458.157	908.31
458.377	928.31
458.598	934.31
458.818	966.31
459.038	996.31
459.258	1028.31
459.478	1069.31
459.698	1089.31
459.918	1131.31
460.138	1159.31
460.358	1258.31
460.578	1267.31
460.798	1248.31
461.018	1298.31
461.238	1256.31
461.458	1237.31
461.678	1276.31
461.898	1235.31
462.118	1243.31
462.338	1342.31
462.558	1353.31
462.777	1436.31
462.997	1556.31
463.217	1685.31
463.437	1691.31
463.657	1579.31
463.876	1482.31
464.096	1487.31
464.316	1472.31
464.536	1496.31
464.755	1442.31
464.975	1385.31
465.195	1287.31
465.414	1222.31
465.634	1124.31
465.854	1102.31
466.073	1084.31
466.293	1051.31
466.512	1035.31
466.732	1018.31
466.951	1022.31
467.171	1036.31
467.391	1035.31
467.61	1021.31
467.829	1012.31
468.049	1015.31
468.268	973.31
468.488	935.31
468.707	952.31
468.927	968.31
469.146	955.31
469.365	982.31
469.585	978.31
469.804	1006.31
470.023	1008.31
470.243	1039.31
470.462	1034.31
470.681	1030.31
470.901	1050.31
471.12	1028.31
471.339	1001.31
471.558	995.31
471.777	982.31
471.997	977.31
472.216	948.31
472.435	941.31
472.654	982.31
472.873	936.31
473.092	932.31
473.311	915.31
473.53	945.31
473.749	916.31
473.968	885.31
474.187	918.31
474.406	906.31
474.625	923.31
474.844	940.31
475.063	940.31
475.282	928.31
475.501	953.31
475.72	947.31
475.939	959.31
476.158	942.31
476.377	978.31
476.596	956.31
476.814	972.31
477.033	990.31
477.252	1004.31
477.471	1032.31
477.69	1074.31
477.908	1091.31
478.127	1142.31
478.346	1093.31
478.564	1124.31
478.783	1144.31
479.002	1165.31
479.22	1191.31
479.439	1162.31
479.658	1172.31
479.876	1161.31
480.095	1173.31
480.313	1258.31
480.532	1278.31
480.751	1268.31
480.969	1220.31
481.188	1152.31
481.406	1153.31
481.624	1108.31
481.843	1077.31
482.061	1075.31
482.28	1116.31
482.498	1041.31
482.717	1045.31
482.935	1070.31
483.153	1079.31
483.372	1058.31
483.59	1037.31
483.808	1067.31
484.027	1076.31
484.245	1062.31
484.463	1085.31
484.681	1090.31
484.9	1100.31
485.118	1095.31
485.336	1124.31
485.554	1099.31
485.772	1122.31
485.99	1142.31
486.209	1171.31
486.427	1163.31
486.645	1130.31
486.863	1158.31
487.081	1119.31
487.299	1154.31
487.517	1137.31
487.735	1125.31
487.953	1127.31
488.171	1117.31
488.389	1123.31
488.607	1106.31
488.825	1111.31
489.043	1113.31
489.261	1083.31
489.479	1104.31
489.696	1088.31
489.914	1104.31
490.132	1115.31
490.35	1151.31
490.568	1122.31
490.786	1148.31
491.003	1116.31
491.221	1120.31
491.439	1123.31
491.657	1136.31
491.874	1131.31
492.092	1159.31
492.31	1138.31
492.527	1140.31
492.745	1141.31
492.963	1160.31
493.18	1152.31
493.398	1166.31
493.615	1173.31
493.833	1184.31
494.05	1170.31
494.268	1187.31
494.485	1164.31
494.703	1171.31
494.92	1205.31
495.138	1168.31
495.355	1187.31
495.573	1193.31
495.79	1192.31
496.008	1224.31
496.225	1207.31
496.442	1189.31
