Data from NiCl2@0.125M.TitratingCurve.Agarose3%dH2O.NegLispCup.LampEnergy10.LIBS07252019_HRD10591_18-29-20-574.txt Node
Date: Thu Jul 25 18:29:20 EDT 2019
User: cochatt
Spectrometer: HR+D1059
Trigger mode: 1
Integration Time (sec): 1.000000E-1
Scans to average: 1
Electric dark correction enabled: true
Nonlinearity correction enabled: false
Boxcar width: 0
XAxis mode: Wavelengths
Number of Pixels in Spectrum: 2048
>>>>>Begin Spectral Data<<<<<
223.165	-8.06
223.4	-8.06
223.635	-8.06
223.869	-17.06
224.104	-8.06
224.338	-26.06
224.573	-28.06
224.808	-13.06
225.042	-11.06
225.277	-5.06
225.511	-9.06
225.746	2.94
225.98	19.94
226.215	2.94
226.449	12.94
226.683	10.94
226.918	45.94
227.152	29.94
227.387	44.94
227.621	34.94
227.856	51.94
228.09	41.94
228.324	58.94
228.559	60.94
228.793	54.94
229.027	113.94
229.262	120.94
229.496	120.94
229.73	117.94
229.964	131.94
230.199	135.94
230.433	134.94
230.667	132.94
230.901	134.94
231.136	135.94
231.37	164.94
231.604	141.94
231.838	142.94
232.072	152.94
232.306	154.94
232.541	158.94
232.775	157.94
233.009	143.94
233.243	155.94
233.477	172.94
233.711	160.94
233.945	171.94
234.179	148.94
234.413	155.94
234.647	144.94
234.881	166.94
235.115	158.94
235.349	171.94
235.583	151.94
235.817	165.94
236.051	154.94
236.285	148.94
236.519	166.94
236.753	160.94
236.987	172.94
237.221	182.94
237.455	173.94
237.689	185.94
237.922	186.94
238.156	195.94
238.39	172.94
238.624	176.94
238.858	169.94
239.091	171.94
239.325	191.94
239.559	182.94
239.793	182.94
240.027	184.94
240.26	188.94
240.494	184.94
240.728	195.94
240.961	173.94
241.195	188.94
241.429	189.94
241.662	191.94
241.896	217.94
242.13	205.94
242.363	210.94
242.597	200.94
242.83	208.94
243.064	204.94
243.298	213.94
243.531	206.94
243.765	219.94
243.998	217.94
244.232	219.94
244.465	212.94
244.699	222.94
244.932	226.94
245.166	240.94
245.399	248.94
245.633	218.94
245.866	242.94
246.099	233.94
246.333	241.94
246.566	229.94
246.8	225.94
247.033	236.94
247.266	236.94
247.5	242.94
247.733	245.94
247.966	268.94
248.2	256.94
248.433	249.94
248.666	249.94
248.899	262.94
249.133	255.94
249.366	257.94
249.599	258.94
249.832	255.94
250.066	274.94
250.299	269.94
250.532	275.94
250.765	271.94
250.998	267.94
251.231	270.94
251.465	280.94
251.698	300.94
251.931	305.94
252.164	297.94
252.397	291.94
252.63	295.94
252.863	292.94
253.096	275.94
253.329	280.94
253.562	282.94
253.795	314.94
254.028	306.94
254.261	313.94
254.494	289.94
254.727	297.94
254.96	305.94
255.193	310.94
255.426	298.94
255.659	317.94
255.892	298.94
256.124	308.94
256.357	324.94
256.59	320.94
256.823	320.94
257.056	321.94
257.289	316.94
257.521	321.94
257.754	308.94
257.987	333.94
258.22	333.94
258.452	325.94
258.685	326.94
258.918	337.94
259.151	325.94
259.383	329.94
259.616	339.94
259.849	318.94
260.081	333.94
260.314	340.94
260.547	345.94
260.779	348.94
261.012	331.94
261.244	340.94
261.477	354.94
261.71	342.94
261.942	322.94
262.175	364.94
262.407	357.94
262.64	354.94
262.872	359.94
263.105	372.94
263.337	382.94
263.57	374.94
263.802	384.94
264.035	361.94
264.267	376.94
264.499	363.94
264.732	376.94
264.964	406.94
265.197	376.94
265.429	370.94
265.661	386.94
265.894	378.94
266.126	377.94
266.358	387.94
266.591	374.94
266.823	381.94
267.055	387.94
267.287	406.94
267.52	406.94
267.752	390.94
267.984	409.94
268.216	396.94
268.448	405.94
268.681	381.94
268.913	402.94
269.145	418.94
269.377	411.94
269.609	400.94
269.841	411.94
270.073	413.94
270.306	393.94
270.538	423.94
270.77	424.94
271.002	393.94
271.234	416.94
271.466	409.94
271.698	415.94
271.93	424.94
272.162	412.94
272.394	387.94
272.626	410.94
272.858	400.94
273.09	414.94
273.322	416.94
273.553	432.94
273.785	448.94
274.017	451.94
274.249	442.94
274.481	434.94
274.713	440.94
274.945	448.94
275.176	432.94
275.408	445.94
275.64	427.94
275.872	463.94
276.104	448.94
276.335	475.94
276.567	441.94
276.799	465.94
277.031	466.94
277.262	443.94
277.494	450.94
277.726	451.94
277.957	461.94
278.189	438.94
278.421	466.94
278.652	469.94
278.884	455.94
279.115	456.94
279.347	472.94
279.579	462.94
279.81	461.94
280.042	481.94
280.273	488.94
280.505	475.94
280.736	467.94
280.968	487.94
281.199	504.94
281.431	476.94
281.662	486.94
281.894	478.94
282.125	480.94
282.356	497.94
282.588	512.94
282.819	498.94
283.051	525.94
283.282	515.94
283.513	520.94
283.745	519.94
283.976	492.94
284.207	525.94
284.439	512.94
284.67	525.94
284.901	506.94
285.132	527.94
285.364	536.94
285.595	522.94
285.826	525.94
286.057	547.94
286.288	518.94
286.52	522.94
286.751	547.94
286.982	544.94
287.213	528.94
287.444	541.94
287.675	549.94
287.906	544.94
288.138	551.94
288.369	538.94
288.6	573.94
288.831	571.94
289.062	561.94
289.293	587.94
289.524	561.94
289.755	579.94
289.986	550.94
290.217	579.94
290.448	566.94
290.679	578.94
290.91	564.94
291.141	556.94
291.371	581.94
291.602	570.94
291.833	576.94
292.064	569.94
292.295	575.94
292.526	537.94
292.757	584.94
292.987	560.94
293.218	548.94
293.449	547.94
293.68	556.94
293.91	583.94
294.141	577.94
294.372	555.94
294.603	589.94
294.833	584.94
295.064	595.94
295.295	596.94
295.525	591.94
295.756	566.94
295.987	587.94
296.217	608.94
296.448	618.94
296.679	613.94
296.909	594.94
297.14	600.94
297.37	604.94
297.601	603.94
297.831	601.94
298.062	616.94
298.292	624.94
298.523	672.94
298.753	640.94
298.984	634.94
299.214	640.94
299.445	600.94
299.675	640.94
299.905	610.94
300.136	631.94
300.366	632.94
300.597	644.94
300.827	643.94
301.057	666.94
301.288	650.94
301.518	651.94
301.748	657.94
301.979	638.94
302.209	646.94
302.439	641.94
302.669	641.94
302.9	625.94
303.13	660.94
303.36	648.94
303.59	638.94
303.82	625.94
304.051	652.94
304.281	635.94
304.511	649.94
304.741	632.94
304.971	641.94
305.201	621.94
305.431	634.94
305.661	630.94
305.891	627.94
306.121	624.94
306.352	619.94
306.582	615.94
306.812	617.94
307.042	626.94
307.272	626.94
307.502	597.94
307.731	631.94
307.961	640.94
308.191	618.94
308.421	601.94
308.651	604.94
308.881	624.94
309.111	628.94
309.341	618.94
309.571	628.94
309.8	624.94
310.03	619.94
310.26	631.94
310.49	625.94
310.72	619.94
310.949	618.94
311.179	638.94
311.409	636.94
311.639	644.94
311.868	641.94
312.098	657.94
312.328	646.94
312.557	643.94
312.787	646.94
313.017	647.94
313.246	629.94
313.476	635.94
313.706	656.94
313.935	670.94
314.165	686.94
314.394	689.94
314.624	684.94
314.853	652.94
315.083	651.94
315.312	667.94
315.542	658.94
315.771	659.94
316.001	631.94
316.23	630.94
316.46	636.94
316.689	653.94
316.919	649.94
317.148	637.94
317.377	652.94
317.607	648.94
317.836	633.94
318.065	647.94
318.295	641.94
318.524	678.94
318.753	642.94
318.983	649.94
319.212	638.94
319.441	634.94
319.67	610.94
319.9	642.94
320.129	637.94
320.358	649.94
320.587	666.94
320.816	653.94
321.046	636.94
321.275	660.94
321.504	641.94
321.733	657.94
321.962	656.94
322.191	652.94
322.42	668.94
322.649	653.94
322.878	650.94
323.108	671.94
323.337	656.94
323.566	666.94
323.795	659.94
324.024	680.94
324.253	667.94
324.482	655.94
324.71	681.94
324.939	690.94
325.168	688.94
325.397	685.94
325.626	669.94
325.855	685.94
326.084	693.94
326.313	730.94
326.542	725.94
326.77	756.94
326.999	727.94
327.228	708.94
327.457	697.94
327.686	690.94
327.914	726.94
328.143	725.94
328.372	714.94
328.6	714.94
328.829	704.94
329.058	690.94
329.287	704.94
329.515	723.94
329.744	702.94
329.972	719.94
330.201	734.94
330.43	713.94
330.658	748.94
330.887	720.94
331.115	728.94
331.344	779.94
331.572	755.94
331.801	759.94
332.03	795.94
332.258	775.94
332.486	813.94
332.715	854.94
332.943	849.94
333.172	916.94
333.4	964.94
333.629	963.94
333.857	995.94
334.085	941.94
334.314	956.94
334.542	939.94
334.771	905.94
334.999	902.94
335.227	892.94
335.455	866.94
335.684	909.94
335.912	884.94
336.14	857.94
336.369	854.94
336.597	854.94
336.825	832.94
337.053	861.94
337.281	832.94
337.51	823.94
337.738	812.94
337.966	807.94
338.194	788.94
338.422	776.94
338.65	768.94
338.878	786.94
339.106	783.94
339.334	776.94
339.562	745.94
339.79	743.94
340.018	704.94
340.246	722.94
340.474	718.94
340.702	722.94
340.93	756.94
341.158	733.94
341.386	764.94
341.614	733.94
341.842	753.94
342.07	731.94
342.298	726.94
342.526	717.94
342.754	718.94
342.981	733.94
343.209	733.94
343.437	777.94
343.665	819.94
343.893	903.94
344.12	948.94
344.348	905.94
344.576	834.94
344.804	798.94
345.031	767.94
345.259	757.94
345.487	740.94
345.714	736.94
345.942	732.94
346.17	735.94
346.397	744.94
346.625	715.94
346.853	724.94
347.08	718.94
347.308	702.94
347.535	742.94
347.763	752.94
347.99	727.94
348.218	732.94
348.445	745.94
348.673	706.94
348.9	716.94
349.128	707.94
349.355	706.94
349.583	729.94
349.81	708.94
350.037	713.94
350.265	689.94
350.492	692.94
350.72	689.94
350.947	657.94
351.174	668.94
351.402	677.94
351.629	701.94
351.856	696.94
352.083	681.94
352.311	660.94
352.538	694.94
352.765	667.94
352.992	663.94
353.22	683.94
353.447	663.94
353.674	666.94
353.901	666.94
354.128	654.94
354.355	674.94
354.583	672.94
354.81	640.94
355.037	682.94
355.264	699.94
355.491	692.94
355.718	700.94
355.945	683.94
356.172	677.94
356.399	697.94
356.626	680.94
356.853	676.94
357.08	688.94
357.307	706.94
357.534	676.94
357.761	680.94
357.988	684.94
358.215	682.94
358.441	676.94
358.668	674.94
358.895	660.94
359.122	674.94
359.349	650.94
359.576	694.94
359.802	699.94
360.029	676.94
360.256	683.94
360.483	682.94
360.709	663.94
360.936	686.94
361.163	691.94
361.39	680.94
361.616	692.94
361.843	690.94
362.07	681.94
362.296	686.94
362.523	669.94
362.749	684.94
362.976	676.94
363.203	671.94
363.429	682.94
363.656	692.94
363.882	689.94
364.109	672.94
364.335	678.94
364.562	698.94
364.788	682.94
365.015	692.94
365.241	680.94
365.468	668.94
365.694	683.94
365.92	697.94
366.147	681.94
366.373	678.94
366.599	683.94
366.826	698.94
367.052	678.94
367.278	669.94
367.505	686.94
367.731	693.94
367.957	688.94
368.184	696.94
368.41	681.94
368.636	683.94
368.862	685.94
369.089	689.94
369.315	701.94
369.541	705.94
369.767	704.94
369.993	697.94
370.219	717.94
370.445	698.94
370.672	742.94
370.898	745.94
371.124	727.94
371.35	736.94
371.576	741.94
371.802	732.94
372.028	713.94
372.254	748.94
372.48	740.94
372.706	764.94
372.932	774.94
373.158	768.94
373.384	765.94
373.61	764.94
373.835	760.94
374.061	745.94
374.287	753.94
374.513	775.94
374.739	778.94
374.965	822.94
375.191	839.94
375.416	848.94
375.642	808.94
375.868	813.94
376.094	770.94
376.319	774.94
376.545	748.94
376.771	763.94
376.997	738.94
377.222	754.94
377.448	778.94
377.674	774.94
377.899	764.94
378.125	724.94
378.35	724.94
378.576	721.94
378.802	721.94
379.027	748.94
379.253	724.94
379.478	738.94
379.704	731.94
379.929	725.94
380.155	726.94
380.38	741.94
380.606	748.94
380.831	722.94
381.057	778.94
381.282	731.94
381.507	722.94
381.733	733.94
381.958	768.94
382.184	756.94
382.409	777.94
382.634	772.94
382.86	764.94
383.085	786.94
383.31	817.94
383.535	822.94
383.761	805.94
383.986	827.94
384.211	872.94
384.436	842.94
384.662	891.94
384.887	920.94
385.112	905.94
385.337	882.94
385.562	924.94
385.787	920.94
386.013	901.94
386.238	908.94
386.463	893.94
386.688	909.94
386.913	908.94
387.138	867.94
387.363	884.94
387.588	864.94
387.813	883.94
388.038	860.94
388.263	900.94
388.488	921.94
388.713	870.94
388.938	892.94
389.163	848.94
389.387	842.94
389.612	870.94
389.837	873.94
390.062	863.94
390.287	895.94
390.512	855.94
390.736	891.94
390.961	912.94
391.186	922.94
391.411	942.94
391.636	981.94
391.86	1014.94
392.085	1018.94
392.31	1049.94
392.534	996.94
392.759	957.94
392.984	958.94
393.208	956.94
393.433	925.94
393.658	948.94
393.882	951.94
394.107	967.94
394.331	973.94
394.556	977.94
394.78	982.94
395.005	978.94
395.229	963.94
395.454	992.94
395.678	1014.94
395.903	1012.94
396.127	1022.94
396.352	949.94
396.576	942.94
396.801	950.94
397.025	948.94
397.249	966.94
397.474	1009.94
397.698	1026.94
397.922	987.94
398.147	985.94
398.371	987.94
398.595	1047.94
398.82	1107.94
399.044	1160.94
399.268	1314.94
399.492	1531.94
399.717	1786.94
399.941	1838.94
400.165	1572.94
400.389	1387.94
400.613	1246.94
400.837	1144.94
401.062	1152.94
401.286	1127.94
401.51	1130.94
401.734	1120.94
401.958	1162.94
402.182	1106.94
402.406	1165.94
402.63	1164.94
402.854	1181.94
403.078	1223.94
403.302	1294.94
403.526	1308.94
403.75	1350.94
403.974	1341.94
404.198	1368.94
404.422	1323.94
404.645	1368.94
404.869	1308.94
405.093	1319.94
405.317	1272.94
405.541	1273.94
405.765	1259.94
405.988	1227.94
406.212	1253.94
406.436	1253.94
406.66	1278.94
406.883	1247.94
407.107	1374.94
407.331	1462.94
407.555	1496.94
407.778	1477.94
408.002	1458.94
408.226	1388.94
408.449	1394.94
408.673	1316.94
408.896	1265.94
409.12	1278.94
409.344	1310.94
409.567	1300.94
409.791	1340.94
410.014	1302.94
410.238	1285.94
410.461	1307.94
410.685	1288.94
410.908	1236.94
411.132	1192.94
411.355	1168.94
411.578	1142.94
411.802	1164.94
412.025	1141.94
412.249	1190.94
412.472	1201.94
412.695	1125.94
412.919	1130.94
413.142	1136.94
413.365	1127.94
413.589	1147.94
413.812	1115.94
414.035	1124.94
414.258	1086.94
414.482	1129.94
414.705	1157.94
414.928	1170.94
415.151	1174.94
415.374	1129.94
415.597	1138.94
415.821	1122.94
416.044	1121.94
416.267	1079.94
416.49	1084.94
416.713	1105.94
416.936	1132.94
417.159	1103.94
417.382	1097.94
417.605	1100.94
417.828	1128.94
418.051	1129.94
418.274	1132.94
418.497	1115.94
418.72	1161.94
418.943	1162.94
419.166	1268.94
419.389	1351.94
419.611	1304.94
419.834	1265.94
420.057	1212.94
420.28	1149.94
420.503	1109.94
420.726	1094.94
420.948	1114.94
421.171	1107.94
421.394	1140.94
421.617	1116.94
421.839	1153.94
422.062	1152.94
422.285	1093.94
422.507	1152.94
422.73	1174.94
422.953	1162.94
423.175	1213.94
423.398	1243.94
423.621	1200.94
423.843	1221.94
424.066	1230.94
424.288	1215.94
424.511	1228.94
424.733	1143.94
424.956	1157.94
425.178	1166.94
425.401	1121.94
425.623	1129.94
425.846	1110.94
426.068	1106.94
426.291	1083.94
426.513	1053.94
426.735	1035.94
426.958	1080.94
427.18	1028.94
427.402	1016.94
427.625	1032.94
427.847	1020.94
428.069	1010.94
428.292	1018.94
428.514	978.94
428.736	998.94
428.958	980.94
429.181	1000.94
429.403	966.94
429.625	973.94
429.847	982.94
430.069	946.94
430.292	969.94
430.514	987.94
430.736	969.94
430.958	1001.94
431.18	981.94
431.402	1007.94
431.624	972.94
431.846	994.94
432.068	1011.94
432.29	1002.94
432.512	958.94
432.734	990.94
432.956	985.94
433.178	1032.94
433.4	1017.94
433.622	1015.94
433.844	1015.94
434.066	994.94
434.287	1074.94
434.509	1040.94
434.731	1110.94
434.953	1132.94
435.175	1142.94
435.397	1131.94
435.618	1078.94
435.84	1029.94
436.062	1012.94
436.284	1016.94
436.505	990.94
436.727	1023.94
436.949	1013.94
437.17	1012.94
437.392	1009.94
437.614	1002.94
437.835	942.94
438.057	980.94
438.278	937.94
438.5	971.94
438.721	966.94
438.943	982.94
439.165	935.94
439.386	966.94
439.608	1017.94
439.829	1022.94
440.05	1019.94
440.272	988.94
440.493	1006.94
440.715	1012.94
440.936	1088.94
441.158	1048.94
441.379	1128.94
441.6	1149.94
441.822	1147.94
442.043	1177.94
442.264	1135.94
442.486	1114.94
442.707	1123.94
442.928	1114.94
443.149	1126.94
443.371	1127.94
443.592	1139.94
443.813	1170.94
444.034	1158.94
444.255	1215.94
444.476	1280.94
444.698	1342.94
444.919	1411.94
445.14	1486.94
445.361	1328.94
445.582	1208.94
445.803	1094.94
446.024	1069.94
446.245	1060.94
446.466	1042.94
446.687	1018.94
446.908	1039.94
447.129	1004.94
447.35	1003.94
447.571	968.94
447.792	969.94
448.013	949.94
448.234	944.94
448.455	954.94
448.675	912.94
448.896	938.94
449.117	913.94
449.338	920.94
449.559	891.94
449.779	898.94
450	892.94
450.221	921.94
450.442	939.94
450.662	925.94
450.883	971.94
451.104	960.94
451.324	960.94
451.545	954.94
451.766	967.94
451.986	936.94
452.207	930.94
452.428	937.94
452.648	954.94
452.869	929.94
453.089	895.94
453.31	916.94
453.53	885.94
453.751	891.94
453.971	888.94
454.192	925.94
454.412	890.94
454.633	894.94
454.853	903.94
455.073	832.94
455.294	860.94
455.514	882.94
455.734	884.94
455.955	849.94
456.175	866.94
456.395	864.94
456.616	851.94
456.836	894.94
457.056	860.94
457.276	858.94
457.497	841.94
457.717	868.94
457.937	872.94
458.157	864.94
458.377	893.94
458.598	901.94
458.818	926.94
459.038	956.94
459.258	998.94
459.478	1008.94
459.698	1073.94
459.918	1069.94
460.138	1121.94
460.358	1187.94
460.578	1207.94
460.798	1234.94
461.018	1256.94
461.238	1200.94
461.458	1202.94
461.678	1185.94
461.898	1187.94
462.118	1234.94
462.338	1274.94
462.558	1313.94
462.777	1348.94
462.997	1490.94
463.217	1660.94
463.437	1739.94
463.657	1541.94
463.876	1462.94
464.096	1404.94
464.316	1427.94
464.536	1451.94
464.755	1415.94
464.975	1342.94
465.195	1275.94
465.414	1181.94
465.634	1094.94
465.854	1078.94
466.073	1016.94
466.293	1004.94
466.512	986.94
466.732	1011.94
466.951	960.94
467.171	977.94
467.391	978.94
467.61	952.94
467.829	973.94
468.049	957.94
468.268	925.94
468.488	925.94
468.707	930.94
468.927	921.94
469.146	906.94
469.365	925.94
469.585	937.94
469.804	978.94
470.023	982.94
470.243	1014.94
470.462	1039.94
470.681	1014.94
470.901	1011.94
471.12	969.94
471.339	972.94
471.558	936.94
471.777	905.94
471.997	934.94
472.216	904.94
472.435	899.94
472.654	922.94
472.873	896.94
473.092	895.94
473.311	895.94
473.53	896.94
473.749	906.94
473.968	889.94
474.187	916.94
474.406	902.94
474.625	917.94
474.844	902.94
475.063	862.94
475.282	908.94
475.501	903.94
475.72	920.94
475.939	930.94
476.158	924.94
476.377	915.94
476.596	929.94
476.814	932.94
477.033	957.94
477.252	978.94
477.471	980.94
477.69	1001.94
477.908	1049.94
478.127	1070.94
478.346	1077.94
478.564	1087.94
478.783	1094.94
479.002	1107.94
479.22	1131.94
479.439	1117.94
479.658	1091.94
479.876	1101.94
480.095	1111.94
480.313	1172.94
480.532	1235.94
480.751	1251.94
480.969	1156.94
481.188	1125.94
481.406	1085.94
481.624	1066.94
481.843	1043.94
482.061	1028.94
482.28	993.94
482.498	986.94
482.717	986.94
482.935	1024.94
483.153	1026.94
483.372	1003.94
483.59	995.94
483.808	1004.94
484.027	1020.94
484.245	1042.94
484.463	1024.94
484.681	1032.94
484.9	1047.94
485.118	1054.94
485.336	1055.94
485.554	1072.94
485.772	1078.94
485.99	1092.94
486.209	1107.94
486.427	1090.94
486.645	1093.94
486.863	1117.94
487.081	1101.94
487.299	1071.94
487.517	1058.94
487.735	1051.94
487.953	1056.94
488.171	1081.94
488.389	1077.94
488.607	1046.94
488.825	1043.94
489.043	1022.94
489.261	1037.94
489.479	1052.94
489.696	1084.94
489.914	1051.94
490.132	1062.94
490.35	1080.94
490.568	1068.94
490.786	1084.94
491.003	1096.94
491.221	1061.94
491.439	1092.94
491.657	1079.94
491.874	1069.94
492.092	1052.94
492.31	1089.94
492.527	1091.94
492.745	1112.94
492.963	1105.94
493.18	1101.94
493.398	1127.94
493.615	1129.94
493.833	1081.94
494.05	1124.94
494.268	1132.94
494.485	1125.94
494.703	1148.94
494.92	1123.94
495.138	1127.94
495.355	1113.94
495.573	1124.94
495.79	1168.94
496.008	1160.94
496.225	1133.94
496.442	1164.94
496.66	1157.94
496.877	1156.94
497.094	1203.94
497.312	1241.94
