Data from NiCl2@0.0625M.TitratingCurve.Agarose3%dH2O.NegLispCup.LampEnergy10.LIBS07252019_HRD10591_18-35-03-582.txt Node
Date: Thu Jul 25 18:35:03 EDT 2019
User: cochatt
Spectrometer: HR+D1059
Trigger mode: 1
Integration Time (sec): 1.000000E-1
Scans to average: 1
Electric dark correction enabled: true
Nonlinearity correction enabled: false
Boxcar width: 0
XAxis mode: Wavelengths
Number of Pixels in Spectrum: 2048
>>>>>Begin Spectral Data<<<<<
223.165	-2.75
223.4	-2.75
223.635	-2.75
223.869	-21.75
224.104	-24.75
224.338	-8.75
224.573	-30.75
224.808	-7.75
225.042	-8.75
225.277	-5.75
225.511	1.25
225.746	8.25
225.98	1.25
226.215	14.25
226.449	24.25
226.683	21.25
226.918	17.25
227.152	23.25
227.387	21.25
227.621	34.25
227.856	18.25
228.09	39.25
228.324	59.25
228.559	63.25
228.793	80.25
229.027	127.25
229.262	139.25
229.496	141.25
229.73	160.25
229.964	167.25
230.199	185.25
230.433	168.25
230.667	188.25
230.901	168.25
231.136	187.25
231.37	175.25
231.604	177.25
231.838	190.25
232.072	193.25
232.306	208.25
232.541	191.25
232.775	192.25
233.009	207.25
233.243	209.25
233.477	198.25
233.711	179.25
233.945	191.25
234.179	201.25
234.413	197.25
234.647	232.25
234.881	233.25
235.115	214.25
235.349	223.25
235.583	210.25
235.817	200.25
236.051	216.25
236.285	207.25
236.519	219.25
236.753	219.25
236.987	240.25
237.221	212.25
237.455	227.25
237.689	232.25
237.922	208.25
238.156	265.25
238.39	247.25
238.624	262.25
238.858	249.25
239.091	243.25
239.325	250.25
239.559	260.25
239.793	265.25
240.027	269.25
240.26	273.25
240.494	276.25
240.728	266.25
240.961	255.25
241.195	289.25
241.429	267.25
241.662	280.25
241.896	296.25
242.13	295.25
242.363	301.25
242.597	295.25
242.83	286.25
243.064	296.25
243.298	312.25
243.531	317.25
243.765	316.25
243.998	302.25
244.232	324.25
244.465	327.25
244.699	325.25
244.932	332.25
245.166	332.25
245.399	324.25
245.633	334.25
245.866	334.25
246.099	336.25
246.333	347.25
246.566	355.25
246.8	351.25
247.033	346.25
247.266	353.25
247.5	339.25
247.733	362.25
247.966	345.25
248.2	397.25
248.433	373.25
248.666	382.25
248.899	387.25
249.133	379.25
249.366	386.25
249.599	381.25
249.832	381.25
250.066	390.25
250.299	393.25
250.532	381.25
250.765	409.25
250.998	398.25
251.231	410.25
251.465	413.25
251.698	419.25
251.931	424.25
252.164	427.25
252.397	395.25
252.63	421.25
252.863	426.25
253.096	418.25
253.329	424.25
253.562	440.25
253.795	431.25
254.028	439.25
254.261	447.25
254.494	439.25
254.727	436.25
254.96	457.25
255.193	466.25
255.426	444.25
255.659	449.25
255.892	454.25
256.124	482.25
256.357	463.25
256.59	470.25
256.823	488.25
257.056	477.25
257.289	466.25
257.521	477.25
257.754	477.25
257.987	474.25
258.22	473.25
258.452	501.25
258.685	488.25
258.918	515.25
259.151	482.25
259.383	511.25
259.616	496.25
259.849	488.25
260.081	519.25
260.314	503.25
260.547	514.25
260.779	523.25
261.012	530.25
261.244	540.25
261.477	525.25
261.71	540.25
261.942	519.25
262.175	531.25
262.407	540.25
262.64	523.25
262.872	547.25
263.105	532.25
263.337	545.25
263.57	537.25
263.802	553.25
264.035	553.25
264.267	561.25
264.499	563.25
264.732	575.25
264.964	568.25
265.197	563.25
265.429	572.25
265.661	587.25
265.894	561.25
266.126	597.25
266.358	574.25
266.591	594.25
266.823	595.25
267.055	577.25
267.287	579.25
267.52	600.25
267.752	597.25
267.984	593.25
268.216	598.25
268.448	610.25
268.681	613.25
268.913	623.25
269.145	617.25
269.377	595.25
269.609	615.25
269.841	623.25
270.073	615.25
270.306	616.25
270.538	635.25
270.77	605.25
271.002	646.25
271.234	634.25
271.466	633.25
271.698	627.25
271.93	652.25
272.162	661.25
272.394	663.25
272.626	657.25
272.858	667.25
273.09	667.25
273.322	696.25
273.553	629.25
273.785	680.25
274.017	697.25
274.249	678.25
274.481	682.25
274.713	711.25
274.945	697.25
275.176	697.25
275.408	690.25
275.64	698.25
275.872	705.25
276.104	706.25
276.335	682.25
276.567	721.25
276.799	709.25
277.031	706.25
277.262	698.25
277.494	722.25
277.726	697.25
277.957	721.25
278.189	732.25
278.421	737.25
278.652	744.25
278.884	735.25
279.115	729.25
279.347	763.25
279.579	730.25
279.81	753.25
280.042	732.25
280.273	755.25
280.505	759.25
280.736	745.25
280.968	758.25
281.199	748.25
281.431	769.25
281.662	777.25
281.894	775.25
282.125	801.25
282.356	783.25
282.588	805.25
282.819	791.25
283.051	781.25
283.282	786.25
283.513	805.25
283.745	813.25
283.976	809.25
284.207	805.25
284.439	805.25
284.67	837.25
284.901	828.25
285.132	829.25
285.364	827.25
285.595	805.25
285.826	827.25
286.057	826.25
286.288	804.25
286.52	849.25
286.751	866.25
286.982	841.25
287.213	842.25
287.444	863.25
287.675	855.25
287.906	820.25
288.138	849.25
288.369	845.25
288.6	882.25
288.831	849.25
289.062	846.25
289.293	851.25
289.524	860.25
289.755	861.25
289.986	898.25
290.217	881.25
290.448	883.25
290.679	892.25
290.91	905.25
291.141	867.25
291.371	891.25
291.602	905.25
291.833	880.25
292.064	868.25
292.295	902.25
292.526	899.25
292.757	899.25
292.987	907.25
293.218	913.25
293.449	899.25
293.68	873.25
293.91	889.25
294.141	885.25
294.372	863.25
294.603	906.25
294.833	914.25
295.064	892.25
295.295	905.25
295.525	895.25
295.756	894.25
295.987	899.25
296.217	915.25
296.448	895.25
296.679	928.25
296.909	908.25
297.14	921.25
297.37	929.25
297.601	945.25
297.831	957.25
298.062	961.25
298.292	956.25
298.523	948.25
298.753	956.25
298.984	976.25
299.214	982.25
299.445	964.25
299.675	950.25
299.905	944.25
300.136	971.25
300.366	977.25
300.597	963.25
300.827	977.25
301.057	988.25
301.288	1002.25
301.518	1012.25
301.748	1025.25
301.979	1031.25
302.209	1028.25
302.439	1036.25
302.669	1026.25
302.9	1006.25
303.13	1000.25
303.36	997.25
303.59	1018.25
303.82	1005.25
304.051	1014.25
304.281	1023.25
304.511	998.25
304.741	1013.25
304.971	1059.25
305.201	1020.25
305.431	994.25
305.661	1002.25
305.891	996.25
306.121	1002.25
306.352	1003.25
306.582	988.25
306.812	975.25
307.042	972.25
307.272	1004.25
307.502	987.25
307.731	984.25
307.961	976.25
308.191	1011.25
308.421	992.25
308.651	989.25
308.881	984.25
309.111	984.25
309.341	987.25
309.571	1000.25
309.8	1007.25
310.03	1005.25
310.26	998.25
310.49	1007.25
310.72	1029.25
310.949	1023.25
311.179	1001.25
311.409	998.25
311.639	1008.25
311.868	1027.25
312.098	1044.25
312.328	1010.25
312.557	1044.25
312.787	1034.25
313.017	1072.25
313.246	1080.25
313.476	1054.25
313.706	1068.25
313.935	1068.25
314.165	1091.25
314.394	1071.25
314.624	1107.25
314.853	1062.25
315.083	1087.25
315.312	1100.25
315.542	1071.25
315.771	1048.25
316.001	1066.25
316.23	1065.25
316.46	1075.25
316.689	1060.25
316.919	1089.25
317.148	1048.25
317.377	1080.25
317.607	1100.25
317.836	1043.25
318.065	1087.25
318.295	1068.25
318.524	1055.25
318.753	1051.25
318.983	1066.25
319.212	1048.25
319.441	1095.25
319.67	1104.25
319.9	1065.25
320.129	1063.25
320.358	1071.25
320.587	1047.25
320.816	1077.25
321.046	1087.25
321.275	1087.25
321.504	1075.25
321.733	1091.25
321.962	1104.25
322.191	1073.25
322.42	1108.25
322.649	1066.25
322.878	1080.25
323.108	1075.25
323.337	1095.25
323.566	1085.25
323.795	1109.25
324.024	1133.25
324.253	1116.25
324.482	1111.25
324.71	1124.25
324.939	1108.25
325.168	1148.25
325.397	1130.25
325.626	1145.25
325.855	1120.25
326.084	1154.25
326.313	1169.25
326.542	1208.25
326.77	1155.25
326.999	1176.25
327.228	1163.25
327.457	1165.25
327.686	1165.25
327.914	1152.25
328.143	1172.25
328.372	1152.25
328.6	1168.25
328.829	1141.25
329.058	1173.25
329.287	1174.25
329.515	1156.25
329.744	1177.25
329.972	1146.25
330.201	1185.25
330.43	1200.25
330.658	1183.25
330.887	1207.25
331.115	1193.25
331.344	1236.25
331.572	1256.25
331.801	1225.25
332.03	1251.25
332.258	1282.25
332.486	1311.25
332.715	1307.25
332.943	1400.25
333.172	1415.25
333.4	1450.25
333.629	1493.25
333.857	1519.25
334.085	1516.25
334.314	1468.25
334.542	1517.25
334.771	1495.25
334.999	1490.25
335.227	1466.25
335.455	1438.25
335.684	1445.25
335.912	1464.25
336.14	1406.25
336.369	1419.25
336.597	1434.25
336.825	1366.25
337.053	1356.25
337.281	1351.25
337.51	1387.25
337.738	1338.25
337.966	1333.25
338.194	1284.25
338.422	1279.25
338.65	1266.25
338.878	1289.25
339.106	1281.25
339.334	1310.25
339.562	1250.25
339.79	1268.25
340.018	1222.25
340.246	1247.25
340.474	1261.25
340.702	1235.25
340.93	1210.25
341.158	1223.25
341.386	1227.25
341.614	1239.25
341.842	1227.25
342.07	1213.25
342.298	1210.25
342.526	1227.25
342.754	1187.25
342.981	1215.25
343.209	1231.25
343.437	1287.25
343.665	1327.25
343.893	1381.25
344.12	1489.25
344.348	1440.25
344.576	1361.25
344.804	1324.25
345.031	1299.25
345.259	1263.25
345.487	1231.25
345.714	1197.25
345.942	1194.25
346.17	1211.25
346.397	1228.25
346.625	1178.25
346.853	1162.25
347.08	1171.25
347.308	1181.25
347.535	1180.25
347.763	1187.25
347.99	1178.25
348.218	1172.25
348.445	1176.25
348.673	1172.25
348.9	1157.25
349.128	1173.25
349.355	1155.25
349.583	1195.25
349.81	1131.25
350.037	1162.25
350.265	1167.25
350.492	1143.25
350.72	1146.25
350.947	1158.25
351.174	1162.25
351.402	1115.25
351.629	1118.25
351.856	1121.25
352.083	1146.25
352.311	1131.25
352.538	1123.25
352.765	1119.25
352.992	1145.25
353.22	1122.25
353.447	1127.25
353.674	1117.25
353.901	1108.25
354.128	1112.25
354.355	1112.25
354.583	1105.25
354.81	1084.25
355.037	1129.25
355.264	1126.25
355.491	1148.25
355.718	1122.25
355.945	1131.25
356.172	1120.25
356.399	1163.25
356.626	1163.25
356.853	1155.25
357.08	1157.25
357.307	1120.25
357.534	1115.25
357.761	1140.25
357.988	1152.25
358.215	1148.25
358.441	1115.25
358.668	1130.25
358.895	1140.25
359.122	1129.25
359.349	1115.25
359.576	1130.25
359.802	1160.25
360.029	1158.25
360.256	1144.25
360.483	1094.25
360.709	1141.25
360.936	1151.25
361.163	1135.25
361.39	1150.25
361.616	1131.25
361.843	1134.25
362.07	1144.25
362.296	1125.25
362.523	1133.25
362.749	1169.25
362.976	1131.25
363.203	1139.25
363.429	1111.25
363.656	1128.25
363.882	1136.25
364.109	1142.25
364.335	1112.25
364.562	1130.25
364.788	1132.25
365.015	1121.25
365.241	1121.25
365.468	1121.25
365.694	1127.25
365.92	1148.25
366.147	1118.25
366.373	1141.25
366.599	1132.25
366.826	1138.25
367.052	1144.25
367.278	1143.25
367.505	1147.25
367.731	1174.25
367.957	1149.25
368.184	1145.25
368.41	1159.25
368.636	1166.25
368.862	1177.25
369.089	1185.25
369.315	1150.25
369.541	1145.25
369.767	1205.25
369.993	1179.25
370.219	1175.25
370.445	1190.25
370.672	1173.25
370.898	1201.25
371.124	1202.25
371.35	1199.25
371.576	1235.25
371.802	1233.25
372.028	1230.25
372.254	1236.25
372.48	1260.25
372.706	1271.25
372.932	1294.25
373.158	1304.25
373.384	1231.25
373.61	1246.25
373.835	1271.25
374.061	1230.25
374.287	1238.25
374.513	1249.25
374.739	1284.25
374.965	1339.25
375.191	1364.25
375.416	1385.25
375.642	1284.25
375.868	1319.25
376.094	1259.25
376.319	1219.25
376.545	1250.25
376.771	1234.25
376.997	1201.25
377.222	1222.25
377.448	1247.25
377.674	1228.25
377.899	1233.25
378.125	1196.25
378.35	1215.25
378.576	1183.25
378.802	1218.25
379.027	1222.25
379.253	1264.25
379.478	1186.25
379.704	1192.25
379.929	1250.25
380.155	1207.25
380.38	1191.25
380.606	1241.25
380.831	1219.25
381.057	1218.25
381.282	1229.25
381.507	1234.25
381.733	1245.25
381.958	1256.25
382.184	1266.25
382.409	1295.25
382.634	1290.25
382.86	1269.25
383.085	1301.25
383.31	1299.25
383.535	1320.25
383.761	1299.25
383.986	1339.25
384.211	1371.25
384.436	1363.25
384.662	1416.25
384.887	1441.25
385.112	1435.25
385.337	1420.25
385.562	1449.25
385.787	1496.25
386.013	1454.25
386.238	1479.25
386.463	1468.25
386.688	1475.25
386.913	1457.25
387.138	1431.25
387.363	1472.25
387.588	1433.25
387.813	1451.25
388.038	1455.25
388.263	1475.25
388.488	1468.25
388.713	1479.25
388.938	1459.25
389.163	1462.25
389.387	1497.25
389.612	1453.25
389.837	1471.25
390.062	1429.25
390.287	1433.25
390.512	1467.25
390.736	1514.25
390.961	1494.25
391.186	1517.25
391.411	1545.25
391.636	1592.25
391.86	1608.25
392.085	1607.25
392.31	1632.25
392.534	1602.25
392.759	1616.25
392.984	1547.25
393.208	1563.25
393.433	1533.25
393.658	1556.25
393.882	1533.25
394.107	1574.25
394.331	1537.25
394.556	1548.25
394.78	1536.25
395.005	1574.25
395.229	1545.25
395.454	1601.25
395.678	1648.25
395.903	1644.25
396.127	1626.25
396.352	1595.25
396.576	1572.25
396.801	1549.25
397.025	1559.25
397.249	1613.25
397.474	1651.25
397.698	1624.25
397.922	1680.25
398.147	1637.25
398.371	1701.25
398.595	1746.25
398.82	1821.25
399.044	1906.25
399.268	2067.25
399.492	2306.25
399.717	2500.25
399.941	2521.25
400.165	2381.25
400.389	2185.25
400.613	2034.25
400.837	1945.25
401.062	1901.25
401.286	1870.25
401.51	1872.25
401.734	1827.25
401.958	1860.25
402.182	1852.25
402.406	1849.25
402.63	1909.25
402.854	1943.25
403.078	1881.25
403.302	1951.25
403.526	1985.25
403.75	1945.25
403.974	2014.25
404.198	1989.25
404.422	2018.25
404.645	1963.25
404.869	1973.25
405.093	2002.25
405.317	1936.25
405.541	1993.25
405.765	1981.25
405.988	1969.25
406.212	1984.25
406.436	1948.25
406.66	2031.25
406.883	2038.25
407.107	2184.25
407.331	2312.25
407.555	2324.25
407.778	2268.25
408.002	2259.25
408.226	2250.25
408.449	2167.25
408.673	2087.25
408.896	2060.25
409.12	2048.25
409.344	2084.25
409.567	2007.25
409.791	2000.25
410.014	2016.25
410.238	1993.25
410.461	1977.25
410.685	1967.25
410.908	1963.25
411.132	1930.25
411.355	1917.25
411.578	1947.25
411.802	1934.25
412.025	1923.25
412.249	1951.25
412.472	1914.25
412.695	1887.25
412.919	1855.25
413.142	1879.25
413.365	1860.25
413.589	1860.25
413.812	1828.25
414.035	1785.25
414.258	1791.25
414.482	1837.25
414.705	1834.25
414.928	1848.25
415.151	1784.25
415.374	1835.25
415.597	1819.25
415.821	1760.25
416.044	1784.25
416.267	1728.25
416.49	1755.25
416.713	1774.25
416.936	1734.25
417.159	1751.25
417.382	1730.25
417.605	1719.25
417.828	1757.25
418.051	1745.25
418.274	1767.25
418.497	1760.25
418.72	1762.25
418.943	1796.25
419.166	1879.25
419.389	1999.25
419.611	1974.25
419.834	1905.25
420.057	1879.25
420.28	1836.25
420.503	1744.25
420.726	1690.25
420.948	1739.25
421.171	1748.25
421.394	1763.25
421.617	1745.25
421.839	1781.25
422.062	1785.25
422.285	1721.25
422.507	1786.25
422.73	1780.25
422.953	1767.25
423.175	1809.25
423.398	1841.25
423.621	1762.25
423.843	1799.25
424.066	1778.25
424.288	1828.25
424.511	1820.25
424.733	1758.25
424.956	1760.25
425.178	1754.25
425.401	1762.25
425.623	1749.25
425.846	1677.25
426.068	1675.25
426.291	1681.25
426.513	1691.25
426.735	1652.25
426.958	1659.25
427.18	1608.25
427.402	1663.25
427.625	1607.25
427.847	1576.25
428.069	1667.25
428.292	1631.25
428.514	1558.25
428.736	1587.25
428.958	1638.25
429.181	1561.25
429.403	1531.25
429.625	1530.25
429.847	1572.25
430.069	1544.25
430.292	1602.25
430.514	1543.25
430.736	1600.25
430.958	1578.25
431.18	1621.25
431.402	1601.25
431.624	1619.25
431.846	1623.25
432.068	1666.25
432.29	1659.25
432.512	1631.25
432.734	1614.25
432.956	1610.25
433.178	1632.25
433.4	1609.25
433.622	1644.25
433.844	1659.25
434.066	1697.25
434.287	1675.25
434.509	1702.25
434.731	1740.25
434.953	1793.25
435.175	1779.25
435.397	1772.25
435.618	1678.25
435.84	1677.25
436.062	1605.25
436.284	1600.25
436.505	1601.25
436.727	1603.25
436.949	1588.25
437.17	1590.25
437.392	1571.25
437.614	1601.25
437.835	1522.25
438.057	1538.25
438.278	1526.25
438.5	1537.25
438.721	1506.25
438.943	1546.25
439.165	1514.25
439.386	1551.25
439.608	1575.25
439.829	1580.25
440.05	1566.25
440.272	1593.25
440.493	1549.25
440.715	1622.25
440.936	1595.25
441.158	1664.25
441.379	1692.25
441.6	1721.25
441.822	1727.25
442.043	1733.25
442.264	1715.25
442.486	1703.25
442.707	1699.25
442.928	1700.25
443.149	1702.25
443.371	1705.25
443.592	1695.25
443.813	1758.25
444.034	1736.25
444.255	1789.25
444.476	1881.25
444.698	1891.25
444.919	2002.25
445.14	2098.25
445.361	1922.25
445.582	1798.25
445.803	1687.25
446.024	1626.25
446.245	1641.25
446.466	1624.25
446.687	1572.25
446.908	1615.25
447.129	1549.25
447.35	1556.25
447.571	1508.25
447.792	1493.25
448.013	1489.25
448.234	1444.25
448.455	1428.25
448.675	1443.25
448.896	1462.25
449.117	1418.25
449.338	1424.25
449.559	1420.25
449.779	1412.25
450	1420.25
450.221	1441.25
450.442	1398.25
450.662	1414.25
450.883	1418.25
451.104	1392.25
451.324	1460.25
451.545	1459.25
451.766	1412.25
451.986	1422.25
452.207	1415.25
452.428	1442.25
452.648	1405.25
452.869	1395.25
453.089	1361.25
453.31	1383.25
453.53	1373.25
453.751	1362.25
453.971	1374.25
454.192	1343.25
454.412	1342.25
454.633	1344.25
454.853	1380.25
455.073	1307.25
455.294	1352.25
455.514	1347.25
455.734	1347.25
455.955	1308.25
456.175	1340.25
456.395	1332.25
456.616	1329.25
456.836	1343.25
457.056	1337.25
457.276	1308.25
457.497	1356.25
457.717	1343.25
457.937	1353.25
458.157	1379.25
458.377	1399.25
458.598	1421.25
458.818	1447.25
459.038	1475.25
459.258	1511.25
459.478	1570.25
459.698	1637.25
459.918	1648.25
460.138	1695.25
460.358	1735.25
460.578	1779.25
460.798	1808.25
461.018	1789.25
461.238	1813.25
461.458	1809.25
461.678	1826.25
461.898	1821.25
462.118	1855.25
462.338	1926.25
462.558	1958.25
462.777	2035.25
462.997	2179.25
463.217	2250.25
463.437	2277.25
463.657	2174.25
463.876	2138.25
464.096	2085.25
464.316	2054.25
464.536	2064.25
464.755	2025.25
464.975	1935.25
465.195	1869.25
465.414	1771.25
465.634	1688.25
465.854	1616.25
466.073	1615.25
466.293	1616.25
466.512	1544.25
466.732	1519.25
466.951	1522.25
467.171	1480.25
467.391	1527.25
467.61	1527.25
467.829	1511.25
468.049	1492.25
468.268	1466.25
468.488	1474.25
468.707	1444.25
468.927	1439.25
469.146	1445.25
469.365	1512.25
469.585	1476.25
469.804	1475.25
470.023	1512.25
470.243	1499.25
470.462	1563.25
470.681	1507.25
470.901	1552.25
471.12	1551.25
471.339	1468.25
471.558	1492.25
471.777	1506.25
471.997	1470.25
472.216	1471.25
472.435	1429.25
472.654	1429.25
472.873	1422.25
473.092	1417.25
473.311	1449.25
473.53	1445.25
473.749	1437.25
473.968	1399.25
474.187	1442.25
474.406	1421.25
474.625	1415.25
474.844	1442.25
475.063	1439.25
475.282	1430.25
475.501	1441.25
475.72	1459.25
475.939	1450.25
476.158	1444.25
476.377	1499.25
476.596	1503.25
476.814	1536.25
477.033	1508.25
477.252	1551.25
477.471	1612.25
477.69	1657.25
477.908	1626.25
478.127	1701.25
478.346	1685.25
478.564	1753.25
478.783	1725.25
479.002	1778.25
479.22	1826.25
479.439	1789.25
479.658	1775.25
479.876	1792.25
480.095	1851.25
480.313	1898.25
480.532	1911.25
480.751	1918.25
480.969	1870.25
481.188	1825.25
481.406	1766.25
481.624	1766.25
481.843	1753.25
482.061	1750.25
482.28	1708.25
482.498	1716.25
482.717	1736.25
482.935	1719.25
483.153	1752.25
483.372	1723.25
483.59	1736.25
483.808	1771.25
484.027	1805.25
484.245	1833.25
484.463	1812.25
484.681	1834.25
484.9	1853.25
485.118	1896.25
485.336	1915.25
485.554	1920.25
485.772	1982.25
485.99	1922.25
486.209	1897.25
486.427	1899.25
486.645	1936.25
486.863	1908.25
487.081	1914.25
487.299	1854.25
487.517	1853.25
487.735	1886.25
487.953	1855.25
488.171	1856.25
488.389	1870.25
488.607	1839.25
488.825	1855.25
489.043	1777.25
489.261	1821.25
489.479	1806.25
489.696	1791.25
489.914	1825.25
490.132	1819.25
490.35	1796.25
