Data from NiCl2@0.125M.TitratingCurve.Agarose3%dH2O.NegLispCup.LampEnergy10.LIBS07252019_HRD10591_18-27-34-574.txt Node
Date: Thu Jul 25 18:27:34 EDT 2019
User: cochatt
Spectrometer: HR+D1059
Trigger mode: 1
Integration Time (sec): 1.000000E-1
Scans to average: 1
Electric dark correction enabled: true
Nonlinearity correction enabled: false
Boxcar width: 0
XAxis mode: Wavelengths
Number of Pixels in Spectrum: 2048
>>>>>Begin Spectral Data<<<<<
223.165	-11.75
223.4	-11.75
223.635	-11.75
223.869	-11.75
224.104	-22.75
224.338	-8.75
224.573	-16.75
224.808	-11.75
225.042	0.25
225.277	-4.75
225.511	-5.75
225.746	13.25
225.98	-7.75
226.215	15.25
226.449	14.25
226.683	14.25
226.918	25.25
227.152	19.25
227.387	37.25
227.621	29.25
227.856	29.25
228.09	41.25
228.324	59.25
228.559	63.25
228.793	78.25
229.027	102.25
229.262	107.25
229.496	110.25
229.73	114.25
229.964	124.25
230.199	130.25
230.433	135.25
230.667	128.25
230.901	132.25
231.136	130.25
231.37	142.25
231.604	143.25
231.838	131.25
232.072	132.25
232.306	138.25
232.541	135.25
232.775	145.25
233.009	125.25
233.243	150.25
233.477	143.25
233.711	135.25
233.945	131.25
234.179	155.25
234.413	134.25
234.647	143.25
234.881	148.25
235.115	151.25
235.349	133.25
235.583	148.25
235.817	148.25
236.051	149.25
236.285	152.25
236.519	137.25
236.753	145.25
236.987	168.25
237.221	159.25
237.455	148.25
237.689	148.25
237.922	158.25
238.156	166.25
238.39	165.25
238.624	157.25
238.858	151.25
239.091	143.25
239.325	170.25
239.559	154.25
239.793	172.25
240.027	161.25
240.26	169.25
240.494	180.25
240.728	176.25
240.961	188.25
241.195	179.25
241.429	167.25
241.662	167.25
241.896	170.25
242.13	180.25
242.363	181.25
242.597	189.25
242.83	195.25
243.064	198.25
243.298	190.25
243.531	198.25
243.765	217.25
243.998	191.25
244.232	195.25
244.465	190.25
244.699	184.25
244.932	213.25
245.166	213.25
245.399	221.25
245.633	217.25
245.866	200.25
246.099	218.25
246.333	208.25
246.566	197.25
246.8	226.25
247.033	207.25
247.266	226.25
247.5	219.25
247.733	225.25
247.966	208.25
248.2	212.25
248.433	240.25
248.666	210.25
248.899	236.25
249.133	229.25
249.366	241.25
249.599	244.25
249.832	229.25
250.066	225.25
250.299	244.25
250.532	235.25
250.765	242.25
250.998	238.25
251.231	248.25
251.465	239.25
251.698	242.25
251.931	253.25
252.164	235.25
252.397	245.25
252.63	242.25
252.863	258.25
253.096	275.25
253.329	248.25
253.562	248.25
253.795	242.25
254.028	259.25
254.261	259.25
254.494	262.25
254.727	250.25
254.96	249.25
255.193	250.25
255.426	263.25
255.659	270.25
255.892	287.25
256.124	282.25
256.357	274.25
256.59	287.25
256.823	280.25
257.056	265.25
257.289	256.25
257.521	270.25
257.754	278.25
257.987	273.25
258.22	287.25
258.452	260.25
258.685	285.25
258.918	275.25
259.151	279.25
259.383	280.25
259.616	285.25
259.849	289.25
260.081	312.25
260.314	298.25
260.547	304.25
260.779	296.25
261.012	291.25
261.244	301.25
261.477	314.25
261.71	318.25
261.942	298.25
262.175	303.25
262.407	314.25
262.64	298.25
262.872	313.25
263.105	312.25
263.337	310.25
263.57	309.25
263.802	302.25
264.035	304.25
264.267	319.25
264.499	315.25
264.732	315.25
264.964	319.25
265.197	348.25
265.429	315.25
265.661	312.25
265.894	321.25
266.126	344.25
266.358	327.25
266.591	321.25
266.823	331.25
267.055	309.25
267.287	343.25
267.52	330.25
267.752	339.25
267.984	338.25
268.216	335.25
268.448	344.25
268.681	334.25
268.913	345.25
269.145	327.25
269.377	339.25
269.609	370.25
269.841	346.25
270.073	349.25
270.306	341.25
270.538	361.25
270.77	354.25
271.002	333.25
271.234	366.25
271.466	354.25
271.698	348.25
271.93	343.25
272.162	387.25
272.394	359.25
272.626	365.25
272.858	368.25
273.09	356.25
273.322	380.25
273.553	376.25
273.785	374.25
274.017	363.25
274.249	372.25
274.481	378.25
274.713	375.25
274.945	391.25
275.176	391.25
275.408	371.25
275.64	394.25
275.872	396.25
276.104	403.25
276.335	408.25
276.567	386.25
276.799	384.25
277.031	390.25
277.262	392.25
277.494	384.25
277.726	412.25
277.957	410.25
278.189	412.25
278.421	399.25
278.652	409.25
278.884	401.25
279.115	430.25
279.347	403.25
279.579	400.25
279.81	404.25
280.042	406.25
280.273	423.25
280.505	419.25
280.736	411.25
280.968	416.25
281.199	415.25
281.431	421.25
281.662	432.25
281.894	403.25
282.125	424.25
282.356	421.25
282.588	438.25
282.819	416.25
283.051	439.25
283.282	423.25
283.513	434.25
283.745	439.25
283.976	437.25
284.207	434.25
284.439	437.25
284.67	406.25
284.901	462.25
285.132	444.25
285.364	444.25
285.595	445.25
285.826	426.25
286.057	442.25
286.288	440.25
286.52	446.25
286.751	452.25
286.982	447.25
287.213	471.25
287.444	461.25
287.675	484.25
287.906	471.25
288.138	463.25
288.369	460.25
288.6	469.25
288.831	463.25
289.062	463.25
289.293	469.25
289.524	464.25
289.755	467.25
289.986	475.25
290.217	451.25
290.448	476.25
290.679	463.25
290.91	477.25
291.141	471.25
291.371	479.25
291.602	470.25
291.833	472.25
292.064	496.25
292.295	486.25
292.526	483.25
292.757	472.25
292.987	502.25
293.218	491.25
293.449	501.25
293.68	508.25
293.91	470.25
294.141	480.25
294.372	467.25
294.603	479.25
294.833	475.25
295.064	510.25
295.295	466.25
295.525	482.25
295.756	503.25
295.987	500.25
296.217	492.25
296.448	507.25
296.679	485.25
296.909	501.25
297.14	500.25
297.37	511.25
297.601	525.25
297.831	508.25
298.062	502.25
298.292	525.25
298.523	539.25
298.753	553.25
298.984	512.25
299.214	537.25
299.445	516.25
299.675	527.25
299.905	534.25
300.136	509.25
300.366	508.25
300.597	542.25
300.827	538.25
301.057	550.25
301.288	551.25
301.518	555.25
301.748	559.25
301.979	549.25
302.209	536.25
302.439	549.25
302.669	567.25
302.9	536.25
303.13	514.25
303.36	539.25
303.59	550.25
303.82	531.25
304.051	538.25
304.281	552.25
304.511	560.25
304.741	558.25
304.971	525.25
305.201	554.25
305.431	547.25
305.661	566.25
305.891	526.25
306.121	547.25
306.352	568.25
306.582	528.25
306.812	530.25
307.042	536.25
307.272	537.25
307.502	540.25
307.731	543.25
307.961	525.25
308.191	520.25
308.421	533.25
308.651	528.25
308.881	529.25
309.111	536.25
309.341	554.25
309.571	506.25
309.8	522.25
310.03	532.25
310.26	531.25
310.49	532.25
310.72	562.25
310.949	542.25
311.179	516.25
311.409	533.25
311.639	533.25
311.868	551.25
312.098	555.25
312.328	566.25
312.557	566.25
312.787	552.25
313.017	557.25
313.246	563.25
313.476	566.25
313.706	562.25
313.935	584.25
314.165	587.25
314.394	597.25
314.624	548.25
314.853	586.25
315.083	568.25
315.312	573.25
315.542	573.25
315.771	577.25
316.001	566.25
316.23	548.25
316.46	557.25
316.689	555.25
316.919	564.25
317.148	564.25
317.377	578.25
317.607	546.25
317.836	527.25
318.065	560.25
318.295	575.25
318.524	551.25
318.753	558.25
318.983	546.25
319.212	552.25
319.441	550.25
319.67	570.25
319.9	539.25
320.129	559.25
320.358	543.25
320.587	552.25
320.816	567.25
321.046	548.25
321.275	574.25
321.504	582.25
321.733	566.25
321.962	583.25
322.191	572.25
322.42	572.25
322.649	583.25
322.878	546.25
323.108	568.25
323.337	600.25
323.566	564.25
323.795	576.25
324.024	576.25
324.253	584.25
324.482	574.25
324.71	566.25
324.939	607.25
325.168	571.25
325.397	572.25
325.626	592.25
325.855	617.25
326.084	623.25
326.313	615.25
326.542	620.25
326.77	608.25
326.999	610.25
327.228	606.25
327.457	596.25
327.686	617.25
327.914	616.25
328.143	604.25
328.372	620.25
328.6	611.25
328.829	611.25
329.058	613.25
329.287	625.25
329.515	632.25
329.744	614.25
329.972	635.25
330.201	646.25
330.43	642.25
330.658	621.25
330.887	637.25
331.115	659.25
331.344	653.25
331.572	642.25
331.801	676.25
332.03	670.25
332.258	698.25
332.486	704.25
332.715	718.25
332.943	750.25
333.172	784.25
333.4	849.25
333.629	820.25
333.857	864.25
334.085	815.25
334.314	825.25
334.542	816.25
334.771	770.25
334.999	770.25
335.227	770.25
335.455	781.25
335.684	782.25
335.912	738.25
336.14	722.25
336.369	733.25
336.597	740.25
336.825	729.25
337.053	715.25
337.281	709.25
337.51	728.25
337.738	705.25
337.966	695.25
338.194	652.25
338.422	682.25
338.65	660.25
338.878	705.25
339.106	664.25
339.334	677.25
339.562	679.25
339.79	651.25
340.018	639.25
340.246	640.25
340.474	640.25
340.702	632.25
340.93	631.25
341.158	650.25
341.386	657.25
341.614	636.25
341.842	634.25
342.07	651.25
342.298	642.25
342.526	628.25
342.754	613.25
342.981	636.25
343.209	653.25
343.437	678.25
343.665	742.25
343.893	772.25
344.12	806.25
344.348	758.25
344.576	701.25
344.804	695.25
345.031	683.25
345.259	676.25
345.487	647.25
345.714	646.25
345.942	638.25
346.17	611.25
346.397	646.25
346.625	638.25
346.853	651.25
347.08	607.25
347.308	636.25
347.535	628.25
347.763	620.25
347.99	642.25
348.218	623.25
348.445	635.25
348.673	619.25
348.9	630.25
349.128	624.25
349.355	612.25
349.583	609.25
349.81	599.25
350.037	616.25
350.265	602.25
350.492	619.25
350.72	600.25
350.947	619.25
351.174	599.25
351.402	599.25
351.629	600.25
351.856	599.25
352.083	610.25
352.311	593.25
352.538	601.25
352.765	599.25
352.992	600.25
353.22	599.25
353.447	593.25
353.674	576.25
353.901	600.25
354.128	622.25
354.355	585.25
354.583	583.25
354.81	587.25
355.037	596.25
355.264	613.25
355.491	594.25
355.718	587.25
355.945	596.25
356.172	596.25
356.399	582.25
356.626	605.25
356.853	592.25
357.08	582.25
357.307	618.25
357.534	592.25
357.761	588.25
357.988	569.25
358.215	599.25
358.441	575.25
358.668	588.25
358.895	610.25
359.122	586.25
359.349	589.25
359.576	627.25
359.802	607.25
360.029	601.25
360.256	589.25
360.483	580.25
360.709	588.25
360.936	597.25
361.163	598.25
361.39	612.25
361.616	589.25
361.843	582.25
362.07	593.25
362.296	610.25
362.523	591.25
362.749	590.25
362.976	585.25
363.203	591.25
363.429	601.25
363.656	591.25
363.882	593.25
364.109	607.25
364.335	583.25
364.562	572.25
364.788	601.25
365.015	584.25
365.241	591.25
365.468	582.25
365.694	602.25
365.92	591.25
366.147	602.25
366.373	579.25
366.599	590.25
366.826	596.25
367.052	583.25
367.278	598.25
367.505	603.25
367.731	604.25
367.957	598.25
368.184	602.25
368.41	586.25
368.636	602.25
368.862	613.25
369.089	620.25
369.315	624.25
369.541	612.25
369.767	620.25
369.993	634.25
370.219	632.25
370.445	629.25
370.672	619.25
370.898	614.25
371.124	636.25
371.35	651.25
371.576	646.25
371.802	646.25
372.028	642.25
372.254	631.25
372.48	674.25
372.706	664.25
372.932	671.25
373.158	681.25
373.384	655.25
373.61	661.25
373.835	664.25
374.061	636.25
374.287	662.25
374.513	665.25
374.739	668.25
374.965	692.25
375.191	723.25
375.416	704.25
375.642	688.25
375.868	707.25
376.094	682.25
376.319	654.25
376.545	664.25
376.771	650.25
376.997	647.25
377.222	643.25
377.448	661.25
377.674	630.25
377.899	646.25
378.125	677.25
378.35	635.25
378.576	635.25
378.802	651.25
379.027	633.25
379.253	657.25
379.478	626.25
379.704	646.25
379.929	649.25
380.155	636.25
380.38	618.25
380.606	642.25
380.831	651.25
381.057	643.25
381.282	648.25
381.507	637.25
381.733	641.25
381.958	663.25
382.184	674.25
382.409	682.25
382.634	680.25
382.86	679.25
383.085	678.25
383.31	703.25
383.535	706.25
383.761	712.25
383.986	727.25
384.211	742.25
384.436	752.25
384.662	739.25
384.887	780.25
385.112	758.25
385.337	772.25
385.562	740.25
385.787	792.25
386.013	801.25
386.238	778.25
386.463	808.25
386.688	788.25
386.913	787.25
387.138	778.25
387.363	754.25
387.588	777.25
387.813	773.25
388.038	780.25
388.263	760.25
388.488	774.25
388.713	780.25
388.938	759.25
389.163	774.25
389.387	758.25
389.612	723.25
389.837	754.25
390.062	756.25
390.287	765.25
390.512	765.25
390.736	777.25
390.961	761.25
391.186	756.25
391.411	809.25
391.636	852.25
391.86	851.25
392.085	885.25
392.31	873.25
392.534	869.25
392.759	833.25
392.984	821.25
393.208	814.25
393.433	819.25
393.658	843.25
393.882	812.25
394.107	858.25
394.331	821.25
394.556	804.25
394.78	832.25
395.005	851.25
395.229	840.25
395.454	876.25
395.678	890.25
395.903	888.25
396.127	865.25
396.352	846.25
396.576	837.25
396.801	809.25
397.025	836.25
397.249	857.25
397.474	861.25
397.698	859.25
397.922	894.25
398.147	838.25
398.371	870.25
398.595	918.25
398.82	990.25
399.044	1007.25
399.268	1116.25
399.492	1322.25
399.717	1502.25
399.941	1532.25
400.165	1296.25
400.389	1169.25
400.613	1096.25
400.837	1005.25
401.062	991.25
401.286	994.25
401.51	978.25
401.734	964.25
401.958	974.25
402.182	976.25
402.406	1018.25
402.63	1010.25
402.854	1047.25
403.078	1074.25
403.302	1103.25
403.526	1103.25
403.75	1150.25
403.974	1140.25
404.198	1147.25
404.422	1150.25
404.645	1120.25
404.869	1104.25
405.093	1133.25
405.317	1082.25
405.541	1080.25
405.765	1079.25
405.988	1080.25
406.212	1106.25
406.436	1065.25
406.66	1113.25
406.883	1128.25
407.107	1184.25
407.331	1242.25
407.555	1289.25
407.778	1311.25
408.002	1238.25
408.226	1200.25
408.449	1185.25
408.673	1149.25
408.896	1123.25
409.12	1117.25
409.344	1134.25
409.567	1121.25
409.791	1104.25
410.014	1092.25
410.238	1120.25
410.461	1111.25
410.685	1075.25
410.908	1074.25
411.132	1055.25
411.355	1026.25
411.578	1028.25
411.802	1031.25
412.025	1053.25
412.249	1042.25
412.472	1034.25
412.695	1012.25
412.919	1009.25
413.142	986.25
413.365	970.25
413.589	975.25
413.812	953.25
414.035	964.25
414.258	976.25
414.482	1005.25
414.705	1011.25
414.928	1012.25
415.151	968.25
415.374	984.25
415.597	967.25
415.821	952.25
416.044	983.25
416.267	960.25
416.49	957.25
416.713	978.25
416.936	988.25
417.159	964.25
417.382	947.25
417.605	963.25
417.828	965.25
418.051	979.25
418.274	999.25
418.497	977.25
418.72	993.25
418.943	1023.25
419.166	1058.25
419.389	1132.25
419.611	1136.25
419.834	1048.25
420.057	1034.25
420.28	963.25
420.503	970.25
420.726	990.25
420.948	964.25
421.171	957.25
421.394	988.25
421.617	985.25
421.839	942.25
422.062	979.25
422.285	968.25
422.507	977.25
422.73	988.25
422.953	983.25
423.175	1018.25
423.398	1034.25
423.621	1011.25
423.843	1013.25
424.066	1064.25
424.288	1036.25
424.511	1052.25
424.733	1023.25
424.956	1002.25
425.178	990.25
425.401	997.25
425.623	954.25
425.846	927.25
426.068	949.25
426.291	931.25
426.513	934.25
426.735	931.25
426.958	912.25
427.18	918.25
427.402	901.25
427.625	912.25
427.847	858.25
428.069	914.25
428.292	893.25
428.514	869.25
428.736	858.25
428.958	876.25
429.181	861.25
429.403	858.25
429.625	868.25
429.847	869.25
430.069	875.25
430.292	841.25
430.514	846.25
430.736	856.25
430.958	859.25
431.18	886.25
431.402	842.25
431.624	860.25
431.846	874.25
432.068	882.25
432.29	833.25
432.512	859.25
432.734	883.25
432.956	896.25
433.178	898.25
433.4	897.25
433.622	879.25
433.844	870.25
434.066	916.25
434.287	891.25
434.509	894.25
434.731	938.25
434.953	974.25
435.175	959.25
435.397	990.25
435.618	951.25
435.84	898.25
436.062	874.25
436.284	880.25
436.505	876.25
436.727	860.25
436.949	869.25
437.17	859.25
437.392	830.25
437.614	869.25
437.835	810.25
438.057	837.25
438.278	824.25
438.5	832.25
438.721	851.25
438.943	868.25
439.165	827.25
439.386	831.25
439.608	859.25
439.829	869.25
440.05	872.25
440.272	899.25
440.493	899.25
440.715	883.25
440.936	892.25
441.158	913.25
441.379	970.25
441.6	971.25
441.822	1040.25
442.043	989.25
442.264	962.25
442.486	950.25
442.707	958.25
442.928	960.25
443.149	940.25
443.371	962.25
443.592	993.25
443.813	984.25
444.034	988.25
444.255	987.25
444.476	1066.25
444.698	1147.25
444.919	1179.25
445.14	1272.25
445.361	1152.25
445.582	1011.25
445.803	958.25
446.024	933.25
446.245	916.25
446.466	894.25
446.687	922.25
446.908	910.25
447.129	857.25
447.35	873.25
447.571	843.25
447.792	812.25
448.013	835.25
448.234	800.25
448.455	804.25
448.675	783.25
448.896	811.25
449.117	810.25
449.338	801.25
449.559	784.25
449.779	804.25
450	812.25
450.221	795.25
450.442	805.25
450.662	833.25
450.883	806.25
451.104	829.25
451.324	840.25
451.545	815.25
451.766	802.25
451.986	826.25
452.207	795.25
452.428	809.25
452.648	811.25
452.869	794.25
453.089	765.25
453.31	789.25
453.53	795.25
453.751	778.25
453.971	757.25
454.192	761.25
454.412	750.25
454.633	794.25
454.853	792.25
455.073	768.25
455.294	777.25
455.514	752.25
455.734	770.25
455.955	720.25
456.175	717.25
456.395	728.25
456.616	736.25
456.836	772.25
457.056	748.25
457.276	716.25
457.497	764.25
457.717	747.25
457.937	756.25
458.157	752.25
458.377	785.25
458.598	774.25
458.818	816.25
459.038	805.25
459.258	833.25
459.478	861.25
459.698	940.25
459.918	920.25
460.138	965.25
460.358	1044.25
460.578	1011.25
460.798	1017.25
461.018	1002.25
461.238	999.25
461.458	999.25
461.678	982.25
461.898	1002.25
462.118	1030.25
462.338	1089.25
462.558	1137.25
462.777	1159.25
462.997	1254.25
463.217	1381.25
463.437	1427.25
463.657	1276.25
463.876	1180.25
464.096	1196.25
464.316	1187.25
464.536	1215.25
464.755	1213.25
464.975	1135.25
465.195	1072.25
465.414	1011.25
465.634	941.25
465.854	930.25
466.073	883.25
466.293	900.25
466.512	844.25
466.732	868.25
466.951	823.25
467.171	850.25
467.391	827.25
467.61	818.25
467.829	828.25
468.049	848.25
468.268	813.25
468.488	816.25
468.707	804.25
468.927	794.25
469.146	816.25
469.365	823.25
469.585	830.25
469.804	836.25
470.023	861.25
470.243	863.25
470.462	876.25
470.681	891.25
470.901	874.25
471.12	859.25
471.339	836.25
471.558	821.25
471.777	824.25
471.997	818.25
472.216	806.25
472.435	763.25
472.654	777.25
472.873	776.25
473.092	788.25
473.311	798.25
473.53	799.25
473.749	757.25
473.968	772.25
474.187	743.25
474.406	780.25
474.625	778.25
474.844	794.25
475.063	782.25
475.282	788.25
475.501	801.25
475.72	820.25
475.939	819.25
476.158	816.25
476.377	818.25
476.596	814.25
476.814	821.25
477.033	800.25
477.252	827.25
477.471	856.25
477.69	889.25
477.908	924.25
478.127	952.25
478.346	944.25
478.564	928.25
478.783	945.25
479.002	985.25
479.22	982.25
479.439	982.25
479.658	993.25
479.876	959.25
480.095	948.25
480.313	1048.25
480.532	1056.25
480.751	1052.25
480.969	1013.25
481.188	972.25
481.406	916.25
481.624	931.25
481.843	884.25
482.061	879.25
482.28	900.25
482.498	878.25
482.717	883.25
482.935	888.25
483.153	895.25
483.372	902.25
483.59	875.25
483.808	908.25
484.027	858.25
484.245	895.25
484.463	904.25
484.681	930.25
484.9	894.25
485.118	938.25
485.336	909.25
485.554	932.25
485.772	918.25
485.99	942.25
486.209	977.25
486.427	943.25
486.645	943.25
486.863	935.25
487.081	917.25
487.299	940.25
487.517	912.25
487.735	920.25
487.953	962.25
488.171	950.25
488.389	931.25
488.607	933.25
488.825	894.25
489.043	918.25
489.261	918.25
489.479	931.25
489.696	930.25
489.914	910.25
490.132	923.25
490.35	941.25
490.568	960.25
490.786	932.25
491.003	941.25
491.221	933.25
491.439	968.25
491.657	931.25
491.874	949.25
492.092	936.25
492.31	968.25
492.527	945.25
492.745	986.25
492.963	973.25
493.18	966.25
493.398	966.25
493.615	951.25
493.833	957.25
494.05	980.25
494.268	980.25
494.485	974.25
494.703	988.25
494.92	972.25
495.138	1000.25
495.355	999.25
495.573	994.25
495.79	991.25
496.008	990.25
496.225	970.25
496.442	990.25
496.66	1036.25
496.877	1036.25
497.094	1066.25
497.312	1069.25
497.529	1069.25
497.746	1140.25
497.963	1115.25
498.181	1176.25
498.398	1229.25
498.615	1305.25
498.832	1414.25
499.049	1511.25
499.267	1653.25
499.484	1817.25
499.701	1954.25
499.918	2177.25
