Data from NiCl2@0.125M.TitratingCurve.Agarose3%dH2O.NegLispCup.LampEnergy10.LIBS07252019_HRD10591_18-30-43-575.txt Node
Date: Thu Jul 25 18:30:43 EDT 2019
User: cochatt
Spectrometer: HR+D1059
Trigger mode: 1
Integration Time (sec): 1.000000E-1
Scans to average: 1
Electric dark correction enabled: true
Nonlinearity correction enabled: false
Boxcar width: 0
XAxis mode: Wavelengths
Number of Pixels in Spectrum: 2048
>>>>>Begin Spectral Data<<<<<
223.165	-24.25
223.4	-24.25
223.635	-24.25
223.869	-10.25
224.104	-30.25
224.338	-10.25
224.573	-12.25
224.808	-15.25
225.042	-11.25
225.277	-2.25
225.511	-21.25
225.746	24.75
225.98	10.75
226.215	20.75
226.449	8.75
226.683	21.75
226.918	17.75
227.152	32.75
227.387	45.75
227.621	33.75
227.856	33.75
228.09	50.75
228.324	45.75
228.559	57.75
228.793	57.75
229.027	53.75
229.262	63.75
229.496	62.75
229.73	80.75
229.964	68.75
230.199	69.75
230.433	56.75
230.667	74.75
230.901	65.75
231.136	70.75
231.37	72.75
231.604	84.75
231.838	89.75
232.072	68.75
232.306	74.75
232.541	73.75
232.775	74.75
233.009	74.75
233.243	67.75
233.477	81.75
233.711	74.75
233.945	66.75
234.179	78.75
234.413	81.75
234.647	82.75
234.881	73.75
235.115	75.75
235.349	85.75
235.583	86.75
235.817	86.75
236.051	81.75
236.285	89.75
236.519	85.75
236.753	71.75
236.987	74.75
237.221	90.75
237.455	83.75
237.689	73.75
237.922	71.75
238.156	63.75
238.39	84.75
238.624	74.75
238.858	73.75
239.091	79.75
239.325	77.75
239.559	86.75
239.793	68.75
240.027	69.75
240.26	73.75
240.494	69.75
240.728	77.75
240.961	83.75
241.195	76.75
241.429	76.75
241.662	76.75
241.896	81.75
242.13	75.75
242.363	69.75
242.597	65.75
242.83	66.75
243.064	70.75
243.298	63.75
243.531	72.75
243.765	79.75
243.998	79.75
244.232	75.75
244.465	71.75
244.699	74.75
244.932	76.75
245.166	59.75
245.399	74.75
245.633	81.75
245.866	70.75
246.099	64.75
246.333	75.75
246.566	70.75
246.8	75.75
247.033	85.75
247.266	68.75
247.5	81.75
247.733	90.75
247.966	81.75
248.2	71.75
248.433	75.75
248.666	76.75
248.899	74.75
249.133	63.75
249.366	82.75
249.599	89.75
249.832	68.75
250.066	85.75
250.299	81.75
250.532	71.75
250.765	77.75
250.998	59.75
251.231	72.75
251.465	74.75
251.698	87.75
251.931	86.75
252.164	67.75
252.397	74.75
252.63	82.75
252.863	87.75
253.096	74.75
253.329	79.75
253.562	84.75
253.795	75.75
254.028	87.75
254.261	83.75
254.494	72.75
254.727	101.75
254.96	85.75
255.193	58.75
255.426	71.75
255.659	75.75
255.892	81.75
256.124	74.75
256.357	70.75
256.59	81.75
256.823	78.75
257.056	73.75
257.289	76.75
257.521	77.75
257.754	95.75
257.987	77.75
258.22	74.75
258.452	99.75
258.685	80.75
258.918	73.75
259.151	74.75
259.383	75.75
259.616	72.75
259.849	76.75
260.081	81.75
260.314	80.75
260.547	79.75
260.779	71.75
261.012	63.75
261.244	68.75
261.477	75.75
261.71	70.75
261.942	90.75
262.175	72.75
262.407	79.75
262.64	83.75
262.872	84.75
263.105	74.75
263.337	81.75
263.57	73.75
263.802	79.75
264.035	87.75
264.267	74.75
264.499	75.75
264.732	88.75
264.964	83.75
265.197	75.75
265.429	84.75
265.661	74.75
265.894	72.75
266.126	89.75
266.358	75.75
266.591	74.75
266.823	75.75
267.055	74.75
267.287	71.75
267.52	73.75
267.752	79.75
267.984	84.75
268.216	79.75
268.448	90.75
268.681	88.75
268.913	89.75
269.145	73.75
269.377	76.75
269.609	81.75
269.841	74.75
270.073	78.75
270.306	79.75
270.538	74.75
270.77	77.75
271.002	77.75
271.234	67.75
271.466	83.75
271.698	98.75
271.93	85.75
272.162	71.75
272.394	91.75
272.626	76.75
272.858	73.75
273.09	84.75
273.322	87.75
273.553	78.75
273.785	68.75
274.017	74.75
274.249	81.75
274.481	68.75
274.713	74.75
274.945	67.75
275.176	79.75
275.408	92.75
275.64	91.75
275.872	85.75
276.104	80.75
276.335	89.75
276.567	81.75
276.799	72.75
277.031	89.75
277.262	90.75
277.494	86.75
277.726	83.75
277.957	71.75
278.189	74.75
278.421	74.75
278.652	85.75
278.884	93.75
279.115	85.75
279.347	96.75
279.579	63.75
279.81	81.75
280.042	81.75
280.273	86.75
280.505	88.75
280.736	90.75
280.968	88.75
281.199	89.75
281.431	79.75
281.662	73.75
281.894	78.75
282.125	94.75
282.356	71.75
282.588	83.75
282.819	81.75
283.051	73.75
283.282	77.75
283.513	79.75
283.745	84.75
283.976	66.75
284.207	87.75
284.439	79.75
284.67	72.75
284.901	94.75
285.132	83.75
285.364	74.75
285.595	86.75
285.826	74.75
286.057	73.75
286.288	82.75
286.52	86.75
286.751	82.75
286.982	98.75
287.213	91.75
287.444	78.75
287.675	89.75
287.906	93.75
288.138	76.75
288.369	74.75
288.6	93.75
288.831	75.75
289.062	81.75
289.293	81.75
289.524	83.75
289.755	73.75
289.986	98.75
290.217	83.75
290.448	85.75
290.679	69.75
290.91	90.75
291.141	84.75
291.371	76.75
291.602	76.75
291.833	59.75
292.064	76.75
292.295	72.75
292.526	85.75
292.757	74.75
292.987	69.75
293.218	74.75
293.449	74.75
293.68	82.75
293.91	85.75
294.141	70.75
294.372	83.75
294.603	87.75
294.833	87.75
295.064	83.75
295.295	93.75
295.525	79.75
295.756	80.75
295.987	90.75
296.217	87.75
296.448	79.75
296.679	77.75
296.909	89.75
297.14	90.75
297.37	82.75
297.601	85.75
297.831	78.75
298.062	86.75
298.292	78.75
298.523	82.75
298.753	86.75
298.984	82.75
299.214	77.75
299.445	83.75
299.675	78.75
299.905	79.75
300.136	80.75
300.366	87.75
300.597	82.75
300.827	79.75
301.057	75.75
301.288	89.75
301.518	93.75
301.748	97.75
301.979	96.75
302.209	94.75
302.439	87.75
302.669	83.75
302.9	92.75
303.13	86.75
303.36	82.75
303.59	89.75
303.82	88.75
304.051	80.75
304.281	88.75
304.511	86.75
304.741	82.75
304.971	89.75
305.201	88.75
305.431	83.75
305.661	91.75
305.891	76.75
306.121	81.75
306.352	76.75
306.582	93.75
306.812	93.75
307.042	78.75
307.272	84.75
307.502	72.75
307.731	85.75
307.961	87.75
308.191	76.75
308.421	86.75
308.651	85.75
308.881	78.75
309.111	82.75
309.341	89.75
309.571	73.75
309.8	78.75
310.03	93.75
310.26	90.75
310.49	80.75
310.72	81.75
310.949	95.75
311.179	70.75
311.409	83.75
311.639	94.75
311.868	71.75
312.098	81.75
312.328	84.75
312.557	82.75
312.787	90.75
313.017	84.75
313.246	75.75
313.476	78.75
313.706	76.75
313.935	73.75
314.165	79.75
314.394	86.75
314.624	68.75
314.853	69.75
315.083	75.75
315.312	89.75
315.542	86.75
315.771	75.75
316.001	94.75
316.23	83.75
316.46	83.75
316.689	70.75
316.919	85.75
317.148	94.75
317.377	81.75
317.607	100.75
317.836	88.75
318.065	83.75
318.295	74.75
318.524	97.75
318.753	88.75
318.983	104.75
319.212	74.75
319.441	79.75
319.67	87.75
319.9	90.75
320.129	84.75
320.358	69.75
320.587	86.75
320.816	77.75
321.046	81.75
321.275	82.75
321.504	77.75
321.733	89.75
321.962	95.75
322.191	75.75
322.42	93.75
322.649	83.75
322.878	93.75
323.108	83.75
323.337	81.75
323.566	84.75
323.795	75.75
324.024	97.75
324.253	79.75
324.482	84.75
324.71	77.75
324.939	72.75
325.168	95.75
325.397	75.75
325.626	77.75
325.855	79.75
326.084	97.75
326.313	89.75
326.542	84.75
326.77	83.75
326.999	82.75
327.228	79.75
327.457	82.75
327.686	71.75
327.914	78.75
328.143	75.75
328.372	82.75
328.6	75.75
328.829	88.75
329.058	81.75
329.287	78.75
329.515	76.75
329.744	80.75
329.972	99.75
330.201	94.75
330.43	85.75
330.658	86.75
330.887	82.75
331.115	84.75
331.344	91.75
331.572	91.75
331.801	99.75
332.03	78.75
332.258	75.75
332.486	71.75
332.715	85.75
332.943	84.75
333.172	87.75
333.4	71.75
333.629	79.75
333.857	69.75
334.085	73.75
334.314	78.75
334.542	83.75
334.771	85.75
334.999	83.75
335.227	79.75
335.455	83.75
335.684	86.75
335.912	87.75
336.14	81.75
336.369	87.75
336.597	93.75
336.825	109.75
337.053	82.75
337.281	86.75
337.51	79.75
337.738	69.75
337.966	70.75
338.194	85.75
338.422	78.75
338.65	85.75
338.878	89.75
339.106	75.75
339.334	72.75
339.562	80.75
339.79	95.75
340.018	92.75
340.246	78.75
340.474	89.75
340.702	77.75
340.93	84.75
341.158	83.75
341.386	85.75
341.614	86.75
341.842	78.75
342.07	81.75
342.298	88.75
342.526	84.75
342.754	85.75
342.981	79.75
343.209	87.75
343.437	86.75
343.665	74.75
343.893	69.75
344.12	75.75
344.348	79.75
344.576	68.75
344.804	82.75
345.031	75.75
345.259	94.75
345.487	88.75
345.714	83.75
345.942	77.75
346.17	89.75
346.397	86.75
346.625	81.75
346.853	82.75
347.08	76.75
347.308	93.75
347.535	84.75
347.763	79.75
347.99	92.75
348.218	79.75
348.445	69.75
348.673	80.75
348.9	78.75
349.128	67.75
349.355	82.75
349.583	88.75
349.81	65.75
350.037	79.75
350.265	82.75
350.492	78.75
350.72	80.75
350.947	73.75
351.174	75.75
351.402	76.75
351.629	85.75
351.856	94.75
352.083	74.75
352.311	99.75
352.538	82.75
352.765	74.75
352.992	63.75
353.22	79.75
353.447	86.75
353.674	91.75
353.901	81.75
354.128	89.75
354.355	73.75
354.583	81.75
354.81	82.75
355.037	79.75
355.264	67.75
355.491	88.75
355.718	88.75
355.945	77.75
356.172	80.75
356.399	82.75
356.626	79.75
356.853	81.75
357.08	79.75
357.307	77.75
357.534	86.75
357.761	72.75
357.988	74.75
358.215	90.75
358.441	86.75
358.668	78.75
358.895	75.75
359.122	71.75
359.349	57.75
359.576	83.75
359.802	91.75
360.029	80.75
360.256	80.75
360.483	88.75
360.709	82.75
360.936	85.75
361.163	79.75
361.39	65.75
361.616	73.75
361.843	84.75
362.07	100.75
362.296	85.75
362.523	90.75
362.749	81.75
362.976	101.75
363.203	83.75
363.429	79.75
363.656	85.75
363.882	80.75
364.109	97.75
364.335	86.75
364.562	93.75
364.788	76.75
365.015	86.75
365.241	85.75
365.468	79.75
365.694	82.75
365.92	87.75
366.147	74.75
366.373	81.75
366.599	89.75
366.826	79.75
367.052	81.75
367.278	66.75
367.505	69.75
367.731	93.75
367.957	74.75
368.184	81.75
368.41	75.75
368.636	79.75
368.862	87.75
369.089	81.75
369.315	91.75
369.541	66.75
369.767	74.75
369.993	88.75
370.219	83.75
370.445	87.75
370.672	89.75
370.898	85.75
371.124	73.75
371.35	71.75
371.576	89.75
371.802	74.75
372.028	80.75
372.254	94.75
372.48	87.75
372.706	96.75
372.932	78.75
373.158	70.75
373.384	79.75
373.61	76.75
373.835	90.75
374.061	88.75
374.287	85.75
374.513	88.75
374.739	68.75
374.965	93.75
375.191	79.75
375.416	75.75
375.642	69.75
375.868	74.75
376.094	72.75
376.319	82.75
376.545	81.75
376.771	79.75
376.997	71.75
377.222	66.75
377.448	69.75
377.674	71.75
377.899	78.75
378.125	94.75
378.35	83.75
378.576	73.75
378.802	87.75
379.027	96.75
379.253	83.75
379.478	85.75
379.704	83.75
379.929	83.75
380.155	66.75
380.38	85.75
380.606	83.75
380.831	63.75
381.057	93.75
381.282	78.75
381.507	86.75
381.733	86.75
381.958	66.75
382.184	81.75
382.409	74.75
382.634	81.75
382.86	82.75
383.085	78.75
383.31	79.75
383.535	79.75
383.761	77.75
383.986	81.75
384.211	88.75
384.436	95.75
384.662	82.75
384.887	85.75
385.112	97.75
385.337	70.75
385.562	66.75
385.787	74.75
386.013	92.75
386.238	71.75
386.463	81.75
386.688	82.75
386.913	87.75
387.138	81.75
387.363	71.75
387.588	94.75
387.813	99.75
388.038	70.75
388.263	63.75
388.488	85.75
388.713	82.75
388.938	101.75
389.163	84.75
389.387	78.75
389.612	73.75
389.837	79.75
390.062	85.75
390.287	83.75
390.512	101.75
390.736	95.75
390.961	73.75
391.186	82.75
391.411	73.75
391.636	75.75
391.86	87.75
392.085	83.75
392.31	87.75
392.534	87.75
392.759	79.75
392.984	74.75
393.208	79.75
393.433	69.75
393.658	74.75
393.882	68.75
394.107	88.75
394.331	93.75
394.556	81.75
394.78	77.75
395.005	79.75
395.229	80.75
395.454	77.75
395.678	64.75
395.903	81.75
396.127	59.75
396.352	78.75
396.576	82.75
396.801	71.75
397.025	76.75
397.249	95.75
397.474	86.75
397.698	83.75
397.922	86.75
398.147	75.75
398.371	75.75
398.595	87.75
398.82	72.75
399.044	79.75
399.268	76.75
399.492	85.75
399.717	87.75
399.941	85.75
400.165	81.75
400.389	82.75
400.613	96.75
400.837	80.75
401.062	82.75
401.286	90.75
401.51	73.75
401.734	74.75
401.958	78.75
402.182	85.75
402.406	103.75
402.63	82.75
402.854	73.75
403.078	78.75
403.302	90.75
403.526	78.75
403.75	85.75
403.974	72.75
404.198	89.75
404.422	88.75
404.645	87.75
404.869	86.75
405.093	87.75
405.317	93.75
405.541	94.75
405.765	73.75
405.988	77.75
406.212	79.75
406.436	91.75
406.66	91.75
406.883	87.75
407.107	85.75
407.331	84.75
407.555	78.75
407.778	80.75
408.002	80.75
408.226	82.75
408.449	84.75
408.673	81.75
408.896	78.75
409.12	91.75
409.344	87.75
409.567	94.75
409.791	78.75
410.014	93.75
410.238	70.75
410.461	78.75
410.685	89.75
410.908	67.75
411.132	86.75
411.355	81.75
411.578	84.75
411.802	78.75
412.025	87.75
412.249	82.75
412.472	81.75
412.695	93.75
412.919	81.75
413.142	81.75
413.365	90.75
413.589	70.75
413.812	91.75
414.035	95.75
414.258	77.75
414.482	96.75
414.705	94.75
414.928	73.75
415.151	85.75
415.374	88.75
415.597	91.75
415.821	101.75
416.044	79.75
416.267	85.75
416.49	74.75
416.713	88.75
416.936	88.75
417.159	88.75
417.382	89.75
417.605	80.75
417.828	93.75
418.051	88.75
418.274	96.75
418.497	97.75
418.72	86.75
418.943	76.75
419.166	85.75
419.389	84.75
419.611	76.75
419.834	101.75
420.057	87.75
420.28	89.75
420.503	78.75
420.726	81.75
420.948	90.75
421.171	78.75
421.394	85.75
421.617	89.75
421.839	80.75
422.062	100.75
422.285	85.75
422.507	103.75
422.73	89.75
422.953	92.75
423.175	72.75
423.398	74.75
423.621	87.75
423.843	90.75
424.066	91.75
424.288	98.75
424.511	107.75
424.733	94.75
424.956	81.75
425.178	88.75
425.401	79.75
425.623	93.75
425.846	82.75
426.068	86.75
426.291	89.75
426.513	92.75
426.735	84.75
426.958	79.75
427.18	90.75
427.402	85.75
427.625	100.75
427.847	102.75
428.069	89.75
428.292	88.75
428.514	71.75
428.736	87.75
428.958	96.75
429.181	80.75
429.403	96.75
429.625	94.75
429.847	101.75
430.069	91.75
430.292	72.75
430.514	93.75
430.736	72.75
430.958	103.75
431.18	90.75
431.402	89.75
431.624	73.75
431.846	86.75
432.068	74.75
432.29	85.75
432.512	87.75
432.734	83.75
432.956	91.75
433.178	82.75
433.4	87.75
433.622	97.75
433.844	90.75
434.066	93.75
434.287	89.75
434.509	82.75
434.731	84.75
434.953	73.75
435.175	89.75
435.397	88.75
435.618	87.75
435.84	99.75
436.062	93.75
436.284	98.75
436.505	99.75
436.727	82.75
436.949	96.75
437.17	95.75
437.392	83.75
437.614	86.75
437.835	80.75
438.057	82.75
438.278	66.75
438.5	91.75
438.721	104.75
438.943	97.75
439.165	106.75
439.386	103.75
439.608	109.75
439.829	100.75
440.05	99.75
440.272	98.75
440.493	93.75
440.715	91.75
440.936	92.75
441.158	98.75
441.379	91.75
441.6	101.75
441.822	106.75
442.043	113.75
442.264	102.75
442.486	98.75
442.707	101.75
442.928	91.75
443.149	87.75
443.371	80.75
443.592	95.75
443.813	98.75
444.034	106.75
444.255	86.75
444.476	90.75
444.698	98.75
444.919	93.75
445.14	198.75
445.361	154.75
445.582	95.75
445.803	96.75
446.024	100.75
446.245	106.75
446.466	102.75
446.687	114.75
446.908	106.75
447.129	100.75
447.35	100.75
447.571	98.75
447.792	93.75
448.013	101.75
448.234	97.75
448.455	91.75
448.675	98.75
448.896	98.75
449.117	95.75
449.338	97.75
449.559	94.75
449.779	86.75
450	93.75
450.221	100.75
450.442	92.75
450.662	90.75
450.883	79.75
451.104	85.75
451.324	88.75
451.545	106.75
451.766	104.75
451.986	101.75
452.207	105.75
452.428	80.75
452.648	90.75
452.869	94.75
453.089	94.75
453.31	77.75
453.53	75.75
453.751	104.75
453.971	76.75
454.192	85.75
454.412	79.75
454.633	69.75
454.853	104.75
455.073	81.75
455.294	82.75
455.514	99.75
455.734	97.75
455.955	92.75
456.175	83.75
456.395	94.75
456.616	89.75
456.836	88.75
457.056	72.75
457.276	97.75
457.497	86.75
457.717	80.75
457.937	81.75
458.157	81.75
458.377	87.75
458.598	81.75
458.818	86.75
459.038	93.75
459.258	68.75
459.478	82.75
459.698	86.75
459.918	97.75
460.138	86.75
460.358	72.75
460.578	73.75
460.798	80.75
461.018	98.75
461.238	92.75
461.458	91.75
461.678	92.75
461.898	104.75
462.118	87.75
462.338	78.75
462.558	72.75
462.777	98.75
462.997	85.75
463.217	94.75
463.437	87.75
463.657	99.75
463.876	91.75
464.096	91.75
464.316	88.75
464.536	87.75
464.755	103.75
464.975	100.75
465.195	91.75
465.414	79.75
465.634	91.75
465.854	98.75
466.073	87.75
466.293	81.75
466.512	95.75
466.732	98.75
466.951	81.75
467.171	85.75
467.391	81.75
467.61	85.75
467.829	90.75
468.049	97.75
468.268	90.75
468.488	72.75
468.707	97.75
468.927	94.75
469.146	95.75
469.365	79.75
469.585	89.75
469.804	86.75
470.023	79.75
470.243	87.75
470.462	95.75
470.681	94.75
470.901	80.75
471.12	94.75
471.339	90.75
471.558	98.75
471.777	95.75
471.997	85.75
472.216	86.75
472.435	85.75
472.654	81.75
472.873	89.75
473.092	87.75
473.311	97.75
473.53	83.75
473.749	93.75
473.968	94.75
474.187	83.75
474.406	92.75
474.625	82.75
474.844	92.75
475.063	88.75
475.282	89.75
475.501	84.75
475.72	91.75
475.939	93.75
476.158	96.75
476.377	98.75
476.596	93.75
476.814	98.75
477.033	94.75
477.252	74.75
477.471	92.75
477.69	90.75
477.908	84.75
478.127	90.75
478.346	93.75
478.564	85.75
478.783	88.75
479.002	89.75
479.22	84.75
479.439	94.75
479.658	78.75
479.876	89.75
480.095	95.75
480.313	89.75
480.532	93.75
480.751	93.75
480.969	88.75
481.188	82.75
481.406	83.75
481.624	86.75
481.843	75.75
482.061	89.75
482.28	87.75
482.498	87.75
482.717	80.75
482.935	93.75
483.153	79.75
483.372	108.75
483.59	84.75
483.808	90.75
484.027	90.75
484.245	97.75
484.463	86.75
484.681	106.75
484.9	86.75
485.118	95.75
485.336	87.75
485.554	85.75
485.772	86.75
485.99	87.75
486.209	82.75
486.427	93.75
486.645	88.75
486.863	93.75
487.081	102.75
487.299	100.75
487.517	81.75
487.735	109.75
487.953	114.75
488.171	101.75
488.389	101.75
488.607	111.75
488.825	87.75
489.043	89.75
489.261	91.75
489.479	90.75
489.696	96.75
489.914	94.75
490.132	108.75
490.35	95.75
490.568	93.75
490.786	102.75
491.003	83.75
491.221	94.75
491.439	98.75
491.657	96.75
491.874	109.75
492.092	115.75
492.31	109.75
492.527	111.75
492.745	112.75
492.963	110.75
493.18	98.75
493.398	118.75
493.615	107.75
493.833	100.75
494.05	103.75
494.268	106.75
494.485	106.75
494.703	114.75
494.92	89.75
495.138	98.75
495.355	89.75
495.573	102.75
495.79	102.75
496.008	102.75
496.225	104.75
496.442	101.75
496.66	106.75
496.877	103.75
497.094	92.75
497.312	102.75
497.529	108.75
497.746	98.75
497.963	82.75
498.181	89.75
498.398	96.75
498.615	103.75
498.832	96.75
499.049	90.75
499.267	95.75
499.484	95.75
499.701	88.75
499.918	92.75
500.135	111.75
500.352	92.75
500.569	86.75
500.786	102.75
501.003	100.75
501.22	101.75
501.437	90.75
501.654	91.75
501.871	93.75
502.088	89.75
502.305	86.75
502.522	98.75
502.739	101.75
502.956	87.75
503.172	98.75
503.389	101.75
503.606	82.75
503.823	88.75
504.04	90.75
504.256	90.75
504.473	87.75
504.69	102.75
504.907	92.75
505.123	86.75
505.34	87.75
505.557	84.75
505.773	95.75
505.99	85.75
506.207	80.75
506.423	84.75
506.64	86.75
506.856	87.75
507.073	91.75
507.289	88.75
507.506	90.75
507.722	92.75
507.939	87.75
508.155	87.75
508.372	86.75
508.588	88.75
508.805	86.75
509.021	85.75
509.238	86.75
509.454	94.75
509.67	96.75
509.887	79.75
510.103	93.75
510.319	94.75
510.536	96.75
510.752	75.75
510.968	83.75
511.184	67.75
511.401	83.75
511.617	97.75
511.833	87.75
512.049	81.75
512.265	98.75
512.481	89.75
512.698	87.75
512.914	90.75
513.13	89.75
513.346	82.75
513.562	74.75
513.778	78.75
513.994	90.75
514.21	91.75
514.426	79.75
514.642	78.75
514.858	94.75
515.074	65.75
515.29	71.75
515.506	88.75
515.721	106.75
515.937	74.75
516.153	87.75
516.369	72.75
516.585	79.75
516.801	82.75
517.016	86.75
517.232	68.75
517.448	94.75
517.664	85.75
517.879	79.75
