Data from NiCl2@0.5M.TitratingCurve.Agarose3%dH2O.NegLispCup.LampEnergy10.LIBS07252019_HRD10591_18-20-59-571.txt Node
Date: Thu Jul 25 18:20:59 EDT 2019
User: cochatt
Spectrometer: HR+D1059
Trigger mode: 1
Integration Time (sec): 1.000000E-1
Scans to average: 1
Electric dark correction enabled: true
Nonlinearity correction enabled: false
Boxcar width: 0
XAxis mode: Wavelengths
Number of Pixels in Spectrum: 2048
>>>>>Begin Spectral Data<<<<<
223.165	-15.06
223.4	-15.06
223.635	-15.06
223.869	-20.06
224.104	-20.06
224.338	-13.06
224.573	-10.06
224.808	-19.06
225.042	-11.06
225.277	1.94
225.511	1.94
225.746	8.94
225.98	8.94
226.215	12.94
226.449	8.94
226.683	12.94
226.918	25.94
227.152	25.94
227.387	42.94
227.621	36.94
227.856	39.94
228.09	59.94
228.324	54.94
228.559	64.94
228.793	65.94
229.027	99.94
229.262	119.94
229.496	127.94
229.73	139.94
229.964	126.94
230.199	140.94
230.433	129.94
230.667	155.94
230.901	139.94
231.136	142.94
231.37	143.94
231.604	141.94
231.838	147.94
232.072	166.94
232.306	157.94
232.541	172.94
232.775	154.94
233.009	156.94
233.243	160.94
233.477	153.94
233.711	141.94
233.945	153.94
234.179	151.94
234.413	157.94
234.647	161.94
234.881	164.94
235.115	154.94
235.349	152.94
235.583	162.94
235.817	182.94
236.051	149.94
236.285	162.94
236.519	153.94
236.753	163.94
236.987	143.94
237.221	165.94
237.455	170.94
237.689	168.94
237.922	164.94
238.156	172.94
238.39	169.94
238.624	166.94
238.858	168.94
239.091	176.94
239.325	170.94
239.559	190.94
239.793	198.94
240.027	198.94
240.26	194.94
240.494	188.94
240.728	192.94
240.961	192.94
241.195	193.94
241.429	179.94
241.662	193.94
241.896	211.94
242.13	223.94
242.363	212.94
242.597	205.94
242.83	196.94
243.064	205.94
243.298	203.94
243.531	194.94
243.765	222.94
243.998	219.94
244.232	229.94
244.465	225.94
244.699	222.94
244.932	233.94
245.166	230.94
245.399	222.94
245.633	200.94
245.866	226.94
246.099	226.94
246.333	204.94
246.566	229.94
246.8	235.94
247.033	241.94
247.266	230.94
247.5	243.94
247.733	238.94
247.966	253.94
248.2	253.94
248.433	249.94
248.666	230.94
248.899	261.94
249.133	263.94
249.366	248.94
249.599	261.94
249.832	233.94
250.066	246.94
250.299	252.94
250.532	263.94
250.765	277.94
250.998	249.94
251.231	280.94
251.465	269.94
251.698	292.94
251.931	269.94
252.164	287.94
252.397	294.94
252.63	277.94
252.863	292.94
253.096	285.94
253.329	285.94
253.562	263.94
253.795	291.94
254.028	291.94
254.261	274.94
254.494	291.94
254.727	284.94
254.96	295.94
255.193	287.94
255.426	291.94
255.659	298.94
255.892	299.94
256.124	298.94
256.357	311.94
256.59	316.94
256.823	299.94
257.056	317.94
257.289	319.94
257.521	310.94
257.754	293.94
257.987	317.94
258.22	316.94
258.452	324.94
258.685	323.94
258.918	330.94
259.151	330.94
259.383	341.94
259.616	324.94
259.849	332.94
260.081	332.94
260.314	332.94
260.547	342.94
260.779	333.94
261.012	339.94
261.244	325.94
261.477	345.94
261.71	341.94
261.942	337.94
262.175	342.94
262.407	342.94
262.64	333.94
262.872	350.94
263.105	351.94
263.337	355.94
263.57	341.94
263.802	354.94
264.035	348.94
264.267	353.94
264.499	375.94
264.732	364.94
264.964	353.94
265.197	360.94
265.429	381.94
265.661	365.94
265.894	373.94
266.126	373.94
266.358	375.94
266.591	372.94
266.823	364.94
267.055	366.94
267.287	373.94
267.52	373.94
267.752	395.94
267.984	374.94
268.216	396.94
268.448	391.94
268.681	403.94
268.913	395.94
269.145	405.94
269.377	378.94
269.609	398.94
269.841	391.94
270.073	377.94
270.306	409.94
270.538	387.94
270.77	407.94
271.002	389.94
271.234	427.94
271.466	389.94
271.698	399.94
271.93	410.94
272.162	395.94
272.394	417.94
272.626	389.94
272.858	422.94
273.09	424.94
273.322	422.94
273.553	433.94
273.785	441.94
274.017	417.94
274.249	429.94
274.481	443.94
274.713	419.94
274.945	445.94
275.176	429.94
275.408	441.94
275.64	445.94
275.872	447.94
276.104	421.94
276.335	426.94
276.567	437.94
276.799	453.94
277.031	473.94
277.262	450.94
277.494	451.94
277.726	458.94
277.957	470.94
278.189	456.94
278.421	451.94
278.652	461.94
278.884	474.94
279.115	471.94
279.347	466.94
279.579	473.94
279.81	464.94
280.042	467.94
280.273	471.94
280.505	486.94
280.736	469.94
280.968	484.94
281.199	479.94
281.431	495.94
281.662	491.94
281.894	480.94
282.125	488.94
282.356	503.94
282.588	494.94
282.819	504.94
283.051	487.94
283.282	494.94
283.513	505.94
283.745	515.94
283.976	504.94
284.207	501.94
284.439	503.94
284.67	505.94
284.901	508.94
285.132	528.94
285.364	523.94
285.595	522.94
285.826	514.94
286.057	541.94
286.288	534.94
286.52	536.94
286.751	549.94
286.982	523.94
287.213	526.94
287.444	550.94
287.675	546.94
287.906	546.94
288.138	549.94
288.369	556.94
288.6	533.94
288.831	552.94
289.062	526.94
289.293	552.94
289.524	553.94
289.755	551.94
289.986	552.94
290.217	565.94
290.448	568.94
290.679	550.94
290.91	571.94
291.141	554.94
291.371	532.94
291.602	568.94
291.833	577.94
292.064	553.94
292.295	551.94
292.526	568.94
292.757	563.94
292.987	538.94
293.218	536.94
293.449	553.94
293.68	559.94
293.91	562.94
294.141	561.94
294.372	560.94
294.603	595.94
294.833	580.94
295.064	575.94
295.295	584.94
295.525	561.94
295.756	583.94
295.987	566.94
296.217	593.94
296.448	573.94
296.679	556.94
296.909	612.94
297.14	586.94
297.37	599.94
297.601	590.94
297.831	624.94
298.062	597.94
298.292	611.94
298.523	633.94
298.753	613.94
298.984	606.94
299.214	617.94
299.445	611.94
299.675	629.94
299.905	621.94
300.136	630.94
300.366	645.94
300.597	647.94
300.827	649.94
301.057	639.94
301.288	642.94
301.518	643.94
301.748	676.94
301.979	635.94
302.209	645.94
302.439	630.94
302.669	631.94
302.9	661.94
303.13	626.94
303.36	614.94
303.59	632.94
303.82	637.94
304.051	654.94
304.281	639.94
304.511	650.94
304.741	631.94
304.971	629.94
305.201	668.94
305.431	681.94
305.661	665.94
305.891	671.94
306.121	654.94
306.352	632.94
306.582	629.94
306.812	617.94
307.042	615.94
307.272	632.94
307.502	637.94
307.731	593.94
307.961	607.94
308.191	630.94
308.421	612.94
308.651	632.94
308.881	623.94
309.111	634.94
309.341	634.94
309.571	623.94
309.8	643.94
310.03	656.94
310.26	659.94
310.49	663.94
310.72	621.94
310.949	626.94
311.179	633.94
311.409	636.94
311.639	636.94
311.868	646.94
312.098	657.94
312.328	656.94
312.557	675.94
312.787	661.94
313.017	674.94
313.246	662.94
313.476	662.94
313.706	702.94
313.935	690.94
314.165	686.94
314.394	685.94
314.624	673.94
314.853	673.94
315.083	662.94
315.312	702.94
315.542	685.94
315.771	666.94
316.001	676.94
316.23	661.94
316.46	661.94
316.689	660.94
316.919	689.94
317.148	682.94
317.377	676.94
317.607	657.94
317.836	641.94
318.065	662.94
318.295	693.94
318.524	679.94
318.753	673.94
318.983	671.94
319.212	665.94
319.441	672.94
319.67	685.94
319.9	691.94
320.129	657.94
320.358	668.94
320.587	658.94
320.816	675.94
321.046	671.94
321.275	683.94
321.504	663.94
321.733	696.94
321.962	659.94
322.191	685.94
322.42	689.94
322.649	689.94
322.878	675.94
323.108	686.94
323.337	718.94
323.566	695.94
323.795	711.94
324.024	692.94
324.253	709.94
324.482	708.94
324.71	690.94
324.939	698.94
325.168	709.94
325.397	697.94
325.626	721.94
325.855	707.94
326.084	734.94
326.313	734.94
326.542	754.94
326.77	763.94
326.999	755.94
327.228	729.94
327.457	735.94
327.686	731.94
327.914	745.94
328.143	740.94
328.372	708.94
328.6	743.94
328.829	721.94
329.058	712.94
329.287	720.94
329.515	727.94
329.744	709.94
329.972	730.94
330.201	754.94
330.43	772.94
330.658	748.94
330.887	763.94
331.115	759.94
331.344	775.94
331.572	781.94
331.801	794.94
332.03	801.94
332.258	803.94
332.486	809.94
332.715	820.94
332.943	867.94
333.172	871.94
333.4	919.94
333.629	909.94
333.857	923.94
334.085	917.94
334.314	948.94
334.542	926.94
334.771	927.94
334.999	932.94
335.227	929.94
335.455	939.94
335.684	902.94
335.912	913.94
336.14	921.94
336.369	940.94
336.597	893.94
336.825	901.94
337.053	910.94
337.281	865.94
337.51	882.94
337.738	874.94
337.966	855.94
338.194	874.94
338.422	829.94
338.65	812.94
338.878	827.94
339.106	825.94
339.334	840.94
339.562	796.94
339.79	777.94
340.018	802.94
340.246	775.94
340.474	767.94
340.702	791.94
340.93	770.94
341.158	779.94
341.386	806.94
341.614	831.94
341.842	825.94
342.07	771.94
342.298	781.94
342.526	784.94
342.754	779.94
342.981	763.94
343.209	805.94
343.437	845.94
343.665	874.94
343.893	861.94
344.12	906.94
344.348	870.94
344.576	846.94
344.804	883.94
345.031	807.94
345.259	822.94
345.487	802.94
345.714	819.94
345.942	785.94
346.17	846.94
346.397	815.94
346.625	781.94
346.853	759.94
347.08	753.94
347.308	780.94
347.535	783.94
347.763	735.94
347.99	750.94
348.218	756.94
348.445	738.94
348.673	730.94
348.9	741.94
349.128	740.94
349.355	758.94
349.583	783.94
349.81	739.94
350.037	710.94
350.265	729.94
350.492	706.94
350.72	728.94
350.947	717.94
351.174	713.94
351.402	764.94
351.629	761.94
351.856	729.94
352.083	727.94
352.311	728.94
352.538	761.94
352.765	797.94
352.992	711.94
353.22	693.94
353.447	675.94
353.674	718.94
353.901	710.94
354.128	707.94
354.355	702.94
354.583	696.94
354.81	689.94
355.037	696.94
355.264	695.94
355.491	702.94
355.718	709.94
355.945	710.94
356.172	708.94
356.399	727.94
356.626	738.94
356.853	769.94
357.08	713.94
357.307	695.94
357.534	713.94
357.761	694.94
357.988	721.94
358.215	703.94
358.441	702.94
358.668	706.94
358.895	693.94
359.122	699.94
359.349	700.94
359.576	701.94
359.802	708.94
360.029	718.94
360.256	720.94
360.483	723.94
360.709	723.94
360.936	716.94
361.163	715.94
361.39	724.94
361.616	739.94
361.843	717.94
362.07	753.94
362.296	727.94
362.523	707.94
362.749	699.94
362.976	675.94
363.203	686.94
363.429	689.94
363.656	687.94
363.882	702.94
364.109	697.94
364.335	704.94
364.562	690.94
364.788	694.94
365.015	692.94
365.241	669.94
365.468	700.94
365.694	700.94
365.92	701.94
366.147	693.94
366.373	695.94
366.599	680.94
366.826	679.94
367.052	682.94
367.278	707.94
367.505	705.94
367.731	724.94
367.957	706.94
368.184	709.94
368.41	700.94
368.636	705.94
368.862	699.94
369.089	693.94
369.315	707.94
369.541	712.94
369.767	720.94
369.993	697.94
370.219	714.94
370.445	734.94
370.672	734.94
370.898	722.94
371.124	722.94
371.35	729.94
371.576	746.94
371.802	745.94
372.028	739.94
372.254	744.94
372.48	747.94
372.706	777.94
372.932	756.94
373.158	765.94
373.384	776.94
373.61	731.94
373.835	746.94
374.061	748.94
374.287	776.94
374.513	771.94
374.739	778.94
374.965	791.94
375.191	813.94
375.416	839.94
375.642	789.94
375.868	762.94
376.094	772.94
376.319	748.94
376.545	747.94
376.771	763.94
376.997	748.94
377.222	733.94
377.448	735.94
377.674	769.94
377.899	741.94
378.125	744.94
378.35	725.94
378.576	722.94
378.802	729.94
379.027	725.94
379.253	719.94
379.478	729.94
379.704	727.94
379.929	736.94
380.155	730.94
380.38	731.94
380.606	756.94
380.831	736.94
381.057	748.94
381.282	733.94
381.507	719.94
381.733	767.94
381.958	737.94
382.184	770.94
382.409	749.94
382.634	781.94
382.86	754.94
383.085	747.94
383.31	766.94
383.535	780.94
383.761	819.94
383.986	803.94
384.211	807.94
384.436	809.94
384.662	835.94
384.887	847.94
385.112	848.94
385.337	851.94
385.562	852.94
385.787	854.94
386.013	893.94
386.238	865.94
386.463	874.94
386.688	873.94
386.913	866.94
387.138	882.94
387.363	875.94
387.588	874.94
387.813	862.94
388.038	863.94
388.263	866.94
388.488	865.94
388.713	867.94
388.938	874.94
389.163	882.94
389.387	863.94
389.612	876.94
389.837	857.94
390.062	881.94
390.287	863.94
390.512	868.94
390.736	857.94
390.961	906.94
391.186	897.94
391.411	945.94
391.636	930.94
391.86	939.94
392.085	983.94
392.31	980.94
392.534	964.94
392.759	960.94
392.984	951.94
393.208	922.94
393.433	953.94
393.658	951.94
393.882	931.94
394.107	938.94
394.331	917.94
394.556	900.94
394.78	953.94
395.005	930.94
395.229	910.94
395.454	956.94
395.678	972.94
395.903	986.94
396.127	980.94
396.352	947.94
396.576	953.94
396.801	938.94
397.025	947.94
397.249	955.94
397.474	986.94
397.698	1000.94
397.922	987.94
398.147	1009.94
398.371	1015.94
398.595	1056.94
398.82	1095.94
399.044	1122.94
399.268	1241.94
399.492	1371.94
399.717	1445.94
399.941	1426.94
400.165	1354.94
400.389	1306.94
400.613	1235.94
400.837	1167.94
401.062	1104.94
401.286	1119.94
401.51	1095.94
401.734	1083.94
401.958	1093.94
402.182	1102.94
402.406	1131.94
402.63	1128.94
402.854	1127.94
403.078	1116.94
403.302	1141.94
403.526	1173.94
403.75	1157.94
403.974	1173.94
404.198	1179.94
404.422	1205.94
404.645	1193.94
404.869	1158.94
405.093	1172.94
405.317	1153.94
405.541	1152.94
405.765	1167.94
405.988	1182.94
406.212	1168.94
406.436	1206.94
406.66	1213.94
406.883	1205.94
407.107	1299.94
407.331	1338.94
407.555	1348.94
407.778	1315.94
408.002	1314.94
408.226	1291.94
408.449	1294.94
408.673	1238.94
408.896	1242.94
409.12	1247.94
409.344	1267.94
409.567	1224.94
409.791	1231.94
410.014	1214.94
410.238	1206.94
410.461	1203.94
410.685	1217.94
410.908	1179.94
411.132	1157.94
411.355	1137.94
411.578	1162.94
411.802	1149.94
412.025	1147.94
412.249	1170.94
412.472	1148.94
412.695	1132.94
412.919	1132.94
413.142	1146.94
413.365	1115.94
413.589	1106.94
413.812	1090.94
414.035	1122.94
414.258	1100.94
414.482	1126.94
414.705	1103.94
414.928	1120.94
415.151	1078.94
415.374	1119.94
415.597	1099.94
415.821	1037.94
416.044	1093.94
416.267	1084.94
416.49	1079.94
416.713	1071.94
416.936	1087.94
417.159	1070.94
417.382	1064.94
417.605	1053.94
417.828	1055.94
418.051	1083.94
418.274	1072.94
418.497	1065.94
418.72	1113.94
418.943	1125.94
419.166	1154.94
419.389	1237.94
419.611	1223.94
419.834	1161.94
420.057	1143.94
420.28	1095.94
420.503	1071.94
420.726	1077.94
420.948	1018.94
421.171	1092.94
421.394	1061.94
421.617	1090.94
421.839	1064.94
422.062	1093.94
422.285	1059.94
422.507	1082.94
422.73	1098.94
422.953	1091.94
423.175	1120.94
423.398	1132.94
423.621	1087.94
423.843	1101.94
424.066	1094.94
424.288	1114.94
424.511	1114.94
424.733	1104.94
424.956	1090.94
425.178	1065.94
425.401	1099.94
425.623	1083.94
425.846	1052.94
426.068	1060.94
426.291	1047.94
426.513	1075.94
426.735	1042.94
426.958	1042.94
427.18	1028.94
427.402	1010.94
427.625	1048.94
427.847	1001.94
428.069	999.94
428.292	1002.94
428.514	1011.94
428.736	993.94
428.958	1021.94
429.181	990.94
429.403	993.94
429.625	984.94
429.847	978.94
430.069	964.94
430.292	967.94
430.514	963.94
430.736	972.94
430.958	1023.94
431.18	980.94
431.402	1021.94
431.624	1001.94
431.846	982.94
432.068	999.94
432.29	1021.94
432.512	1017.94
432.734	1010.94
432.956	991.94
433.178	1013.94
433.4	1011.94
433.622	1004.94
433.844	1051.94
434.066	1006.94
434.287	1041.94
434.509	1061.94
434.731	1074.94
434.953	1105.94
435.175	1113.94
435.397	1117.94
435.618	1056.94
435.84	1068.94
436.062	1024.94
436.284	1012.94
436.505	1023.94
436.727	1015.94
436.949	1029.94
437.17	1019.94
437.392	991.94
437.614	996.94
437.835	958.94
438.057	971.94
438.278	977.94
438.5	952.94
438.721	988.94
438.943	981.94
439.165	967.94
439.386	965.94
439.608	1021.94
439.829	1007.94
440.05	988.94
440.272	1027.94
440.493	1001.94
440.715	1027.94
440.936	1049.94
441.158	1046.94
441.379	1087.94
441.6	1068.94
441.822	1097.94
442.043	1085.94
442.264	1107.94
442.486	1099.94
442.707	1081.94
442.928	1079.94
443.149	1099.94
443.371	1087.94
443.592	1117.94
443.813	1110.94
444.034	1124.94
444.255	1117.94
444.476	1172.94
444.698	1212.94
444.919	1237.94
445.14	1329.94
445.361	1223.94
445.582	1153.94
445.803	1074.94
446.024	1090.94
446.245	1068.94
446.466	1064.94
446.687	1055.94
446.908	1046.94
447.129	1011.94
447.35	1026.94
447.571	981.94
447.792	958.94
448.013	949.94
448.234	951.94
448.455	921.94
448.675	933.94
448.896	977.94
449.117	933.94
449.338	932.94
449.559	926.94
449.779	945.94
450	917.94
450.221	912.94
450.442	903.94
450.662	951.94
450.883	956.94
451.104	986.94
451.324	950.94
451.545	950.94
451.766	938.94
451.986	942.94
452.207	941.94
452.428	909.94
452.648	923.94
452.869	918.94
453.089	908.94
453.31	911.94
453.53	912.94
453.751	898.94
453.971	890.94
454.192	891.94
454.412	902.94
454.633	863.94
454.853	874.94
455.073	855.94
455.294	885.94
455.514	865.94
455.734	869.94
455.955	862.94
456.175	889.94
456.395	859.94
456.616	867.94
456.836	876.94
457.056	868.94
457.276	872.94
457.497	889.94
457.717	888.94
457.937	929.94
458.157	905.94
458.377	914.94
458.598	921.94
458.818	948.94
459.038	965.94
459.258	978.94
459.478	1031.94
459.698	1054.94
459.918	1057.94
460.138	1107.94
460.358	1109.94
460.578	1147.94
460.798	1185.94
461.018	1177.94
461.238	1140.94
461.458	1181.94
461.678	1147.94
461.898	1185.94
462.118	1212.94
462.338	1238.94
462.558	1249.94
462.777	1316.94
462.997	1383.94
463.217	1423.94
463.437	1461.94
463.657	1414.94
463.876	1355.94
464.096	1349.94
464.316	1310.94
464.536	1345.94
464.755	1312.94
464.975	1230.94
465.195	1175.94
465.414	1169.94
465.634	1112.94
465.854	1085.94
466.073	1047.94
466.293	977.94
466.512	1006.94
466.732	995.94
466.951	987.94
467.171	991.94
467.391	967.94
467.61	955.94
467.829	957.94
468.049	949.94
468.268	954.94
468.488	937.94
468.707	943.94
468.927	965.94
469.146	951.94
469.365	986.94
469.585	943.94
469.804	975.94
470.023	997.94
470.243	999.94
470.462	972.94
470.681	1022.94
470.901	987.94
471.12	1001.94
471.339	982.94
471.558	974.94
471.777	981.94
471.997	967.94
472.216	935.94
472.435	960.94
472.654	929.94
472.873	954.94
473.092	945.94
473.311	964.94
473.53	924.94
473.749	927.94
473.968	904.94
474.187	929.94
474.406	924.94
474.625	937.94
474.844	936.94
475.063	942.94
475.282	931.94
475.501	946.94
475.72	959.94
475.939	951.94
476.158	964.94
476.377	958.94
476.596	964.94
476.814	1004.94
477.033	980.94
477.252	998.94
477.471	1010.94
477.69	1039.94
477.908	1064.94
478.127	1083.94
478.346	1112.94
478.564	1155.94
478.783	1117.94
479.002	1126.94
479.22	1191.94
479.439	1144.94
479.658	1139.94
479.876	1173.94
480.095	1163.94
480.313	1183.94
480.532	1215.94
480.751	1146.94
480.969	1153.94
481.188	1133.94
481.406	1094.94
481.624	1097.94
481.843	1107.94
482.061	1079.94
482.28	1101.94
482.498	1061.94
482.717	1085.94
482.935	1071.94
483.153	1116.94
483.372	1107.94
483.59	1117.94
483.808	1082.94
484.027	1099.94
484.245	1087.94
484.463	1100.94
484.681	1132.94
484.9	1122.94
485.118	1137.94
485.336	1149.94
485.554	1122.94
485.772	1158.94
485.99	1119.94
486.209	1154.94
486.427	1157.94
486.645	1167.94
486.863	1128.94
487.081	1153.94
487.299	1137.94
487.517	1146.94
487.735	1154.94
487.953	1176.94
488.171	1122.94
488.389	1107.94
488.607	1132.94
488.825	1124.94
489.043	1147.94
489.261	1119.94
489.479	1121.94
489.696	1125.94
489.914	1126.94
490.132	1126.94
490.35	1148.94
490.568	1137.94
490.786	1135.94
491.003	1115.94
491.221	1147.94
491.439	1158.94
491.657	1164.94
491.874	1185.94
492.092	1177.94
492.31	1203.94
492.527	1177.94
492.745	1178.94
492.963	1183.94
493.18	1166.94
493.398	1195.94
493.615	1167.94
493.833	1163.94
494.05	1182.94
494.268	1180.94
494.485	1216.94
494.703	1208.94
494.92	1222.94
495.138	1174.94
495.355	1220.94
495.573	1218.94
495.79	1203.94
496.008	1223.94
496.225	1227.94
496.442	1258.94
496.66	1274.94
496.877	1298.94
497.094	1295.94
497.312	1330.94
