Data from NiCl2@0.5M.TitratingCurve.Agarose3%dH2O.NegLispCup.LampEnergy10.LIBS07252019_HRD10591_18-20-02-574.txt Node
Date: Thu Jul 25 18:20:02 EDT 2019
User: cochatt
Spectrometer: HR+D1059
Trigger mode: 1
Integration Time (sec): 1.000000E-1
Scans to average: 1
Electric dark correction enabled: true
Nonlinearity correction enabled: false
Boxcar width: 0
XAxis mode: Wavelengths
Number of Pixels in Spectrum: 2048
>>>>>Begin Spectral Data<<<<<
223.165	-18
223.4	-18
223.635	-18
223.869	-21
224.104	-21
224.338	-18
224.573	-13
224.808	-9
225.042	3
225.277	-1
225.511	-4
225.746	0
225.98	3
226.215	8
226.449	18
226.683	16
226.918	31
227.152	26
227.387	41
227.621	52
227.856	59
228.09	46
228.324	45
228.559	42
228.793	67
229.027	94
229.262	106
229.496	94
229.73	104
229.964	117
230.199	118
230.433	116
230.667	121
230.901	120
231.136	116
231.37	102
231.604	112
231.838	119
232.072	129
232.306	126
232.541	137
232.775	141
233.009	127
233.243	118
233.477	125
233.711	123
233.945	128
234.179	132
234.413	121
234.647	130
234.881	117
235.115	119
235.349	110
235.583	119
235.817	133
236.051	113
236.285	118
236.519	117
236.753	126
236.987	126
237.221	132
237.455	136
237.689	125
237.922	119
238.156	119
238.39	119
238.624	124
238.858	114
239.091	144
239.325	132
239.559	130
239.793	137
240.027	134
240.26	135
240.494	135
240.728	131
240.961	144
241.195	148
241.429	162
241.662	159
241.896	152
242.13	153
242.363	159
242.597	150
242.83	150
243.064	141
243.298	150
243.531	149
243.765	157
243.998	157
244.232	181
244.465	164
244.699	167
244.932	162
245.166	146
245.399	160
245.633	159
245.866	151
246.099	171
246.333	152
246.566	155
246.8	171
247.033	176
247.266	158
247.5	160
247.733	173
247.966	189
248.2	182
248.433	174
248.666	190
248.899	186
249.133	179
249.366	172
249.599	170
249.832	177
250.066	170
250.299	175
250.532	179
250.765	182
250.998	175
251.231	186
251.465	189
251.698	190
251.931	198
252.164	191
252.397	188
252.63	199
252.863	202
253.096	187
253.329	195
253.562	189
253.795	204
254.028	211
254.261	200
254.494	211
254.727	199
254.96	198
255.193	203
255.426	187
255.659	207
255.892	202
256.124	206
256.357	221
256.59	184
256.823	206
257.056	216
257.289	219
257.521	223
257.754	230
257.987	223
258.22	216
258.452	214
258.685	212
258.918	224
259.151	223
259.383	217
259.616	206
259.849	219
260.081	209
260.314	230
260.547	235
260.779	232
261.012	212
261.244	227
261.477	238
261.71	233
261.942	237
262.175	224
262.407	228
262.64	242
262.872	233
263.105	236
263.337	243
263.57	234
263.802	226
264.035	250
264.267	241
264.499	263
264.732	254
264.964	240
265.197	239
265.429	245
265.661	235
265.894	244
266.126	254
266.358	251
266.591	239
266.823	243
267.055	238
267.287	254
267.52	252
267.752	259
267.984	257
268.216	248
268.448	275
268.681	266
268.913	263
269.145	258
269.377	258
269.609	268
269.841	252
270.073	270
270.306	273
270.538	272
270.77	250
271.002	267
271.234	271
271.466	255
271.698	278
271.93	255
272.162	275
272.394	294
272.626	266
272.858	271
273.09	265
273.322	291
273.553	274
273.785	280
274.017	276
274.249	283
274.481	281
274.713	301
274.945	295
275.176	285
275.408	279
275.64	288
275.872	290
276.104	309
276.335	296
276.567	291
276.799	293
277.031	291
277.262	300
277.494	304
277.726	287
277.957	286
278.189	300
278.421	289
278.652	295
278.884	314
279.115	295
279.347	297
279.579	318
279.81	290
280.042	311
280.273	317
280.505	310
280.736	316
280.968	316
281.199	307
281.431	313
281.662	324
281.894	326
282.125	310
282.356	328
282.588	315
282.819	323
283.051	300
283.282	348
283.513	335
283.745	322
283.976	303
284.207	332
284.439	332
284.67	332
284.901	327
285.132	347
285.364	335
285.595	342
285.826	335
286.057	331
286.288	335
286.52	350
286.751	349
286.982	348
287.213	357
287.444	348
287.675	334
287.906	352
288.138	370
288.369	347
288.6	359
288.831	368
289.062	354
289.293	390
289.524	351
289.755	361
289.986	356
290.217	359
290.448	355
290.679	374
290.91	367
291.141	357
291.371	367
291.602	358
291.833	355
292.064	355
292.295	361
292.526	358
292.757	368
292.987	371
293.218	365
293.449	362
293.68	374
293.91	358
294.141	358
294.372	357
294.603	374
294.833	383
295.064	363
295.295	390
295.525	370
295.756	363
295.987	362
296.217	361
296.448	375
296.679	382
296.909	373
297.14	384
297.37	380
297.601	398
297.831	386
298.062	383
298.292	391
298.523	405
298.753	381
298.984	397
299.214	381
299.445	420
299.675	406
299.905	416
300.136	413
300.366	415
300.597	412
300.827	414
301.057	424
301.288	434
301.518	429
301.748	409
301.979	423
302.209	406
302.439	413
302.669	414
302.9	392
303.13	420
303.36	415
303.59	402
303.82	422
304.051	428
304.281	419
304.511	416
304.741	418
304.971	416
305.201	442
305.431	440
305.661	440
305.891	430
306.121	418
306.352	427
306.582	419
306.812	411
307.042	408
307.272	440
307.502	392
307.731	419
307.961	428
308.191	430
308.421	417
308.651	442
308.881	402
309.111	416
309.341	421
309.571	401
309.8	436
310.03	423
310.26	422
310.49	441
310.72	430
310.949	438
311.179	440
311.409	431
311.639	436
311.868	428
312.098	441
312.328	441
312.557	446
312.787	442
313.017	443
313.246	467
313.476	453
313.706	467
313.935	454
314.165	435
314.394	460
314.624	462
314.853	436
315.083	441
315.312	440
315.542	446
315.771	445
316.001	449
316.23	440
316.46	449
316.689	455
316.919	471
317.148	470
317.377	448
317.607	434
317.836	438
318.065	430
318.295	472
318.524	452
318.753	452
318.983	439
319.212	441
319.441	441
319.67	450
319.9	447
320.129	444
320.358	468
320.587	458
320.816	455
321.046	454
321.275	451
321.504	447
321.733	459
321.962	459
322.191	444
322.42	458
322.649	451
322.878	452
323.108	454
323.337	461
323.566	474
323.795	454
324.024	476
324.253	495
324.482	476
324.71	477
324.939	471
325.168	487
325.397	458
325.626	481
325.855	486
326.084	491
326.313	496
326.542	492
326.77	510
326.999	491
327.228	508
327.457	492
327.686	484
327.914	499
328.143	490
328.372	487
328.6	477
328.829	486
329.058	474
329.287	479
329.515	508
329.744	479
329.972	471
330.201	488
330.43	494
330.658	486
330.887	505
331.115	507
331.344	506
331.572	513
331.801	547
332.03	541
332.258	537
332.486	564
332.715	566
332.943	556
333.172	602
333.4	591
333.629	583
333.857	601
334.085	616
334.314	606
334.542	584
334.771	578
334.999	578
335.227	571
335.455	589
335.684	580
335.912	591
336.14	577
336.369	572
336.597	609
336.825	590
337.053	612
337.281	602
337.51	577
337.738	549
337.966	563
338.194	583
338.422	563
338.65	532
338.878	533
339.106	549
339.334	547
339.562	533
339.79	520
340.018	491
340.246	498
340.474	515
340.702	525
340.93	509
341.158	516
341.386	537
341.614	524
341.842	549
342.07	523
342.298	508
342.526	520
342.754	503
342.981	506
343.209	532
343.437	541
343.665	555
343.893	567
344.12	572
344.348	572
344.576	581
344.804	551
345.031	546
345.259	542
345.487	533
345.714	525
345.942	536
346.17	552
346.397	530
346.625	488
346.853	512
347.08	490
347.308	500
347.535	498
347.763	492
347.99	488
348.218	492
348.445	500
348.673	502
348.9	485
349.128	477
349.355	483
349.583	516
349.81	503
350.037	498
350.265	473
350.492	474
350.72	491
350.947	501
351.174	524
351.402	513
351.629	507
351.856	503
352.083	479
352.311	475
352.538	516
352.765	519
352.992	490
353.22	482
353.447	463
353.674	453
353.901	464
354.128	471
354.355	466
354.583	470
354.81	476
355.037	474
355.264	470
355.491	452
355.718	451
355.945	460
356.172	476
356.399	486
356.626	473
356.853	499
357.08	484
357.307	460
357.534	490
357.761	473
357.988	463
358.215	483
358.441	470
358.668	471
358.895	476
359.122	466
359.349	448
359.576	468
359.802	484
360.029	465
360.256	470
360.483	450
360.709	457
360.936	483
361.163	493
361.39	491
361.616	471
361.843	486
362.07	516
362.296	491
362.523	463
362.749	445
362.976	452
363.203	470
363.429	451
363.656	471
363.882	457
364.109	458
364.335	457
364.562	443
364.788	438
365.015	449
365.241	471
365.468	460
365.694	470
365.92	461
366.147	442
366.373	467
366.599	470
366.826	456
367.052	459
367.278	455
367.505	466
367.731	464
367.957	475
368.184	457
368.41	466
368.636	465
368.862	483
369.089	453
369.315	449
369.541	461
369.767	478
369.993	476
370.219	471
370.445	463
370.672	475
370.898	467
371.124	482
371.35	490
371.576	491
371.802	494
372.028	480
372.254	470
372.48	472
372.706	509
372.932	489
373.158	514
373.384	516
373.61	481
373.835	495
374.061	498
374.287	468
374.513	478
374.739	500
374.965	495
375.191	521
375.416	516
375.642	494
375.868	512
376.094	493
376.319	503
376.545	489
376.771	481
376.997	468
377.222	459
377.448	457
377.674	470
377.899	490
378.125	467
378.35	502
378.576	457
378.802	476
379.027	460
379.253	479
379.478	458
379.704	452
379.929	472
380.155	452
380.38	463
380.606	455
380.831	476
381.057	474
381.282	475
381.507	494
381.733	479
381.958	481
382.184	468
382.409	501
382.634	481
382.86	493
383.085	506
383.31	502
383.535	510
383.761	506
383.986	537
384.211	526
384.436	519
384.662	517
384.887	543
385.112	544
385.337	538
385.562	532
385.787	552
386.013	549
386.238	522
386.463	541
386.688	548
386.913	537
387.138	542
387.363	512
387.588	565
387.813	543
388.038	540
388.263	531
388.488	542
388.713	529
388.938	518
389.163	546
389.387	550
389.612	536
389.837	532
390.062	560
390.287	531
390.512	558
390.736	553
390.961	582
391.186	578
391.411	569
391.636	592
391.86	594
392.085	596
392.31	573
392.534	571
392.759	567
392.984	571
393.208	564
393.433	582
393.658	550
393.882	558
394.107	571
394.331	570
394.556	588
394.78	590
395.005	570
395.229	572
395.454	608
395.678	610
395.903	605
396.127	593
396.352	599
396.576	582
396.801	586
397.025	567
397.249	592
397.474	628
397.698	603
397.922	632
398.147	601
398.371	626
398.595	652
398.82	676
399.044	691
399.268	785
399.492	802
399.717	871
399.941	868
400.165	825
400.389	785
400.613	755
400.837	707
401.062	706
401.286	680
401.51	683
401.734	679
401.958	677
402.182	692
402.406	677
402.63	672
402.854	670
403.078	682
403.302	695
403.526	694
403.75	735
403.974	711
404.198	720
404.422	749
404.645	731
404.869	722
405.093	724
405.317	694
405.541	730
405.765	724
405.988	727
406.212	716
406.436	715
406.66	751
406.883	757
407.107	774
407.331	798
407.555	814
407.778	830
408.002	782
408.226	826
408.449	791
408.673	776
408.896	786
409.12	752
409.344	759
409.567	748
409.791	779
410.014	755
410.238	750
410.461	741
410.685	762
410.908	698
411.132	725
411.355	705
411.578	712
411.802	721
412.025	704
412.249	728
412.472	736
412.695	685
412.919	700
413.142	690
413.365	695
413.589	709
413.812	694
414.035	695
414.258	672
414.482	695
414.705	684
414.928	671
415.151	703
415.374	685
415.597	683
415.821	701
416.044	673
416.267	677
416.49	678
416.713	670
416.936	692
417.159	666
417.382	651
417.605	667
417.828	665
418.051	659
418.274	659
418.497	687
418.72	701
418.943	676
419.166	716
419.389	784
419.611	724
419.834	729
420.057	716
420.28	698
420.503	643
420.726	680
420.948	648
421.171	690
421.394	684
421.617	667
421.839	685
422.062	676
422.285	684
422.507	691
422.73	698
422.953	701
423.175	712
423.398	725
423.621	708
423.843	724
424.066	702
424.288	720
424.511	715
424.733	709
424.956	697
425.178	704
425.401	686
425.623	710
425.846	681
426.068	699
426.291	698
426.513	676
426.735	687
426.958	675
427.18	681
427.402	663
427.625	652
427.847	638
428.069	642
428.292	634
428.514	622
428.736	648
428.958	642
429.181	645
429.403	647
429.625	644
429.847	645
430.069	633
430.292	639
430.514	645
430.736	611
430.958	607
431.18	610
431.402	653
431.624	646
431.846	662
432.068	664
432.29	687
432.512	644
432.734	669
432.956	660
433.178	684
433.4	662
433.622	680
433.844	681
434.066	684
434.287	659
434.509	697
434.731	727
434.953	729
435.175	724
435.397	715
435.618	692
435.84	690
436.062	661
436.284	674
436.505	671
436.727	674
436.949	686
437.17	650
437.392	650
437.614	675
437.835	646
438.057	664
438.278	650
438.5	629
438.721	654
438.943	666
439.165	663
439.386	647
439.608	660
439.829	692
440.05	661
440.272	646
440.493	689
440.715	685
440.936	696
441.158	668
441.379	682
441.6	739
441.822	759
442.043	715
442.264	731
442.486	719
442.707	715
442.928	726
443.149	733
443.371	740
443.592	736
443.813	736
444.034	742
444.255	776
444.476	771
444.698	792
444.919	831
445.14	916
445.361	826
445.582	762
445.803	726
446.024	718
446.245	695
446.466	687
446.687	689
446.908	687
447.129	682
447.35	654
447.571	662
447.792	637
448.013	656
448.234	649
448.455	648
448.675	643
448.896	638
449.117	634
449.338	646
449.559	648
449.779	640
450	618
450.221	621
450.442	654
450.662	626
450.883	634
451.104	658
451.324	653
451.545	647
451.766	648
451.986	606
452.207	596
452.428	591
452.648	607
452.869	603
453.089	611
453.31	623
453.53	621
453.751	609
453.971	571
454.192	604
454.412	629
454.633	599
454.853	609
455.073	593
455.294	613
455.514	599
455.734	589
455.955	613
456.175	565
456.395	611
456.616	595
456.836	566
457.056	583
457.276	595
457.497	605
457.717	599
457.937	623
458.157	607
458.377	613
458.598	615
458.818	658
459.038	666
459.258	647
459.478	666
459.698	736
459.918	747
460.138	741
460.358	786
460.578	779
460.798	799
461.018	793
461.238	784
461.458	778
461.678	772
461.898	784
462.118	759
462.338	835
462.558	828
462.777	862
462.997	925
463.217	950
463.437	960
463.657	920
463.876	887
464.096	881
464.316	883
464.536	892
464.755	875
464.975	822
465.195	823
465.414	776
465.634	731
465.854	722
466.073	735
466.293	692
466.512	682
466.732	678
466.951	672
467.171	648
467.391	675
467.61	669
467.829	663
468.049	688
468.268	680
468.488	647
468.707	655
468.927	664
469.146	664
469.365	653
469.585	667
469.804	661
470.023	687
470.243	696
470.462	671
470.681	694
470.901	705
471.12	686
471.339	660
471.558	669
471.777	666
471.997	678
472.216	628
472.435	633
472.654	668
472.873	641
473.092	639
473.311	636
473.53	658
473.749	632
473.968	631
474.187	643
474.406	629
474.625	655
474.844	664
475.063	663
475.282	667
475.501	653
475.72	660
475.939	655
476.158	658
476.377	669
476.596	671
476.814	674
477.033	695
477.252	700
477.471	711
477.69	723
477.908	723
478.127	769
478.346	746
478.564	770
478.783	762
479.002	785
479.22	798
479.439	802
479.658	784
479.876	782
480.095	774
480.313	813
480.532	833
480.751	803
480.969	791
481.188	786
481.406	770
481.624	759
481.843	738
482.061	758
482.28	772
482.498	748
482.717	737
482.935	730
483.153	767
483.372	763
483.59	746
483.808	747
484.027	745
484.245	737
484.463	748
484.681	797
484.9	762
485.118	754
485.336	770
485.554	783
485.772	777
485.99	784
486.209	784
486.427	758
486.645	762
486.863	776
487.081	784
487.299	788
487.517	768
487.735	794
487.953	802
488.171	796
488.389	790
488.607	767
488.825	773
489.043	772
489.261	776
489.479	802
489.696	776
489.914	784
490.132	776
490.35	766
490.568	767
490.786	804
491.003	796
491.221	777
491.439	805
491.657	799
491.874	825
492.092	836
492.31	826
492.527	830
492.745	854
492.963	829
493.18	812
493.398	824
493.615	851
493.833	807
494.05	832
494.268	822
494.485	830
494.703	829
494.92	810
495.138	804
495.355	862
495.573	863
495.79	842
496.008	864
496.225	872
496.442	863
496.66	882
496.877	900
497.094	903
497.312	900
497.529	935
497.746	938
497.963	963
498.181	997
498.398	1003
498.615	1078
498.832	1146
499.049	1199
499.267	1282
499.484	1348
499.701	1458
499.918	1558
500.135	1703
500.352	1887
500.569	1876
500.786	1896
501.003	1780
501.22	1675
501.437	1562
501.654	1428
501.871	1306
502.088	1252
502.305	1184
502.522	1154
502.739	1080
502.956	1067
503.172	1028
503.389	973
503.606	989
503.823	942
504.04	923
504.256	920
504.473	943
504.69	907
504.907	895
505.123	891
505.34	829
505.557	811
505.773	812
505.99	801
506.207	794
506.423	758
506.64	751
506.856	732
507.073	736
507.289	734
507.506	737
507.722	727
507.939	728
508.155	737
508.372	700
508.588	699
508.805	706
509.021	702
509.238	687
509.454	692
509.67	664
509.887	690
510.103	679
510.319	687
510.536	686
510.752	659
510.968	658
511.184	657
511.401	675
511.617	681
511.833	672
512.049	653
512.265	656
512.481	665
512.698	678
512.914	656
513.13	658
513.346	670
513.562	661
513.778	667
513.994	672
514.21	663
514.426	670
514.642	667
514.858	695
515.074	684
515.29	680
515.506	683
515.721	717
515.937	689
516.153	732
516.369	744
516.585	751
516.801	736
517.016	739
517.232	794
517.448	826
517.664	846
517.879	863
518.095	856
518.311	823
518.527	811
518.742	769
518.958	782
519.173	744
519.389	734
519.605	723
519.82	682
520.036	690
520.251	669
520.467	686
520.682	668
520.898	657
521.113	649
521.329	641
521.544	639
521.76	651
521.975	628
522.19	616
522.406	628
522.621	650
522.836	619
523.052	631
523.267	632
523.482	608
523.698	618
523.913	626
524.128	594
524.343	619
524.559	624
524.774	627
524.989	606
525.204	620
525.419	623
525.634	607
525.849	601
526.064	590
526.28	603
526.495	610
526.71	570
526.925	583
527.14	602
527.355	592
527.57	591
527.785	596
527.999	586
528.214	594
528.429	596
528.644	617
528.859	595
529.074	620
529.289	617
529.503	618
529.718	604
529.933	597
530.148	584
530.363	611
530.577	606
530.792	574
531.007	565
531.221	614
531.436	588
531.651	593
531.865	560
532.08	600
532.295	592
532.509	606
532.724	590
532.938	581
533.153	619
533.367	593
533.582	596
533.796	602
534.011	579
534.225	566
534.44	577
534.654	568
534.868	570
535.083	578
535.297	562
535.511	531
535.726	582
535.94	572
536.154	568
536.369	558
536.583	556
536.797	572
537.011	562
537.225	537
537.44	560
537.654	539
537.868	542
538.082	538
538.296	549
538.51	549
538.724	542
538.938	553
539.153	540
539.367	537
539.581	525
539.795	538
540.009	548
540.222	544
540.436	542
540.65	534
540.864	543
541.078	565
541.292	551
541.506	552
541.72	557
541.934	566
542.147	564
542.361	559
542.575	540
542.789	532
543.002	547
543.216	529
543.43	538
543.644	527
543.857	524
544.071	546
544.285	555
544.498	544
544.712	550
544.925	551
545.139	552
545.352	566
545.566	550
545.779	564
545.993	568
546.206	568
546.42	535
546.633	561
546.847	560
547.06	540
547.274	543
547.487	535
547.7	563
547.914	559
548.127	556
548.34	534
548.554	559
548.767	576
548.98	557
549.193	549
549.407	534
549.62	570
549.833	578
550.046	570
550.259	557
550.473	560
550.686	552
550.899	543
551.112	551
551.325	551
551.538	543
551.751	542
551.964	540
552.177	554
552.39	536
552.603	556
552.816	567
553.029	551
553.242	587
553.455	579
553.667	573
553.88	579
554.093	566
554.306	562
554.519	534
554.732	528
554.944	540
555.157	544
555.37	528
555.583	505
555.795	515
556.008	519
556.221	497
556.433	484
556.646	500
556.859	485
557.071	494
557.284	488
557.496	490
557.709	486
557.921	493
558.134	481
558.346	487
558.559	483
558.771	479
558.984	478
559.196	490
559.409	477
559.621	484
559.833	459
560.046	438
560.258	446
560.47	502
560.683	460
560.895	461
561.107	463
561.32	447
561.532	462
561.744	467
561.956	460
562.168	468
562.381	470
562.593	462
562.805	459
563.017	463
