Data from NiCl2@0.5M.TitratingCurve.Agarose3%dH2O.NegLispCup.LampEnergy10.LIBS07252019_HRD10591_18-20-22-571.txt Node
Date: Thu Jul 25 18:20:22 EDT 2019
User: cochatt
Spectrometer: HR+D1059
Trigger mode: 1
Integration Time (sec): 1.000000E-1
Scans to average: 1
Electric dark correction enabled: true
Nonlinearity correction enabled: false
Boxcar width: 0
XAxis mode: Wavelengths
Number of Pixels in Spectrum: 2048
>>>>>Begin Spectral Data<<<<<
223.165	-15.25
223.4	-15.25
223.635	-15.25
223.869	-18.25
224.104	-7.25
224.338	-14.25
224.573	-14.25
224.808	-14.25
225.042	-11.25
225.277	4.75
225.511	-6.25
225.746	-2.25
225.98	3.75
226.215	22.75
226.449	17.75
226.683	6.75
226.918	35.75
227.152	11.75
227.387	24.75
227.621	41.75
227.856	36.75
228.09	49.75
228.324	66.75
228.559	50.75
228.793	71.75
229.027	97.75
229.262	108.75
229.496	121.75
229.73	123.75
229.964	113.75
230.199	132.75
230.433	145.75
230.667	132.75
230.901	132.75
231.136	136.75
231.37	139.75
231.604	146.75
231.838	147.75
232.072	164.75
232.306	147.75
232.541	151.75
232.775	158.75
233.009	147.75
233.243	145.75
233.477	141.75
233.711	147.75
233.945	153.75
234.179	157.75
234.413	160.75
234.647	153.75
234.881	154.75
235.115	152.75
235.349	152.75
235.583	156.75
235.817	163.75
236.051	160.75
236.285	149.75
236.519	168.75
236.753	164.75
236.987	154.75
237.221	164.75
237.455	168.75
237.689	154.75
237.922	161.75
238.156	173.75
238.39	163.75
238.624	147.75
238.858	160.75
239.091	149.75
239.325	169.75
239.559	161.75
239.793	195.75
240.027	179.75
240.26	167.75
240.494	175.75
240.728	192.75
240.961	175.75
241.195	200.75
241.429	183.75
241.662	184.75
241.896	204.75
242.13	218.75
242.363	189.75
242.597	187.75
242.83	202.75
243.064	205.75
243.298	218.75
243.531	185.75
243.765	208.75
243.998	204.75
244.232	207.75
244.465	209.75
244.699	196.75
244.932	217.75
245.166	206.75
245.399	203.75
245.633	216.75
245.866	203.75
246.099	215.75
246.333	215.75
246.566	226.75
246.8	248.75
247.033	226.75
247.266	219.75
247.5	221.75
247.733	230.75
247.966	237.75
248.2	241.75
248.433	240.75
248.666	241.75
248.899	237.75
249.133	255.75
249.366	263.75
249.599	222.75
249.832	236.75
250.066	249.75
250.299	261.75
250.532	247.75
250.765	259.75
250.998	261.75
251.231	264.75
251.465	276.75
251.698	278.75
251.931	259.75
252.164	279.75
252.397	263.75
252.63	260.75
252.863	278.75
253.096	290.75
253.329	268.75
253.562	285.75
253.795	280.75
254.028	283.75
254.261	267.75
254.494	291.75
254.727	295.75
254.96	271.75
255.193	285.75
255.426	271.75
255.659	292.75
255.892	291.75
256.124	276.75
256.357	296.75
256.59	301.75
256.823	283.75
257.056	297.75
257.289	314.75
257.521	300.75
257.754	307.75
257.987	298.75
258.22	317.75
258.452	296.75
258.685	312.75
258.918	307.75
259.151	310.75
259.383	289.75
259.616	305.75
259.849	307.75
260.081	322.75
260.314	312.75
260.547	316.75
260.779	313.75
261.012	310.75
261.244	327.75
261.477	329.75
261.71	338.75
261.942	311.75
262.175	339.75
262.407	328.75
262.64	335.75
262.872	338.75
263.105	333.75
263.337	350.75
263.57	352.75
263.802	334.75
264.035	333.75
264.267	347.75
264.499	346.75
264.732	346.75
264.964	352.75
265.197	341.75
265.429	346.75
265.661	354.75
265.894	337.75
266.126	354.75
266.358	365.75
266.591	359.75
266.823	380.75
267.055	375.75
267.287	395.75
267.52	371.75
267.752	371.75
267.984	391.75
268.216	385.75
268.448	374.75
268.681	368.75
268.913	365.75
269.145	371.75
269.377	369.75
269.609	375.75
269.841	384.75
270.073	383.75
270.306	394.75
270.538	385.75
270.77	372.75
271.002	383.75
271.234	371.75
271.466	393.75
271.698	396.75
271.93	401.75
272.162	378.75
272.394	413.75
272.626	376.75
272.858	393.75
273.09	393.75
273.322	412.75
273.553	410.75
273.785	413.75
274.017	410.75
274.249	424.75
274.481	419.75
274.713	416.75
274.945	429.75
275.176	433.75
275.408	443.75
275.64	437.75
275.872	431.75
276.104	440.75
276.335	424.75
276.567	424.75
276.799	433.75
277.031	458.75
277.262	432.75
277.494	454.75
277.726	436.75
277.957	432.75
278.189	464.75
278.421	429.75
278.652	442.75
278.884	467.75
279.115	451.75
279.347	455.75
279.579	467.75
279.81	444.75
280.042	455.75
280.273	469.75
280.505	471.75
280.736	457.75
280.968	459.75
281.199	467.75
281.431	491.75
281.662	488.75
281.894	500.75
282.125	495.75
282.356	497.75
282.588	476.75
282.819	464.75
283.051	485.75
283.282	489.75
283.513	500.75
283.745	493.75
283.976	506.75
284.207	504.75
284.439	491.75
284.67	493.75
284.901	504.75
285.132	503.75
285.364	515.75
285.595	498.75
285.826	524.75
286.057	492.75
286.288	512.75
286.52	521.75
286.751	502.75
286.982	524.75
287.213	514.75
287.444	523.75
287.675	517.75
287.906	513.75
288.138	518.75
288.369	503.75
288.6	534.75
288.831	540.75
289.062	532.75
289.293	537.75
289.524	535.75
289.755	538.75
289.986	524.75
290.217	547.75
290.448	545.75
290.679	551.75
290.91	532.75
291.141	526.75
291.371	552.75
291.602	542.75
291.833	555.75
292.064	532.75
292.295	528.75
292.526	543.75
292.757	543.75
292.987	554.75
293.218	508.75
293.449	544.75
293.68	545.75
293.91	559.75
294.141	538.75
294.372	541.75
294.603	547.75
294.833	568.75
295.064	556.75
295.295	556.75
295.525	567.75
295.756	549.75
295.987	546.75
296.217	554.75
296.448	572.75
296.679	553.75
296.909	568.75
297.14	585.75
297.37	589.75
297.601	584.75
297.831	590.75
298.062	588.75
298.292	613.75
298.523	633.75
298.753	595.75
298.984	603.75
299.214	604.75
299.445	585.75
299.675	616.75
299.905	607.75
300.136	604.75
300.366	626.75
300.597	637.75
300.827	656.75
301.057	629.75
301.288	647.75
301.518	634.75
301.748	608.75
301.979	633.75
302.209	620.75
302.439	637.75
302.669	648.75
302.9	642.75
303.13	611.75
303.36	623.75
303.59	619.75
303.82	617.75
304.051	633.75
304.281	634.75
304.511	641.75
304.741	645.75
304.971	645.75
305.201	652.75
305.431	646.75
305.661	629.75
305.891	639.75
306.121	642.75
306.352	631.75
306.582	613.75
306.812	620.75
307.042	619.75
307.272	629.75
307.502	604.75
307.731	631.75
307.961	617.75
308.191	616.75
308.421	604.75
308.651	628.75
308.881	629.75
309.111	630.75
309.341	628.75
309.571	613.75
309.8	644.75
310.03	637.75
310.26	634.75
310.49	669.75
310.72	626.75
310.949	619.75
311.179	629.75
311.409	653.75
311.639	628.75
311.868	647.75
312.098	632.75
312.328	646.75
312.557	664.75
312.787	662.75
313.017	680.75
313.246	676.75
313.476	688.75
313.706	670.75
313.935	668.75
314.165	670.75
314.394	663.75
314.624	657.75
314.853	671.75
315.083	642.75
315.312	667.75
315.542	652.75
315.771	659.75
316.001	663.75
316.23	665.75
316.46	660.75
316.689	661.75
316.919	673.75
317.148	680.75
317.377	665.75
317.607	663.75
317.836	664.75
318.065	665.75
318.295	661.75
318.524	643.75
318.753	660.75
318.983	683.75
319.212	655.75
319.441	672.75
319.67	679.75
319.9	656.75
320.129	643.75
320.358	644.75
320.587	658.75
320.816	687.75
321.046	658.75
321.275	667.75
321.504	659.75
321.733	696.75
321.962	659.75
322.191	681.75
322.42	673.75
322.649	679.75
322.878	703.75
323.108	676.75
323.337	695.75
323.566	692.75
323.795	689.75
324.024	706.75
324.253	694.75
324.482	691.75
324.71	711.75
324.939	695.75
325.168	706.75
325.397	702.75
325.626	716.75
325.855	714.75
326.084	726.75
326.313	736.75
326.542	735.75
326.77	730.75
326.999	703.75
327.228	731.75
327.457	709.75
327.686	744.75
327.914	735.75
328.143	739.75
328.372	743.75
328.6	716.75
328.829	733.75
329.058	752.75
329.287	732.75
329.515	742.75
329.744	716.75
329.972	735.75
330.201	751.75
330.43	748.75
330.658	743.75
330.887	740.75
331.115	752.75
331.344	751.75
331.572	781.75
331.801	774.75
332.03	804.75
332.258	813.75
332.486	816.75
332.715	825.75
332.943	853.75
333.172	872.75
333.4	897.75
333.629	899.75
333.857	919.75
334.085	893.75
334.314	908.75
334.542	876.75
334.771	891.75
334.999	915.75
335.227	922.75
335.455	914.75
335.684	888.75
335.912	887.75
336.14	883.75
336.369	925.75
336.597	892.75
336.825	910.75
337.053	897.75
337.281	887.75
337.51	874.75
337.738	871.75
337.966	831.75
338.194	845.75
338.422	884.75
338.65	802.75
338.878	815.75
339.106	829.75
339.334	859.75
339.562	825.75
339.79	815.75
340.018	772.75
340.246	762.75
340.474	781.75
340.702	771.75
340.93	776.75
341.158	761.75
341.386	807.75
341.614	820.75
341.842	807.75
342.07	748.75
342.298	745.75
342.526	794.75
342.754	757.75
342.981	743.75
343.209	804.75
343.437	816.75
343.665	852.75
343.893	872.75
344.12	868.75
344.348	846.75
344.576	861.75
344.804	824.75
345.031	857.75
345.259	802.75
345.487	806.75
345.714	784.75
345.942	795.75
346.17	788.75
346.397	760.75
346.625	760.75
346.853	751.75
347.08	771.75
347.308	777.75
347.535	755.75
347.763	751.75
347.99	728.75
348.218	757.75
348.445	729.75
348.673	730.75
348.9	731.75
349.128	759.75
349.355	746.75
349.583	767.75
349.81	719.75
350.037	671.75
350.265	704.75
350.492	720.75
350.72	709.75
350.947	743.75
351.174	753.75
351.402	731.75
351.629	733.75
351.856	745.75
352.083	689.75
352.311	703.75
352.538	758.75
352.765	787.75
352.992	713.75
353.22	697.75
353.447	695.75
353.674	679.75
353.901	698.75
354.128	671.75
354.355	701.75
354.583	685.75
354.81	695.75
355.037	725.75
355.264	685.75
355.491	705.75
355.718	696.75
355.945	692.75
356.172	701.75
356.399	703.75
356.626	702.75
356.853	733.75
357.08	716.75
357.307	695.75
357.534	679.75
357.761	715.75
357.988	691.75
358.215	703.75
358.441	675.75
358.668	674.75
358.895	687.75
359.122	698.75
359.349	694.75
359.576	695.75
359.802	700.75
360.029	672.75
360.256	705.75
360.483	694.75
360.709	678.75
360.936	697.75
361.163	709.75
361.39	709.75
361.616	722.75
361.843	721.75
362.07	742.75
362.296	728.75
362.523	703.75
362.749	689.75
362.976	678.75
363.203	698.75
363.429	685.75
363.656	682.75
363.882	705.75
364.109	689.75
364.335	681.75
364.562	675.75
364.788	694.75
365.015	705.75
365.241	680.75
365.468	692.75
365.694	667.75
365.92	659.75
366.147	680.75
366.373	681.75
366.599	699.75
366.826	691.75
367.052	672.75
367.278	692.75
367.505	697.75
367.731	696.75
367.957	680.75
368.184	694.75
368.41	677.75
368.636	683.75
368.862	696.75
369.089	705.75
369.315	698.75
369.541	708.75
369.767	706.75
369.993	736.75
370.219	709.75
370.445	696.75
370.672	721.75
370.898	712.75
371.124	696.75
371.35	721.75
371.576	709.75
371.802	713.75
372.028	706.75
372.254	715.75
372.48	732.75
372.706	737.75
372.932	776.75
373.158	746.75
373.384	723.75
373.61	728.75
373.835	727.75
374.061	720.75
374.287	738.75
374.513	739.75
374.739	751.75
374.965	800.75
375.191	802.75
375.416	789.75
375.642	774.75
375.868	759.75
376.094	739.75
376.319	734.75
376.545	725.75
376.771	723.75
376.997	724.75
377.222	741.75
377.448	722.75
377.674	744.75
377.899	717.75
378.125	728.75
378.35	731.75
378.576	706.75
378.802	725.75
379.027	704.75
379.253	701.75
379.478	689.75
379.704	739.75
379.929	733.75
380.155	720.75
380.38	738.75
380.606	731.75
380.831	737.75
381.057	714.75
381.282	716.75
381.507	704.75
381.733	692.75
381.958	723.75
382.184	721.75
382.409	727.75
382.634	750.75
382.86	741.75
383.085	744.75
383.31	764.75
383.535	771.75
383.761	774.75
383.986	795.75
384.211	805.75
384.436	811.75
384.662	798.75
384.887	813.75
385.112	796.75
385.337	795.75
385.562	834.75
385.787	842.75
386.013	872.75
386.238	870.75
386.463	857.75
386.688	834.75
386.913	826.75
387.138	831.75
387.363	863.75
387.588	831.75
387.813	853.75
388.038	836.75
388.263	833.75
388.488	856.75
388.713	840.75
388.938	847.75
389.163	833.75
389.387	854.75
389.612	824.75
389.837	863.75
390.062	825.75
390.287	813.75
390.512	831.75
390.736	852.75
390.961	858.75
391.186	856.75
391.411	890.75
391.636	916.75
391.86	907.75
392.085	940.75
392.31	938.75
392.534	929.75
392.759	900.75
392.984	881.75
393.208	916.75
393.433	895.75
393.658	900.75
393.882	888.75
394.107	874.75
394.331	898.75
394.556	879.75
394.78	908.75
395.005	916.75
395.229	910.75
395.454	927.75
395.678	927.75
395.903	957.75
396.127	929.75
396.352	917.75
396.576	905.75
396.801	903.75
397.025	907.75
397.249	922.75
397.474	938.75
397.698	951.75
397.922	948.75
398.147	964.75
398.371	1004.75
398.595	1033.75
398.82	1059.75
399.044	1055.75
399.268	1138.75
399.492	1286.75
399.717	1361.75
399.941	1351.75
400.165	1286.75
400.389	1194.75
400.613	1146.75
400.837	1081.75
401.062	1107.75
401.286	1070.75
401.51	1083.75
401.734	1077.75
401.958	1058.75
402.182	1050.75
402.406	1082.75
402.63	1091.75
402.854	1059.75
403.078	1089.75
403.302	1107.75
403.526	1135.75
403.75	1094.75
403.974	1153.75
404.198	1130.75
404.422	1133.75
404.645	1149.75
404.869	1128.75
405.093	1132.75
405.317	1108.75
405.541	1099.75
405.765	1136.75
405.988	1122.75
406.212	1155.75
406.436	1167.75
406.66	1129.75
406.883	1182.75
407.107	1245.75
407.331	1274.75
407.555	1320.75
407.778	1275.75
408.002	1277.75
408.226	1258.75
408.449	1250.75
408.673	1197.75
408.896	1227.75
409.12	1196.75
409.344	1198.75
409.567	1163.75
409.791	1192.75
410.014	1216.75
410.238	1173.75
410.461	1180.75
410.685	1188.75
410.908	1132.75
411.132	1130.75
411.355	1100.75
411.578	1075.75
411.802	1081.75
412.025	1135.75
412.249	1105.75
412.472	1147.75
412.695	1092.75
412.919	1097.75
413.142	1090.75
413.365	1072.75
413.589	1066.75
413.812	1071.75
414.035	1084.75
414.258	1036.75
414.482	1060.75
414.705	1082.75
414.928	1094.75
415.151	1087.75
415.374	1078.75
415.597	1066.75
415.821	1040.75
416.044	1040.75
416.267	1044.75
416.49	1061.75
416.713	1044.75
416.936	1035.75
417.159	1036.75
417.382	1040.75
417.605	1048.75
417.828	1058.75
418.051	1057.75
418.274	1073.75
418.497	1052.75
418.72	1064.75
418.943	1039.75
419.166	1136.75
419.389	1193.75
419.611	1180.75
419.834	1125.75
420.057	1104.75
420.28	1062.75
420.503	1079.75
420.726	1035.75
420.948	1041.75
421.171	1032.75
421.394	1079.75
421.617	1066.75
421.839	1047.75
422.062	1036.75
422.285	1043.75
422.507	1059.75
422.73	1068.75
422.953	1086.75
423.175	1089.75
423.398	1095.75
423.621	1049.75
423.843	1083.75
424.066	1085.75
424.288	1088.75
424.511	1081.75
424.733	1071.75
424.956	1045.75
425.178	1044.75
425.401	1044.75
425.623	1058.75
425.846	1025.75
426.068	1047.75
426.291	1016.75
426.513	1019.75
426.735	1020.75
426.958	1037.75
427.18	1002.75
427.402	1000.75
427.625	1017.75
427.847	977.75
428.069	971.75
428.292	963.75
428.514	992.75
428.736	977.75
428.958	988.75
429.181	965.75
429.403	991.75
429.625	964.75
429.847	986.75
430.069	993.75
430.292	971.75
430.514	965.75
430.736	991.75
430.958	970.75
431.18	1005.75
431.402	988.75
431.624	977.75
431.846	996.75
432.068	977.75
432.29	1010.75
432.512	974.75
432.734	1035.75
432.956	992.75
433.178	1025.75
433.4	1007.75
433.622	1012.75
433.844	1023.75
434.066	1036.75
434.287	1028.75
434.509	1035.75
434.731	1103.75
434.953	1082.75
435.175	1072.75
435.397	1113.75
435.618	1009.75
435.84	1011.75
436.062	1002.75
436.284	977.75
436.505	1004.75
436.727	972.75
436.949	993.75
437.17	997.75
437.392	992.75
437.614	963.75
437.835	957.75
438.057	940.75
438.278	967.75
438.5	969.75
438.721	980.75
438.943	969.75
439.165	966.75
439.386	951.75
439.608	984.75
439.829	974.75
440.05	978.75
440.272	1002.75
440.493	1003.75
440.715	1034.75
440.936	1031.75
441.158	1054.75
441.379	1068.75
441.6	1088.75
441.822	1108.75
442.043	1091.75
442.264	1080.75
442.486	1057.75
442.707	1069.75
442.928	1068.75
443.149	1119.75
443.371	1059.75
443.592	1117.75
443.813	1112.75
444.034	1087.75
444.255	1131.75
444.476	1176.75
444.698	1167.75
444.919	1224.75
445.14	1265.75
445.361	1213.75
445.582	1152.75
445.803	1078.75
446.024	1061.75
446.245	1071.75
446.466	1015.75
446.687	1029.75
446.908	1003.75
447.129	999.75
447.35	960.75
447.571	947.75
447.792	948.75
448.013	935.75
448.234	932.75
448.455	953.75
448.675	954.75
448.896	925.75
449.117	896.75
449.338	938.75
449.559	924.75
449.779	933.75
450	900.75
450.221	925.75
450.442	940.75
450.662	932.75
450.883	961.75
451.104	988.75
451.324	910.75
451.545	949.75
451.766	932.75
451.986	933.75
452.207	936.75
452.428	920.75
452.648	943.75
452.869	925.75
453.089	885.75
453.31	904.75
453.53	865.75
453.751	902.75
453.971	900.75
454.192	910.75
454.412	875.75
454.633	887.75
454.853	904.75
455.073	876.75
455.294	873.75
455.514	857.75
455.734	888.75
455.955	889.75
456.175	883.75
456.395	887.75
456.616	868.75
456.836	900.75
457.056	857.75
457.276	868.75
457.497	892.75
457.717	858.75
457.937	871.75
458.157	907.75
458.377	899.75
458.598	918.75
458.818	929.75
459.038	959.75
459.258	987.75
459.478	1010.75
459.698	1058.75
459.918	1044.75
460.138	1108.75
460.358	1113.75
460.578	1109.75
460.798	1138.75
461.018	1130.75
461.238	1157.75
461.458	1115.75
461.678	1126.75
461.898	1186.75
462.118	1173.75
462.338	1213.75
462.558	1258.75
462.777	1279.75
462.997	1337.75
463.217	1421.75
463.437	1428.75
463.657	1390.75
463.876	1341.75
464.096	1331.75
464.316	1293.75
464.536	1295.75
464.755	1274.75
464.975	1253.75
465.195	1177.75
465.414	1155.75
465.634	1113.75
465.854	1049.75
466.073	1045.75
466.293	1022.75
466.512	1015.75
466.732	982.75
466.951	997.75
467.171	1011.75
467.391	1014.75
467.61	980.75
467.829	981.75
468.049	941.75
468.268	945.75
468.488	921.75
468.707	941.75
468.927	943.75
469.146	947.75
469.365	984.75
469.585	977.75
469.804	973.75
470.023	979.75
470.243	998.75
470.462	991.75
470.681	993.75
470.901	985.75
471.12	981.75
471.339	978.75
471.558	960.75
471.777	983.75
471.997	958.75
472.216	963.75
472.435	940.75
472.654	942.75
472.873	929.75
473.092	911.75
473.311	914.75
473.53	924.75
473.749	935.75
473.968	922.75
474.187	928.75
474.406	961.75
474.625	941.75
474.844	951.75
475.063	945.75
475.282	962.75
475.501	969.75
475.72	950.75
475.939	955.75
476.158	960.75
476.377	981.75
476.596	967.75
476.814	986.75
477.033	979.75
477.252	955.75
477.471	1026.75
477.69	1034.75
477.908	1049.75
478.127	1075.75
478.346	1097.75
478.564	1112.75
478.783	1086.75
479.002	1157.75
479.22	1167.75
479.439	1135.75
479.658	1143.75
479.876	1170.75
480.095	1140.75
480.313	1181.75
480.532	1195.75
480.751	1192.75
480.969	1185.75
481.188	1157.75
481.406	1135.75
481.624	1119.75
481.843	1089.75
482.061	1113.75
482.28	1080.75
482.498	1105.75
482.717	1083.75
482.935	1095.75
483.153	1096.75
483.372	1123.75
483.59	1127.75
483.808	1099.75
484.027	1065.75
484.245	1093.75
484.463	1107.75
484.681	1114.75
484.9	1126.75
485.118	1106.75
485.336	1102.75
485.554	1151.75
485.772	1143.75
485.99	1130.75
486.209	1145.75
486.427	1127.75
486.645	1120.75
486.863	1124.75
487.081	1097.75
487.299	1148.75
487.517	1117.75
487.735	1109.75
487.953	1149.75
488.171	1164.75
488.389	1138.75
488.607	1111.75
488.825	1087.75
489.043	1112.75
489.261	1095.75
489.479	1128.75
489.696	1120.75
489.914	1190.75
490.132	1135.75
490.35	1157.75
490.568	1108.75
490.786	1173.75
491.003	1131.75
491.221	1147.75
491.439	1170.75
491.657	1163.75
491.874	1156.75
492.092	1201.75
492.31	1172.75
492.527	1173.75
492.745	1184.75
492.963	1169.75
493.18	1203.75
493.398	1191.75
493.615	1184.75
493.833	1209.75
494.05	1211.75
494.268	1225.75
494.485	1196.75
494.703	1232.75
494.92	1215.75
495.138	1229.75
495.355	1209.75
495.573	1235.75
495.79	1241.75
496.008	1230.75
496.225	1274.75
496.442	1227.75
496.66	1303.75
496.877	1314.75
497.094	1299.75
497.312	1340.75
497.529	1348.75
