Data from NiCl2@0.5M.TitratingCurve.Agarose3%dH2O.NegLispCup.LampEnergy10.LIBS07252019_HRD10591_18-20-58-571.txt Node
Date: Thu Jul 25 18:20:58 EDT 2019
User: cochatt
Spectrometer: HR+D1059
Trigger mode: 1
Integration Time (sec): 1.000000E-1
Scans to average: 1
Electric dark correction enabled: true
Nonlinearity correction enabled: false
Boxcar width: 0
XAxis mode: Wavelengths
Number of Pixels in Spectrum: 2048
>>>>>Begin Spectral Data<<<<<
223.165	-14.5
223.4	-14.5
223.635	-14.5
223.869	-21.5
224.104	-16.5
224.338	-19.5
224.573	-11.5
224.808	-13.5
225.042	-10.5
225.277	2.5
225.511	-3.5
225.746	4.5
225.98	-2.5
226.215	15.5
226.449	15.5
226.683	15.5
226.918	25.5
227.152	34.5
227.387	37.5
227.621	27.5
227.856	32.5
228.09	38.5
228.324	52.5
228.559	77.5
228.793	65.5
229.027	86.5
229.262	115.5
229.496	99.5
229.73	110.5
229.964	112.5
230.199	95.5
230.433	110.5
230.667	102.5
230.901	118.5
231.136	120.5
231.37	124.5
231.604	122.5
231.838	122.5
232.072	113.5
232.306	118.5
232.541	124.5
232.775	143.5
233.009	122.5
233.243	114.5
233.477	132.5
233.711	123.5
233.945	131.5
234.179	125.5
234.413	106.5
234.647	132.5
234.881	128.5
235.115	140.5
235.349	121.5
235.583	115.5
235.817	107.5
236.051	121.5
236.285	127.5
236.519	134.5
236.753	132.5
236.987	122.5
237.221	125.5
237.455	116.5
237.689	140.5
237.922	139.5
238.156	141.5
238.39	152.5
238.624	138.5
238.858	145.5
239.091	126.5
239.325	140.5
239.559	142.5
239.793	143.5
240.027	146.5
240.26	148.5
240.494	164.5
240.728	140.5
240.961	152.5
241.195	151.5
241.429	154.5
241.662	144.5
241.896	150.5
242.13	148.5
242.363	148.5
242.597	162.5
242.83	148.5
243.064	150.5
243.298	157.5
243.531	164.5
243.765	153.5
243.998	164.5
244.232	164.5
244.465	155.5
244.699	173.5
244.932	151.5
245.166	163.5
245.399	168.5
245.633	161.5
245.866	154.5
246.099	169.5
246.333	165.5
246.566	176.5
246.8	175.5
247.033	150.5
247.266	164.5
247.5	176.5
247.733	176.5
247.966	173.5
248.2	184.5
248.433	180.5
248.666	161.5
248.899	190.5
249.133	188.5
249.366	185.5
249.599	188.5
249.832	183.5
250.066	180.5
250.299	197.5
250.532	183.5
250.765	181.5
250.998	198.5
251.231	194.5
251.465	200.5
251.698	195.5
251.931	202.5
252.164	194.5
252.397	201.5
252.63	213.5
252.863	202.5
253.096	210.5
253.329	192.5
253.562	204.5
253.795	200.5
254.028	194.5
254.261	205.5
254.494	223.5
254.727	205.5
254.96	220.5
255.193	206.5
255.426	219.5
255.659	201.5
255.892	225.5
256.124	212.5
256.357	213.5
256.59	233.5
256.823	217.5
257.056	195.5
257.289	222.5
257.521	219.5
257.754	220.5
257.987	218.5
258.22	228.5
258.452	216.5
258.685	218.5
258.918	216.5
259.151	217.5
259.383	219.5
259.616	224.5
259.849	234.5
260.081	246.5
260.314	219.5
260.547	225.5
260.779	235.5
261.012	229.5
261.244	220.5
261.477	249.5
261.71	255.5
261.942	231.5
262.175	240.5
262.407	243.5
262.64	235.5
262.872	252.5
263.105	242.5
263.337	246.5
263.57	240.5
263.802	246.5
264.035	242.5
264.267	243.5
264.499	257.5
264.732	256.5
264.964	261.5
265.197	248.5
265.429	248.5
265.661	246.5
265.894	245.5
266.126	258.5
266.358	271.5
266.591	261.5
266.823	255.5
267.055	258.5
267.287	277.5
267.52	264.5
267.752	277.5
267.984	277.5
268.216	292.5
268.448	282.5
268.681	274.5
268.913	268.5
269.145	276.5
269.377	288.5
269.609	267.5
269.841	259.5
270.073	272.5
270.306	284.5
270.538	279.5
270.77	251.5
271.002	269.5
271.234	280.5
271.466	268.5
271.698	295.5
271.93	284.5
272.162	308.5
272.394	285.5
272.626	299.5
272.858	289.5
273.09	260.5
273.322	291.5
273.553	279.5
273.785	300.5
274.017	297.5
274.249	310.5
274.481	306.5
274.713	288.5
274.945	325.5
275.176	320.5
275.408	294.5
275.64	318.5
275.872	293.5
276.104	311.5
276.335	312.5
276.567	301.5
276.799	310.5
277.031	313.5
277.262	296.5
277.494	327.5
277.726	308.5
277.957	301.5
278.189	321.5
278.421	309.5
278.652	314.5
278.884	323.5
279.115	312.5
279.347	334.5
279.579	325.5
279.81	333.5
280.042	329.5
280.273	324.5
280.505	338.5
280.736	344.5
280.968	302.5
281.199	323.5
281.431	336.5
281.662	332.5
281.894	324.5
282.125	331.5
282.356	331.5
282.588	352.5
282.819	345.5
283.051	352.5
283.282	334.5
283.513	357.5
283.745	353.5
283.976	360.5
284.207	329.5
284.439	352.5
284.67	348.5
284.901	361.5
285.132	336.5
285.364	348.5
285.595	370.5
285.826	343.5
286.057	360.5
286.288	351.5
286.52	363.5
286.751	348.5
286.982	363.5
287.213	370.5
287.444	376.5
287.675	358.5
287.906	362.5
288.138	372.5
288.369	358.5
288.6	374.5
288.831	366.5
289.062	358.5
289.293	374.5
289.524	357.5
289.755	363.5
289.986	354.5
290.217	364.5
290.448	388.5
290.679	371.5
290.91	390.5
291.141	372.5
291.371	374.5
291.602	376.5
291.833	391.5
292.064	379.5
292.295	362.5
292.526	362.5
292.757	380.5
292.987	362.5
293.218	366.5
293.449	394.5
293.68	368.5
293.91	376.5
294.141	372.5
294.372	392.5
294.603	380.5
294.833	382.5
295.064	394.5
295.295	376.5
295.525	381.5
295.756	390.5
295.987	395.5
296.217	381.5
296.448	391.5
296.679	384.5
296.909	396.5
297.14	401.5
297.37	392.5
297.601	414.5
297.831	400.5
298.062	410.5
298.292	418.5
298.523	443.5
298.753	400.5
298.984	417.5
299.214	436.5
299.445	412.5
299.675	412.5
299.905	414.5
300.136	410.5
300.366	411.5
300.597	425.5
300.827	426.5
301.057	448.5
301.288	467.5
301.518	421.5
301.748	435.5
301.979	428.5
302.209	460.5
302.439	445.5
302.669	440.5
302.9	462.5
303.13	425.5
303.36	441.5
303.59	454.5
303.82	444.5
304.051	452.5
304.281	429.5
304.511	427.5
304.741	413.5
304.971	438.5
305.201	434.5
305.431	451.5
305.661	438.5
305.891	419.5
306.121	426.5
306.352	439.5
306.582	434.5
306.812	422.5
307.042	413.5
307.272	429.5
307.502	435.5
307.731	429.5
307.961	436.5
308.191	434.5
308.421	422.5
308.651	410.5
308.881	415.5
309.111	420.5
309.341	422.5
309.571	433.5
309.8	417.5
310.03	439.5
310.26	440.5
310.49	445.5
310.72	433.5
310.949	441.5
311.179	433.5
311.409	435.5
311.639	452.5
311.868	457.5
312.098	436.5
312.328	458.5
312.557	445.5
312.787	460.5
313.017	450.5
313.246	441.5
313.476	462.5
313.706	458.5
313.935	462.5
314.165	473.5
314.394	475.5
314.624	461.5
314.853	462.5
315.083	463.5
315.312	453.5
315.542	451.5
315.771	450.5
316.001	468.5
316.23	471.5
316.46	465.5
316.689	453.5
316.919	466.5
317.148	470.5
317.377	437.5
317.607	453.5
317.836	442.5
318.065	456.5
318.295	451.5
318.524	462.5
318.753	457.5
318.983	430.5
319.212	480.5
319.441	467.5
319.67	463.5
319.9	445.5
320.129	443.5
320.358	462.5
320.587	472.5
320.816	460.5
321.046	456.5
321.275	448.5
321.504	469.5
321.733	458.5
321.962	482.5
322.191	461.5
322.42	497.5
322.649	463.5
322.878	451.5
323.108	456.5
323.337	458.5
323.566	476.5
323.795	489.5
324.024	459.5
324.253	484.5
324.482	460.5
324.71	472.5
324.939	478.5
325.168	493.5
325.397	493.5
325.626	485.5
325.855	490.5
326.084	485.5
326.313	497.5
326.542	500.5
326.77	521.5
326.999	487.5
327.228	475.5
327.457	504.5
327.686	508.5
327.914	492.5
328.143	512.5
328.372	506.5
328.6	521.5
328.829	503.5
329.058	513.5
329.287	517.5
329.515	507.5
329.744	546.5
329.972	514.5
330.201	531.5
330.43	526.5
330.658	522.5
330.887	509.5
331.115	530.5
331.344	525.5
331.572	535.5
331.801	535.5
332.03	549.5
332.258	558.5
332.486	549.5
332.715	581.5
332.943	610.5
333.172	624.5
333.4	654.5
333.629	649.5
333.857	654.5
334.085	658.5
334.314	662.5
334.542	647.5
334.771	643.5
334.999	622.5
335.227	621.5
335.455	645.5
335.684	619.5
335.912	609.5
336.14	602.5
336.369	599.5
336.597	607.5
336.825	628.5
337.053	608.5
337.281	602.5
337.51	579.5
337.738	598.5
337.966	553.5
338.194	582.5
338.422	557.5
338.65	535.5
338.878	560.5
339.106	576.5
339.334	569.5
339.562	566.5
339.79	534.5
340.018	530.5
340.246	541.5
340.474	546.5
340.702	547.5
340.93	515.5
341.158	548.5
341.386	545.5
341.614	574.5
341.842	525.5
342.07	508.5
342.298	527.5
342.526	536.5
342.754	525.5
342.981	526.5
343.209	529.5
343.437	562.5
343.665	603.5
343.893	615.5
344.12	649.5
344.348	588.5
344.576	595.5
344.804	595.5
345.031	549.5
345.259	541.5
345.487	524.5
345.714	522.5
345.942	544.5
346.17	549.5
346.397	549.5
346.625	525.5
346.853	497.5
347.08	507.5
347.308	534.5
347.535	527.5
347.763	504.5
347.99	517.5
348.218	516.5
348.445	510.5
348.673	514.5
348.9	514.5
349.128	503.5
349.355	518.5
349.583	536.5
349.81	525.5
350.037	499.5
350.265	500.5
350.492	496.5
350.72	510.5
350.947	492.5
351.174	513.5
351.402	502.5
351.629	504.5
351.856	510.5
352.083	482.5
352.311	495.5
352.538	512.5
352.765	493.5
352.992	479.5
353.22	494.5
353.447	470.5
353.674	488.5
353.901	488.5
354.128	476.5
354.355	492.5
354.583	487.5
354.81	470.5
355.037	483.5
355.264	509.5
355.491	479.5
355.718	477.5
355.945	470.5
356.172	482.5
356.399	493.5
356.626	497.5
356.853	506.5
357.08	503.5
357.307	500.5
357.534	484.5
357.761	486.5
357.988	492.5
358.215	493.5
358.441	465.5
358.668	462.5
358.895	499.5
359.122	494.5
359.349	475.5
359.576	476.5
359.802	484.5
360.029	490.5
360.256	493.5
360.483	490.5
360.709	478.5
360.936	487.5
361.163	489.5
361.39	485.5
361.616	472.5
361.843	498.5
362.07	492.5
362.296	503.5
362.523	488.5
362.749	465.5
362.976	469.5
363.203	493.5
363.429	496.5
363.656	489.5
363.882	473.5
364.109	480.5
364.335	486.5
364.562	474.5
364.788	466.5
365.015	476.5
365.241	459.5
365.468	482.5
365.694	481.5
365.92	473.5
366.147	480.5
366.373	479.5
366.599	470.5
366.826	487.5
367.052	470.5
367.278	466.5
367.505	474.5
367.731	476.5
367.957	487.5
368.184	488.5
368.41	492.5
368.636	492.5
368.862	492.5
369.089	488.5
369.315	475.5
369.541	485.5
369.767	503.5
369.993	505.5
370.219	520.5
370.445	511.5
370.672	512.5
370.898	493.5
371.124	488.5
371.35	505.5
371.576	513.5
371.802	522.5
372.028	509.5
372.254	529.5
372.48	520.5
372.706	541.5
372.932	544.5
373.158	534.5
373.384	531.5
373.61	530.5
373.835	510.5
374.061	522.5
374.287	526.5
374.513	532.5
374.739	548.5
374.965	543.5
375.191	571.5
375.416	577.5
375.642	556.5
375.868	538.5
376.094	546.5
376.319	530.5
376.545	526.5
376.771	512.5
376.997	506.5
377.222	532.5
377.448	522.5
377.674	523.5
377.899	524.5
378.125	533.5
378.35	522.5
378.576	517.5
378.802	524.5
379.027	511.5
379.253	492.5
379.478	500.5
379.704	493.5
379.929	516.5
380.155	490.5
380.38	508.5
380.606	498.5
380.831	495.5
381.057	517.5
381.282	511.5
381.507	521.5
381.733	523.5
381.958	515.5
382.184	546.5
382.409	529.5
382.634	539.5
382.86	529.5
383.085	522.5
383.31	537.5
383.535	539.5
383.761	567.5
383.986	563.5
384.211	581.5
384.436	574.5
384.662	604.5
384.887	584.5
385.112	595.5
385.337	591.5
385.562	610.5
385.787	610.5
386.013	635.5
386.238	615.5
386.463	604.5
386.688	600.5
386.913	608.5
387.138	590.5
387.363	612.5
387.588	585.5
387.813	618.5
388.038	608.5
388.263	596.5
388.488	605.5
388.713	614.5
388.938	601.5
389.163	584.5
389.387	607.5
389.612	596.5
389.837	593.5
390.062	604.5
390.287	580.5
390.512	593.5
390.736	629.5
390.961	603.5
391.186	637.5
391.411	632.5
391.636	643.5
391.86	673.5
392.085	664.5
392.31	651.5
392.534	644.5
392.759	650.5
392.984	620.5
393.208	644.5
393.433	643.5
393.658	633.5
393.882	633.5
394.107	644.5
394.331	642.5
394.556	642.5
394.78	665.5
395.005	660.5
395.229	658.5
395.454	666.5
395.678	677.5
395.903	692.5
396.127	683.5
396.352	645.5
396.576	656.5
396.801	637.5
397.025	661.5
397.249	679.5
397.474	679.5
397.698	677.5
397.922	722.5
398.147	676.5
398.371	692.5
398.595	730.5
398.82	734.5
399.044	792.5
399.268	837.5
399.492	969.5
399.717	1090.5
399.941	1057.5
400.165	978.5
400.389	887.5
400.613	810.5
400.837	810.5
401.062	777.5
401.286	743.5
401.51	745.5
401.734	741.5
401.958	754.5
402.182	790.5
402.406	755.5
402.63	788.5
402.854	788.5
403.078	798.5
403.302	825.5
403.526	826.5
403.75	846.5
403.974	873.5
404.198	886.5
404.422	863.5
404.645	852.5
404.869	838.5
405.093	852.5
405.317	836.5
405.541	823.5
405.765	816.5
405.988	833.5
406.212	844.5
406.436	816.5
406.66	840.5
406.883	858.5
407.107	894.5
407.331	937.5
407.555	981.5
407.778	954.5
408.002	940.5
408.226	920.5
408.449	893.5
408.673	870.5
408.896	863.5
409.12	856.5
409.344	882.5
409.567	867.5
409.791	858.5
410.014	874.5
410.238	852.5
410.461	829.5
410.685	841.5
410.908	822.5
411.132	816.5
411.355	777.5
411.578	809.5
411.802	810.5
412.025	789.5
412.249	795.5
412.472	778.5
412.695	776.5
412.919	754.5
413.142	746.5
413.365	782.5
413.589	784.5
413.812	774.5
414.035	739.5
414.258	742.5
414.482	755.5
414.705	788.5
414.928	766.5
415.151	786.5
415.374	782.5
415.597	776.5
415.821	741.5
416.044	758.5
416.267	740.5
416.49	754.5
416.713	768.5
416.936	746.5
417.159	752.5
417.382	733.5
417.605	725.5
417.828	750.5
418.051	764.5
418.274	758.5
418.497	776.5
418.72	791.5
418.943	770.5
419.166	795.5
419.389	864.5
419.611	868.5
419.834	833.5
420.057	817.5
420.28	789.5
420.503	752.5
420.726	770.5
420.948	763.5
421.171	758.5
421.394	743.5
421.617	739.5
421.839	755.5
422.062	790.5
422.285	764.5
422.507	770.5
422.73	777.5
422.953	785.5
423.175	800.5
423.398	788.5
423.621	791.5
423.843	811.5
424.066	801.5
424.288	776.5
424.511	791.5
424.733	786.5
424.956	771.5
425.178	780.5
425.401	781.5
425.623	771.5
425.846	750.5
426.068	778.5
426.291	736.5
426.513	731.5
426.735	729.5
426.958	706.5
427.18	732.5
427.402	692.5
427.625	702.5
427.847	679.5
428.069	706.5
428.292	694.5
428.514	693.5
428.736	697.5
428.958	706.5
429.181	690.5
429.403	664.5
429.625	674.5
429.847	661.5
430.069	678.5
430.292	666.5
430.514	672.5
430.736	694.5
430.958	674.5
431.18	665.5
431.402	686.5
431.624	701.5
431.846	689.5
432.068	698.5
432.29	700.5
432.512	688.5
432.734	696.5
432.956	710.5
433.178	697.5
433.4	715.5
433.622	729.5
433.844	740.5
434.066	730.5
434.287	734.5
434.509	745.5
434.731	765.5
434.953	749.5
435.175	769.5
435.397	764.5
435.618	740.5
435.84	742.5
436.062	713.5
436.284	705.5
436.505	707.5
436.727	713.5
436.949	691.5
437.17	684.5
437.392	682.5
437.614	699.5
437.835	668.5
438.057	673.5
438.278	676.5
438.5	709.5
438.721	670.5
438.943	701.5
439.165	667.5
439.386	661.5
439.608	693.5
439.829	690.5
440.05	692.5
440.272	707.5
440.493	730.5
440.715	726.5
440.936	726.5
441.158	740.5
441.379	769.5
441.6	793.5
441.822	816.5
442.043	767.5
442.264	777.5
442.486	742.5
442.707	773.5
442.928	764.5
443.149	762.5
443.371	746.5
443.592	776.5
443.813	782.5
444.034	791.5
444.255	822.5
444.476	850.5
444.698	881.5
444.919	923.5
445.14	961.5
445.361	866.5
445.582	828.5
445.803	742.5
446.024	736.5
446.245	765.5
446.466	736.5
446.687	694.5
446.908	708.5
447.129	692.5
447.35	669.5
447.571	698.5
447.792	692.5
448.013	662.5
448.234	670.5
448.455	641.5
448.675	684.5
448.896	679.5
449.117	668.5
449.338	667.5
449.559	639.5
449.779	637.5
450	666.5
450.221	648.5
450.442	622.5
450.662	662.5
450.883	662.5
451.104	684.5
451.324	660.5
451.545	669.5
451.766	680.5
451.986	683.5
452.207	643.5
452.428	658.5
452.648	658.5
452.869	643.5
453.089	622.5
453.31	658.5
453.53	635.5
453.751	652.5
453.971	644.5
454.192	643.5
454.412	621.5
454.633	630.5
454.853	614.5
455.073	614.5
455.294	598.5
455.514	636.5
455.734	586.5
455.955	609.5
456.175	629.5
456.395	596.5
456.616	604.5
456.836	635.5
457.056	604.5
457.276	582.5
457.497	633.5
457.717	626.5
457.937	612.5
458.157	622.5
458.377	632.5
458.598	622.5
458.818	668.5
459.038	674.5
459.258	700.5
459.478	716.5
459.698	703.5
459.918	731.5
460.138	790.5
460.358	810.5
460.578	816.5
460.798	801.5
461.018	817.5
461.238	792.5
461.458	814.5
461.678	803.5
461.898	830.5
462.118	841.5
462.338	876.5
462.558	898.5
462.777	944.5
462.997	948.5
463.217	1051.5
463.437	1081.5
463.657	984.5
463.876	968.5
464.096	954.5
464.316	954.5
464.536	953.5
464.755	918.5
464.975	898.5
465.195	848.5
465.414	796.5
465.634	758.5
465.854	762.5
466.073	739.5
466.293	697.5
466.512	713.5
466.732	686.5
466.951	702.5
467.171	700.5
467.391	709.5
467.61	697.5
467.829	694.5
468.049	668.5
468.268	663.5
468.488	666.5
468.707	670.5
468.927	667.5
469.146	668.5
469.365	679.5
469.585	681.5
469.804	713.5
470.023	713.5
470.243	705.5
470.462	716.5
470.681	700.5
470.901	706.5
471.12	686.5
471.339	710.5
471.558	666.5
471.777	652.5
471.997	664.5
472.216	666.5
472.435	656.5
472.654	646.5
472.873	641.5
473.092	621.5
473.311	650.5
473.53	665.5
473.749	634.5
473.968	658.5
474.187	629.5
474.406	637.5
474.625	653.5
474.844	631.5
475.063	640.5
475.282	668.5
475.501	662.5
475.72	656.5
475.939	684.5
476.158	659.5
476.377	665.5
476.596	661.5
476.814	706.5
477.033	708.5
477.252	711.5
477.471	710.5
477.69	727.5
477.908	734.5
478.127	748.5
478.346	765.5
478.564	781.5
478.783	786.5
479.002	801.5
479.22	794.5
479.439	810.5
479.658	774.5
479.876	785.5
480.095	782.5
480.313	853.5
480.532	848.5
480.751	853.5
480.969	832.5
481.188	804.5
481.406	756.5
481.624	742.5
481.843	744.5
482.061	726.5
482.28	745.5
482.498	753.5
482.717	747.5
482.935	748.5
483.153	726.5
483.372	753.5
483.59	738.5
483.808	746.5
484.027	746.5
484.245	752.5
484.463	755.5
484.681	756.5
484.9	781.5
485.118	766.5
485.336	759.5
485.554	766.5
485.772	752.5
485.99	788.5
486.209	761.5
486.427	764.5
486.645	774.5
486.863	786.5
487.081	780.5
487.299	773.5
487.517	771.5
487.735	780.5
487.953	777.5
488.171	801.5
488.389	787.5
488.607	758.5
488.825	761.5
489.043	742.5
489.261	777.5
489.479	776.5
489.696	794.5
489.914	777.5
490.132	774.5
490.35	780.5
490.568	789.5
490.786	775.5
491.003	777.5
491.221	822.5
491.439	812.5
491.657	802.5
491.874	810.5
492.092	812.5
492.31	840.5
492.527	859.5
492.745	825.5
492.963	819.5
493.18	796.5
493.398	816.5
493.615	820.5
493.833	831.5
494.05	809.5
494.268	802.5
494.485	845.5
494.703	843.5
494.92	849.5
495.138	862.5
495.355	848.5
495.573	839.5
495.79	835.5
496.008	853.5
496.225	881.5
496.442	850.5
496.66	873.5
496.877	891.5
497.094	882.5
497.312	876.5
497.529	898.5
497.746	945.5
497.963	992.5
498.181	1020.5
498.398	1030.5
498.615	1108.5
498.832	1118.5
499.049	1227.5
499.267	1340.5
499.484	1445.5
499.701	1606.5
499.918	1743.5
500.135	1952.5
500.352	2148.5
500.569	2234.5
500.786	2201.5
501.003	2080.5
501.22	1882.5
501.437	1670.5
501.654	1505.5
501.871	1344.5
502.088	1274.5
502.305	1204.5
502.522	1154.5
502.739	1124.5
502.956	1072.5
503.172	1012.5
503.389	978.5
503.606	936.5
503.823	926.5
504.04	937.5
504.256	942.5
504.473	964.5
504.69	968.5
504.907	914.5
505.123	873.5
505.34	826.5
505.557	792.5
505.773	794.5
505.99	779.5
506.207	765.5
506.423	757.5
506.64	743.5
506.856	766.5
507.073	741.5
507.289	714.5
507.506	744.5
507.722	729.5
507.939	729.5
508.155	697.5
508.372	704.5
508.588	686.5
508.805	698.5
509.021	678.5
509.238	665.5
509.454	672.5
509.67	662.5
509.887	652.5
510.103	661.5
510.319	664.5
510.536	672.5
510.752	674.5
510.968	660.5
511.184	680.5
511.401	676.5
511.617	640.5
511.833	677.5
512.049	639.5
512.265	662.5
512.481	642.5
512.698	649.5
512.914	640.5
513.13	669.5
513.346	656.5
513.562	675.5
513.778	646.5
513.994	657.5
514.21	683.5
514.426	684.5
514.642	674.5
514.858	701.5
515.074	696.5
515.29	677.5
515.506	676.5
515.721	708.5
515.937	715.5
516.153	708.5
516.369	710.5
516.585	732.5
516.801	765.5
517.016	788.5
517.232	835.5
517.448	872.5
517.664	866.5
517.879	861.5
518.095	916.5
518.311	886.5
518.527	851.5
518.742	809.5
518.958	798.5
519.173	772.5
