Data from NiCl2@0.125M.TitratingCurve.Agarose3%dH2O.NegLispCup.LampEnergy10.LIBS07252019_HRD10591_18-29-26-574.txt Node
Date: Thu Jul 25 18:29:26 EDT 2019
User: cochatt
Spectrometer: HR+D1059
Trigger mode: 1
Integration Time (sec): 1.000000E-1
Scans to average: 1
Electric dark correction enabled: true
Nonlinearity correction enabled: false
Boxcar width: 0
XAxis mode: Wavelengths
Number of Pixels in Spectrum: 2048
>>>>>Begin Spectral Data<<<<<
223.165	-20.12
223.4	-20.12
223.635	-20.12
223.869	-17.12
224.104	-12.12
224.338	-10.12
224.573	-0.12
224.808	-1.12
225.042	-12.12
225.277	2.88
225.511	-10.12
225.746	4.88
225.98	-0.12
226.215	12.88
226.449	9.88
226.683	20.88
226.918	12.88
227.152	18.88
227.387	33.88
227.621	31.88
227.856	52.88
228.09	40.88
228.324	49.88
228.559	44.88
228.793	62.88
229.027	92.88
229.262	100.88
229.496	121.88
229.73	128.88
229.964	118.88
230.199	126.88
230.433	123.88
230.667	142.88
230.901	138.88
231.136	141.88
231.37	139.88
231.604	147.88
231.838	145.88
232.072	147.88
232.306	158.88
232.541	156.88
232.775	149.88
233.009	156.88
233.243	142.88
233.477	156.88
233.711	157.88
233.945	156.88
234.179	154.88
234.413	140.88
234.647	153.88
234.881	147.88
235.115	166.88
235.349	142.88
235.583	160.88
235.817	156.88
236.051	149.88
236.285	152.88
236.519	163.88
236.753	172.88
236.987	148.88
237.221	170.88
237.455	162.88
237.689	182.88
237.922	180.88
238.156	162.88
238.39	133.88
238.624	157.88
238.858	171.88
239.091	192.88
239.325	164.88
239.559	174.88
239.793	172.88
240.027	198.88
240.26	197.88
240.494	186.88
240.728	182.88
240.961	189.88
241.195	185.88
241.429	195.88
241.662	184.88
241.896	210.88
242.13	199.88
242.363	197.88
242.597	178.88
242.83	198.88
243.064	207.88
243.298	195.88
243.531	188.88
243.765	220.88
243.998	218.88
244.232	210.88
244.465	224.88
244.699	225.88
244.932	220.88
245.166	223.88
245.399	221.88
245.633	242.88
245.866	223.88
246.099	233.88
246.333	230.88
246.566	225.88
246.8	221.88
247.033	241.88
247.266	225.88
247.5	214.88
247.733	223.88
247.966	248.88
248.2	243.88
248.433	256.88
248.666	240.88
248.899	248.88
249.133	250.88
249.366	269.88
249.599	259.88
249.832	263.88
250.066	261.88
250.299	254.88
250.532	240.88
250.765	264.88
250.998	259.88
251.231	289.88
251.465	272.88
251.698	281.88
251.931	289.88
252.164	265.88
252.397	277.88
252.63	271.88
252.863	263.88
253.096	272.88
253.329	270.88
253.562	272.88
253.795	278.88
254.028	291.88
254.261	276.88
254.494	294.88
254.727	293.88
254.96	275.88
255.193	276.88
255.426	291.88
255.659	297.88
255.892	301.88
256.124	306.88
256.357	270.88
256.59	306.88
256.823	294.88
257.056	321.88
257.289	293.88
257.521	301.88
257.754	321.88
257.987	317.88
258.22	332.88
258.452	324.88
258.685	320.88
258.918	321.88
259.151	317.88
259.383	332.88
259.616	298.88
259.849	323.88
260.081	326.88
260.314	333.88
260.547	341.88
260.779	324.88
261.012	353.88
261.244	324.88
261.477	329.88
261.71	341.88
261.942	323.88
262.175	336.88
262.407	332.88
262.64	333.88
262.872	322.88
263.105	351.88
263.337	357.88
263.57	344.88
263.802	355.88
264.035	345.88
264.267	352.88
264.499	363.88
264.732	351.88
264.964	356.88
265.197	371.88
265.429	344.88
265.661	359.88
265.894	359.88
266.126	370.88
266.358	378.88
266.591	358.88
266.823	372.88
267.055	373.88
267.287	369.88
267.52	374.88
267.752	379.88
267.984	390.88
268.216	386.88
268.448	391.88
268.681	386.88
268.913	394.88
269.145	383.88
269.377	382.88
269.609	380.88
269.841	386.88
270.073	383.88
270.306	377.88
270.538	406.88
270.77	379.88
271.002	386.88
271.234	400.88
271.466	371.88
271.698	383.88
271.93	401.88
272.162	414.88
272.394	414.88
272.626	423.88
272.858	401.88
273.09	405.88
273.322	408.88
273.553	404.88
273.785	406.88
274.017	413.88
274.249	412.88
274.481	420.88
274.713	404.88
274.945	404.88
275.176	421.88
275.408	397.88
275.64	411.88
275.872	421.88
276.104	453.88
276.335	424.88
276.567	418.88
276.799	426.88
277.031	428.88
277.262	436.88
277.494	426.88
277.726	442.88
277.957	451.88
278.189	439.88
278.421	420.88
278.652	429.88
278.884	439.88
279.115	427.88
279.347	453.88
279.579	466.88
279.81	454.88
280.042	428.88
280.273	446.88
280.505	448.88
280.736	480.88
280.968	457.88
281.199	475.88
281.431	458.88
281.662	462.88
281.894	472.88
282.125	477.88
282.356	476.88
282.588	468.88
282.819	487.88
283.051	474.88
283.282	487.88
283.513	478.88
283.745	499.88
283.976	467.88
284.207	491.88
284.439	501.88
284.67	499.88
284.901	501.88
285.132	498.88
285.364	488.88
285.595	520.88
285.826	493.88
286.057	477.88
286.288	509.88
286.52	496.88
286.751	520.88
286.982	494.88
287.213	501.88
287.444	532.88
287.675	527.88
287.906	508.88
288.138	508.88
288.369	540.88
288.6	517.88
288.831	519.88
289.062	524.88
289.293	544.88
289.524	506.88
289.755	527.88
289.986	544.88
290.217	526.88
290.448	524.88
290.679	539.88
290.91	550.88
291.141	557.88
291.371	555.88
291.602	521.88
291.833	533.88
292.064	553.88
292.295	538.88
292.526	558.88
292.757	545.88
292.987	546.88
293.218	525.88
293.449	552.88
293.68	554.88
293.91	531.88
294.141	561.88
294.372	522.88
294.603	560.88
294.833	561.88
295.064	541.88
295.295	557.88
295.525	563.88
295.756	568.88
295.987	545.88
296.217	555.88
296.448	572.88
296.679	560.88
296.909	565.88
297.14	572.88
297.37	568.88
297.601	600.88
297.831	574.88
298.062	586.88
298.292	606.88
298.523	601.88
298.753	619.88
298.984	576.88
299.214	584.88
299.445	576.88
299.675	571.88
299.905	573.88
300.136	593.88
300.366	608.88
300.597	588.88
300.827	589.88
301.057	628.88
301.288	629.88
301.518	628.88
301.748	657.88
301.979	638.88
302.209	617.88
302.439	618.88
302.669	616.88
302.9	597.88
303.13	595.88
303.36	596.88
303.59	611.88
303.82	588.88
304.051	597.88
304.281	600.88
304.511	576.88
304.741	610.88
304.971	603.88
305.201	601.88
305.431	630.88
305.661	603.88
305.891	602.88
306.121	602.88
306.352	576.88
306.582	599.88
306.812	588.88
307.042	598.88
307.272	604.88
307.502	598.88
307.731	586.88
307.961	581.88
308.191	582.88
308.421	585.88
308.651	596.88
308.881	572.88
309.111	579.88
309.341	559.88
309.571	578.88
309.8	581.88
310.03	580.88
310.26	570.88
310.49	582.88
310.72	611.88
310.949	577.88
311.179	600.88
311.409	584.88
311.639	596.88
311.868	598.88
312.098	613.88
312.328	617.88
312.557	576.88
312.787	605.88
313.017	630.88
313.246	618.88
313.476	628.88
313.706	632.88
313.935	640.88
314.165	670.88
314.394	612.88
314.624	644.88
314.853	637.88
315.083	618.88
315.312	646.88
315.542	648.88
315.771	621.88
316.001	611.88
316.23	620.88
316.46	597.88
316.689	601.88
316.919	636.88
317.148	621.88
317.377	640.88
317.607	626.88
317.836	604.88
318.065	596.88
318.295	589.88
318.524	612.88
318.753	609.88
318.983	599.88
319.212	603.88
319.441	621.88
319.67	606.88
319.9	625.88
320.129	604.88
320.358	585.88
320.587	611.88
320.816	588.88
321.046	616.88
321.275	615.88
321.504	618.88
321.733	628.88
321.962	605.88
322.191	599.88
322.42	605.88
322.649	616.88
322.878	631.88
323.108	634.88
323.337	618.88
323.566	612.88
323.795	618.88
324.024	625.88
324.253	617.88
324.482	636.88
324.71	619.88
324.939	644.88
325.168	648.88
325.397	644.88
325.626	646.88
325.855	659.88
326.084	655.88
326.313	673.88
326.542	688.88
326.77	666.88
326.999	676.88
327.228	662.88
327.457	668.88
327.686	664.88
327.914	663.88
328.143	683.88
328.372	645.88
328.6	661.88
328.829	676.88
329.058	689.88
329.287	698.88
329.515	647.88
329.744	680.88
329.972	664.88
330.201	673.88
330.43	672.88
330.658	690.88
330.887	685.88
331.115	654.88
331.344	697.88
331.572	708.88
331.801	717.88
332.03	739.88
332.258	731.88
332.486	791.88
332.715	811.88
332.943	849.88
333.172	864.88
333.4	931.88
333.629	932.88
333.857	928.88
334.085	923.88
334.314	913.88
334.542	893.88
334.771	874.88
334.999	849.88
335.227	808.88
335.455	832.88
335.684	851.88
335.912	853.88
336.14	801.88
336.369	827.88
336.597	829.88
336.825	827.88
337.053	809.88
337.281	788.88
337.51	780.88
337.738	746.88
337.966	732.88
338.194	728.88
338.422	746.88
338.65	722.88
338.878	732.88
339.106	732.88
339.334	737.88
339.562	720.88
339.79	698.88
340.018	700.88
340.246	706.88
340.474	700.88
340.702	706.88
340.93	704.88
341.158	719.88
341.386	699.88
341.614	665.88
341.842	683.88
342.07	727.88
342.298	676.88
342.526	681.88
342.754	686.88
342.981	677.88
343.209	724.88
343.437	754.88
343.665	748.88
343.893	873.88
344.12	909.88
344.348	852.88
344.576	792.88
344.804	761.88
345.031	738.88
345.259	720.88
345.487	720.88
345.714	697.88
345.942	701.88
346.17	690.88
346.397	680.88
346.625	670.88
346.853	690.88
347.08	659.88
347.308	706.88
347.535	694.88
347.763	710.88
347.99	718.88
348.218	692.88
348.445	698.88
348.673	684.88
348.9	676.88
349.128	677.88
349.355	673.88
349.583	656.88
349.81	670.88
350.037	665.88
350.265	654.88
350.492	657.88
350.72	640.88
350.947	637.88
351.174	646.88
351.402	644.88
351.629	642.88
351.856	661.88
352.083	629.88
352.311	642.88
352.538	649.88
352.765	645.88
352.992	639.88
353.22	630.88
353.447	625.88
353.674	640.88
353.901	656.88
354.128	663.88
354.355	649.88
354.583	665.88
354.81	659.88
355.037	655.88
355.264	621.88
355.491	640.88
355.718	645.88
355.945	628.88
356.172	650.88
356.399	672.88
356.626	646.88
356.853	666.88
357.08	644.88
357.307	644.88
357.534	657.88
357.761	658.88
357.988	630.88
358.215	645.88
358.441	671.88
358.668	641.88
358.895	676.88
359.122	654.88
359.349	609.88
359.576	642.88
359.802	642.88
360.029	668.88
360.256	636.88
360.483	655.88
360.709	642.88
360.936	646.88
361.163	643.88
361.39	642.88
361.616	675.88
361.843	648.88
362.07	648.88
362.296	661.88
362.523	659.88
362.749	641.88
362.976	645.88
363.203	638.88
363.429	620.88
363.656	652.88
363.882	636.88
364.109	638.88
364.335	647.88
364.562	646.88
364.788	667.88
365.015	654.88
365.241	632.88
365.468	650.88
365.694	652.88
365.92	634.88
366.147	647.88
366.373	640.88
366.599	650.88
366.826	638.88
367.052	626.88
367.278	660.88
367.505	650.88
367.731	638.88
367.957	647.88
368.184	673.88
368.41	657.88
368.636	674.88
368.862	677.88
369.089	659.88
369.315	658.88
369.541	678.88
369.767	677.88
369.993	666.88
370.219	685.88
370.445	692.88
370.672	694.88
370.898	671.88
371.124	695.88
371.35	691.88
371.576	711.88
371.802	722.88
372.028	691.88
372.254	707.88
372.48	713.88
372.706	738.88
372.932	731.88
373.158	758.88
373.384	711.88
373.61	690.88
373.835	743.88
374.061	713.88
374.287	736.88
374.513	724.88
374.739	733.88
374.965	788.88
375.191	788.88
375.416	791.88
375.642	755.88
375.868	769.88
376.094	743.88
376.319	744.88
376.545	742.88
376.771	685.88
376.997	710.88
377.222	686.88
377.448	736.88
377.674	706.88
377.899	700.88
378.125	699.88
378.35	696.88
378.576	672.88
378.802	677.88
379.027	700.88
379.253	700.88
379.478	706.88
379.704	707.88
379.929	698.88
380.155	698.88
380.38	685.88
380.606	712.88
380.831	712.88
381.057	693.88
381.282	698.88
381.507	700.88
381.733	710.88
381.958	718.88
382.184	729.88
382.409	720.88
382.634	712.88
382.86	746.88
383.085	747.88
383.31	744.88
383.535	776.88
383.761	783.88
383.986	805.88
384.211	820.88
384.436	838.88
384.662	853.88
384.887	866.88
385.112	848.88
385.337	890.88
385.562	847.88
385.787	880.88
386.013	865.88
386.238	873.88
386.463	886.88
386.688	876.88
386.913	852.88
387.138	856.88
387.363	828.88
387.588	853.88
387.813	835.88
388.038	845.88
388.263	854.88
388.488	837.88
388.713	854.88
388.938	834.88
389.163	811.88
389.387	792.88
389.612	808.88
389.837	826.88
390.062	816.88
390.287	840.88
390.512	817.88
390.736	806.88
390.961	867.88
391.186	866.88
391.411	908.88
391.636	916.88
391.86	938.88
392.085	986.88
392.31	981.88
392.534	930.88
392.759	907.88
392.984	889.88
393.208	894.88
393.433	898.88
393.658	894.88
393.882	922.88
394.107	939.88
394.331	915.88
394.556	904.88
394.78	906.88
395.005	912.88
395.229	938.88
395.454	922.88
395.678	972.88
395.903	981.88
396.127	968.88
396.352	928.88
396.576	885.88
396.801	884.88
397.025	915.88
397.249	929.88
397.474	959.88
397.698	968.88
397.922	958.88
398.147	922.88
398.371	977.88
398.595	988.88
398.82	1037.88
399.044	1113.88
399.268	1242.88
399.492	1444.88
399.717	1690.88
399.941	1720.88
400.165	1496.88
400.389	1301.88
400.613	1190.88
400.837	1162.88
401.062	1112.88
401.286	1088.88
401.51	1043.88
401.734	1064.88
401.958	1083.88
402.182	1094.88
402.406	1125.88
402.63	1142.88
402.854	1159.88
403.078	1184.88
403.302	1202.88
403.526	1255.88
403.75	1286.88
403.974	1269.88
404.198	1297.88
404.422	1291.88
404.645	1296.88
404.869	1272.88
405.093	1267.88
405.317	1202.88
405.541	1250.88
405.765	1205.88
405.988	1168.88
406.212	1204.88
406.436	1193.88
406.66	1196.88
406.883	1244.88
407.107	1313.88
407.331	1357.88
407.555	1421.88
407.778	1420.88
408.002	1349.88
408.226	1336.88
408.449	1312.88
408.673	1248.88
408.896	1248.88
409.12	1220.88
409.344	1207.88
409.567	1194.88
409.791	1273.88
410.014	1249.88
410.238	1211.88
410.461	1236.88
410.685	1198.88
410.908	1160.88
411.132	1160.88
411.355	1138.88
411.578	1137.88
411.802	1126.88
412.025	1118.88
412.249	1143.88
412.472	1134.88
412.695	1118.88
412.919	1097.88
413.142	1070.88
413.365	1079.88
413.589	1056.88
413.812	1072.88
414.035	1082.88
414.258	1074.88
414.482	1077.88
414.705	1089.88
414.928	1091.88
415.151	1099.88
415.374	1080.88
415.597	1082.88
415.821	1044.88
416.044	1040.88
416.267	1035.88
416.49	1037.88
416.713	1033.88
416.936	1072.88
417.159	1054.88
417.382	1056.88
417.605	1058.88
417.828	1085.88
418.051	1064.88
418.274	1085.88
418.497	1050.88
418.72	1110.88
418.943	1097.88
419.166	1166.88
419.389	1240.88
419.611	1217.88
419.834	1180.88
420.057	1146.88
420.28	1084.88
420.503	1045.88
420.726	1060.88
420.948	1062.88
421.171	1057.88
421.394	1070.88
421.617	1088.88
421.839	1081.88
422.062	1120.88
422.285	1058.88
422.507	1098.88
422.73	1115.88
422.953	1136.88
423.175	1128.88
423.398	1145.88
423.621	1150.88
423.843	1225.88
424.066	1172.88
424.288	1161.88
424.511	1140.88
424.733	1112.88
424.956	1104.88
425.178	1119.88
425.401	1061.88
425.623	1099.88
425.846	1050.88
426.068	1020.88
426.291	1046.88
426.513	1014.88
426.735	986.88
426.958	1022.88
427.18	981.88
427.402	938.88
427.625	961.88
427.847	973.88
428.069	974.88
428.292	979.88
428.514	920.88
428.736	940.88
428.958	956.88
429.181	945.88
429.403	917.88
429.625	914.88
429.847	904.88
430.069	930.88
430.292	894.88
430.514	936.88
430.736	928.88
430.958	943.88
431.18	932.88
431.402	928.88
431.624	919.88
431.846	910.88
432.068	972.88
432.29	956.88
432.512	962.88
432.734	938.88
432.956	935.88
433.178	970.88
433.4	952.88
433.622	988.88
433.844	978.88
434.066	985.88
434.287	980.88
434.509	1014.88
434.731	1076.88
434.953	1092.88
435.175	1112.88
435.397	1077.88
435.618	1030.88
435.84	1006.88
436.062	982.88
436.284	969.88
436.505	949.88
436.727	973.88
436.949	966.88
437.17	982.88
437.392	957.88
437.614	923.88
437.835	917.88
438.057	926.88
438.278	899.88
438.5	894.88
438.721	872.88
438.943	919.88
439.165	906.88
439.386	928.88
439.608	963.88
439.829	961.88
440.05	962.88
440.272	975.88
440.493	974.88
440.715	971.88
440.936	1004.88
441.158	1006.88
441.379	1049.88
441.6	1076.88
441.822	1113.88
442.043	1117.88
442.264	1079.88
442.486	1067.88
442.707	1054.88
442.928	1063.88
443.149	1090.88
443.371	1052.88
443.592	1081.88
443.813	1079.88
444.034	1091.88
444.255	1151.88
444.476	1175.88
444.698	1296.88
444.919	1356.88
445.14	1396.88
445.361	1234.88
445.582	1150.88
445.803	1065.88
446.024	1024.88
446.245	1032.88
446.466	1001.88
446.687	988.88
446.908	975.88
447.129	960.88
447.35	944.88
447.571	933.88
447.792	909.88
448.013	929.88
448.234	915.88
448.455	916.88
448.675	862.88
448.896	903.88
449.117	882.88
449.338	883.88
449.559	865.88
449.779	869.88
450	872.88
450.221	889.88
450.442	904.88
450.662	910.88
450.883	914.88
451.104	905.88
451.324	907.88
451.545	904.88
451.766	926.88
451.986	915.88
452.207	915.88
452.428	882.88
452.648	905.88
452.869	871.88
453.089	872.88
453.31	891.88
453.53	874.88
453.751	889.88
453.971	856.88
454.192	865.88
454.412	840.88
454.633	844.88
454.853	835.88
455.073	810.88
455.294	829.88
455.514	834.88
455.734	845.88
455.955	832.88
456.175	822.88
456.395	827.88
456.616	830.88
456.836	853.88
457.056	835.88
457.276	828.88
457.497	815.88
457.717	804.88
457.937	837.88
458.157	834.88
458.377	862.88
458.598	885.88
458.818	896.88
459.038	921.88
459.258	948.88
459.478	984.88
459.698	1012.88
459.918	1028.88
460.138	1056.88
460.358	1150.88
460.578	1166.88
460.798	1164.88
461.018	1215.88
461.238	1164.88
461.458	1138.88
461.678	1140.88
461.898	1150.88
462.118	1165.88
462.338	1225.88
462.558	1276.88
462.777	1320.88
462.997	1453.88
463.217	1579.88
463.437	1638.88
463.657	1471.88
463.876	1372.88
464.096	1366.88
464.316	1333.88
464.536	1394.88
464.755	1317.88
464.975	1280.88
465.195	1182.88
465.414	1130.88
465.634	1048.88
465.854	1027.88
466.073	996.88
466.293	988.88
466.512	926.88
466.732	945.88
466.951	935.88
467.171	894.88
467.391	923.88
467.61	931.88
467.829	941.88
468.049	936.88
468.268	891.88
468.488	869.88
468.707	889.88
468.927	862.88
469.146	861.88
469.365	888.88
469.585	920.88
469.804	923.88
470.023	931.88
470.243	944.88
470.462	966.88
470.681	978.88
470.901	973.88
471.12	936.88
471.339	920.88
471.558	909.88
471.777	886.88
471.997	891.88
472.216	903.88
472.435	898.88
472.654	854.88
472.873	824.88
473.092	869.88
473.311	862.88
473.53	867.88
473.749	842.88
473.968	877.88
474.187	841.88
474.406	849.88
474.625	844.88
474.844	859.88
475.063	881.88
475.282	871.88
475.501	890.88
475.72	869.88
475.939	868.88
476.158	900.88
476.377	891.88
476.596	890.88
476.814	890.88
477.033	911.88
477.252	933.88
477.471	953.88
477.69	967.88
477.908	984.88
478.127	996.88
478.346	1043.88
478.564	1056.88
478.783	1096.88
479.002	1078.88
479.22	1085.88
479.439	1098.88
479.658	1079.88
479.876	1047.88
480.095	1066.88
480.313	1144.88
480.532	1150.88
480.751	1160.88
480.969	1084.88
481.188	1043.88
481.406	1085.88
481.624	998.88
481.843	939.88
482.061	978.88
482.28	958.88
482.498	976.88
482.717	939.88
482.935	954.88
483.153	961.88
483.372	960.88
483.59	970.88
483.808	978.88
484.027	982.88
484.245	984.88
484.463	982.88
484.681	1002.88
484.9	1021.88
485.118	988.88
485.336	994.88
485.554	1029.88
485.772	1018.88
485.99	1023.88
486.209	1050.88
486.427	1053.88
486.645	1072.88
486.863	1056.88
487.081	1029.88
487.299	1026.88
487.517	1022.88
487.735	1002.88
487.953	1018.88
488.171	1035.88
488.389	1002.88
488.607	992.88
488.825	997.88
489.043	1000.88
489.261	984.88
489.479	1001.88
489.696	1010.88
489.914	992.88
490.132	983.88
490.35	1017.88
490.568	1036.88
490.786	1003.88
491.003	1016.88
491.221	1020.88
491.439	1005.88
491.657	1008.88
491.874	1013.88
492.092	1043.88
492.31	1056.88
492.527	1060.88
492.745	1036.88
492.963	1038.88
493.18	1056.88
493.398	1065.88
493.615	1056.88
493.833	1047.88
494.05	1068.88
494.268	1088.88
494.485	1076.88
494.703	1096.88
494.92	1080.88
495.138	1062.88
495.355	1077.88
495.573	1093.88
495.79	1089.88
496.008	1074.88
496.225	1118.88
496.442	1085.88
496.66	1105.88
496.877	1117.88
497.094	1138.88
497.312	1136.88
497.529	1175.88
497.746	1213.88
497.963	1257.88
498.181	1310.88
