Data from NiCl2@0.0625M.TitratingCurve.Agarose3%dH2O.NegLispCup.LampEnergy10.LIBS07252019_HRD10591_18-33-58-604.txt Node
Date: Thu Jul 25 18:33:58 EDT 2019
User: cochatt
Spectrometer: HR+D1059
Trigger mode: 1
Integration Time (sec): 1.000000E-1
Scans to average: 1
Electric dark correction enabled: true
Nonlinearity correction enabled: false
Boxcar width: 0
XAxis mode: Wavelengths
Number of Pixels in Spectrum: 2048
>>>>>Begin Spectral Data<<<<<
223.165	-5.31
223.4	-5.31
223.635	-5.31
223.869	-16.31
224.104	-1.31
224.338	-26.31
224.573	-19.31
224.808	-1.31
225.042	-12.31
225.277	-22.31
225.511	-10.31
225.746	8.69
225.98	16.69
226.215	8.69
226.449	5.69
226.683	25.69
226.918	20.69
227.152	28.69
227.387	42.69
227.621	35.69
227.856	36.69
228.09	38.69
228.324	50.69
228.559	58.69
228.793	87.69
229.027	130.69
229.262	142.69
229.496	170.69
229.73	173.69
229.964	163.69
230.199	175.69
230.433	181.69
230.667	183.69
230.901	193.69
231.136	175.69
231.37	188.69
231.604	185.69
231.838	205.69
232.072	182.69
232.306	203.69
232.541	208.69
232.775	198.69
233.009	187.69
233.243	207.69
233.477	205.69
233.711	212.69
233.945	220.69
234.179	220.69
234.413	208.69
234.647	203.69
234.881	208.69
235.115	214.69
235.349	236.69
235.583	223.69
235.817	214.69
236.051	220.69
236.285	234.69
236.519	223.69
236.753	228.69
236.987	226.69
237.221	243.69
237.455	224.69
237.689	254.69
237.922	238.69
238.156	243.69
238.39	250.69
238.624	270.69
238.858	256.69
239.091	244.69
239.325	249.69
239.559	270.69
239.793	259.69
240.027	267.69
240.26	262.69
240.494	269.69
240.728	271.69
240.961	300.69
241.195	289.69
241.429	276.69
241.662	278.69
241.896	283.69
242.13	317.69
242.363	302.69
242.597	294.69
242.83	309.69
243.064	314.69
243.298	309.69
243.531	336.69
243.765	318.69
243.998	345.69
244.232	320.69
244.465	331.69
244.699	345.69
244.932	340.69
245.166	346.69
245.399	323.69
245.633	354.69
245.866	344.69
246.099	345.69
246.333	359.69
246.566	332.69
246.8	366.69
247.033	367.69
247.266	362.69
247.5	359.69
247.733	361.69
247.966	354.69
248.2	380.69
248.433	396.69
248.666	387.69
248.899	374.69
249.133	392.69
249.366	394.69
249.599	376.69
249.832	373.69
250.066	411.69
250.299	392.69
250.532	418.69
250.765	420.69
250.998	427.69
251.231	407.69
251.465	422.69
251.698	419.69
251.931	425.69
252.164	450.69
252.397	444.69
252.63	434.69
252.863	442.69
253.096	443.69
253.329	433.69
253.562	427.69
253.795	436.69
254.028	470.69
254.261	452.69
254.494	454.69
254.727	466.69
254.96	467.69
255.193	487.69
255.426	455.69
255.659	460.69
255.892	476.69
256.124	469.69
256.357	494.69
256.59	482.69
256.823	490.69
257.056	491.69
257.289	486.69
257.521	515.69
257.754	501.69
257.987	510.69
258.22	496.69
258.452	497.69
258.685	502.69
258.918	514.69
259.151	491.69
259.383	512.69
259.616	500.69
259.849	521.69
260.081	524.69
260.314	519.69
260.547	536.69
260.779	519.69
261.012	530.69
261.244	547.69
261.477	550.69
261.71	546.69
261.942	536.69
262.175	561.69
262.407	568.69
262.64	563.69
262.872	566.69
263.105	560.69
263.337	551.69
263.57	551.69
263.802	574.69
264.035	594.69
264.267	580.69
264.499	579.69
264.732	574.69
264.964	588.69
265.197	578.69
265.429	610.69
265.661	594.69
265.894	609.69
266.126	596.69
266.358	599.69
266.591	606.69
266.823	620.69
267.055	608.69
267.287	599.69
267.52	593.69
267.752	612.69
267.984	611.69
268.216	628.69
268.448	630.69
268.681	624.69
268.913	647.69
269.145	650.69
269.377	624.69
269.609	629.69
269.841	665.69
270.073	630.69
270.306	653.69
270.538	634.69
270.77	624.69
271.002	672.69
271.234	646.69
271.466	661.69
271.698	640.69
271.93	658.69
272.162	710.69
272.394	671.69
272.626	664.69
272.858	676.69
273.09	684.69
273.322	696.69
273.553	684.69
273.785	698.69
274.017	698.69
274.249	736.69
274.481	713.69
274.713	716.69
274.945	696.69
275.176	727.69
275.408	714.69
275.64	720.69
275.872	734.69
276.104	734.69
276.335	721.69
276.567	728.69
276.799	750.69
277.031	758.69
277.262	729.69
277.494	739.69
277.726	745.69
277.957	747.69
278.189	746.69
278.421	751.69
278.652	774.69
278.884	776.69
279.115	760.69
279.347	736.69
279.579	756.69
279.81	785.69
280.042	770.69
280.273	770.69
280.505	784.69
280.736	784.69
280.968	785.69
281.199	802.69
281.431	804.69
281.662	819.69
281.894	791.69
282.125	817.69
282.356	831.69
282.588	823.69
282.819	830.69
283.051	833.69
283.282	835.69
283.513	863.69
283.745	849.69
283.976	814.69
284.207	848.69
284.439	834.69
284.67	844.69
284.901	861.69
285.132	864.69
285.364	827.69
285.595	848.69
285.826	835.69
286.057	868.69
286.288	848.69
286.52	866.69
286.751	886.69
286.982	886.69
287.213	891.69
287.444	880.69
287.675	921.69
287.906	906.69
288.138	877.69
288.369	873.69
288.6	890.69
288.831	915.69
289.062	891.69
289.293	879.69
289.524	886.69
289.755	880.69
289.986	883.69
290.217	903.69
290.448	905.69
290.679	928.69
290.91	890.69
291.141	918.69
291.371	938.69
291.602	935.69
291.833	909.69
292.064	900.69
292.295	919.69
292.526	912.69
292.757	916.69
292.987	900.69
293.218	899.69
293.449	914.69
293.68	885.69
293.91	911.69
294.141	920.69
294.372	914.69
294.603	935.69
294.833	916.69
295.064	917.69
295.295	924.69
295.525	907.69
295.756	947.69
295.987	945.69
296.217	953.69
296.448	984.69
296.679	980.69
296.909	947.69
297.14	950.69
297.37	972.69
297.601	1000.69
297.831	978.69
298.062	970.69
298.292	978.69
298.523	1019.69
298.753	1031.69
298.984	1002.69
299.214	1015.69
299.445	1022.69
299.675	954.69
299.905	998.69
300.136	1006.69
300.366	1022.69
300.597	1025.69
300.827	1012.69
301.057	1033.69
301.288	1043.69
301.518	1021.69
301.748	1056.69
301.979	1053.69
302.209	1064.69
302.439	1064.69
302.669	1048.69
302.9	1040.69
303.13	1021.69
303.36	1061.69
303.59	1071.69
303.82	1056.69
304.051	1058.69
304.281	1059.69
304.511	1068.69
304.741	1038.69
304.971	1045.69
305.201	1062.69
305.431	1054.69
305.661	1037.69
305.891	1018.69
306.121	1026.69
306.352	1034.69
306.582	1024.69
306.812	1017.69
307.042	1024.69
307.272	1026.69
307.502	1027.69
307.731	1009.69
307.961	1030.69
308.191	1030.69
308.421	1016.69
308.651	1049.69
308.881	1006.69
309.111	1035.69
309.341	1035.69
309.571	1032.69
309.8	1035.69
310.03	1035.69
310.26	1047.69
310.49	1046.69
310.72	1054.69
310.949	1021.69
311.179	1043.69
311.409	1045.69
311.639	1078.69
311.868	1073.69
312.098	1066.69
312.328	1103.69
312.557	1062.69
312.787	1104.69
313.017	1099.69
313.246	1104.69
313.476	1094.69
313.706	1091.69
313.935	1132.69
314.165	1115.69
314.394	1118.69
314.624	1120.69
314.853	1135.69
315.083	1102.69
315.312	1138.69
315.542	1113.69
315.771	1118.69
316.001	1114.69
316.23	1136.69
316.46	1108.69
316.689	1078.69
316.919	1083.69
317.148	1084.69
317.377	1112.69
317.607	1095.69
317.836	1092.69
318.065	1106.69
318.295	1114.69
318.524	1101.69
318.753	1097.69
318.983	1091.69
319.212	1089.69
319.441	1087.69
319.67	1106.69
319.9	1113.69
320.129	1116.69
320.358	1110.69
320.587	1106.69
320.816	1124.69
321.046	1117.69
321.275	1127.69
321.504	1116.69
321.733	1147.69
321.962	1147.69
322.191	1104.69
322.42	1110.69
322.649	1120.69
322.878	1124.69
323.108	1136.69
323.337	1157.69
323.566	1153.69
323.795	1198.69
324.024	1126.69
324.253	1160.69
324.482	1176.69
324.71	1189.69
324.939	1155.69
325.168	1141.69
325.397	1150.69
325.626	1150.69
325.855	1163.69
326.084	1224.69
326.313	1221.69
326.542	1209.69
326.77	1192.69
326.999	1210.69
327.228	1207.69
327.457	1225.69
327.686	1186.69
327.914	1199.69
328.143	1242.69
328.372	1227.69
328.6	1199.69
328.829	1216.69
329.058	1203.69
329.287	1223.69
329.515	1169.69
329.744	1210.69
329.972	1222.69
330.201	1200.69
330.43	1236.69
330.658	1238.69
330.887	1242.69
331.115	1295.69
331.344	1266.69
331.572	1297.69
331.801	1300.69
332.03	1348.69
332.258	1343.69
332.486	1352.69
332.715	1394.69
332.943	1462.69
333.172	1453.69
333.4	1536.69
333.629	1547.69
333.857	1585.69
334.085	1593.69
334.314	1558.69
334.542	1560.69
334.771	1521.69
334.999	1542.69
335.227	1513.69
335.455	1507.69
335.684	1535.69
335.912	1486.69
336.14	1508.69
336.369	1462.69
336.597	1480.69
336.825	1488.69
337.053	1425.69
337.281	1430.69
337.51	1371.69
337.738	1392.69
337.966	1365.69
338.194	1339.69
338.422	1361.69
338.65	1356.69
338.878	1330.69
339.106	1316.69
339.334	1338.69
339.562	1314.69
339.79	1299.69
340.018	1314.69
340.246	1261.69
340.474	1260.69
340.702	1288.69
340.93	1315.69
341.158	1303.69
341.386	1285.69
341.614	1284.69
341.842	1264.69
342.07	1271.69
342.298	1286.69
342.526	1274.69
342.754	1262.69
342.981	1274.69
343.209	1290.69
343.437	1334.69
343.665	1384.69
343.893	1460.69
344.12	1527.69
344.348	1491.69
344.576	1424.69
344.804	1374.69
345.031	1349.69
345.259	1307.69
345.487	1318.69
345.714	1256.69
345.942	1254.69
346.17	1256.69
346.397	1237.69
346.625	1207.69
346.853	1239.69
347.08	1199.69
347.308	1211.69
347.535	1246.69
347.763	1218.69
347.99	1218.69
348.218	1215.69
348.445	1223.69
348.673	1215.69
348.9	1198.69
349.128	1230.69
349.355	1206.69
349.583	1227.69
349.81	1184.69
350.037	1185.69
350.265	1196.69
350.492	1193.69
350.72	1182.69
350.947	1167.69
351.174	1171.69
351.402	1175.69
351.629	1162.69
351.856	1162.69
352.083	1159.69
352.311	1189.69
352.538	1148.69
352.765	1193.69
352.992	1167.69
353.22	1184.69
353.447	1188.69
353.674	1201.69
353.901	1156.69
354.128	1152.69
354.355	1143.69
354.583	1179.69
354.81	1173.69
355.037	1180.69
355.264	1177.69
355.491	1193.69
355.718	1160.69
355.945	1186.69
356.172	1179.69
356.399	1179.69
356.626	1194.69
356.853	1194.69
357.08	1192.69
357.307	1200.69
357.534	1201.69
357.761	1215.69
357.988	1172.69
358.215	1177.69
358.441	1160.69
358.668	1194.69
358.895	1179.69
359.122	1185.69
359.349	1186.69
359.576	1206.69
359.802	1152.69
360.029	1186.69
360.256	1191.69
360.483	1149.69
360.709	1171.69
360.936	1178.69
361.163	1198.69
361.39	1162.69
361.616	1185.69
361.843	1193.69
362.07	1180.69
362.296	1165.69
362.523	1198.69
362.749	1146.69
362.976	1201.69
363.203	1173.69
363.429	1167.69
363.656	1193.69
363.882	1188.69
364.109	1159.69
364.335	1184.69
364.562	1155.69
364.788	1179.69
365.015	1180.69
365.241	1180.69
365.468	1185.69
365.694	1182.69
365.92	1203.69
366.147	1177.69
366.373	1182.69
366.599	1174.69
366.826	1154.69
367.052	1168.69
367.278	1153.69
367.505	1189.69
367.731	1188.69
367.957	1187.69
368.184	1222.69
368.41	1219.69
368.636	1207.69
368.862	1233.69
369.089	1204.69
369.315	1214.69
369.541	1214.69
369.767	1205.69
369.993	1210.69
370.219	1217.69
370.445	1249.69
370.672	1239.69
370.898	1264.69
371.124	1250.69
371.35	1270.69
371.576	1310.69
371.802	1280.69
372.028	1298.69
372.254	1321.69
372.48	1286.69
372.706	1298.69
372.932	1366.69
373.158	1336.69
373.384	1296.69
373.61	1308.69
373.835	1275.69
374.061	1250.69
374.287	1302.69
374.513	1345.69
374.739	1381.69
374.965	1356.69
375.191	1398.69
375.416	1409.69
375.642	1357.69
375.868	1332.69
376.094	1337.69
376.319	1321.69
376.545	1302.69
376.771	1310.69
376.997	1308.69
377.222	1296.69
377.448	1289.69
377.674	1240.69
377.899	1265.69
378.125	1259.69
378.35	1239.69
378.576	1290.69
378.802	1246.69
379.027	1252.69
379.253	1274.69
379.478	1286.69
379.704	1263.69
379.929	1284.69
380.155	1269.69
380.38	1272.69
380.606	1273.69
380.831	1265.69
381.057	1286.69
381.282	1259.69
381.507	1266.69
381.733	1298.69
381.958	1304.69
382.184	1312.69
382.409	1312.69
382.634	1337.69
382.86	1332.69
383.085	1335.69
383.31	1344.69
383.535	1434.69
383.761	1400.69
383.986	1409.69
384.211	1420.69
384.436	1447.69
384.662	1475.69
384.887	1497.69
385.112	1461.69
385.337	1539.69
385.562	1496.69
385.787	1523.69
386.013	1535.69
386.238	1544.69
386.463	1567.69
386.688	1573.69
386.913	1523.69
387.138	1519.69
387.363	1519.69
387.588	1541.69
387.813	1538.69
388.038	1495.69
388.263	1509.69
388.488	1534.69
388.713	1527.69
388.938	1511.69
389.163	1473.69
389.387	1508.69
389.612	1481.69
389.837	1524.69
390.062	1494.69
390.287	1502.69
390.512	1512.69
390.736	1523.69
390.961	1552.69
391.186	1575.69
391.411	1613.69
391.636	1630.69
391.86	1699.69
392.085	1701.69
392.31	1721.69
392.534	1654.69
392.759	1620.69
392.984	1649.69
393.208	1628.69
393.433	1610.69
393.658	1634.69
393.882	1596.69
394.107	1614.69
394.331	1635.69
394.556	1612.69
394.78	1631.69
395.005	1620.69
395.229	1652.69
395.454	1651.69
395.678	1704.69
395.903	1698.69
396.127	1713.69
396.352	1651.69
396.576	1639.69
396.801	1636.69
397.025	1683.69
397.249	1705.69
397.474	1707.69
397.698	1713.69
397.922	1724.69
398.147	1761.69
398.371	1778.69
398.595	1803.69
398.82	1876.69
399.044	1989.69
399.268	2182.69
399.492	2418.69
399.717	2642.69
399.941	2642.69
400.165	2484.69
400.389	2260.69
400.613	2122.69
400.837	2023.69
401.062	1964.69
401.286	1907.69
401.51	1984.69
401.734	1915.69
401.958	1907.69
402.182	1931.69
402.406	1913.69
402.63	1998.69
402.854	1993.69
403.078	1984.69
403.302	2020.69
403.526	2078.69
403.75	2055.69
403.974	2079.69
404.198	2096.69
404.422	2079.69
404.645	2060.69
404.869	2087.69
405.093	2069.69
405.317	2027.69
405.541	2090.69
405.765	2033.69
405.988	2058.69
406.212	2072.69
406.436	2100.69
406.66	2123.69
406.883	2116.69
407.107	2259.69
407.331	2379.69
407.555	2399.69
407.778	2369.69
408.002	2339.69
408.226	2289.69
408.449	2279.69
408.673	2178.69
408.896	2178.69
409.12	2147.69
409.344	2180.69
409.567	2133.69
409.791	2102.69
410.014	2105.69
410.238	2083.69
410.461	2103.69
410.685	2096.69
410.908	2030.69
411.132	2042.69
411.355	1967.69
411.578	1973.69
411.802	2005.69
412.025	1982.69
412.249	1974.69
412.472	1978.69
412.695	1933.69
412.919	1910.69
413.142	1912.69
413.365	1939.69
413.589	1960.69
413.812	1875.69
414.035	1851.69
414.258	1867.69
414.482	1910.69
414.705	1908.69
414.928	1912.69
415.151	1920.69
415.374	1883.69
415.597	1892.69
415.821	1830.69
416.044	1812.69
416.267	1809.69
416.49	1846.69
416.713	1862.69
416.936	1843.69
417.159	1822.69
417.382	1821.69
417.605	1783.69
417.828	1798.69
418.051	1859.69
418.274	1804.69
418.497	1838.69
418.72	1876.69
418.943	1847.69
419.166	1968.69
419.389	2146.69
419.611	2062.69
419.834	2022.69
420.057	1939.69
420.28	1861.69
420.503	1838.69
420.726	1793.69
420.948	1794.69
421.171	1839.69
421.394	1827.69
421.617	1838.69
421.839	1810.69
422.062	1851.69
422.285	1788.69
422.507	1926.69
422.73	1847.69
422.953	1819.69
423.175	1883.69
423.398	1922.69
423.621	1848.69
423.843	1924.69
424.066	1888.69
424.288	1855.69
424.511	1909.69
424.733	1908.69
424.956	1855.69
425.178	1835.69
425.401	1813.69
425.623	1838.69
425.846	1779.69
426.068	1822.69
426.291	1737.69
426.513	1794.69
426.735	1727.69
426.958	1730.69
427.18	1683.69
427.402	1671.69
427.625	1734.69
427.847	1684.69
428.069	1707.69
428.292	1676.69
428.514	1677.69
428.736	1668.69
428.958	1672.69
429.181	1659.69
429.403	1650.69
429.625	1667.69
429.847	1676.69
430.069	1606.69
430.292	1629.69
430.514	1631.69
430.736	1632.69
430.958	1630.69
431.18	1652.69
431.402	1672.69
431.624	1652.69
431.846	1660.69
432.068	1680.69
432.29	1703.69
432.512	1666.69
432.734	1678.69
432.956	1663.69
433.178	1725.69
433.4	1640.69
433.622	1698.69
433.844	1736.69
434.066	1723.69
434.287	1748.69
434.509	1739.69
434.731	1836.69
434.953	1906.69
435.175	1853.69
435.397	1856.69
435.618	1777.69
435.84	1708.69
436.062	1704.69
436.284	1666.69
436.505	1665.69
436.727	1662.69
436.949	1663.69
437.17	1706.69
437.392	1660.69
437.614	1640.69
437.835	1580.69
438.057	1610.69
438.278	1580.69
438.5	1591.69
438.721	1573.69
438.943	1597.69
439.165	1574.69
439.386	1632.69
439.608	1641.69
439.829	1624.69
440.05	1639.69
440.272	1636.69
440.493	1646.69
440.715	1680.69
440.936	1715.69
441.158	1681.69
441.379	1739.69
441.6	1827.69
441.822	1818.69
442.043	1815.69
442.264	1796.69
442.486	1764.69
442.707	1787.69
442.928	1770.69
443.149	1770.69
443.371	1766.69
443.592	1787.69
443.813	1790.69
444.034	1834.69
444.255	1883.69
444.476	1935.69
444.698	2000.69
444.919	2046.69
445.14	2149.69
445.361	1968.69
445.582	1888.69
445.803	1778.69
446.024	1722.69
446.245	1710.69
446.466	1712.69
446.687	1657.69
446.908	1653.69
447.129	1615.69
447.35	1579.69
447.571	1544.69
447.792	1563.69
448.013	1549.69
448.234	1542.69
448.455	1530.69
448.675	1508.69
448.896	1467.69
449.117	1458.69
449.338	1511.69
449.559	1481.69
449.779	1487.69
450	1471.69
450.221	1473.69
450.442	1494.69
450.662	1493.69
450.883	1495.69
451.104	1497.69
451.324	1467.69
451.545	1463.69
451.766	1487.69
451.986	1480.69
452.207	1480.69
452.428	1460.69
452.648	1460.69
452.869	1444.69
453.089	1400.69
453.31	1440.69
453.53	1429.69
453.751	1422.69
453.971	1442.69
454.192	1435.69
454.412	1379.69
454.633	1409.69
454.853	1399.69
455.073	1398.69
455.294	1415.69
455.514	1412.69
455.734	1416.69
455.955	1407.69
456.175	1354.69
456.395	1412.69
456.616	1408.69
456.836	1404.69
457.056	1371.69
457.276	1363.69
457.497	1415.69
457.717	1370.69
457.937	1412.69
458.157	1420.69
458.377	1454.69
458.598	1471.69
458.818	1516.69
459.038	1514.69
459.258	1586.69
459.478	1638.69
459.698	1680.69
459.918	1741.69
460.138	1725.69
460.358	1814.69
460.578	1833.69
460.798	1877.69
461.018	1912.69
461.238	1868.69
461.458	1879.69
461.678	1862.69
461.898	1910.69
462.118	1887.69
462.338	2004.69
462.558	2043.69
462.777	2083.69
462.997	2282.69
463.217	2346.69
463.437	2371.69
463.657	2232.69
463.876	2159.69
464.096	2182.69
464.316	2138.69
464.536	2166.69
464.755	2103.69
464.975	2020.69
465.195	1926.69
465.414	1865.69
465.634	1776.69
465.854	1718.69
466.073	1652.69
466.293	1685.69
466.512	1625.69
466.732	1630.69
466.951	1574.69
467.171	1593.69
467.391	1620.69
467.61	1540.69
467.829	1532.69
468.049	1504.69
468.268	1538.69
468.488	1472.69
468.707	1491.69
468.927	1530.69
469.146	1482.69
469.365	1538.69
469.585	1545.69
469.804	1555.69
470.023	1610.69
470.243	1576.69
470.462	1636.69
470.681	1564.69
470.901	1607.69
471.12	1610.69
471.339	1567.69
471.558	1576.69
471.777	1551.69
471.997	1509.69
472.216	1534.69
472.435	1537.69
472.654	1489.69
472.873	1446.69
473.092	1490.69
473.311	1487.69
473.53	1470.69
473.749	1495.69
473.968	1482.69
474.187	1473.69
474.406	1464.69
474.625	1524.69
474.844	1473.69
475.063	1501.69
475.282	1528.69
475.501	1518.69
475.72	1510.69
475.939	1555.69
476.158	1537.69
476.377	1554.69
476.596	1566.69
476.814	1577.69
477.033	1601.69
477.252	1618.69
477.471	1656.69
477.69	1682.69
477.908	1714.69
478.127	1761.69
478.346	1746.69
478.564	1814.69
478.783	1839.69
479.002	1874.69
479.22	1850.69
479.439	1892.69
479.658	1883.69
479.876	1892.69
480.095	1899.69
480.313	1947.69
480.532	1978.69
480.751	1959.69
480.969	1934.69
481.188	1894.69
481.406	1854.69
481.624	1831.69
481.843	1804.69
482.061	1818.69
482.28	1815.69
482.498	1777.69
482.717	1780.69
482.935	1804.69
483.153	1830.69
483.372	1814.69
483.59	1845.69
483.808	1825.69
484.027	1823.69
484.245	1905.69
484.463	1918.69
484.681	1938.69
484.9	1947.69
485.118	1976.69
485.336	1981.69
485.554	2004.69
485.772	1990.69
485.99	1990.69
486.209	2040.69
486.427	2005.69
486.645	2016.69
486.863	2004.69
487.081	1935.69
487.299	2002.69
487.517	1974.69
487.735	1962.69
487.953	1946.69
488.171	1946.69
488.389	1940.69
488.607	1908.69
488.825	1907.69
489.043	1915.69
489.261	1899.69
489.479	1903.69
489.696	1879.69
489.914	1902.69
