Data from NiCl2@0.25M.TitratingCurve.Agarose3%dH2O.NegLispCup.LampEnergy10.LIBS07252019_HRD10591_18-23-20-572.txt Node
Date: Thu Jul 25 18:23:20 EDT 2019
User: cochatt
Spectrometer: HR+D1059
Trigger mode: 1
Integration Time (sec): 1.000000E-1
Scans to average: 1
Electric dark correction enabled: true
Nonlinearity correction enabled: false
Boxcar width: 0
XAxis mode: Wavelengths
Number of Pixels in Spectrum: 2048
>>>>>Begin Spectral Data<<<<<
223.165	-8.38
223.4	-8.38
223.635	-8.38
223.869	-4.38
224.104	-23.38
224.338	-20.38
224.573	-12.38
224.808	-15.38
225.042	1.62
225.277	-10.38
225.511	3.62
225.746	-8.38
225.98	2.62
226.215	-0.38
226.449	19.62
226.683	18.62
226.918	23.62
227.152	33.62
227.387	35.62
227.621	25.62
227.856	59.62
228.09	52.62
228.324	42.62
228.559	49.62
228.793	66.62
229.027	99.62
229.262	118.62
229.496	99.62
229.73	105.62
229.964	117.62
230.199	111.62
230.433	125.62
230.667	134.62
230.901	119.62
231.136	115.62
231.37	124.62
231.604	127.62
231.838	131.62
232.072	139.62
232.306	135.62
232.541	139.62
232.775	130.62
233.009	149.62
233.243	151.62
233.477	135.62
233.711	137.62
233.945	160.62
234.179	147.62
234.413	164.62
234.647	127.62
234.881	135.62
235.115	132.62
235.349	138.62
235.583	146.62
235.817	134.62
236.051	143.62
236.285	141.62
236.519	129.62
236.753	136.62
236.987	141.62
237.221	135.62
237.455	158.62
237.689	150.62
237.922	137.62
238.156	158.62
238.39	155.62
238.624	149.62
238.858	161.62
239.091	156.62
239.325	165.62
239.559	138.62
239.793	180.62
240.027	160.62
240.26	148.62
240.494	156.62
240.728	177.62
240.961	165.62
241.195	159.62
241.429	179.62
241.662	165.62
241.896	171.62
242.13	188.62
242.363	160.62
242.597	171.62
242.83	161.62
243.064	188.62
243.298	184.62
243.531	189.62
243.765	166.62
243.998	182.62
244.232	177.62
244.465	184.62
244.699	194.62
244.932	215.62
245.166	203.62
245.399	185.62
245.633	192.62
245.866	205.62
246.099	187.62
246.333	191.62
246.566	194.62
246.8	190.62
247.033	197.62
247.266	210.62
247.5	187.62
247.733	198.62
247.966	205.62
248.2	211.62
248.433	204.62
248.666	204.62
248.899	217.62
249.133	214.62
249.366	225.62
249.599	209.62
249.832	206.62
250.066	219.62
250.299	204.62
250.532	220.62
250.765	214.62
250.998	227.62
251.231	229.62
251.465	235.62
251.698	235.62
251.931	237.62
252.164	219.62
252.397	213.62
252.63	251.62
252.863	236.62
253.096	251.62
253.329	240.62
253.562	240.62
253.795	239.62
254.028	260.62
254.261	240.62
254.494	251.62
254.727	244.62
254.96	253.62
255.193	244.62
255.426	262.62
255.659	268.62
255.892	257.62
256.124	243.62
256.357	269.62
256.59	249.62
256.823	242.62
257.056	248.62
257.289	278.62
257.521	254.62
257.754	280.62
257.987	252.62
258.22	268.62
258.452	257.62
258.685	269.62
258.918	280.62
259.151	271.62
259.383	280.62
259.616	266.62
259.849	296.62
260.081	281.62
260.314	281.62
260.547	288.62
260.779	298.62
261.012	274.62
261.244	284.62
261.477	284.62
261.71	272.62
261.942	292.62
262.175	275.62
262.407	273.62
262.64	273.62
262.872	291.62
263.105	298.62
263.337	290.62
263.57	297.62
263.802	299.62
264.035	283.62
264.267	309.62
264.499	318.62
264.732	304.62
264.964	308.62
265.197	301.62
265.429	309.62
265.661	296.62
265.894	318.62
266.126	308.62
266.358	306.62
266.591	305.62
266.823	321.62
267.055	308.62
267.287	328.62
267.52	331.62
267.752	296.62
267.984	321.62
268.216	332.62
268.448	333.62
268.681	317.62
268.913	341.62
269.145	325.62
269.377	332.62
269.609	322.62
269.841	343.62
270.073	322.62
270.306	334.62
270.538	340.62
270.77	317.62
271.002	332.62
271.234	346.62
271.466	326.62
271.698	333.62
271.93	359.62
272.162	343.62
272.394	352.62
272.626	348.62
272.858	339.62
273.09	347.62
273.322	350.62
273.553	348.62
273.785	352.62
274.017	339.62
274.249	368.62
274.481	367.62
274.713	352.62
274.945	367.62
275.176	353.62
275.408	334.62
275.64	351.62
275.872	356.62
276.104	365.62
276.335	373.62
276.567	369.62
276.799	362.62
277.031	379.62
277.262	381.62
277.494	372.62
277.726	381.62
277.957	379.62
278.189	362.62
278.421	369.62
278.652	376.62
278.884	401.62
279.115	381.62
279.347	389.62
279.579	382.62
279.81	386.62
280.042	394.62
280.273	387.62
280.505	405.62
280.736	394.62
280.968	379.62
281.199	395.62
281.431	397.62
281.662	414.62
281.894	394.62
282.125	426.62
282.356	417.62
282.588	408.62
282.819	414.62
283.051	385.62
283.282	403.62
283.513	438.62
283.745	414.62
283.976	407.62
284.207	407.62
284.439	437.62
284.67	428.62
284.901	431.62
285.132	441.62
285.364	427.62
285.595	443.62
285.826	414.62
286.057	419.62
286.288	437.62
286.52	441.62
286.751	439.62
286.982	450.62
287.213	433.62
287.444	451.62
287.675	453.62
287.906	440.62
288.138	431.62
288.369	455.62
288.6	451.62
288.831	440.62
289.062	454.62
289.293	447.62
289.524	429.62
289.755	454.62
289.986	474.62
290.217	456.62
290.448	475.62
290.679	445.62
290.91	473.62
291.141	459.62
291.371	458.62
291.602	478.62
291.833	472.62
292.064	465.62
292.295	468.62
292.526	467.62
292.757	465.62
292.987	467.62
293.218	460.62
293.449	467.62
293.68	478.62
293.91	461.62
294.141	449.62
294.372	471.62
294.603	472.62
294.833	457.62
295.064	477.62
295.295	470.62
295.525	462.62
295.756	484.62
295.987	469.62
296.217	465.62
296.448	481.62
296.679	484.62
296.909	489.62
297.14	493.62
297.37	501.62
297.601	488.62
297.831	513.62
298.062	499.62
298.292	505.62
298.523	518.62
298.753	506.62
298.984	493.62
299.214	503.62
299.445	501.62
299.675	492.62
299.905	475.62
300.136	496.62
300.366	492.62
300.597	482.62
300.827	529.62
301.057	525.62
301.288	514.62
301.518	535.62
301.748	527.62
301.979	546.62
302.209	555.62
302.439	540.62
302.669	516.62
302.9	507.62
303.13	525.62
303.36	518.62
303.59	529.62
303.82	523.62
304.051	519.62
304.281	516.62
304.511	525.62
304.741	517.62
304.971	562.62
305.201	517.62
305.431	505.62
305.661	517.62
305.891	520.62
306.121	524.62
306.352	541.62
306.582	521.62
306.812	511.62
307.042	508.62
307.272	525.62
307.502	544.62
307.731	525.62
307.961	536.62
308.191	505.62
308.421	511.62
308.651	522.62
308.881	513.62
309.111	531.62
309.341	509.62
309.571	518.62
309.8	526.62
310.03	526.62
310.26	547.62
310.49	521.62
310.72	516.62
310.949	511.62
311.179	549.62
311.409	536.62
311.639	528.62
311.868	535.62
312.098	561.62
312.328	556.62
312.557	541.62
312.787	552.62
313.017	568.62
313.246	545.62
313.476	544.62
313.706	575.62
313.935	559.62
314.165	571.62
314.394	541.62
314.624	582.62
314.853	583.62
315.083	580.62
315.312	550.62
315.542	563.62
315.771	569.62
316.001	556.62
316.23	556.62
316.46	587.62
316.689	562.62
316.919	555.62
317.148	580.62
317.377	564.62
317.607	552.62
317.836	537.62
318.065	551.62
318.295	544.62
318.524	560.62
318.753	547.62
318.983	532.62
319.212	565.62
319.441	548.62
319.67	576.62
319.9	542.62
320.129	566.62
320.358	535.62
320.587	552.62
320.816	549.62
321.046	572.62
321.275	567.62
321.504	572.62
321.733	576.62
321.962	582.62
322.191	555.62
322.42	564.62
322.649	569.62
322.878	555.62
323.108	554.62
323.337	565.62
323.566	576.62
323.795	572.62
324.024	599.62
324.253	590.62
324.482	582.62
324.71	600.62
324.939	607.62
325.168	577.62
325.397	586.62
325.626	604.62
325.855	597.62
326.084	615.62
326.313	597.62
326.542	587.62
326.77	637.62
326.999	617.62
327.228	625.62
327.457	609.62
327.686	623.62
327.914	629.62
328.143	624.62
328.372	607.62
328.6	637.62
328.829	623.62
329.058	616.62
329.287	607.62
329.515	626.62
329.744	611.62
329.972	610.62
330.201	630.62
330.43	619.62
330.658	631.62
330.887	660.62
331.115	639.62
331.344	633.62
331.572	655.62
331.801	676.62
332.03	666.62
332.258	690.62
332.486	689.62
332.715	730.62
332.943	767.62
333.172	791.62
333.4	791.62
333.629	826.62
333.857	812.62
334.085	826.62
334.314	799.62
334.542	803.62
334.771	790.62
334.999	767.62
335.227	771.62
335.455	765.62
335.684	751.62
335.912	759.62
336.14	743.62
336.369	754.62
336.597	733.62
336.825	724.62
337.053	721.62
337.281	726.62
337.51	711.62
337.738	699.62
337.966	699.62
338.194	669.62
338.422	660.62
338.65	685.62
338.878	690.62
339.106	682.62
339.334	669.62
339.562	677.62
339.79	648.62
340.018	675.62
340.246	663.62
340.474	665.62
340.702	635.62
340.93	668.62
341.158	654.62
341.386	660.62
341.614	648.62
341.842	656.62
342.07	643.62
342.298	638.62
342.526	644.62
342.754	638.62
342.981	628.62
343.209	672.62
343.437	713.62
343.665	751.62
343.893	780.62
344.12	803.62
344.348	767.62
344.576	725.62
344.804	738.62
345.031	673.62
345.259	673.62
345.487	647.62
345.714	638.62
345.942	655.62
346.17	617.62
346.397	635.62
346.625	641.62
346.853	640.62
347.08	631.62
347.308	645.62
347.535	627.62
347.763	612.62
347.99	614.62
348.218	629.62
348.445	617.62
348.673	616.62
348.9	599.62
349.128	601.62
349.355	639.62
349.583	627.62
349.81	634.62
350.037	614.62
350.265	607.62
350.492	612.62
350.72	597.62
350.947	609.62
351.174	605.62
351.402	619.62
351.629	611.62
351.856	617.62
352.083	581.62
352.311	623.62
352.538	599.62
352.765	620.62
352.992	596.62
353.22	589.62
353.447	605.62
353.674	609.62
353.901	603.62
354.128	635.62
354.355	610.62
354.583	603.62
354.81	627.62
355.037	613.62
355.264	617.62
355.491	615.62
355.718	633.62
355.945	613.62
356.172	610.62
356.399	623.62
356.626	620.62
356.853	625.62
357.08	599.62
357.307	605.62
357.534	609.62
357.761	595.62
357.988	599.62
358.215	620.62
358.441	600.62
358.668	604.62
358.895	633.62
359.122	625.62
359.349	609.62
359.576	612.62
359.802	612.62
360.029	606.62
360.256	613.62
360.483	594.62
360.709	590.62
360.936	593.62
361.163	595.62
361.39	602.62
361.616	625.62
361.843	625.62
362.07	640.62
362.296	620.62
362.523	601.62
362.749	587.62
362.976	599.62
363.203	608.62
363.429	577.62
363.656	604.62
363.882	603.62
364.109	610.62
364.335	627.62
364.562	600.62
364.788	597.62
365.015	595.62
365.241	581.62
365.468	619.62
365.694	600.62
365.92	628.62
366.147	607.62
366.373	611.62
366.599	630.62
366.826	605.62
367.052	631.62
367.278	616.62
367.505	633.62
367.731	614.62
367.957	617.62
368.184	608.62
368.41	631.62
368.636	617.62
368.862	628.62
369.089	623.62
369.315	632.62
369.541	621.62
369.767	655.62
369.993	637.62
370.219	630.62
370.445	630.62
370.672	644.62
370.898	640.62
371.124	645.62
371.35	653.62
371.576	650.62
371.802	640.62
372.028	669.62
372.254	650.62
372.48	654.62
372.706	663.62
372.932	698.62
373.158	685.62
373.384	663.62
373.61	651.62
373.835	647.62
374.061	678.62
374.287	652.62
374.513	681.62
374.739	717.62
374.965	721.62
375.191	736.62
375.416	723.62
375.642	702.62
375.868	673.62
376.094	676.62
376.319	675.62
376.545	691.62
376.771	664.62
376.997	667.62
377.222	665.62
377.448	637.62
377.674	666.62
377.899	631.62
378.125	654.62
378.35	665.62
378.576	673.62
378.802	671.62
379.027	666.62
379.253	684.62
379.478	646.62
379.704	653.62
379.929	651.62
380.155	640.62
380.38	652.62
380.606	648.62
380.831	671.62
381.057	672.62
381.282	665.62
381.507	645.62
381.733	671.62
381.958	659.62
382.184	695.62
382.409	702.62
382.634	676.62
382.86	693.62
383.085	680.62
383.31	715.62
383.535	748.62
383.761	711.62
383.986	709.62
384.211	764.62
384.436	769.62
384.662	773.62
384.887	780.62
385.112	757.62
385.337	775.62
385.562	790.62
385.787	794.62
386.013	812.62
386.238	813.62
386.463	776.62
386.688	779.62
386.913	793.62
387.138	786.62
387.363	777.62
387.588	783.62
387.813	787.62
388.038	760.62
388.263	769.62
388.488	766.62
388.713	775.62
388.938	781.62
389.163	768.62
389.387	749.62
389.612	778.62
389.837	776.62
390.062	779.62
390.287	778.62
390.512	781.62
390.736	784.62
390.961	798.62
391.186	816.62
391.411	840.62
391.636	863.62
391.86	890.62
392.085	917.62
392.31	898.62
392.534	860.62
392.759	847.62
392.984	840.62
393.208	839.62
393.433	803.62
393.658	814.62
393.882	855.62
394.107	834.62
394.331	870.62
394.556	822.62
394.78	853.62
395.005	845.62
395.229	819.62
395.454	882.62
395.678	886.62
395.903	891.62
396.127	873.62
396.352	847.62
396.576	823.62
396.801	841.62
397.025	819.62
397.249	855.62
397.474	897.62
397.698	913.62
397.922	925.62
398.147	907.62
398.371	913.62
398.595	979.62
398.82	971.62
399.044	1041.62
399.268	1164.62
399.492	1348.62
399.717	1468.62
399.941	1455.62
400.165	1287.62
400.389	1182.62
400.613	1115.62
400.837	1061.62
401.062	1019.62
401.286	1003.62
401.51	983.62
401.734	993.62
401.958	1033.62
402.182	1005.62
402.406	1014.62
402.63	1029.62
402.854	1052.62
403.078	1057.62
403.302	1055.62
403.526	1100.62
403.75	1154.62
403.974	1118.62
404.198	1128.62
404.422	1152.62
404.645	1115.62
404.869	1105.62
405.093	1092.62
405.317	1068.62
405.541	1096.62
405.765	1058.62
405.988	1064.62
406.212	1068.62
406.436	1079.62
406.66	1068.62
406.883	1089.62
407.107	1181.62
407.331	1167.62
407.555	1243.62
407.778	1246.62
408.002	1233.62
408.226	1192.62
408.449	1177.62
408.673	1144.62
408.896	1133.62
409.12	1114.62
409.344	1085.62
409.567	1085.62
409.791	1101.62
410.014	1128.62
410.238	1092.62
410.461	1106.62
410.685	1084.62
410.908	1067.62
411.132	1043.62
411.355	1016.62
411.578	1015.62
411.802	1043.62
412.025	1002.62
412.249	1033.62
412.472	1032.62
412.695	983.62
412.919	1005.62
413.142	1003.62
413.365	993.62
413.589	981.62
413.812	985.62
414.035	996.62
414.258	973.62
414.482	981.62
414.705	985.62
414.928	975.62
415.151	1005.62
415.374	997.62
415.597	969.62
415.821	964.62
416.044	951.62
416.267	945.62
416.49	955.62
416.713	968.62
416.936	961.62
417.159	940.62
417.382	953.62
417.605	930.62
417.828	979.62
418.051	958.62
418.274	940.62
418.497	995.62
418.72	1000.62
418.943	1005.62
419.166	1049.62
419.389	1111.62
419.611	1066.62
419.834	1058.62
420.057	978.62
420.28	963.62
420.503	956.62
420.726	961.62
420.948	947.62
421.171	962.62
421.394	977.62
421.617	947.62
421.839	955.62
422.062	952.62
422.285	974.62
422.507	996.62
422.73	1002.62
422.953	1017.62
423.175	994.62
423.398	1031.62
423.621	1051.62
423.843	1037.62
424.066	1012.62
424.288	973.62
424.511	991.62
424.733	1009.62
424.956	980.62
425.178	988.62
425.401	973.62
425.623	962.62
425.846	941.62
426.068	944.62
426.291	934.62
426.513	936.62
426.735	915.62
426.958	935.62
427.18	868.62
427.402	899.62
427.625	879.62
427.847	858.62
428.069	890.62
428.292	892.62
428.514	888.62
428.736	848.62
428.958	876.62
429.181	856.62
429.403	873.62
429.625	857.62
429.847	855.62
430.069	840.62
430.292	859.62
430.514	828.62
430.736	854.62
430.958	844.62
431.18	854.62
431.402	864.62
431.624	851.62
431.846	865.62
432.068	880.62
432.29	875.62
432.512	883.62
432.734	887.62
432.956	851.62
433.178	867.62
433.4	882.62
433.622	868.62
433.844	845.62
434.066	880.62
434.287	900.62
434.509	933.62
434.731	947.62
434.953	972.62
435.175	982.62
435.397	960.62
435.618	911.62
435.84	895.62
436.062	880.62
436.284	859.62
436.505	840.62
436.727	873.62
436.949	840.62
437.17	859.62
437.392	855.62
437.614	823.62
437.835	820.62
438.057	836.62
438.278	820.62
438.5	806.62
438.721	817.62
438.943	844.62
439.165	865.62
439.386	819.62
439.608	854.62
439.829	864.62
440.05	853.62
440.272	887.62
440.493	866.62
440.715	850.62
440.936	895.62
441.158	917.62
441.379	931.62
441.6	974.62
441.822	986.62
442.043	972.62
442.264	946.62
442.486	927.62
442.707	929.62
442.928	931.62
443.149	963.62
443.371	956.62
443.592	964.62
443.813	967.62
444.034	971.62
444.255	1002.62
444.476	1049.62
444.698	1078.62
444.919	1119.62
445.14	1245.62
445.361	1076.62
445.582	986.62
445.803	925.62
446.024	909.62
446.245	899.62
446.466	899.62
446.687	881.62
446.908	876.62
447.129	857.62
447.35	857.62
447.571	828.62
447.792	818.62
448.013	819.62
448.234	812.62
448.455	821.62
448.675	799.62
448.896	801.62
449.117	787.62
449.338	777.62
449.559	778.62
449.779	769.62
450	780.62
450.221	801.62
450.442	784.62
450.662	772.62
450.883	783.62
451.104	824.62
451.324	807.62
451.545	791.62
451.766	784.62
451.986	775.62
452.207	778.62
452.428	787.62
452.648	767.62
452.869	786.62
453.089	766.62
453.31	778.62
453.53	734.62
453.751	761.62
453.971	757.62
454.192	756.62
454.412	759.62
454.633	751.62
454.853	747.62
455.073	729.62
455.294	743.62
455.514	736.62
455.734	744.62
455.955	738.62
456.175	733.62
456.395	733.62
456.616	728.62
456.836	753.62
457.056	739.62
457.276	739.62
457.497	731.62
457.717	756.62
457.937	757.62
458.157	779.62
458.377	779.62
458.598	807.62
458.818	819.62
459.038	805.62
459.258	835.62
459.478	859.62
459.698	889.62
459.918	919.62
460.138	955.62
460.358	981.62
460.578	1025.62
460.798	1041.62
461.018	1026.62
461.238	1000.62
461.458	988.62
461.678	991.62
461.898	1027.62
462.118	1057.62
462.338	1102.62
462.558	1079.62
462.777	1130.62
462.997	1227.62
463.217	1333.62
463.437	1361.62
463.657	1224.62
463.876	1189.62
464.096	1169.62
464.316	1177.62
464.536	1160.62
464.755	1123.62
464.975	1094.62
465.195	1051.62
465.414	999.62
465.634	931.62
465.854	906.62
466.073	871.62
466.293	869.62
466.512	851.62
466.732	838.62
466.951	865.62
467.171	837.62
467.391	829.62
467.61	838.62
467.829	852.62
468.049	789.62
468.268	792.62
468.488	811.62
468.707	815.62
468.927	791.62
469.146	776.62
469.365	809.62
469.585	823.62
469.804	823.62
470.023	847.62
470.243	830.62
470.462	840.62
470.681	859.62
470.901	858.62
471.12	845.62
471.339	842.62
471.558	834.62
471.777	801.62
471.997	791.62
472.216	791.62
472.435	811.62
472.654	801.62
472.873	801.62
473.092	801.62
473.311	777.62
473.53	800.62
473.749	788.62
473.968	771.62
474.187	787.62
474.406	780.62
474.625	809.62
474.844	808.62
475.063	817.62
475.282	777.62
475.501	799.62
475.72	809.62
475.939	801.62
476.158	819.62
476.377	845.62
476.596	816.62
476.814	826.62
477.033	837.62
477.252	851.62
477.471	874.62
477.69	883.62
477.908	892.62
478.127	947.62
478.346	932.62
478.564	964.62
478.783	946.62
479.002	1008.62
479.22	997.62
479.439	985.62
479.658	979.62
479.876	996.62
480.095	1015.62
480.313	1033.62
480.532	1058.62
480.751	1052.62
480.969	1007.62
481.188	969.62
481.406	968.62
481.624	943.62
481.843	914.62
482.061	906.62
482.28	905.62
482.498	916.62
482.717	899.62
482.935	908.62
483.153	897.62
483.372	923.62
483.59	943.62
483.808	915.62
484.027	934.62
484.245	938.62
484.463	921.62
484.681	953.62
484.9	923.62
485.118	962.62
485.336	915.62
485.554	956.62
485.772	929.62
485.99	931.62
486.209	943.62
486.427	971.62
486.645	951.62
486.863	929.62
487.081	969.62
487.299	940.62
487.517	951.62
487.735	973.62
487.953	939.62
488.171	993.62
488.389	938.62
488.607	966.62
488.825	944.62
489.043	922.62
489.261	927.62
489.479	936.62
489.696	952.62
489.914	940.62
490.132	950.62
490.35	975.62
490.568	935.62
490.786	932.62
491.003	947.62
491.221	969.62
491.439	986.62
491.657	931.62
491.874	987.62
492.092	1007.62
492.31	995.62
492.527	999.62
492.745	987.62
492.963	983.62
493.18	1003.62
493.398	994.62
493.615	1004.62
493.833	998.62
494.05	1009.62
494.268	1013.62
494.485	1048.62
494.703	1005.62
494.92	1032.62
495.138	1019.62
495.355	1009.62
495.573	1048.62
495.79	1013.62
496.008	1040.62
496.225	1037.62
496.442	1046.62
496.66	1056.62
496.877	1101.62
497.094	1095.62
497.312	1109.62
497.529	1155.62
497.746	1182.62
497.963	1149.62
498.181	1240.62
498.398	1289.62
498.615	1346.62
498.832	1465.62
499.049	1545.62
499.267	1690.62
499.484	1827.62
499.701	1998.62
