Data from NiCl2@0.5M.TitratingCurve.Agarose3%dH2O.NegLispCup.LampEnergy10.LIBS07252019_HRD10591_18-19-32-571.txt Node
Date: Thu Jul 25 18:19:32 EDT 2019
User: cochatt
Spectrometer: HR+D1059
Trigger mode: 1
Integration Time (sec): 1.000000E-1
Scans to average: 1
Electric dark correction enabled: true
Nonlinearity correction enabled: false
Boxcar width: 0
XAxis mode: Wavelengths
Number of Pixels in Spectrum: 2048
>>>>>Begin Spectral Data<<<<<
223.165	-22.56
223.4	-22.56
223.635	-22.56
223.869	-12.56
224.104	-15.56
224.338	-6.56
224.573	-23.56
224.808	-14.56
225.042	-2.56
225.277	-2.56
225.511	-8.56
225.746	-0.56
225.98	6.44
226.215	9.44
226.449	7.44
226.683	17.44
226.918	26.44
227.152	42.44
227.387	38.44
227.621	36.44
227.856	36.44
228.09	48.44
228.324	50.44
228.559	47.44
228.793	64.44
229.027	108.44
229.262	112.44
229.496	114.44
229.73	105.44
229.964	121.44
230.199	126.44
230.433	142.44
230.667	137.44
230.901	120.44
231.136	131.44
231.37	116.44
231.604	125.44
231.838	130.44
232.072	139.44
232.306	132.44
232.541	127.44
232.775	127.44
233.009	133.44
233.243	139.44
233.477	121.44
233.711	123.44
233.945	139.44
234.179	139.44
234.413	132.44
234.647	135.44
234.881	134.44
235.115	146.44
235.349	142.44
235.583	121.44
235.817	131.44
236.051	127.44
236.285	131.44
236.519	131.44
236.753	133.44
236.987	131.44
237.221	144.44
237.455	137.44
237.689	140.44
237.922	132.44
238.156	130.44
238.39	145.44
238.624	129.44
238.858	142.44
239.091	136.44
239.325	157.44
239.559	154.44
239.793	155.44
240.027	157.44
240.26	152.44
240.494	142.44
240.728	146.44
240.961	157.44
241.195	164.44
241.429	145.44
241.662	167.44
241.896	142.44
242.13	164.44
242.363	167.44
242.597	167.44
242.83	160.44
243.064	175.44
243.298	178.44
243.531	177.44
243.765	175.44
243.998	176.44
244.232	187.44
244.465	171.44
244.699	155.44
244.932	181.44
245.166	186.44
245.399	154.44
245.633	173.44
245.866	179.44
246.099	170.44
246.333	169.44
246.566	195.44
246.8	170.44
247.033	168.44
247.266	188.44
247.5	179.44
247.733	186.44
247.966	184.44
248.2	191.44
248.433	198.44
248.666	185.44
248.899	177.44
249.133	194.44
249.366	197.44
249.599	204.44
249.832	204.44
250.066	197.44
250.299	213.44
250.532	214.44
250.765	211.44
250.998	187.44
251.231	229.44
251.465	216.44
251.698	204.44
251.931	200.44
252.164	221.44
252.397	216.44
252.63	212.44
252.863	217.44
253.096	221.44
253.329	219.44
253.562	216.44
253.795	227.44
254.028	227.44
254.261	221.44
254.494	229.44
254.727	227.44
254.96	220.44
255.193	231.44
255.426	237.44
255.659	237.44
255.892	231.44
256.124	222.44
256.357	232.44
256.59	261.44
256.823	240.44
257.056	248.44
257.289	228.44
257.521	248.44
257.754	236.44
257.987	264.44
258.22	264.44
258.452	234.44
258.685	233.44
258.918	229.44
259.151	241.44
259.383	246.44
259.616	248.44
259.849	251.44
260.081	250.44
260.314	252.44
260.547	259.44
260.779	238.44
261.012	252.44
261.244	268.44
261.477	264.44
261.71	264.44
261.942	274.44
262.175	243.44
262.407	266.44
262.64	261.44
262.872	272.44
263.105	264.44
263.337	297.44
263.57	288.44
263.802	297.44
264.035	287.44
264.267	269.44
264.499	275.44
264.732	269.44
264.964	288.44
265.197	266.44
265.429	291.44
265.661	270.44
265.894	291.44
266.126	286.44
266.358	284.44
266.591	292.44
266.823	299.44
267.055	289.44
267.287	287.44
267.52	291.44
267.752	301.44
267.984	291.44
268.216	307.44
268.448	325.44
268.681	294.44
268.913	301.44
269.145	311.44
269.377	303.44
269.609	292.44
269.841	315.44
270.073	311.44
270.306	307.44
270.538	301.44
270.77	304.44
271.002	313.44
271.234	311.44
271.466	310.44
271.698	323.44
271.93	313.44
272.162	327.44
272.394	300.44
272.626	310.44
272.858	317.44
273.09	316.44
273.322	333.44
273.553	330.44
273.785	313.44
274.017	321.44
274.249	313.44
274.481	346.44
274.713	339.44
274.945	332.44
275.176	326.44
275.408	340.44
275.64	326.44
275.872	326.44
276.104	352.44
276.335	347.44
276.567	351.44
276.799	335.44
277.031	356.44
277.262	360.44
277.494	344.44
277.726	353.44
277.957	339.44
278.189	345.44
278.421	340.44
278.652	366.44
278.884	343.44
279.115	358.44
279.347	359.44
279.579	377.44
279.81	353.44
280.042	363.44
280.273	378.44
280.505	342.44
280.736	373.44
280.968	387.44
281.199	362.44
281.431	377.44
281.662	363.44
281.894	378.44
282.125	381.44
282.356	382.44
282.588	381.44
282.819	387.44
283.051	394.44
283.282	392.44
283.513	390.44
283.745	385.44
283.976	384.44
284.207	388.44
284.439	373.44
284.67	415.44
284.901	372.44
285.132	402.44
285.364	402.44
285.595	385.44
285.826	371.44
286.057	406.44
286.288	383.44
286.52	404.44
286.751	398.44
286.982	392.44
287.213	406.44
287.444	393.44
287.675	388.44
287.906	419.44
288.138	414.44
288.369	419.44
288.6	424.44
288.831	425.44
289.062	428.44
289.293	414.44
289.524	419.44
289.755	429.44
289.986	402.44
290.217	395.44
290.448	421.44
290.679	427.44
290.91	426.44
291.141	425.44
291.371	429.44
291.602	427.44
291.833	437.44
292.064	449.44
292.295	418.44
292.526	429.44
292.757	412.44
292.987	431.44
293.218	442.44
293.449	440.44
293.68	418.44
293.91	432.44
294.141	425.44
294.372	439.44
294.603	441.44
294.833	441.44
295.064	437.44
295.295	444.44
295.525	435.44
295.756	444.44
295.987	422.44
296.217	449.44
296.448	443.44
296.679	449.44
296.909	441.44
297.14	461.44
297.37	470.44
297.601	466.44
297.831	467.44
298.062	473.44
298.292	475.44
298.523	502.44
298.753	484.44
298.984	467.44
299.214	451.44
299.445	472.44
299.675	472.44
299.905	477.44
300.136	480.44
300.366	503.44
300.597	489.44
300.827	474.44
301.057	479.44
301.288	489.44
301.518	485.44
301.748	511.44
301.979	496.44
302.209	481.44
302.439	493.44
302.669	496.44
302.9	484.44
303.13	521.44
303.36	504.44
303.59	499.44
303.82	493.44
304.051	503.44
304.281	499.44
304.511	502.44
304.741	483.44
304.971	522.44
305.201	507.44
305.431	517.44
305.661	517.44
305.891	491.44
306.121	512.44
306.352	521.44
306.582	474.44
306.812	474.44
307.042	501.44
307.272	503.44
307.502	459.44
307.731	499.44
307.961	502.44
308.191	495.44
308.421	483.44
308.651	495.44
308.881	493.44
309.111	507.44
309.341	501.44
309.571	490.44
309.8	513.44
310.03	525.44
310.26	522.44
310.49	525.44
310.72	518.44
310.949	516.44
311.179	504.44
311.409	498.44
311.639	504.44
311.868	529.44
312.098	509.44
312.328	514.44
312.557	515.44
312.787	545.44
313.017	537.44
313.246	533.44
313.476	529.44
313.706	524.44
313.935	540.44
314.165	520.44
314.394	535.44
314.624	521.44
314.853	547.44
315.083	515.44
315.312	553.44
315.542	540.44
315.771	553.44
316.001	534.44
316.23	533.44
316.46	524.44
316.689	543.44
316.919	551.44
317.148	537.44
317.377	532.44
317.607	540.44
317.836	552.44
318.065	546.44
318.295	535.44
318.524	559.44
318.753	527.44
318.983	536.44
319.212	561.44
319.441	532.44
319.67	560.44
319.9	541.44
320.129	548.44
320.358	550.44
320.587	549.44
320.816	549.44
321.046	559.44
321.275	567.44
321.504	540.44
321.733	549.44
321.962	571.44
322.191	538.44
322.42	579.44
322.649	555.44
322.878	538.44
323.108	554.44
323.337	571.44
323.566	585.44
323.795	573.44
324.024	581.44
324.253	575.44
324.482	570.44
324.71	563.44
324.939	583.44
325.168	574.44
325.397	589.44
325.626	578.44
325.855	585.44
326.084	600.44
326.313	579.44
326.542	567.44
326.77	613.44
326.999	597.44
327.228	582.44
327.457	618.44
327.686	592.44
327.914	602.44
328.143	587.44
328.372	572.44
328.6	559.44
328.829	565.44
329.058	574.44
329.287	600.44
329.515	605.44
329.744	604.44
329.972	587.44
330.201	597.44
330.43	606.44
330.658	597.44
330.887	626.44
331.115	601.44
331.344	591.44
331.572	614.44
331.801	638.44
332.03	636.44
332.258	647.44
332.486	643.44
332.715	624.44
332.943	653.44
333.172	661.44
333.4	691.44
333.629	693.44
333.857	715.44
334.085	686.44
334.314	701.44
334.542	672.44
334.771	692.44
334.999	696.44
335.227	667.44
335.455	692.44
335.684	683.44
335.912	695.44
336.14	677.44
336.369	661.44
336.597	715.44
336.825	680.44
337.053	685.44
337.281	680.44
337.51	680.44
337.738	633.44
337.966	663.44
338.194	652.44
338.422	650.44
338.65	643.44
338.878	640.44
339.106	660.44
339.334	646.44
339.562	651.44
339.79	611.44
340.018	596.44
340.246	620.44
340.474	625.44
340.702	627.44
340.93	630.44
341.158	636.44
341.386	628.44
341.614	632.44
341.842	660.44
342.07	646.44
342.298	639.44
342.526	604.44
342.754	629.44
342.981	604.44
343.209	625.44
343.437	635.44
343.665	678.44
343.893	661.44
344.12	688.44
344.348	679.44
344.576	676.44
344.804	669.44
345.031	642.44
345.259	611.44
345.487	626.44
345.714	629.44
345.942	649.44
346.17	665.44
346.397	619.44
346.625	615.44
346.853	589.44
347.08	616.44
347.308	583.44
347.535	612.44
347.763	606.44
347.99	617.44
348.218	599.44
348.445	568.44
348.673	594.44
348.9	591.44
349.128	581.44
349.355	603.44
349.583	630.44
349.81	585.44
350.037	575.44
350.265	582.44
350.492	574.44
350.72	581.44
350.947	603.44
351.174	598.44
351.402	593.44
351.629	583.44
351.856	577.44
352.083	582.44
352.311	576.44
352.538	635.44
352.765	613.44
352.992	595.44
353.22	573.44
353.447	581.44
353.674	562.44
353.901	553.44
354.128	567.44
354.355	577.44
354.583	559.44
354.81	580.44
355.037	572.44
355.264	556.44
355.491	551.44
355.718	595.44
355.945	571.44
356.172	582.44
356.399	560.44
356.626	592.44
356.853	605.44
357.08	598.44
357.307	609.44
357.534	568.44
357.761	555.44
357.988	561.44
358.215	563.44
358.441	570.44
358.668	550.44
358.895	557.44
359.122	554.44
359.349	545.44
359.576	566.44
359.802	552.44
360.029	561.44
360.256	568.44
360.483	555.44
360.709	571.44
360.936	563.44
361.163	555.44
361.39	576.44
361.616	570.44
361.843	585.44
362.07	601.44
362.296	588.44
362.523	560.44
362.749	556.44
362.976	559.44
363.203	555.44
363.429	555.44
363.656	548.44
363.882	546.44
364.109	565.44
364.335	549.44
364.562	539.44
364.788	544.44
365.015	575.44
365.241	557.44
365.468	542.44
365.694	544.44
365.92	551.44
366.147	563.44
366.373	565.44
366.599	564.44
366.826	533.44
367.052	535.44
367.278	556.44
367.505	560.44
367.731	568.44
367.957	539.44
368.184	552.44
368.41	557.44
368.636	559.44
368.862	549.44
369.089	561.44
369.315	550.44
369.541	556.44
369.767	543.44
369.993	559.44
370.219	561.44
370.445	562.44
370.672	580.44
370.898	555.44
371.124	553.44
371.35	565.44
371.576	562.44
371.802	570.44
372.028	576.44
372.254	565.44
372.48	591.44
372.706	596.44
372.932	589.44
373.158	581.44
373.384	574.44
373.61	569.44
373.835	562.44
374.061	592.44
374.287	574.44
374.513	581.44
374.739	592.44
374.965	595.44
375.191	570.44
375.416	583.44
375.642	586.44
375.868	590.44
376.094	569.44
376.319	579.44
376.545	562.44
376.771	562.44
376.997	528.44
377.222	543.44
377.448	561.44
377.674	554.44
377.899	548.44
378.125	556.44
378.35	552.44
378.576	545.44
378.802	538.44
379.027	550.44
379.253	532.44
379.478	558.44
379.704	538.44
379.929	563.44
380.155	549.44
380.38	546.44
380.606	565.44
380.831	563.44
381.057	562.44
381.282	549.44
381.507	523.44
381.733	545.44
381.958	548.44
382.184	529.44
382.409	575.44
382.634	557.44
382.86	563.44
383.085	579.44
383.31	560.44
383.535	574.44
383.761	577.44
383.986	588.44
384.211	593.44
384.436	577.44
384.662	613.44
384.887	600.44
385.112	617.44
385.337	615.44
385.562	613.44
385.787	621.44
386.013	647.44
386.238	629.44
386.463	640.44
386.688	632.44
386.913	616.44
387.138	628.44
387.363	623.44
387.588	627.44
387.813	632.44
388.038	624.44
388.263	642.44
388.488	605.44
388.713	629.44
388.938	607.44
389.163	620.44
389.387	599.44
389.612	608.44
389.837	616.44
390.062	618.44
390.287	615.44
390.512	604.44
390.736	618.44
390.961	618.44
391.186	630.44
391.411	615.44
391.636	651.44
391.86	650.44
392.085	676.44
392.31	664.44
392.534	678.44
392.759	631.44
392.984	647.44
393.208	636.44
393.433	627.44
393.658	647.44
393.882	635.44
394.107	652.44
394.331	655.44
394.556	633.44
394.78	649.44
395.005	629.44
395.229	650.44
395.454	669.44
395.678	697.44
395.903	655.44
396.127	688.44
396.352	653.44
396.576	652.44
396.801	640.44
397.025	672.44
397.249	694.44
397.474	681.44
397.698	691.44
397.922	690.44
398.147	686.44
398.371	684.44
398.595	708.44
398.82	721.44
399.044	772.44
399.268	810.44
399.492	895.44
399.717	937.44
399.941	939.44
400.165	905.44
400.389	845.44
400.613	830.44
400.837	760.44
401.062	753.44
401.286	738.44
401.51	734.44
401.734	726.44
401.958	737.44
402.182	725.44
402.406	755.44
402.63	756.44
402.854	767.44
403.078	779.44
403.302	777.44
403.526	786.44
403.75	784.44
403.974	797.44
404.198	818.44
404.422	797.44
404.645	804.44
404.869	777.44
405.093	798.44
405.317	769.44
405.541	809.44
405.765	775.44
405.988	781.44
406.212	795.44
406.436	821.44
406.66	812.44
406.883	829.44
407.107	860.44
407.331	863.44
407.555	900.44
407.778	910.44
408.002	892.44
408.226	876.44
408.449	863.44
408.673	842.44
408.896	822.44
409.12	828.44
409.344	860.44
409.567	838.44
409.791	851.44
410.014	837.44
410.238	845.44
410.461	861.44
410.685	821.44
410.908	826.44
411.132	803.44
411.355	769.44
411.578	793.44
411.802	804.44
412.025	812.44
412.249	810.44
412.472	816.44
412.695	763.44
412.919	803.44
413.142	780.44
413.365	800.44
413.589	766.44
413.812	787.44
414.035	779.44
414.258	789.44
414.482	805.44
414.705	789.44
414.928	780.44
415.151	777.44
415.374	797.44
415.597	794.44
415.821	755.44
416.044	726.44
416.267	756.44
416.49	747.44
416.713	755.44
416.936	759.44
417.159	765.44
417.382	749.44
417.605	764.44
417.828	769.44
418.051	773.44
418.274	756.44
418.497	770.44
418.72	785.44
418.943	790.44
419.166	831.44
419.389	864.44
419.611	861.44
419.834	823.44
420.057	795.44
420.28	777.44
420.503	755.44
420.726	757.44
420.948	730.44
421.171	761.44
421.394	810.44
421.617	797.44
421.839	771.44
422.062	763.44
422.285	741.44
422.507	781.44
422.73	776.44
422.953	794.44
423.175	795.44
423.398	796.44
423.621	787.44
423.843	805.44
424.066	802.44
424.288	806.44
424.511	787.44
424.733	801.44
424.956	780.44
425.178	795.44
425.401	767.44
425.623	807.44
425.846	759.44
426.068	785.44
426.291	749.44
426.513	747.44
426.735	746.44
426.958	747.44
427.18	741.44
427.402	760.44
427.625	774.44
427.847	752.44
428.069	761.44
428.292	755.44
428.514	751.44
428.736	759.44
428.958	753.44
429.181	723.44
429.403	747.44
429.625	734.44
429.847	762.44
430.069	733.44
430.292	755.44
430.514	731.44
430.736	756.44
430.958	744.44
431.18	719.44
431.402	733.44
431.624	738.44
431.846	757.44
432.068	746.44
432.29	735.44
432.512	771.44
432.734	790.44
432.956	762.44
433.178	745.44
433.4	790.44
433.622	770.44
433.844	782.44
434.066	767.44
434.287	782.44
434.509	768.44
434.731	786.44
434.953	804.44
435.175	829.44
435.397	801.44
435.618	776.44
435.84	747.44
436.062	745.44
436.284	770.44
436.505	781.44
436.727	792.44
436.949	795.44
437.17	746.44
437.392	749.44
437.614	765.44
437.835	735.44
438.057	748.44
438.278	717.44
438.5	719.44
438.721	743.44
438.943	760.44
439.165	769.44
439.386	736.44
439.608	764.44
439.829	776.44
440.05	785.44
440.272	782.44
440.493	760.44
440.715	804.44
440.936	779.44
441.158	789.44
441.379	830.44
441.6	841.44
441.822	839.44
442.043	815.44
442.264	822.44
442.486	802.44
442.707	822.44
442.928	795.44
443.149	840.44
443.371	798.44
443.592	836.44
443.813	866.44
444.034	838.44
444.255	856.44
444.476	897.44
444.698	933.44
444.919	915.44
445.14	1036.44
445.361	930.44
445.582	858.44
445.803	823.44
446.024	824.44
446.245	825.44
446.466	817.44
446.687	784.44
446.908	802.44
447.129	769.44
447.35	752.44
447.571	778.44
447.792	778.44
448.013	741.44
448.234	715.44
448.455	738.44
448.675	740.44
448.896	724.44
449.117	736.44
449.338	744.44
449.559	724.44
449.779	727.44
450	730.44
450.221	736.44
450.442	754.44
450.662	736.44
450.883	733.44
451.104	765.44
451.324	727.44
451.545	709.44
451.766	731.44
451.986	713.44
452.207	733.44
452.428	714.44
452.648	717.44
452.869	695.44
453.089	717.44
453.31	744.44
453.53	707.44
453.751	712.44
453.971	710.44
454.192	714.44
454.412	701.44
454.633	714.44
454.853	700.44
455.073	697.44
455.294	704.44
455.514	722.44
455.734	729.44
455.955	716.44
456.175	704.44
456.395	708.44
456.616	691.44
456.836	726.44
457.056	726.44
457.276	707.44
457.497	693.44
457.717	707.44
457.937	727.44
458.157	727.44
458.377	722.44
458.598	723.44
458.818	758.44
459.038	753.44
459.258	776.44
459.478	797.44
459.698	815.44
459.918	833.44
460.138	844.44
460.358	883.44
460.578	869.44
460.798	883.44
461.018	865.44
461.238	879.44
461.458	856.44
461.678	862.44
461.898	883.44
462.118	899.44
462.338	913.44
462.558	930.44
462.777	968.44
462.997	1038.44
463.217	1048.44
463.437	1054.44
463.657	1013.44
463.876	979.44
464.096	979.44
464.316	959.44
464.536	973.44
464.755	933.44
464.975	939.44
465.195	892.44
465.414	860.44
465.634	843.44
465.854	797.44
466.073	820.44
466.293	819.44
466.512	782.44
466.732	771.44
466.951	805.44
467.171	764.44
467.391	781.44
467.61	779.44
467.829	757.44
468.049	791.44
468.268	760.44
468.488	767.44
468.707	787.44
468.927	750.44
469.146	767.44
469.365	781.44
469.585	773.44
469.804	775.44
470.023	805.44
470.243	823.44
470.462	799.44
470.681	808.44
470.901	793.44
471.12	799.44
471.339	779.44
471.558	800.44
471.777	792.44
471.997	760.44
472.216	759.44
472.435	762.44
472.654	783.44
472.873	756.44
473.092	777.44
473.311	765.44
473.53	784.44
473.749	784.44
473.968	765.44
474.187	768.44
474.406	782.44
474.625	756.44
474.844	781.44
475.063	790.44
475.282	771.44
475.501	814.44
475.72	800.44
475.939	777.44
476.158	771.44
476.377	787.44
476.596	836.44
476.814	833.44
477.033	818.44
477.252	823.44
477.471	856.44
477.69	847.44
477.908	869.44
478.127	874.44
478.346	852.44
478.564	867.44
478.783	874.44
479.002	907.44
479.22	931.44
479.439	931.44
479.658	903.44
479.876	897.44
480.095	894.44
480.313	973.44
480.532	923.44
480.751	942.44
480.969	920.44
481.188	887.44
481.406	896.44
481.624	890.44
481.843	881.44
482.061	875.44
482.28	890.44
482.498	901.44
482.717	906.44
482.935	876.44
483.153	909.44
483.372	910.44
483.59	937.44
483.808	943.44
484.027	910.44
484.245	889.44
484.463	902.44
484.681	948.44
484.9	923.44
485.118	939.44
485.336	905.44
485.554	875.44
485.772	902.44
485.99	908.44
486.209	918.44
486.427	923.44
486.645	917.44
486.863	931.44
487.081	948.44
487.299	947.44
487.517	937.44
487.735	962.44
487.953	945.44
488.171	947.44
488.389	959.44
488.607	929.44
488.825	921.44
489.043	921.44
489.261	907.44
489.479	947.44
489.696	901.44
489.914	931.44
490.132	936.44
490.35	913.44
490.568	953.44
490.786	945.44
491.003	963.44
491.221	981.44
491.439	971.44
491.657	955.44
491.874	1009.44
492.092	1001.44
492.31	980.44
492.527	964.44
492.745	998.44
492.963	971.44
493.18	981.44
493.398	1000.44
493.615	1003.44
493.833	1003.44
494.05	995.44
494.268	998.44
494.485	1003.44
494.703	1011.44
494.92	1007.44
495.138	977.44
495.355	1016.44
495.573	1019.44
495.79	1001.44
496.008	1007.44
496.225	1046.44
496.442	1047.44
496.66	1055.44
496.877	1078.44
497.094	1049.44
497.312	1088.44
497.529	1069.44
497.746	1105.44
497.963	1091.44
498.181	1147.44
498.398	1194.44
498.615	1202.44
498.832	1295.44
499.049	1320.44
499.267	1378.44
499.484	1447.44
499.701	1583.44
499.918	1647.44
500.135	1768.44
500.352	1898.44
500.569	1929.44
500.786	1928.44
501.003	1857.44
