Data from NiCl2@0.125M.TitratingCurve.Agarose3%dH2O.NegLispCup.LampEnergy10.LIBS07252019_HRD10591_18-28-01-574.txt Node
Date: Thu Jul 25 18:28:01 EDT 2019
User: cochatt
Spectrometer: HR+D1059
Trigger mode: 1
Integration Time (sec): 1.000000E-1
Scans to average: 1
Electric dark correction enabled: true
Nonlinearity correction enabled: false
Boxcar width: 0
XAxis mode: Wavelengths
Number of Pixels in Spectrum: 2048
>>>>>Begin Spectral Data<<<<<
223.165	-23.94
223.4	-23.94
223.635	-23.94
223.869	-21.94
224.104	-9.94
224.338	-19.94
224.573	-16.94
224.808	-8.94
225.042	-2.94
225.277	-9.94
225.511	-3.94
225.746	12.06
225.98	8.06
226.215	22.06
226.449	7.06
226.683	11.06
226.918	22.06
227.152	36.06
227.387	47.06
227.621	40.06
227.856	44.06
228.09	50.06
228.324	46.06
228.559	65.06
228.793	65.06
229.027	105.06
229.262	117.06
229.496	119.06
229.73	118.06
229.964	129.06
230.199	126.06
230.433	157.06
230.667	154.06
230.901	145.06
231.136	143.06
231.37	155.06
231.604	143.06
231.838	156.06
232.072	148.06
232.306	170.06
232.541	177.06
232.775	161.06
233.009	164.06
233.243	161.06
233.477	153.06
233.711	163.06
233.945	161.06
234.179	168.06
234.413	175.06
234.647	155.06
234.881	170.06
235.115	166.06
235.349	158.06
235.583	174.06
235.817	170.06
236.051	158.06
236.285	170.06
236.519	184.06
236.753	168.06
236.987	163.06
237.221	179.06
237.455	175.06
237.689	181.06
237.922	185.06
238.156	191.06
238.39	186.06
238.624	173.06
238.858	191.06
239.091	189.06
239.325	183.06
239.559	190.06
239.793	210.06
240.027	194.06
240.26	197.06
240.494	200.06
240.728	201.06
240.961	194.06
241.195	197.06
241.429	203.06
241.662	206.06
241.896	203.06
242.13	202.06
242.363	213.06
242.597	217.06
242.83	217.06
243.064	201.06
243.298	218.06
243.531	215.06
243.765	215.06
243.998	225.06
244.232	215.06
244.465	221.06
244.699	220.06
244.932	210.06
245.166	234.06
245.399	233.06
245.633	225.06
245.866	271.06
246.099	253.06
246.333	253.06
246.566	263.06
246.8	258.06
247.033	247.06
247.266	266.06
247.5	252.06
247.733	243.06
247.966	269.06
248.2	265.06
248.433	255.06
248.666	259.06
248.899	254.06
249.133	249.06
249.366	243.06
249.599	298.06
249.832	283.06
250.066	263.06
250.299	275.06
250.532	266.06
250.765	294.06
250.998	279.06
251.231	267.06
251.465	281.06
251.698	309.06
251.931	290.06
252.164	277.06
252.397	297.06
252.63	303.06
252.863	300.06
253.096	301.06
253.329	302.06
253.562	312.06
253.795	302.06
254.028	283.06
254.261	308.06
254.494	321.06
254.727	310.06
254.96	314.06
255.193	308.06
255.426	299.06
255.659	311.06
255.892	326.06
256.124	323.06
256.357	332.06
256.59	326.06
256.823	333.06
257.056	322.06
257.289	312.06
257.521	339.06
257.754	329.06
257.987	347.06
258.22	329.06
258.452	337.06
258.685	332.06
258.918	330.06
259.151	346.06
259.383	355.06
259.616	346.06
259.849	357.06
260.081	357.06
260.314	350.06
260.547	354.06
260.779	338.06
261.012	349.06
261.244	343.06
261.477	354.06
261.71	366.06
261.942	361.06
262.175	367.06
262.407	380.06
262.64	371.06
262.872	371.06
263.105	372.06
263.337	377.06
263.57	378.06
263.802	381.06
264.035	377.06
264.267	382.06
264.499	389.06
264.732	374.06
264.964	381.06
265.197	365.06
265.429	387.06
265.661	393.06
265.894	397.06
266.126	400.06
266.358	396.06
266.591	385.06
266.823	394.06
267.055	377.06
267.287	407.06
267.52	408.06
267.752	399.06
267.984	414.06
268.216	421.06
268.448	402.06
268.681	415.06
268.913	403.06
269.145	416.06
269.377	420.06
269.609	419.06
269.841	397.06
270.073	405.06
270.306	421.06
270.538	421.06
270.77	415.06
271.002	426.06
271.234	430.06
271.466	408.06
271.698	454.06
271.93	443.06
272.162	430.06
272.394	428.06
272.626	442.06
272.858	447.06
273.09	450.06
273.322	438.06
273.553	445.06
273.785	453.06
274.017	425.06
274.249	449.06
274.481	447.06
274.713	445.06
274.945	477.06
275.176	468.06
275.408	444.06
275.64	460.06
275.872	484.06
276.104	489.06
276.335	474.06
276.567	457.06
276.799	467.06
277.031	485.06
277.262	482.06
277.494	484.06
277.726	484.06
277.957	488.06
278.189	497.06
278.421	478.06
278.652	485.06
278.884	493.06
279.115	510.06
279.347	495.06
279.579	520.06
279.81	502.06
280.042	493.06
280.273	527.06
280.505	508.06
280.736	503.06
280.968	519.06
281.199	530.06
281.431	515.06
281.662	522.06
281.894	513.06
282.125	502.06
282.356	530.06
282.588	513.06
282.819	533.06
283.051	539.06
283.282	563.06
283.513	528.06
283.745	540.06
283.976	536.06
284.207	558.06
284.439	543.06
284.67	553.06
284.901	531.06
285.132	540.06
285.364	563.06
285.595	539.06
285.826	550.06
286.057	568.06
286.288	559.06
286.52	552.06
286.751	571.06
286.982	569.06
287.213	558.06
287.444	589.06
287.675	557.06
287.906	582.06
288.138	574.06
288.369	580.06
288.6	585.06
288.831	580.06
289.062	571.06
289.293	569.06
289.524	609.06
289.755	592.06
289.986	563.06
290.217	595.06
290.448	553.06
290.679	582.06
290.91	573.06
291.141	603.06
291.371	586.06
291.602	590.06
291.833	599.06
292.064	615.06
292.295	589.06
292.526	615.06
292.757	587.06
292.987	590.06
293.218	599.06
293.449	583.06
293.68	574.06
293.91	598.06
294.141	590.06
294.372	591.06
294.603	602.06
294.833	608.06
295.064	601.06
295.295	615.06
295.525	611.06
295.756	629.06
295.987	603.06
296.217	603.06
296.448	603.06
296.679	620.06
296.909	619.06
297.14	636.06
297.37	629.06
297.601	635.06
297.831	634.06
298.062	642.06
298.292	641.06
298.523	689.06
298.753	644.06
298.984	637.06
299.214	650.06
299.445	653.06
299.675	660.06
299.905	657.06
300.136	639.06
300.366	632.06
300.597	646.06
300.827	665.06
301.057	677.06
301.288	700.06
301.518	679.06
301.748	683.06
301.979	674.06
302.209	690.06
302.439	698.06
302.669	652.06
302.9	646.06
303.13	668.06
303.36	657.06
303.59	640.06
303.82	647.06
304.051	678.06
304.281	689.06
304.511	676.06
304.741	683.06
304.971	659.06
305.201	663.06
305.431	669.06
305.661	633.06
305.891	674.06
306.121	685.06
306.352	666.06
306.582	671.06
306.812	655.06
307.042	666.06
307.272	666.06
307.502	649.06
307.731	655.06
307.961	669.06
308.191	661.06
308.421	656.06
308.651	657.06
308.881	634.06
309.111	668.06
309.341	643.06
309.571	659.06
309.8	647.06
310.03	655.06
310.26	656.06
310.49	658.06
310.72	666.06
310.949	667.06
311.179	671.06
311.409	654.06
311.639	663.06
311.868	667.06
312.098	679.06
312.328	700.06
312.557	704.06
312.787	679.06
313.017	700.06
313.246	699.06
313.476	689.06
313.706	702.06
313.935	700.06
314.165	728.06
314.394	725.06
314.624	717.06
314.853	721.06
315.083	714.06
315.312	699.06
315.542	705.06
315.771	730.06
316.001	733.06
316.23	716.06
316.46	695.06
316.689	693.06
316.919	690.06
317.148	722.06
317.377	701.06
317.607	717.06
317.836	683.06
318.065	683.06
318.295	679.06
318.524	708.06
318.753	705.06
318.983	714.06
319.212	717.06
319.441	692.06
319.67	706.06
319.9	717.06
320.129	696.06
320.358	700.06
320.587	698.06
320.816	709.06
321.046	687.06
321.275	697.06
321.504	702.06
321.733	683.06
321.962	729.06
322.191	693.06
322.42	704.06
322.649	715.06
322.878	706.06
323.108	714.06
323.337	742.06
323.566	712.06
323.795	711.06
324.024	726.06
324.253	705.06
324.482	709.06
324.71	714.06
324.939	742.06
325.168	712.06
325.397	735.06
325.626	740.06
325.855	774.06
326.084	757.06
326.313	782.06
326.542	772.06
326.77	788.06
326.999	759.06
327.228	781.06
327.457	765.06
327.686	758.06
327.914	782.06
328.143	764.06
328.372	763.06
328.6	798.06
328.829	769.06
329.058	764.06
329.287	776.06
329.515	773.06
329.744	763.06
329.972	780.06
330.201	786.06
330.43	791.06
330.658	794.06
330.887	817.06
331.115	791.06
331.344	812.06
331.572	822.06
331.801	838.06
332.03	833.06
332.258	878.06
332.486	908.06
332.715	916.06
332.943	952.06
333.172	1019.06
333.4	1065.06
333.629	1057.06
333.857	1062.06
334.085	1074.06
334.314	1021.06
334.542	1007.06
334.771	998.06
334.999	978.06
335.227	1013.06
335.455	979.06
335.684	947.06
335.912	946.06
336.14	902.06
336.369	932.06
336.597	926.06
336.825	925.06
337.053	921.06
337.281	904.06
337.51	890.06
337.738	877.06
337.966	874.06
338.194	865.06
338.422	849.06
338.65	863.06
338.878	855.06
339.106	837.06
339.334	838.06
339.562	830.06
339.79	813.06
340.018	806.06
340.246	817.06
340.474	810.06
340.702	805.06
340.93	807.06
341.158	824.06
341.386	781.06
341.614	817.06
341.842	790.06
342.07	795.06
342.298	797.06
342.526	802.06
342.754	819.06
342.981	806.06
343.209	825.06
343.437	870.06
343.665	936.06
343.893	995.06
344.12	1042.06
344.348	954.06
344.576	912.06
344.804	870.06
345.031	810.06
345.259	822.06
345.487	805.06
345.714	801.06
345.942	786.06
346.17	755.06
346.397	777.06
346.625	762.06
346.853	759.06
347.08	805.06
347.308	775.06
347.535	796.06
347.763	796.06
347.99	753.06
348.218	797.06
348.445	780.06
348.673	761.06
348.9	774.06
349.128	794.06
349.355	769.06
349.583	773.06
349.81	778.06
350.037	762.06
350.265	761.06
350.492	753.06
350.72	779.06
350.947	757.06
351.174	765.06
351.402	731.06
351.629	754.06
351.856	722.06
352.083	745.06
352.311	749.06
352.538	754.06
352.765	762.06
352.992	725.06
353.22	729.06
353.447	743.06
353.674	769.06
353.901	731.06
354.128	722.06
354.355	751.06
354.583	732.06
354.81	738.06
355.037	786.06
355.264	734.06
355.491	756.06
355.718	744.06
355.945	753.06
356.172	747.06
356.399	750.06
356.626	753.06
356.853	749.06
357.08	747.06
357.307	745.06
357.534	748.06
357.761	745.06
357.988	737.06
358.215	738.06
358.441	762.06
358.668	737.06
358.895	752.06
359.122	727.06
359.349	768.06
359.576	771.06
359.802	735.06
360.029	738.06
360.256	741.06
360.483	756.06
360.709	740.06
360.936	762.06
361.163	728.06
361.39	762.06
361.616	767.06
361.843	743.06
362.07	730.06
362.296	731.06
362.523	747.06
362.749	760.06
362.976	773.06
363.203	740.06
363.429	734.06
363.656	734.06
363.882	761.06
364.109	748.06
364.335	734.06
364.562	746.06
364.788	745.06
365.015	739.06
365.241	737.06
365.468	733.06
365.694	753.06
365.92	748.06
366.147	733.06
366.373	741.06
366.599	721.06
366.826	736.06
367.052	716.06
367.278	753.06
367.505	761.06
367.731	757.06
367.957	757.06
368.184	740.06
368.41	774.06
368.636	757.06
368.862	763.06
369.089	762.06
369.315	767.06
369.541	756.06
369.767	788.06
369.993	799.06
370.219	777.06
370.445	790.06
370.672	811.06
370.898	778.06
371.124	799.06
371.35	836.06
371.576	830.06
371.802	812.06
372.028	815.06
372.254	815.06
372.48	828.06
372.706	823.06
372.932	854.06
373.158	842.06
373.384	831.06
373.61	829.06
373.835	822.06
374.061	795.06
374.287	831.06
374.513	838.06
374.739	879.06
374.965	898.06
375.191	919.06
375.416	899.06
375.642	870.06
375.868	858.06
376.094	842.06
376.319	811.06
376.545	829.06
376.771	827.06
376.997	853.06
377.222	843.06
377.448	830.06
377.674	849.06
377.899	821.06
378.125	810.06
378.35	798.06
378.576	809.06
378.802	819.06
379.027	807.06
379.253	798.06
379.478	799.06
379.704	819.06
379.929	805.06
380.155	809.06
380.38	823.06
380.606	818.06
380.831	789.06
381.057	813.06
381.282	781.06
381.507	817.06
381.733	847.06
381.958	854.06
382.184	829.06
382.409	840.06
382.634	874.06
382.86	853.06
383.085	870.06
383.31	894.06
383.535	895.06
383.761	936.06
383.986	923.06
384.211	949.06
384.436	988.06
384.662	1004.06
384.887	982.06
385.112	993.06
385.337	998.06
385.562	973.06
385.787	1020.06
386.013	1028.06
386.238	985.06
386.463	979.06
386.688	996.06
386.913	986.06
387.138	964.06
387.363	990.06
387.588	969.06
387.813	982.06
388.038	955.06
388.263	957.06
388.488	991.06
388.713	976.06
388.938	951.06
389.163	963.06
389.387	967.06
389.612	956.06
389.837	957.06
390.062	952.06
390.287	965.06
390.512	946.06
390.736	970.06
390.961	1004.06
391.186	1012.06
391.411	1041.06
391.636	1091.06
391.86	1097.06
392.085	1159.06
392.31	1150.06
392.534	1101.06
392.759	1070.06
392.984	1065.06
393.208	1045.06
393.433	1066.06
393.658	1047.06
393.882	1062.06
394.107	1073.06
394.331	1063.06
394.556	1060.06
394.78	1058.06
395.005	1095.06
395.229	1080.06
395.454	1085.06
395.678	1105.06
395.903	1131.06
396.127	1101.06
396.352	1054.06
396.576	1065.06
396.801	1028.06
397.025	1068.06
397.249	1067.06
397.474	1114.06
397.698	1110.06
397.922	1094.06
398.147	1112.06
398.371	1118.06
398.595	1153.06
398.82	1221.06
399.044	1336.06
399.268	1441.06
399.492	1736.06
399.717	1980.06
399.941	1917.06
400.165	1693.06
400.389	1487.06
400.613	1369.06
400.837	1291.06
401.062	1277.06
401.286	1257.06
401.51	1241.06
401.734	1251.06
401.958	1256.06
402.182	1288.06
402.406	1293.06
402.63	1322.06
402.854	1313.06
403.078	1367.06
403.302	1397.06
403.526	1445.06
403.75	1435.06
403.974	1503.06
404.198	1487.06
404.422	1478.06
404.645	1480.06
404.869	1412.06
405.093	1421.06
405.317	1383.06
405.541	1395.06
405.765	1362.06
405.988	1357.06
406.212	1379.06
406.436	1368.06
406.66	1369.06
406.883	1411.06
407.107	1533.06
407.331	1583.06
407.555	1641.06
407.778	1637.06
408.002	1572.06
408.226	1501.06
408.449	1507.06
408.673	1475.06
408.896	1421.06
409.12	1414.06
409.344	1450.06
409.567	1413.06
409.791	1438.06
410.014	1395.06
410.238	1426.06
410.461	1376.06
410.685	1396.06
410.908	1353.06
411.132	1331.06
411.355	1324.06
411.578	1301.06
411.802	1283.06
412.025	1322.06
412.249	1337.06
412.472	1304.06
412.695	1283.06
412.919	1270.06
413.142	1280.06
413.365	1253.06
413.589	1250.06
413.812	1255.06
414.035	1224.06
414.258	1224.06
414.482	1259.06
414.705	1269.06
414.928	1281.06
415.151	1269.06
415.374	1260.06
415.597	1267.06
415.821	1205.06
416.044	1232.06
416.267	1204.06
416.49	1195.06
416.713	1206.06
416.936	1220.06
417.159	1217.06
417.382	1233.06
417.605	1209.06
417.828	1240.06
418.051	1246.06
418.274	1263.06
418.497	1208.06
418.72	1265.06
418.943	1246.06
419.166	1339.06
419.389	1422.06
419.611	1415.06
419.834	1321.06
420.057	1268.06
420.28	1240.06
420.503	1234.06
420.726	1239.06
420.948	1231.06
421.171	1233.06
421.394	1226.06
421.617	1204.06
421.839	1206.06
422.062	1242.06
422.285	1219.06
422.507	1255.06
422.73	1238.06
422.953	1271.06
423.175	1283.06
423.398	1327.06
423.621	1278.06
423.843	1295.06
424.066	1334.06
424.288	1345.06
424.511	1329.06
424.733	1294.06
424.956	1269.06
425.178	1279.06
425.401	1240.06
425.623	1239.06
425.846	1157.06
426.068	1161.06
426.291	1174.06
426.513	1160.06
426.735	1157.06
426.958	1166.06
427.18	1093.06
427.402	1104.06
427.625	1106.06
427.847	1101.06
428.069	1089.06
428.292	1117.06
428.514	1085.06
428.736	1084.06
428.958	1085.06
429.181	1085.06
429.403	1059.06
429.625	1058.06
429.847	1053.06
430.069	1073.06
430.292	1068.06
430.514	1041.06
430.736	1062.06
430.958	1091.06
431.18	1111.06
431.402	1075.06
431.624	1076.06
431.846	1095.06
432.068	1094.06
432.29	1121.06
432.512	1101.06
432.734	1084.06
432.956	1110.06
433.178	1099.06
433.4	1081.06
433.622	1085.06
433.844	1085.06
434.066	1111.06
434.287	1113.06
434.509	1148.06
434.731	1181.06
434.953	1239.06
435.175	1236.06
435.397	1179.06
435.618	1177.06
435.84	1143.06
436.062	1105.06
436.284	1084.06
436.505	1060.06
436.727	1059.06
436.949	1107.06
437.17	1065.06
437.392	1040.06
437.614	1049.06
437.835	1035.06
438.057	1037.06
438.278	1030.06
438.5	1042.06
438.721	1038.06
438.943	1060.06
439.165	1046.06
439.386	1037.06
439.608	1081.06
439.829	1137.06
440.05	1079.06
440.272	1119.06
440.493	1087.06
440.715	1097.06
440.936	1120.06
441.158	1159.06
441.379	1199.06
441.6	1271.06
441.822	1272.06
442.043	1211.06
442.264	1213.06
442.486	1182.06
442.707	1220.06
442.928	1230.06
443.149	1246.06
443.371	1200.06
443.592	1192.06
443.813	1216.06
444.034	1220.06
444.255	1290.06
444.476	1349.06
444.698	1427.06
444.919	1477.06
445.14	1555.06
445.361	1365.06
445.582	1232.06
445.803	1213.06
446.024	1179.06
446.245	1137.06
446.466	1134.06
446.687	1090.06
446.908	1121.06
447.129	1069.06
447.35	1042.06
447.571	1078.06
447.792	1021.06
448.013	1037.06
448.234	1019.06
448.455	1000.06
448.675	1007.06
448.896	992.06
449.117	994.06
449.338	979.06
449.559	996.06
449.779	953.06
450	958.06
450.221	972.06
450.442	1001.06
450.662	1009.06
450.883	1029.06
451.104	1058.06
451.324	1027.06
451.545	998.06
451.766	1013.06
451.986	986.06
452.207	1008.06
452.428	978.06
452.648	987.06
452.869	966.06
453.089	975.06
453.31	955.06
453.53	966.06
453.751	934.06
453.971	941.06
454.192	945.06
454.412	921.06
454.633	929.06
454.853	934.06
455.073	930.06
455.294	959.06
455.514	916.06
455.734	906.06
455.955	899.06
456.175	934.06
456.395	895.06
456.616	880.06
456.836	901.06
457.056	905.06
457.276	908.06
457.497	922.06
457.717	920.06
457.937	920.06
458.157	949.06
458.377	964.06
458.598	975.06
458.818	998.06
459.038	1018.06
459.258	1067.06
459.478	1106.06
459.698	1111.06
459.918	1137.06
460.138	1195.06
460.358	1267.06
460.578	1299.06
460.798	1316.06
461.018	1297.06
461.238	1266.06
461.458	1299.06
461.678	1286.06
461.898	1289.06
462.118	1309.06
462.338	1378.06
462.558	1398.06
462.777	1462.06
462.997	1626.06
463.217	1747.06
463.437	1808.06
463.657	1626.06
463.876	1520.06
464.096	1510.06
464.316	1505.06
464.536	1564.06
464.755	1473.06
464.975	1398.06
465.195	1358.06
465.414	1275.06
465.634	1151.06
465.854	1147.06
466.073	1129.06
466.293	1095.06
466.512	1056.06
466.732	1060.06
466.951	1028.06
467.171	1021.06
467.391	1059.06
467.61	1033.06
467.829	1010.06
468.049	1025.06
468.268	990.06
468.488	961.06
468.707	978.06
468.927	969.06
469.146	983.06
469.365	1001.06
469.585	1035.06
469.804	1039.06
470.023	1043.06
470.243	1047.06
470.462	1076.06
470.681	1102.06
470.901	1070.06
471.12	1036.06
471.339	1021.06
471.558	1024.06
471.777	1024.06
471.997	994.06
472.216	979.06
472.435	969.06
472.654	939.06
472.873	941.06
473.092	945.06
473.311	929.06
473.53	942.06
473.749	944.06
473.968	953.06
474.187	926.06
474.406	934.06
474.625	937.06
474.844	958.06
475.063	935.06
475.282	921.06
475.501	953.06
475.72	988.06
475.939	958.06
476.158	974.06
476.377	1011.06
476.596	989.06
476.814	1003.06
477.033	1004.06
477.252	1034.06
477.471	1037.06
477.69	1081.06
477.908	1134.06
478.127	1127.06
478.346	1191.06
478.564	1177.06
478.783	1195.06
479.002	1235.06
479.22	1225.06
479.439	1198.06
479.658	1198.06
479.876	1213.06
480.095	1221.06
480.313	1270.06
480.532	1323.06
480.751	1337.06
480.969	1274.06
481.188	1197.06
481.406	1177.06
481.624	1123.06
481.843	1070.06
482.061	1093.06
482.28	1071.06
482.498	1102.06
482.717	1082.06
482.935	1063.06
483.153	1087.06
483.372	1072.06
483.59	1107.06
483.808	1101.06
484.027	1067.06
484.245	1102.06
484.463	1103.06
484.681	1140.06
484.9	1118.06
485.118	1134.06
485.336	1125.06
485.554	1147.06
485.772	1153.06
485.99	1141.06
486.209	1118.06
486.427	1153.06
486.645	1152.06
486.863	1148.06
487.081	1144.06
487.299	1143.06
487.517	1092.06
487.735	1137.06
487.953	1123.06
488.171	1137.06
488.389	1161.06
488.607	1114.06
488.825	1149.06
489.043	1144.06
489.261	1125.06
489.479	1137.06
489.696	1129.06
489.914	1138.06
490.132	1130.06
490.35	1133.06
490.568	1152.06
490.786	1115.06
491.003	1121.06
491.221	1177.06
491.439	1154.06
491.657	1132.06
491.874	1122.06
492.092	1129.06
492.31	1173.06
492.527	1179.06
492.745	1173.06
492.963	1170.06
493.18	1171.06
493.398	1165.06
493.615	1161.06
493.833	1195.06
494.05	1199.06
494.268	1204.06
494.485	1205.06
494.703	1205.06
494.92	1194.06
495.138	1196.06
495.355	1206.06
495.573	1223.06
495.79	1213.06
