Data from NiCl2@0.0625M.TitratingCurve.Agarose3%dH2O.NegLispCup.LampEnergy10.LIBS07252019_HRD10591_18-34-02-576.txt Node
Date: Thu Jul 25 18:34:02 EDT 2019
User: cochatt
Spectrometer: HR+D1059
Trigger mode: 1
Integration Time (sec): 1.000000E-1
Scans to average: 1
Electric dark correction enabled: true
Nonlinearity correction enabled: false
Boxcar width: 0
XAxis mode: Wavelengths
Number of Pixels in Spectrum: 2048
>>>>>Begin Spectral Data<<<<<
223.165	-13.5
223.4	-13.5
223.635	-13.5
223.869	-7.5
224.104	-31.5
224.338	-20.5
224.573	-0.5
224.808	-1.5
225.042	-2.5
225.277	-4.5
225.511	-1.5
225.746	9.5
225.98	7.5
226.215	-0.5
226.449	12.5
226.683	7.5
226.918	17.5
227.152	29.5
227.387	22.5
227.621	50.5
227.856	37.5
228.09	37.5
228.324	33.5
228.559	50.5
228.793	64.5
229.027	144.5
229.262	150.5
229.496	158.5
229.73	165.5
229.964	167.5
230.199	156.5
230.433	183.5
230.667	176.5
230.901	192.5
231.136	162.5
231.37	194.5
231.604	191.5
231.838	205.5
232.072	184.5
232.306	187.5
232.541	191.5
232.775	209.5
233.009	215.5
233.243	216.5
233.477	203.5
233.711	198.5
233.945	205.5
234.179	212.5
234.413	209.5
234.647	209.5
234.881	207.5
235.115	211.5
235.349	217.5
235.583	216.5
235.817	214.5
236.051	231.5
236.285	220.5
236.519	220.5
236.753	218.5
236.987	237.5
237.221	221.5
237.455	233.5
237.689	223.5
237.922	246.5
238.156	238.5
238.39	249.5
238.624	246.5
238.858	243.5
239.091	260.5
239.325	264.5
239.559	270.5
239.793	278.5
240.027	256.5
240.26	254.5
240.494	280.5
240.728	300.5
240.961	294.5
241.195	273.5
241.429	285.5
241.662	291.5
241.896	279.5
242.13	297.5
242.363	307.5
242.597	308.5
242.83	308.5
243.064	304.5
243.298	314.5
243.531	312.5
243.765	313.5
243.998	332.5
244.232	324.5
244.465	331.5
244.699	317.5
244.932	339.5
245.166	343.5
245.399	356.5
245.633	345.5
245.866	360.5
246.099	335.5
246.333	353.5
246.566	340.5
246.8	368.5
247.033	335.5
247.266	354.5
247.5	363.5
247.733	362.5
247.966	398.5
248.2	376.5
248.433	364.5
248.666	396.5
248.899	392.5
249.133	379.5
249.366	396.5
249.599	397.5
249.832	384.5
250.066	394.5
250.299	394.5
250.532	399.5
250.765	398.5
250.998	393.5
251.231	407.5
251.465	423.5
251.698	424.5
251.931	422.5
252.164	403.5
252.397	452.5
252.63	437.5
252.863	428.5
253.096	433.5
253.329	451.5
253.562	433.5
253.795	429.5
254.028	457.5
254.261	446.5
254.494	454.5
254.727	454.5
254.96	435.5
255.193	461.5
255.426	480.5
255.659	460.5
255.892	459.5
256.124	482.5
256.357	485.5
256.59	483.5
256.823	482.5
257.056	474.5
257.289	513.5
257.521	481.5
257.754	507.5
257.987	496.5
258.22	505.5
258.452	489.5
258.685	500.5
258.918	484.5
259.151	513.5
259.383	489.5
259.616	521.5
259.849	520.5
260.081	522.5
260.314	545.5
260.547	536.5
260.779	544.5
261.012	533.5
261.244	527.5
261.477	549.5
261.71	535.5
261.942	525.5
262.175	541.5
262.407	574.5
262.64	542.5
262.872	529.5
263.105	551.5
263.337	563.5
263.57	591.5
263.802	567.5
264.035	585.5
264.267	569.5
264.499	584.5
264.732	573.5
264.964	563.5
265.197	585.5
265.429	592.5
265.661	572.5
265.894	608.5
266.126	607.5
266.358	592.5
266.591	584.5
266.823	611.5
267.055	608.5
267.287	611.5
267.52	598.5
267.752	600.5
267.984	603.5
268.216	600.5
268.448	632.5
268.681	629.5
268.913	628.5
269.145	619.5
269.377	627.5
269.609	640.5
269.841	623.5
270.073	641.5
270.306	651.5
270.538	652.5
270.77	617.5
271.002	662.5
271.234	653.5
271.466	639.5
271.698	665.5
271.93	684.5
272.162	667.5
272.394	652.5
272.626	668.5
272.858	661.5
273.09	711.5
273.322	678.5
273.553	698.5
273.785	728.5
274.017	687.5
274.249	707.5
274.481	687.5
274.713	710.5
274.945	707.5
275.176	689.5
275.408	713.5
275.64	705.5
275.872	718.5
276.104	716.5
276.335	723.5
276.567	738.5
276.799	708.5
277.031	729.5
277.262	717.5
277.494	725.5
277.726	717.5
277.957	723.5
278.189	747.5
278.421	750.5
278.652	752.5
278.884	741.5
279.115	777.5
279.347	777.5
279.579	769.5
279.81	755.5
280.042	736.5
280.273	772.5
280.505	829.5
280.736	793.5
280.968	778.5
281.199	795.5
281.431	792.5
281.662	791.5
281.894	791.5
282.125	816.5
282.356	800.5
282.588	807.5
282.819	810.5
283.051	800.5
283.282	797.5
283.513	840.5
283.745	845.5
283.976	827.5
284.207	812.5
284.439	840.5
284.67	825.5
284.901	846.5
285.132	856.5
285.364	836.5
285.595	835.5
285.826	826.5
286.057	829.5
286.288	848.5
286.52	869.5
286.751	840.5
286.982	868.5
287.213	890.5
287.444	879.5
287.675	887.5
287.906	876.5
288.138	878.5
288.369	875.5
288.6	888.5
288.831	900.5
289.062	894.5
289.293	871.5
289.524	902.5
289.755	901.5
289.986	904.5
290.217	901.5
290.448	904.5
290.679	897.5
290.91	913.5
291.141	900.5
291.371	886.5
291.602	894.5
291.833	915.5
292.064	927.5
292.295	888.5
292.526	901.5
292.757	909.5
292.987	911.5
293.218	883.5
293.449	914.5
293.68	891.5
293.91	897.5
294.141	921.5
294.372	922.5
294.603	941.5
294.833	915.5
295.064	911.5
295.295	940.5
295.525	923.5
295.756	917.5
295.987	940.5
296.217	929.5
296.448	950.5
296.679	931.5
296.909	929.5
297.14	959.5
297.37	944.5
297.601	957.5
297.831	971.5
298.062	982.5
298.292	970.5
298.523	985.5
298.753	997.5
298.984	1007.5
299.214	989.5
299.445	1008.5
299.675	971.5
299.905	987.5
300.136	955.5
300.366	968.5
300.597	1026.5
300.827	1007.5
301.057	1003.5
301.288	1031.5
301.518	1042.5
301.748	1037.5
301.979	1072.5
302.209	1055.5
302.439	1000.5
302.669	1035.5
302.9	1054.5
303.13	1022.5
303.36	1051.5
303.59	1029.5
303.82	1032.5
304.051	1064.5
304.281	1039.5
304.511	1023.5
304.741	1053.5
304.971	1070.5
305.201	1060.5
305.431	1043.5
305.661	1022.5
305.891	1064.5
306.121	999.5
306.352	1023.5
306.582	1055.5
306.812	1021.5
307.042	1036.5
307.272	1033.5
307.502	1025.5
307.731	1022.5
307.961	1026.5
308.191	992.5
308.421	1028.5
308.651	1025.5
308.881	1050.5
309.111	1031.5
309.341	997.5
309.571	1051.5
309.8	1041.5
310.03	1006.5
310.26	1049.5
310.49	1026.5
310.72	1038.5
310.949	1026.5
311.179	1035.5
311.409	1043.5
311.639	1058.5
311.868	1051.5
312.098	1082.5
312.328	1071.5
312.557	1098.5
312.787	1059.5
313.017	1099.5
313.246	1097.5
313.476	1097.5
313.706	1094.5
313.935	1088.5
314.165	1088.5
314.394	1099.5
314.624	1107.5
314.853	1096.5
315.083	1104.5
315.312	1108.5
315.542	1092.5
315.771	1096.5
316.001	1086.5
316.23	1106.5
316.46	1080.5
316.689	1095.5
316.919	1124.5
317.148	1099.5
317.377	1094.5
317.607	1088.5
317.836	1083.5
318.065	1068.5
318.295	1075.5
318.524	1111.5
318.753	1081.5
318.983	1089.5
319.212	1074.5
319.441	1084.5
319.67	1106.5
319.9	1133.5
320.129	1099.5
320.358	1108.5
320.587	1122.5
320.816	1081.5
321.046	1099.5
321.275	1124.5
321.504	1117.5
321.733	1107.5
321.962	1099.5
322.191	1127.5
322.42	1119.5
322.649	1105.5
322.878	1123.5
323.108	1095.5
323.337	1137.5
323.566	1110.5
323.795	1145.5
324.024	1126.5
324.253	1096.5
324.482	1107.5
324.71	1138.5
324.939	1138.5
325.168	1148.5
325.397	1167.5
325.626	1152.5
325.855	1188.5
326.084	1215.5
326.313	1213.5
326.542	1193.5
326.77	1190.5
326.999	1193.5
327.228	1176.5
327.457	1177.5
327.686	1186.5
327.914	1169.5
328.143	1207.5
328.372	1205.5
328.6	1207.5
328.829	1195.5
329.058	1208.5
329.287	1210.5
329.515	1204.5
329.744	1175.5
329.972	1216.5
330.201	1217.5
330.43	1249.5
330.658	1252.5
330.887	1219.5
331.115	1245.5
331.344	1281.5
331.572	1252.5
331.801	1304.5
332.03	1325.5
332.258	1314.5
332.486	1339.5
332.715	1372.5
332.943	1432.5
333.172	1491.5
333.4	1538.5
333.629	1558.5
333.857	1570.5
334.085	1547.5
334.314	1553.5
334.542	1497.5
334.771	1490.5
334.999	1508.5
335.227	1506.5
335.455	1481.5
335.684	1449.5
335.912	1494.5
336.14	1485.5
336.369	1495.5
336.597	1444.5
336.825	1453.5
337.053	1450.5
337.281	1413.5
337.51	1382.5
337.738	1387.5
337.966	1392.5
338.194	1339.5
338.422	1326.5
338.65	1297.5
338.878	1355.5
339.106	1339.5
339.334	1308.5
339.562	1301.5
339.79	1308.5
340.018	1303.5
340.246	1257.5
340.474	1244.5
340.702	1263.5
340.93	1278.5
341.158	1261.5
341.386	1243.5
341.614	1279.5
341.842	1263.5
342.07	1273.5
342.298	1256.5
342.526	1239.5
342.754	1249.5
342.981	1265.5
343.209	1296.5
343.437	1342.5
343.665	1396.5
343.893	1451.5
344.12	1502.5
344.348	1446.5
344.576	1413.5
344.804	1394.5
345.031	1299.5
345.259	1319.5
345.487	1277.5
345.714	1256.5
345.942	1254.5
346.17	1270.5
346.397	1253.5
346.625	1223.5
346.853	1201.5
347.08	1204.5
347.308	1199.5
347.535	1187.5
347.763	1221.5
347.99	1191.5
348.218	1199.5
348.445	1209.5
348.673	1188.5
348.9	1195.5
349.128	1201.5
349.355	1200.5
349.583	1207.5
349.81	1160.5
350.037	1182.5
350.265	1143.5
350.492	1137.5
350.72	1174.5
350.947	1175.5
351.174	1171.5
351.402	1163.5
351.629	1174.5
351.856	1171.5
352.083	1153.5
352.311	1154.5
352.538	1165.5
352.765	1181.5
352.992	1171.5
353.22	1175.5
353.447	1153.5
353.674	1151.5
353.901	1136.5
354.128	1173.5
354.355	1179.5
354.583	1151.5
354.81	1156.5
355.037	1165.5
355.264	1165.5
355.491	1160.5
355.718	1177.5
355.945	1147.5
356.172	1180.5
356.399	1150.5
356.626	1166.5
356.853	1185.5
357.08	1167.5
357.307	1164.5
357.534	1171.5
357.761	1168.5
357.988	1190.5
358.215	1159.5
358.441	1141.5
358.668	1145.5
358.895	1200.5
359.122	1151.5
359.349	1151.5
359.576	1156.5
359.802	1153.5
360.029	1153.5
360.256	1174.5
360.483	1167.5
360.709	1185.5
360.936	1191.5
361.163	1181.5
361.39	1160.5
361.616	1163.5
361.843	1157.5
362.07	1175.5
362.296	1168.5
362.523	1173.5
362.749	1155.5
362.976	1159.5
363.203	1154.5
363.429	1144.5
363.656	1174.5
363.882	1179.5
364.109	1177.5
364.335	1174.5
364.562	1158.5
364.788	1182.5
365.015	1180.5
365.241	1140.5
365.468	1157.5
365.694	1149.5
365.92	1155.5
366.147	1177.5
366.373	1200.5
366.599	1175.5
366.826	1171.5
367.052	1160.5
367.278	1151.5
367.505	1189.5
367.731	1168.5
367.957	1161.5
368.184	1187.5
368.41	1201.5
368.636	1211.5
368.862	1209.5
369.089	1202.5
369.315	1208.5
369.541	1184.5
369.767	1209.5
369.993	1210.5
370.219	1211.5
370.445	1237.5
370.672	1230.5
370.898	1207.5
371.124	1248.5
371.35	1263.5
371.576	1244.5
371.802	1256.5
372.028	1275.5
372.254	1243.5
372.48	1278.5
372.706	1306.5
372.932	1350.5
373.158	1303.5
373.384	1297.5
373.61	1270.5
373.835	1311.5
374.061	1282.5
374.287	1282.5
374.513	1283.5
374.739	1347.5
374.965	1354.5
375.191	1393.5
375.416	1413.5
375.642	1323.5
375.868	1336.5
376.094	1301.5
376.319	1304.5
376.545	1313.5
376.771	1290.5
376.997	1254.5
377.222	1285.5
377.448	1281.5
377.674	1269.5
377.899	1257.5
378.125	1226.5
378.35	1235.5
378.576	1274.5
378.802	1253.5
379.027	1251.5
379.253	1237.5
379.478	1230.5
379.704	1247.5
379.929	1243.5
380.155	1248.5
380.38	1265.5
380.606	1303.5
380.831	1254.5
381.057	1265.5
381.282	1258.5
381.507	1283.5
381.733	1287.5
381.958	1293.5
382.184	1283.5
382.409	1297.5
382.634	1341.5
382.86	1335.5
383.085	1359.5
383.31	1352.5
383.535	1342.5
383.761	1376.5
383.986	1401.5
384.211	1443.5
384.436	1435.5
384.662	1461.5
384.887	1472.5
385.112	1473.5
385.337	1520.5
385.562	1463.5
385.787	1491.5
386.013	1542.5
386.238	1545.5
386.463	1537.5
386.688	1512.5
386.913	1538.5
387.138	1479.5
387.363	1509.5
387.588	1485.5
387.813	1478.5
388.038	1508.5
388.263	1541.5
388.488	1513.5
388.713	1520.5
388.938	1463.5
389.163	1504.5
389.387	1505.5
389.612	1508.5
389.837	1516.5
390.062	1499.5
390.287	1501.5
390.512	1502.5
390.736	1502.5
390.961	1572.5
391.186	1573.5
391.411	1552.5
391.636	1557.5
391.86	1665.5
392.085	1680.5
392.31	1659.5
392.534	1629.5
392.759	1624.5
392.984	1609.5
393.208	1623.5
393.433	1652.5
393.658	1565.5
393.882	1590.5
394.107	1575.5
394.331	1609.5
394.556	1580.5
394.78	1599.5
395.005	1633.5
395.229	1648.5
395.454	1664.5
395.678	1699.5
395.903	1656.5
396.127	1653.5
396.352	1640.5
396.576	1627.5
396.801	1617.5
397.025	1676.5
397.249	1660.5
397.474	1687.5
397.698	1731.5
397.922	1733.5
398.147	1695.5
398.371	1745.5
398.595	1815.5
398.82	1862.5
399.044	1970.5
399.268	2185.5
399.492	2409.5
399.717	2655.5
399.941	2619.5
400.165	2423.5
400.389	2270.5
400.613	2106.5
400.837	2003.5
401.062	1928.5
401.286	1902.5
401.51	1875.5
401.734	1885.5
401.958	1873.5
402.182	1878.5
402.406	1921.5
402.63	1933.5
402.854	1984.5
403.078	1968.5
403.302	2012.5
403.526	2031.5
403.75	2017.5
403.974	2079.5
404.198	2076.5
404.422	2088.5
404.645	2055.5
404.869	2051.5
405.093	2071.5
405.317	2017.5
405.541	2043.5
405.765	2039.5
405.988	2013.5
406.212	2033.5
406.436	2034.5
406.66	2130.5
406.883	2136.5
407.107	2256.5
407.331	2290.5
407.555	2355.5
407.778	2347.5
408.002	2333.5
408.226	2310.5
408.449	2243.5
408.673	2202.5
408.896	2125.5
409.12	2127.5
409.344	2127.5
409.567	2126.5
409.791	2129.5
410.014	2107.5
410.238	2072.5
410.461	2051.5
410.685	2041.5
410.908	2007.5
411.132	2000.5
411.355	1976.5
411.578	1957.5
411.802	1963.5
412.025	1982.5
412.249	1977.5
412.472	1998.5
412.695	1936.5
412.919	1932.5
413.142	1890.5
413.365	1894.5
413.589	1919.5
413.812	1876.5
414.035	1877.5
414.258	1865.5
414.482	1888.5
414.705	1924.5
414.928	1882.5
415.151	1872.5
415.374	1865.5
415.597	1831.5
415.821	1828.5
416.044	1830.5
416.267	1774.5
416.49	1818.5
416.713	1834.5
416.936	1823.5
417.159	1795.5
417.382	1804.5
417.605	1785.5
417.828	1771.5
418.051	1835.5
418.274	1820.5
418.497	1802.5
418.72	1842.5
418.943	1845.5
419.166	1995.5
419.389	2077.5
419.611	2042.5
419.834	1933.5
420.057	1876.5
420.28	1835.5
420.503	1801.5
420.726	1779.5
420.948	1798.5
421.171	1839.5
421.394	1797.5
421.617	1826.5
421.839	1829.5
422.062	1825.5
422.285	1813.5
422.507	1867.5
422.73	1825.5
422.953	1812.5
423.175	1827.5
423.398	1883.5
423.621	1824.5
423.843	1830.5
424.066	1849.5
424.288	1879.5
424.511	1828.5
424.733	1831.5
424.956	1806.5
425.178	1802.5
425.401	1832.5
425.623	1815.5
425.846	1736.5
426.068	1737.5
426.291	1740.5
426.513	1727.5
426.735	1739.5
426.958	1715.5
427.18	1682.5
427.402	1681.5
427.625	1683.5
427.847	1658.5
428.069	1647.5
428.292	1665.5
428.514	1657.5
428.736	1669.5
428.958	1656.5
429.181	1608.5
429.403	1620.5
429.625	1644.5
429.847	1617.5
430.069	1623.5
430.292	1596.5
430.514	1562.5
430.736	1620.5
430.958	1648.5
431.18	1627.5
431.402	1640.5
431.624	1649.5
431.846	1655.5
432.068	1647.5
432.29	1654.5
432.512	1691.5
432.734	1655.5
432.956	1651.5
433.178	1657.5
433.4	1653.5
433.622	1692.5
433.844	1737.5
434.066	1705.5
434.287	1751.5
434.509	1790.5
434.731	1794.5
434.953	1832.5
435.175	1863.5
435.397	1812.5
435.618	1793.5
435.84	1723.5
436.062	1679.5
436.284	1678.5
436.505	1652.5
436.727	1653.5
436.949	1654.5
437.17	1672.5
437.392	1629.5
437.614	1623.5
437.835	1601.5
438.057	1583.5
438.278	1600.5
438.5	1549.5
438.721	1580.5
438.943	1565.5
439.165	1558.5
439.386	1600.5
439.608	1608.5
439.829	1607.5
440.05	1629.5
440.272	1633.5
440.493	1638.5
440.715	1656.5
440.936	1664.5
441.158	1685.5
441.379	1718.5
441.6	1797.5
441.822	1798.5
442.043	1776.5
442.264	1775.5
442.486	1743.5
442.707	1767.5
442.928	1765.5
443.149	1739.5
443.371	1715.5
443.592	1791.5
443.813	1796.5
444.034	1794.5
444.255	1866.5
444.476	1903.5
444.698	2000.5
444.919	2068.5
445.14	2094.5
445.361	1937.5
445.582	1865.5
445.803	1780.5
446.024	1728.5
446.245	1707.5
446.466	1676.5
446.687	1661.5
446.908	1613.5
447.129	1589.5
447.35	1517.5
447.571	1544.5
447.792	1497.5
448.013	1540.5
448.234	1513.5
448.455	1502.5
448.675	1460.5
448.896	1507.5
449.117	1469.5
449.338	1447.5
449.559	1455.5
449.779	1432.5
450	1456.5
450.221	1476.5
450.442	1455.5
450.662	1463.5
450.883	1486.5
451.104	1464.5
451.324	1488.5
451.545	1475.5
451.766	1477.5
451.986	1429.5
452.207	1467.5
452.428	1458.5
452.648	1486.5
452.869	1403.5
453.089	1439.5
453.31	1421.5
453.53	1384.5
453.751	1429.5
453.971	1399.5
454.192	1420.5
454.412	1389.5
454.633	1375.5
454.853	1376.5
455.073	1344.5
455.294	1400.5
455.514	1380.5
455.734	1357.5
455.955	1358.5
456.175	1358.5
456.395	1365.5
456.616	1358.5
456.836	1378.5
457.056	1411.5
457.276	1355.5
457.497	1401.5
457.717	1384.5
457.937	1418.5
458.157	1412.5
458.377	1445.5
458.598	1447.5
458.818	1502.5
459.038	1517.5
459.258	1570.5
459.478	1638.5
459.698	1658.5
459.918	1728.5
460.138	1749.5
460.358	1839.5
460.578	1816.5
460.798	1905.5
461.018	1912.5
461.238	1862.5
461.458	1854.5
461.678	1870.5
461.898	1899.5
462.118	1899.5
462.338	2010.5
462.558	2031.5
462.777	2070.5
462.997	2200.5
463.217	2355.5
463.437	2375.5
463.657	2172.5
463.876	2159.5
464.096	2190.5
464.316	2113.5
464.536	2137.5
464.755	2096.5
464.975	1978.5
465.195	1950.5
465.414	1831.5
465.634	1723.5
465.854	1679.5
466.073	1672.5
466.293	1627.5
466.512	1562.5
466.732	1535.5
466.951	1532.5
467.171	1543.5
467.391	1554.5
467.61	1563.5
467.829	1550.5
468.049	1501.5
468.268	1480.5
468.488	1499.5
468.707	1461.5
468.927	1499.5
469.146	1491.5
469.365	1495.5
469.585	1528.5
469.804	1548.5
470.023	1584.5
470.243	1608.5
470.462	1592.5
470.681	1553.5
470.901	1632.5
471.12	1580.5
471.339	1543.5
471.558	1519.5
471.777	1558.5
471.997	1520.5
472.216	1518.5
472.435	1487.5
472.654	1479.5
472.873	1468.5
473.092	1460.5
473.311	1459.5
473.53	1454.5
473.749	1503.5
473.968	1484.5
474.187	1448.5
474.406	1455.5
474.625	1468.5
474.844	1477.5
475.063	1494.5
475.282	1459.5
475.501	1484.5
475.72	1513.5
475.939	1512.5
476.158	1516.5
476.377	1571.5
476.596	1563.5
476.814	1553.5
477.033	1588.5
477.252	1621.5
477.471	1640.5
477.69	1661.5
477.908	1683.5
478.127	1765.5
478.346	1735.5
478.564	1759.5
478.783	1814.5
479.002	1799.5
479.22	1862.5
479.439	1864.5
479.658	1845.5
479.876	1839.5
480.095	1853.5
480.313	1926.5
480.532	1979.5
480.751	1950.5
480.969	1916.5
481.188	1859.5
481.406	1837.5
481.624	1812.5
481.843	1802.5
482.061	1746.5
482.28	1781.5
482.498	1812.5
482.717	1775.5
482.935	1774.5
483.153	1780.5
483.372	1789.5
483.59	1842.5
483.808	1835.5
484.027	1840.5
484.245	1903.5
484.463	1874.5
484.681	1859.5
484.9	1917.5
485.118	1940.5
485.336	1956.5
485.554	1970.5
485.772	1952.5
485.99	1976.5
486.209	1990.5
486.427	1978.5
486.645	1966.5
486.863	1960.5
487.081	1932.5
487.299	1963.5
487.517	1912.5
487.735	1933.5
487.953	1949.5
488.171	1905.5
488.389	1911.5
488.607	1916.5
488.825	1898.5
489.043	1876.5
489.261	1865.5
489.479	1875.5
489.696	1886.5
489.914	1880.5
490.132	1880.5
490.35	1858.5
490.568	1849.5
490.786	1851.5
491.003	1839.5
491.221	1863.5
491.439	1852.5
491.657	1841.5
491.874	1872.5
492.092	1863.5
492.31	1841.5
492.527	1832.5
492.745	1852.5
492.963	1836.5
493.18	1877.5
493.398	1908.5
493.615	1871.5
493.833	1880.5
494.05	1891.5
494.268	1862.5
494.485	1925.5
494.703	1897.5
494.92	1929.5
495.138	1901.5
495.355	1874.5
495.573	1881.5
495.79	1924.5
496.008	1948.5
496.225	1942.5
496.442	1953.5
496.66	1958.5
496.877	1991.5
497.094	2030.5
497.312	2038.5
497.529	2111.5
497.746	2160.5
497.963	2194.5
498.181	2245.5
498.398	2386.5
498.615	2539.5
498.832	2688.5
499.049	2850.5
499.267	3004.5
499.484	3256.5
499.701	3529.5
499.918	3824.5
500.135	4316.5
500.352	4670.5
500.569	4792.5
500.786	4789.5
501.003	4490.5
501.22	4200.5
501.437	3781.5
501.654	3457.5
501.871	3173.5
502.088	2908.5
502.305	2797.5
502.522	2695.5
502.739	2600.5
502.956	2444.5
503.172	2327.5
503.389	2272.5
503.606	2173.5
503.823	2123.5
504.04	2145.5
504.256	2116.5
504.473	2186.5
504.69	2167.5
504.907	2160.5
505.123	1989.5
505.34	1919.5
505.557	1866.5
505.773	1848.5
505.99	1743.5
506.207	1734.5
