Data from NiCl2@0.125M.TitratingCurve.Agarose3%dH2O.NegLispCup.LampEnergy10.LIBS07252019_HRD10591_18-27-56-574.txt Node
Date: Thu Jul 25 18:27:56 EDT 2019
User: cochatt
Spectrometer: HR+D1059
Trigger mode: 1
Integration Time (sec): 1.000000E-1
Scans to average: 1
Electric dark correction enabled: true
Nonlinearity correction enabled: false
Boxcar width: 0
XAxis mode: Wavelengths
Number of Pixels in Spectrum: 2048
>>>>>Begin Spectral Data<<<<<
223.165	-33.12
223.4	-33.12
223.635	-33.12
223.869	-6.12
224.104	-14.12
224.338	-7.12
224.573	-11.12
224.808	-12.12
225.042	-9.12
225.277	-10.12
225.511	-6.12
225.746	0.88
225.98	1.88
226.215	7.88
226.449	23.88
226.683	13.88
226.918	33.88
227.152	26.88
227.387	48.88
227.621	36.88
227.856	42.88
228.09	52.88
228.324	55.88
228.559	54.88
228.793	75.88
229.027	116.88
229.262	121.88
229.496	128.88
229.73	119.88
229.964	133.88
230.199	133.88
230.433	139.88
230.667	140.88
230.901	136.88
231.136	143.88
231.37	138.88
231.604	149.88
231.838	148.88
232.072	161.88
232.306	146.88
232.541	172.88
232.775	162.88
233.009	155.88
233.243	164.88
233.477	168.88
233.711	174.88
233.945	159.88
234.179	149.88
234.413	162.88
234.647	166.88
234.881	160.88
235.115	163.88
235.349	154.88
235.583	177.88
235.817	163.88
236.051	163.88
236.285	168.88
236.519	173.88
236.753	164.88
236.987	182.88
237.221	169.88
237.455	164.88
237.689	165.88
237.922	188.88
238.156	177.88
238.39	181.88
238.624	180.88
238.858	207.88
239.091	183.88
239.325	200.88
239.559	188.88
239.793	192.88
240.027	185.88
240.26	210.88
240.494	185.88
240.728	186.88
240.961	187.88
241.195	195.88
241.429	202.88
241.662	207.88
241.896	198.88
242.13	211.88
242.363	194.88
242.597	226.88
242.83	217.88
243.064	203.88
243.298	235.88
243.531	208.88
243.765	224.88
243.998	213.88
244.232	255.88
244.465	223.88
244.699	219.88
244.932	225.88
245.166	224.88
245.399	232.88
245.633	235.88
245.866	246.88
246.099	242.88
246.333	242.88
246.566	238.88
246.8	239.88
247.033	235.88
247.266	241.88
247.5	245.88
247.733	255.88
247.966	260.88
248.2	246.88
248.433	265.88
248.666	266.88
248.899	265.88
249.133	260.88
249.366	271.88
249.599	258.88
249.832	257.88
250.066	263.88
250.299	268.88
250.532	276.88
250.765	279.88
250.998	273.88
251.231	299.88
251.465	294.88
251.698	293.88
251.931	280.88
252.164	290.88
252.397	300.88
252.63	297.88
252.863	274.88
253.096	283.88
253.329	309.88
253.562	296.88
253.795	286.88
254.028	307.88
254.261	319.88
254.494	321.88
254.727	299.88
254.96	316.88
255.193	306.88
255.426	311.88
255.659	313.88
255.892	338.88
256.124	299.88
256.357	318.88
256.59	325.88
256.823	314.88
257.056	336.88
257.289	317.88
257.521	330.88
257.754	319.88
257.987	316.88
258.22	312.88
258.452	320.88
258.685	329.88
258.918	341.88
259.151	341.88
259.383	311.88
259.616	348.88
259.849	347.88
260.081	360.88
260.314	363.88
260.547	350.88
260.779	354.88
261.012	364.88
261.244	354.88
261.477	346.88
261.71	365.88
261.942	361.88
262.175	361.88
262.407	346.88
262.64	371.88
262.872	359.88
263.105	352.88
263.337	375.88
263.57	380.88
263.802	363.88
264.035	391.88
264.267	383.88
264.499	369.88
264.732	370.88
264.964	372.88
265.197	391.88
265.429	385.88
265.661	359.88
265.894	369.88
266.126	376.88
266.358	383.88
266.591	385.88
266.823	407.88
267.055	417.88
267.287	389.88
267.52	390.88
267.752	389.88
267.984	415.88
268.216	411.88
268.448	410.88
268.681	411.88
268.913	399.88
269.145	400.88
269.377	424.88
269.609	409.88
269.841	404.88
270.073	413.88
270.306	440.88
270.538	395.88
270.77	421.88
271.002	424.88
271.234	413.88
271.466	419.88
271.698	418.88
271.93	404.88
272.162	429.88
272.394	426.88
272.626	404.88
272.858	415.88
273.09	425.88
273.322	448.88
273.553	447.88
273.785	424.88
274.017	444.88
274.249	444.88
274.481	443.88
274.713	444.88
274.945	472.88
275.176	448.88
275.408	462.88
275.64	483.88
275.872	469.88
276.104	472.88
276.335	427.88
276.567	445.88
276.799	477.88
277.031	485.88
277.262	466.88
277.494	468.88
277.726	461.88
277.957	477.88
278.189	468.88
278.421	473.88
278.652	467.88
278.884	458.88
279.115	493.88
279.347	474.88
279.579	508.88
279.81	495.88
280.042	490.88
280.273	512.88
280.505	482.88
280.736	485.88
280.968	502.88
281.199	523.88
281.431	508.88
281.662	522.88
281.894	480.88
282.125	498.88
282.356	529.88
282.588	493.88
282.819	501.88
283.051	511.88
283.282	515.88
283.513	529.88
283.745	517.88
283.976	537.88
284.207	526.88
284.439	537.88
284.67	529.88
284.901	526.88
285.132	523.88
285.364	525.88
285.595	525.88
285.826	549.88
286.057	560.88
286.288	550.88
286.52	553.88
286.751	565.88
286.982	560.88
287.213	565.88
287.444	548.88
287.675	559.88
287.906	589.88
288.138	550.88
288.369	546.88
288.6	554.88
288.831	562.88
289.062	589.88
289.293	571.88
289.524	577.88
289.755	556.88
289.986	581.88
290.217	564.88
290.448	559.88
290.679	573.88
290.91	562.88
291.141	579.88
291.371	604.88
291.602	579.88
291.833	571.88
292.064	606.88
292.295	578.88
292.526	592.88
292.757	588.88
292.987	559.88
293.218	583.88
293.449	609.88
293.68	598.88
293.91	600.88
294.141	583.88
294.372	575.88
294.603	568.88
294.833	598.88
295.064	607.88
295.295	607.88
295.525	601.88
295.756	617.88
295.987	611.88
296.217	613.88
296.448	600.88
296.679	607.88
296.909	608.88
297.14	607.88
297.37	646.88
297.601	629.88
297.831	619.88
298.062	633.88
298.292	642.88
298.523	659.88
298.753	639.88
298.984	657.88
299.214	628.88
299.445	615.88
299.675	620.88
299.905	631.88
300.136	639.88
300.366	621.88
300.597	645.88
300.827	633.88
301.057	675.88
301.288	663.88
301.518	656.88
301.748	671.88
301.979	673.88
302.209	677.88
302.439	641.88
302.669	677.88
302.9	667.88
303.13	653.88
303.36	657.88
303.59	656.88
303.82	639.88
304.051	653.88
304.281	673.88
304.511	634.88
304.741	645.88
304.971	637.88
305.201	631.88
305.431	636.88
305.661	664.88
305.891	654.88
306.121	640.88
306.352	649.88
306.582	664.88
306.812	626.88
307.042	643.88
307.272	636.88
307.502	658.88
307.731	646.88
307.961	653.88
308.191	635.88
308.421	628.88
308.651	651.88
308.881	651.88
309.111	648.88
309.341	641.88
309.571	639.88
309.8	643.88
310.03	664.88
310.26	646.88
310.49	643.88
310.72	649.88
310.949	650.88
311.179	661.88
311.409	661.88
311.639	659.88
311.868	665.88
312.098	672.88
312.328	673.88
312.557	695.88
312.787	681.88
313.017	662.88
313.246	689.88
313.476	687.88
313.706	692.88
313.935	698.88
314.165	693.88
314.394	692.88
314.624	685.88
314.853	669.88
315.083	674.88
315.312	700.88
315.542	698.88
315.771	707.88
316.001	703.88
316.23	704.88
316.46	681.88
316.689	674.88
316.919	683.88
317.148	679.88
317.377	691.88
317.607	696.88
317.836	684.88
318.065	681.88
318.295	671.88
318.524	680.88
318.753	689.88
318.983	670.88
319.212	663.88
319.441	688.88
319.67	673.88
319.9	675.88
320.129	671.88
320.358	675.88
320.587	662.88
320.816	675.88
321.046	691.88
321.275	685.88
321.504	704.88
321.733	696.88
321.962	691.88
322.191	687.88
322.42	694.88
322.649	698.88
322.878	693.88
323.108	669.88
323.337	710.88
323.566	693.88
323.795	676.88
324.024	691.88
324.253	723.88
324.482	696.88
324.71	695.88
324.939	716.88
325.168	723.88
325.397	723.88
325.626	713.88
325.855	722.88
326.084	748.88
326.313	736.88
326.542	760.88
326.77	761.88
326.999	750.88
327.228	723.88
327.457	722.88
327.686	720.88
327.914	739.88
328.143	731.88
328.372	740.88
328.6	751.88
328.829	754.88
329.058	779.88
329.287	753.88
329.515	759.88
329.744	763.88
329.972	732.88
330.201	771.88
330.43	740.88
330.658	774.88
330.887	741.88
331.115	787.88
331.344	803.88
331.572	788.88
331.801	810.88
332.03	825.88
332.258	860.88
332.486	853.88
332.715	909.88
332.943	935.88
333.172	957.88
333.4	1012.88
333.629	1040.88
333.857	1009.88
334.085	1011.88
334.314	972.88
334.542	985.88
334.771	976.88
334.999	945.88
335.227	954.88
335.455	948.88
335.684	955.88
335.912	932.88
336.14	907.88
336.369	897.88
336.597	929.88
336.825	935.88
337.053	898.88
337.281	885.88
337.51	861.88
337.738	865.88
337.966	861.88
338.194	828.88
338.422	836.88
338.65	829.88
338.878	832.88
339.106	816.88
339.334	808.88
339.562	797.88
339.79	795.88
340.018	771.88
340.246	801.88
340.474	792.88
340.702	794.88
340.93	780.88
341.158	811.88
341.386	766.88
341.614	790.88
341.842	769.88
342.07	767.88
342.298	756.88
342.526	779.88
342.754	761.88
342.981	803.88
343.209	791.88
343.437	854.88
343.665	855.88
343.893	956.88
344.12	996.88
344.348	972.88
344.576	881.88
344.804	843.88
345.031	806.88
345.259	807.88
345.487	812.88
345.714	781.88
345.942	776.88
346.17	765.88
346.397	773.88
346.625	765.88
346.853	752.88
347.08	730.88
347.308	741.88
347.535	739.88
347.763	780.88
347.99	747.88
348.218	729.88
348.445	751.88
348.673	741.88
348.9	745.88
349.128	738.88
349.355	744.88
349.583	759.88
349.81	723.88
350.037	722.88
350.265	731.88
350.492	735.88
350.72	720.88
350.947	706.88
351.174	701.88
351.402	735.88
351.629	723.88
351.856	691.88
352.083	733.88
352.311	709.88
352.538	711.88
352.765	712.88
352.992	735.88
353.22	726.88
353.447	716.88
353.674	732.88
353.901	728.88
354.128	708.88
354.355	709.88
354.583	737.88
354.81	736.88
355.037	724.88
355.264	733.88
355.491	735.88
355.718	744.88
355.945	718.88
356.172	727.88
356.399	744.88
356.626	715.88
356.853	728.88
357.08	727.88
357.307	712.88
357.534	739.88
357.761	755.88
357.988	735.88
358.215	742.88
358.441	724.88
358.668	731.88
358.895	710.88
359.122	723.88
359.349	745.88
359.576	731.88
359.802	715.88
360.029	715.88
360.256	753.88
360.483	740.88
360.709	724.88
360.936	717.88
361.163	717.88
361.39	733.88
361.616	717.88
361.843	731.88
362.07	740.88
362.296	734.88
362.523	713.88
362.749	752.88
362.976	733.88
363.203	731.88
363.429	703.88
363.656	725.88
363.882	730.88
364.109	719.88
364.335	721.88
364.562	715.88
364.788	747.88
365.015	736.88
365.241	712.88
365.468	692.88
365.694	723.88
365.92	728.88
366.147	704.88
366.373	727.88
366.599	728.88
366.826	737.88
367.052	717.88
367.278	738.88
367.505	715.88
367.731	739.88
367.957	739.88
368.184	759.88
368.41	753.88
368.636	739.88
368.862	743.88
369.089	727.88
369.315	749.88
369.541	743.88
369.767	730.88
369.993	742.88
370.219	752.88
370.445	789.88
370.672	789.88
370.898	760.88
371.124	780.88
371.35	793.88
371.576	825.88
371.802	825.88
372.028	788.88
372.254	779.88
372.48	807.88
372.706	826.88
372.932	825.88
373.158	826.88
373.384	802.88
373.61	792.88
373.835	809.88
374.061	807.88
374.287	793.88
374.513	838.88
374.739	829.88
374.965	850.88
375.191	884.88
375.416	886.88
375.642	832.88
375.868	858.88
376.094	829.88
376.319	817.88
376.545	824.88
376.771	826.88
376.997	818.88
377.222	800.88
377.448	793.88
377.674	805.88
377.899	770.88
378.125	787.88
378.35	751.88
378.576	744.88
378.802	777.88
379.027	802.88
379.253	794.88
379.478	775.88
379.704	790.88
379.929	787.88
380.155	812.88
380.38	782.88
380.606	763.88
380.831	790.88
381.057	803.88
381.282	769.88
381.507	813.88
381.733	819.88
381.958	781.88
382.184	813.88
382.409	825.88
382.634	815.88
382.86	823.88
383.085	823.88
383.31	859.88
383.535	868.88
383.761	849.88
383.986	875.88
384.211	902.88
384.436	921.88
384.662	923.88
384.887	959.88
385.112	954.88
385.337	966.88
385.562	975.88
385.787	956.88
386.013	953.88
386.238	966.88
386.463	963.88
386.688	978.88
386.913	946.88
387.138	947.88
387.363	943.88
387.588	931.88
387.813	948.88
388.038	925.88
388.263	932.88
388.488	967.88
388.713	973.88
388.938	944.88
389.163	935.88
389.387	942.88
389.612	953.88
389.837	935.88
390.062	907.88
390.287	919.88
390.512	953.88
390.736	943.88
390.961	971.88
391.186	993.88
391.411	998.88
391.636	1010.88
391.86	1074.88
392.085	1125.88
392.31	1089.88
392.534	1061.88
392.759	1035.88
392.984	1041.88
393.208	1013.88
393.433	1027.88
393.658	1014.88
393.882	1028.88
394.107	995.88
394.331	1029.88
394.556	1028.88
394.78	1029.88
395.005	1064.88
395.229	1035.88
395.454	1063.88
395.678	1069.88
395.903	1082.88
396.127	1047.88
396.352	1025.88
396.576	1016.88
396.801	1021.88
397.025	1026.88
397.249	1062.88
397.474	1072.88
397.698	1064.88
397.922	1091.88
398.147	1056.88
398.371	1108.88
398.595	1135.88
398.82	1185.88
399.044	1253.88
399.268	1409.88
399.492	1649.88
399.717	1852.88
399.941	1839.88
400.165	1643.88
400.389	1452.88
400.613	1342.88
400.837	1303.88
401.062	1230.88
401.286	1199.88
401.51	1182.88
401.734	1223.88
401.958	1218.88
402.182	1207.88
402.406	1243.88
402.63	1281.88
402.854	1295.88
403.078	1289.88
403.302	1357.88
403.526	1389.88
403.75	1392.88
403.974	1439.88
404.198	1427.88
404.422	1434.88
404.645	1416.88
404.869	1384.88
405.093	1375.88
405.317	1367.88
405.541	1313.88
405.765	1302.88
405.988	1315.88
406.212	1338.88
406.436	1311.88
406.66	1348.88
406.883	1401.88
407.107	1483.88
407.331	1531.88
407.555	1601.88
407.778	1562.88
408.002	1524.88
408.226	1501.88
408.449	1449.88
408.673	1365.88
408.896	1387.88
409.12	1385.88
409.344	1386.88
409.567	1370.88
409.791	1397.88
410.014	1371.88
410.238	1383.88
410.461	1370.88
410.685	1357.88
410.908	1322.88
411.132	1317.88
411.355	1268.88
411.578	1268.88
411.802	1284.88
412.025	1243.88
412.249	1271.88
412.472	1260.88
412.695	1221.88
412.919	1229.88
413.142	1216.88
413.365	1212.88
413.589	1196.88
413.812	1201.88
414.035	1205.88
414.258	1209.88
414.482	1203.88
414.705	1235.88
414.928	1216.88
415.151	1219.88
415.374	1199.88
415.597	1197.88
415.821	1183.88
416.044	1186.88
416.267	1169.88
416.49	1179.88
416.713	1171.88
416.936	1205.88
417.159	1184.88
417.382	1175.88
417.605	1168.88
417.828	1210.88
418.051	1225.88
418.274	1203.88
418.497	1193.88
418.72	1276.88
418.943	1224.88
419.166	1300.88
419.389	1421.88
419.611	1370.88
419.834	1297.88
420.057	1286.88
420.28	1205.88
420.503	1203.88
420.726	1187.88
420.948	1188.88
421.171	1172.88
421.394	1194.88
421.617	1172.88
421.839	1171.88
422.062	1221.88
422.285	1195.88
422.507	1235.88
422.73	1225.88
422.953	1252.88
423.175	1261.88
423.398	1270.88
423.621	1315.88
423.843	1287.88
424.066	1313.88
424.288	1290.88
424.511	1249.88
424.733	1283.88
424.956	1244.88
425.178	1251.88
425.401	1237.88
425.623	1212.88
425.846	1176.88
426.068	1170.88
426.291	1116.88
426.513	1144.88
426.735	1119.88
426.958	1135.88
427.18	1083.88
427.402	1073.88
427.625	1087.88
427.847	1096.88
428.069	1075.88
428.292	1071.88
428.514	1034.88
428.736	1081.88
428.958	1087.88
429.181	1009.88
429.403	1024.88
429.625	1033.88
429.847	1021.88
430.069	1031.88
430.292	1032.88
430.514	1025.88
430.736	1029.88
430.958	1050.88
431.18	1029.88
431.402	1033.88
431.624	1040.88
431.846	1059.88
432.068	1097.88
432.29	1068.88
432.512	1087.88
432.734	1101.88
432.956	1060.88
433.178	1063.88
433.4	1084.88
433.622	1096.88
433.844	1113.88
434.066	1089.88
434.287	1067.88
434.509	1152.88
434.731	1186.88
434.953	1188.88
435.175	1218.88
435.397	1179.88
435.618	1149.88
435.84	1111.88
436.062	1076.88
436.284	1058.88
436.505	1037.88
436.727	1068.88
436.949	1064.88
437.17	1044.88
437.392	1038.88
437.614	1078.88
437.835	1034.88
438.057	1017.88
438.278	1020.88
438.5	996.88
438.721	997.88
438.943	1029.88
439.165	1024.88
439.386	1033.88
439.608	1059.88
439.829	1085.88
440.05	1089.88
440.272	1082.88
440.493	1049.88
440.715	1092.88
440.936	1113.88
441.158	1107.88
441.379	1168.88
441.6	1201.88
441.822	1207.88
442.043	1206.88
442.264	1175.88
442.486	1137.88
442.707	1165.88
442.928	1215.88
443.149	1184.88
443.371	1181.88
443.592	1195.88
443.813	1212.88
444.034	1207.88
444.255	1228.88
444.476	1299.88
444.698	1403.88
444.919	1467.88
445.14	1514.88
445.361	1350.88
445.582	1272.88
445.803	1173.88
446.024	1139.88
446.245	1108.88
446.466	1105.88
446.687	1091.88
446.908	1089.88
447.129	1052.88
447.35	1038.88
447.571	1050.88
447.792	1008.88
448.013	1023.88
448.234	1004.88
448.455	996.88
448.675	977.88
448.896	972.88
449.117	969.88
449.338	978.88
449.559	977.88
449.779	951.88
450	957.88
450.221	959.88
450.442	960.88
450.662	975.88
450.883	995.88
451.104	1009.88
451.324	990.88
451.545	977.88
451.766	1013.88
451.986	985.88
452.207	993.88
452.428	957.88
452.648	966.88
452.869	988.88
453.089	958.88
453.31	964.88
453.53	934.88
453.751	940.88
453.971	924.88
454.192	953.88
454.412	913.88
454.633	918.88
454.853	909.88
455.073	912.88
455.294	917.88
455.514	907.88
455.734	910.88
455.955	888.88
456.175	894.88
456.395	904.88
456.616	894.88
456.836	888.88
457.056	885.88
457.276	874.88
457.497	895.88
457.717	873.88
457.937	901.88
458.157	939.88
458.377	918.88
458.598	950.88
458.818	982.88
459.038	998.88
459.258	1033.88
459.478	1068.88
459.698	1099.88
459.918	1109.88
460.138	1175.88
460.358	1251.88
460.578	1236.88
460.798	1241.88
461.018	1235.88
461.238	1263.88
461.458	1231.88
461.678	1233.88
461.898	1265.88
462.118	1251.88
462.338	1367.88
462.558	1385.88
462.777	1427.88
462.997	1567.88
463.217	1668.88
463.437	1709.88
463.657	1558.88
463.876	1487.88
464.096	1478.88
464.316	1461.88
464.536	1474.88
464.755	1431.88
464.975	1371.88
465.195	1307.88
465.414	1205.88
465.634	1144.88
465.854	1110.88
466.073	1064.88
466.293	1062.88
466.512	1047.88
466.732	1020.88
466.951	1016.88
467.171	1006.88
467.391	1008.88
467.61	985.88
467.829	1021.88
468.049	1008.88
468.268	994.88
468.488	947.88
468.707	963.88
468.927	981.88
469.146	983.88
469.365	968.88
469.585	972.88
469.804	1029.88
470.023	1029.88
470.243	1072.88
470.462	1062.88
470.681	1051.88
470.901	1055.88
471.12	1047.88
471.339	1035.88
471.558	1008.88
471.777	991.88
471.997	980.88
472.216	975.88
472.435	948.88
472.654	996.88
472.873	938.88
473.092	974.88
473.311	939.88
473.53	929.88
473.749	953.88
473.968	946.88
474.187	923.88
474.406	943.88
474.625	955.88
474.844	949.88
475.063	959.88
475.282	939.88
475.501	930.88
475.72	984.88
475.939	989.88
476.158	947.88
476.377	971.88
476.596	980.88
476.814	1005.88
477.033	971.88
477.252	991.88
477.471	1014.88
477.69	1081.88
477.908	1067.88
478.127	1108.88
478.346	1138.88
478.564	1171.88
478.783	1154.88
479.002	1177.88
479.22	1186.88
479.439	1208.88
479.658	1185.88
479.876	1167.88
480.095	1164.88
480.313	1209.88
480.532	1299.88
480.751	1285.88
480.969	1192.88
481.188	1152.88
481.406	1114.88
481.624	1084.88
481.843	1055.88
482.061	1079.88
482.28	1084.88
482.498	1068.88
482.717	1049.88
482.935	1069.88
483.153	1078.88
483.372	1069.88
483.59	1079.88
483.808	1100.88
484.027	1102.88
484.245	1071.88
484.463	1100.88
484.681	1103.88
484.9	1116.88
485.118	1111.88
485.336	1111.88
485.554	1119.88
485.772	1143.88
485.99	1141.88
486.209	1157.88
486.427	1137.88
486.645	1127.88
486.863	1112.88
487.081	1130.88
487.299	1118.88
487.517	1116.88
487.735	1098.88
487.953	1123.88
488.171	1096.88
488.389	1099.88
488.607	1091.88
488.825	1107.88
489.043	1112.88
489.261	1101.88
489.479	1111.88
489.696	1128.88
489.914	1100.88
490.132	1113.88
490.35	1132.88
490.568	1127.88
490.786	1113.88
491.003	1099.88
491.221	1137.88
491.439	1139.88
491.657	1135.88
491.874	1135.88
492.092	1157.88
492.31	1148.88
492.527	1147.88
492.745	1163.88
492.963	1165.88
493.18	1149.88
493.398	1168.88
493.615	1156.88
493.833	1173.88
494.05	1160.88
494.268	1194.88
494.485	1194.88
494.703	1188.88
494.92	1212.88
495.138	1200.88
495.355	1164.88
495.573	1189.88
495.79	1186.88
496.008	1194.88
496.225	1183.88
