Data from NiCl2@0.5M.TitratingCurve.Agarose3%dH2O.NegLispCup.LampEnergy10.LIBS07252019_HRD10591_18-21-18-572.txt Node
Date: Thu Jul 25 18:21:18 EDT 2019
User: cochatt
Spectrometer: HR+D1059
Trigger mode: 1
Integration Time (sec): 1.000000E-1
Scans to average: 1
Electric dark correction enabled: true
Nonlinearity correction enabled: false
Boxcar width: 0
XAxis mode: Wavelengths
Number of Pixels in Spectrum: 2048
>>>>>Begin Spectral Data<<<<<
223.165	-24.62
223.4	-24.62
223.635	-24.62
223.869	-13.62
224.104	-27.62
224.338	-8.62
224.573	-4.62
224.808	-17.62
225.042	-5.62
225.277	-17.62
225.511	1.38
225.746	1.38
225.98	11.38
226.215	23.38
226.449	22.38
226.683	9.38
226.918	17.38
227.152	33.38
227.387	25.38
227.621	37.38
227.856	44.38
228.09	43.38
228.324	25.38
228.559	43.38
228.793	61.38
229.027	89.38
229.262	109.38
229.496	113.38
229.73	108.38
229.964	111.38
230.199	125.38
230.433	130.38
230.667	113.38
230.901	121.38
231.136	129.38
231.37	129.38
231.604	124.38
231.838	126.38
232.072	142.38
232.306	131.38
232.541	121.38
232.775	135.38
233.009	130.38
233.243	142.38
233.477	138.38
233.711	141.38
233.945	127.38
234.179	130.38
234.413	139.38
234.647	141.38
234.881	141.38
235.115	141.38
235.349	136.38
235.583	157.38
235.817	144.38
236.051	137.38
236.285	133.38
236.519	136.38
236.753	147.38
236.987	138.38
237.221	135.38
237.455	137.38
237.689	136.38
237.922	139.38
238.156	140.38
238.39	150.38
238.624	153.38
238.858	137.38
239.091	152.38
239.325	157.38
239.559	156.38
239.793	141.38
240.027	163.38
240.26	153.38
240.494	169.38
240.728	149.38
240.961	157.38
241.195	164.38
241.429	162.38
241.662	167.38
241.896	184.38
242.13	174.38
242.363	170.38
242.597	165.38
242.83	175.38
243.064	169.38
243.298	169.38
243.531	179.38
243.765	174.38
243.998	179.38
244.232	201.38
244.465	186.38
244.699	178.38
244.932	191.38
245.166	189.38
245.399	181.38
245.633	191.38
245.866	183.38
246.099	183.38
246.333	183.38
246.566	203.38
246.8	190.38
247.033	188.38
247.266	206.38
247.5	184.38
247.733	183.38
247.966	179.38
248.2	214.38
248.433	193.38
248.666	201.38
248.899	201.38
249.133	215.38
249.366	205.38
249.599	208.38
249.832	210.38
250.066	205.38
250.299	228.38
250.532	218.38
250.765	215.38
250.998	202.38
251.231	217.38
251.465	214.38
251.698	212.38
251.931	236.38
252.164	242.38
252.397	220.38
252.63	224.38
252.863	231.38
253.096	243.38
253.329	231.38
253.562	232.38
253.795	226.38
254.028	236.38
254.261	242.38
254.494	229.38
254.727	212.38
254.96	219.38
255.193	228.38
255.426	228.38
255.659	229.38
255.892	245.38
256.124	241.38
256.357	262.38
256.59	261.38
256.823	225.38
257.056	254.38
257.289	237.38
257.521	253.38
257.754	250.38
257.987	250.38
258.22	258.38
258.452	250.38
258.685	266.38
258.918	262.38
259.151	249.38
259.383	257.38
259.616	250.38
259.849	275.38
260.081	287.38
260.314	272.38
260.547	281.38
260.779	257.38
261.012	241.38
261.244	269.38
261.477	274.38
261.71	280.38
261.942	285.38
262.175	278.38
262.407	287.38
262.64	278.38
262.872	295.38
263.105	291.38
263.337	285.38
263.57	294.38
263.802	282.38
264.035	280.38
264.267	283.38
264.499	263.38
264.732	267.38
264.964	281.38
265.197	292.38
265.429	294.38
265.661	290.38
265.894	303.38
266.126	312.38
266.358	310.38
266.591	294.38
266.823	307.38
267.055	277.38
267.287	314.38
267.52	307.38
267.752	313.38
267.984	326.38
268.216	334.38
268.448	322.38
268.681	312.38
268.913	315.38
269.145	315.38
269.377	297.38
269.609	309.38
269.841	323.38
270.073	298.38
270.306	325.38
270.538	327.38
270.77	300.38
271.002	329.38
271.234	311.38
271.466	329.38
271.698	317.38
271.93	329.38
272.162	331.38
272.394	331.38
272.626	338.38
272.858	326.38
273.09	317.38
273.322	317.38
273.553	341.38
273.785	341.38
274.017	343.38
274.249	354.38
274.481	337.38
274.713	324.38
274.945	347.38
275.176	345.38
275.408	365.38
275.64	342.38
275.872	362.38
276.104	349.38
276.335	357.38
276.567	353.38
276.799	345.38
277.031	354.38
277.262	337.38
277.494	358.38
277.726	354.38
277.957	355.38
278.189	376.38
278.421	359.38
278.652	377.38
278.884	384.38
279.115	373.38
279.347	382.38
279.579	373.38
279.81	362.38
280.042	379.38
280.273	376.38
280.505	398.38
280.736	377.38
280.968	385.38
281.199	382.38
281.431	392.38
281.662	390.38
281.894	405.38
282.125	407.38
282.356	388.38
282.588	381.38
282.819	398.38
283.051	376.38
283.282	378.38
283.513	379.38
283.745	405.38
283.976	391.38
284.207	400.38
284.439	387.38
284.67	412.38
284.901	404.38
285.132	406.38
285.364	427.38
285.595	413.38
285.826	409.38
286.057	404.38
286.288	420.38
286.52	414.38
286.751	405.38
286.982	404.38
287.213	422.38
287.444	415.38
287.675	443.38
287.906	419.38
288.138	399.38
288.369	439.38
288.6	429.38
288.831	433.38
289.062	442.38
289.293	438.38
289.524	451.38
289.755	445.38
289.986	441.38
290.217	441.38
290.448	420.38
290.679	417.38
290.91	428.38
291.141	449.38
291.371	451.38
291.602	450.38
291.833	452.38
292.064	425.38
292.295	437.38
292.526	437.38
292.757	436.38
292.987	452.38
293.218	442.38
293.449	450.38
293.68	435.38
293.91	452.38
294.141	447.38
294.372	449.38
294.603	462.38
294.833	455.38
295.064	455.38
295.295	458.38
295.525	443.38
295.756	456.38
295.987	449.38
296.217	447.38
296.448	449.38
296.679	463.38
296.909	459.38
297.14	458.38
297.37	488.38
297.601	493.38
297.831	471.38
298.062	486.38
298.292	491.38
298.523	502.38
298.753	502.38
298.984	501.38
299.214	475.38
299.445	488.38
299.675	489.38
299.905	509.38
300.136	494.38
300.366	492.38
300.597	503.38
300.827	509.38
301.057	518.38
301.288	503.38
301.518	519.38
301.748	503.38
301.979	519.38
302.209	506.38
302.439	526.38
302.669	498.38
302.9	491.38
303.13	515.38
303.36	501.38
303.59	480.38
303.82	493.38
304.051	518.38
304.281	526.38
304.511	520.38
304.741	503.38
304.971	495.38
305.201	524.38
305.431	509.38
305.661	500.38
305.891	534.38
306.121	504.38
306.352	513.38
306.582	479.38
306.812	499.38
307.042	511.38
307.272	517.38
307.502	489.38
307.731	516.38
307.961	523.38
308.191	508.38
308.421	514.38
308.651	489.38
308.881	495.38
309.111	515.38
309.341	502.38
309.571	502.38
309.8	516.38
310.03	514.38
310.26	512.38
310.49	527.38
310.72	526.38
310.949	516.38
311.179	532.38
311.409	500.38
311.639	515.38
311.868	543.38
312.098	517.38
312.328	522.38
312.557	521.38
312.787	526.38
313.017	539.38
313.246	547.38
313.476	523.38
313.706	514.38
313.935	552.38
314.165	529.38
314.394	534.38
314.624	539.38
314.853	552.38
315.083	553.38
315.312	530.38
315.542	543.38
315.771	527.38
316.001	539.38
316.23	550.38
316.46	556.38
316.689	528.38
316.919	520.38
317.148	531.38
317.377	534.38
317.607	531.38
317.836	538.38
318.065	548.38
318.295	558.38
318.524	526.38
318.753	541.38
318.983	537.38
319.212	552.38
319.441	540.38
319.67	522.38
319.9	536.38
320.129	554.38
320.358	541.38
320.587	545.38
320.816	531.38
321.046	550.38
321.275	535.38
321.504	536.38
321.733	553.38
321.962	545.38
322.191	546.38
322.42	561.38
322.649	533.38
322.878	554.38
323.108	532.38
323.337	544.38
323.566	574.38
323.795	568.38
324.024	556.38
324.253	565.38
324.482	575.38
324.71	571.38
324.939	576.38
325.168	584.38
325.397	564.38
325.626	557.38
325.855	580.38
326.084	619.38
326.313	571.38
326.542	597.38
326.77	611.38
326.999	571.38
327.228	578.38
327.457	606.38
327.686	567.38
327.914	606.38
328.143	585.38
328.372	601.38
328.6	597.38
328.829	621.38
329.058	610.38
329.287	580.38
329.515	589.38
329.744	589.38
329.972	590.38
330.201	615.38
330.43	588.38
330.658	603.38
330.887	603.38
331.115	604.38
331.344	641.38
331.572	641.38
331.801	641.38
332.03	659.38
332.258	659.38
332.486	665.38
332.715	695.38
332.943	723.38
333.172	738.38
333.4	737.38
333.629	775.38
333.857	764.38
334.085	788.38
334.314	739.38
334.542	732.38
334.771	775.38
334.999	729.38
335.227	730.38
335.455	711.38
335.684	729.38
335.912	727.38
336.14	717.38
336.369	717.38
336.597	713.38
336.825	714.38
337.053	706.38
337.281	711.38
337.51	701.38
337.738	667.38
337.966	671.38
338.194	665.38
338.422	663.38
338.65	647.38
338.878	675.38
339.106	663.38
339.334	660.38
339.562	655.38
339.79	630.38
340.018	620.38
340.246	639.38
340.474	649.38
340.702	635.38
340.93	611.38
341.158	638.38
341.386	649.38
341.614	661.38
341.842	630.38
342.07	625.38
342.298	618.38
342.526	631.38
342.754	625.38
342.981	645.38
343.209	647.38
343.437	648.38
343.665	706.38
343.893	746.38
344.12	758.38
344.348	727.38
344.576	718.38
344.804	679.38
345.031	635.38
345.259	649.38
345.487	638.38
345.714	618.38
345.942	622.38
346.17	642.38
346.397	650.38
346.625	630.38
346.853	620.38
347.08	593.38
347.308	605.38
347.535	617.38
347.763	582.38
347.99	611.38
348.218	599.38
348.445	596.38
348.673	585.38
348.9	613.38
349.128	599.38
349.355	604.38
349.583	613.38
349.81	577.38
350.037	598.38
350.265	572.38
350.492	568.38
350.72	597.38
350.947	596.38
351.174	598.38
351.402	598.38
351.629	596.38
351.856	572.38
352.083	589.38
352.311	602.38
352.538	603.38
352.765	600.38
352.992	580.38
353.22	571.38
353.447	570.38
353.674	567.38
353.901	563.38
354.128	571.38
354.355	559.38
354.583	559.38
354.81	590.38
355.037	591.38
355.264	568.38
355.491	555.38
355.718	588.38
355.945	589.38
356.172	581.38
356.399	585.38
356.626	598.38
356.853	597.38
357.08	570.38
357.307	586.38
357.534	610.38
357.761	602.38
357.988	590.38
358.215	579.38
358.441	578.38
358.668	583.38
358.895	574.38
359.122	574.38
359.349	570.38
359.576	573.38
359.802	565.38
360.029	575.38
360.256	595.38
360.483	584.38
360.709	565.38
360.936	601.38
361.163	612.38
361.39	594.38
361.616	565.38
361.843	610.38
362.07	606.38
362.296	591.38
362.523	589.38
362.749	586.38
362.976	574.38
363.203	558.38
363.429	577.38
363.656	565.38
363.882	573.38
364.109	587.38
364.335	557.38
364.562	589.38
364.788	591.38
365.015	576.38
365.241	571.38
365.468	579.38
365.694	562.38
365.92	603.38
366.147	583.38
366.373	592.38
366.599	573.38
366.826	579.38
367.052	579.38
367.278	596.38
367.505	597.38
367.731	599.38
367.957	574.38
368.184	588.38
368.41	610.38
368.636	580.38
368.862	596.38
369.089	594.38
369.315	590.38
369.541	583.38
369.767	600.38
369.993	603.38
370.219	606.38
370.445	585.38
370.672	590.38
370.898	615.38
371.124	627.38
371.35	619.38
371.576	617.38
371.802	632.38
372.028	618.38
372.254	620.38
372.48	615.38
372.706	638.38
372.932	637.38
373.158	643.38
373.384	637.38
373.61	615.38
373.835	639.38
374.061	621.38
374.287	623.38
374.513	622.38
374.739	656.38
374.965	669.38
375.191	675.38
375.416	683.38
375.642	642.38
375.868	666.38
376.094	628.38
376.319	607.38
376.545	628.38
376.771	621.38
376.997	621.38
377.222	649.38
377.448	621.38
377.674	621.38
377.899	615.38
378.125	620.38
378.35	609.38
378.576	595.38
378.802	619.38
379.027	589.38
379.253	611.38
379.478	616.38
379.704	589.38
379.929	600.38
380.155	615.38
380.38	634.38
380.606	602.38
380.831	588.38
381.057	621.38
381.282	623.38
381.507	610.38
381.733	591.38
381.958	609.38
382.184	615.38
382.409	620.38
382.634	663.38
382.86	649.38
383.085	641.38
383.31	685.38
383.535	679.38
383.761	672.38
383.986	690.38
384.211	701.38
384.436	680.38
384.662	714.38
384.887	721.38
385.112	702.38
385.337	705.38
385.562	727.38
385.787	713.38
386.013	737.38
386.238	745.38
386.463	737.38
386.688	734.38
386.913	730.38
387.138	728.38
387.363	722.38
387.588	737.38
387.813	727.38
388.038	739.38
388.263	741.38
388.488	730.38
388.713	728.38
388.938	733.38
389.163	719.38
389.387	729.38
389.612	735.38
389.837	698.38
390.062	709.38
390.287	701.38
390.512	714.38
390.736	725.38
390.961	769.38
391.186	746.38
391.411	773.38
391.636	781.38
391.86	810.38
392.085	831.38
392.31	825.38
392.534	801.38
392.759	794.38
392.984	775.38
393.208	791.38
393.433	762.38
393.658	789.38
393.882	784.38
394.107	805.38
394.331	798.38
394.556	779.38
394.78	807.38
395.005	782.38
395.229	814.38
395.454	806.38
395.678	824.38
395.903	798.38
396.127	803.38
396.352	758.38
396.576	789.38
396.801	788.38
397.025	794.38
397.249	828.38
397.474	824.38
397.698	826.38
397.922	828.38
398.147	838.38
398.371	835.38
398.595	889.38
398.82	903.38
399.044	961.38
399.268	1111.38
399.492	1179.38
399.717	1300.38
399.941	1254.38
400.165	1186.38
400.389	1094.38
400.613	1010.38
400.837	978.38
401.062	932.38
401.286	946.38
401.51	899.38
401.734	935.38
401.958	930.38
402.182	935.38
402.406	917.38
402.63	933.38
402.854	992.38
403.078	970.38
403.302	980.38
403.526	998.38
403.75	1006.38
403.974	1016.38
404.198	1027.38
404.422	1029.38
404.645	992.38
404.869	1001.38
405.093	1032.38
405.317	986.38
405.541	990.38
405.765	983.38
405.988	989.38
406.212	990.38
406.436	977.38
406.66	1013.38
406.883	1022.38
407.107	1110.38
407.331	1132.38
407.555	1141.38
407.778	1151.38
408.002	1129.38
408.226	1084.38
408.449	1110.38
408.673	1070.38
408.896	1045.38
409.12	1026.38
409.344	1039.38
409.567	1017.38
409.791	1020.38
410.014	1044.38
410.238	996.38
410.461	999.38
410.685	988.38
410.908	982.38
411.132	971.38
411.355	941.38
411.578	957.38
411.802	937.38
412.025	940.38
412.249	985.38
412.472	975.38
412.695	915.38
412.919	948.38
413.142	927.38
413.365	916.38
413.589	949.38
413.812	934.38
414.035	915.38
414.258	933.38
414.482	925.38
414.705	931.38
414.928	941.38
415.151	924.38
415.374	910.38
415.597	917.38
415.821	903.38
416.044	926.38
416.267	875.38
416.49	887.38
416.713	895.38
416.936	890.38
417.159	870.38
417.382	884.38
417.605	901.38
417.828	919.38
418.051	919.38
418.274	922.38
418.497	905.38
418.72	929.38
418.943	929.38
419.166	987.38
419.389	1048.38
419.611	975.38
419.834	987.38
420.057	934.38
420.28	921.38
420.503	893.38
420.726	898.38
420.948	896.38
421.171	914.38
421.394	924.38
421.617	926.38
421.839	907.38
422.062	916.38
422.285	876.38
422.507	920.38
422.73	912.38
422.953	903.38
423.175	920.38
423.398	961.38
423.621	935.38
423.843	938.38
424.066	922.38
424.288	914.38
424.511	931.38
424.733	936.38
424.956	917.38
425.178	945.38
425.401	908.38
425.623	897.38
425.846	878.38
426.068	887.38
426.291	843.38
426.513	865.38
426.735	853.38
426.958	855.38
427.18	833.38
427.402	855.38
427.625	836.38
427.847	838.38
428.069	822.38
428.292	861.38
428.514	818.38
428.736	830.38
428.958	805.38
429.181	803.38
429.403	812.38
429.625	841.38
429.847	809.38
430.069	795.38
430.292	821.38
430.514	817.38
430.736	846.38
430.958	801.38
431.18	815.38
431.402	826.38
431.624	806.38
431.846	821.38
432.068	837.38
432.29	810.38
432.512	825.38
432.734	825.38
432.956	836.38
433.178	818.38
433.4	851.38
433.622	849.38
433.844	862.38
434.066	859.38
434.287	834.38
434.509	882.38
434.731	926.38
434.953	922.38
435.175	929.38
435.397	893.38
435.618	858.38
435.84	858.38
436.062	840.38
436.284	823.38
436.505	807.38
436.727	843.38
436.949	823.38
437.17	841.38
437.392	814.38
437.614	806.38
437.835	815.38
438.057	798.38
438.278	789.38
438.5	784.38
438.721	803.38
438.943	800.38
439.165	807.38
439.386	805.38
439.608	828.38
439.829	825.38
440.05	830.38
440.272	840.38
440.493	859.38
440.715	854.38
440.936	850.38
441.158	890.38
441.379	902.38
441.6	908.38
441.822	949.38
442.043	928.38
442.264	899.38
442.486	889.38
442.707	887.38
442.928	878.38
443.149	912.38
443.371	930.38
443.592	926.38
443.813	940.38
444.034	941.38
444.255	936.38
444.476	980.38
444.698	1030.38
444.919	1082.38
445.14	1107.38
445.361	1039.38
445.582	949.38
445.803	913.38
446.024	899.38
446.245	874.38
446.466	889.38
446.687	835.38
446.908	853.38
447.129	841.38
447.35	804.38
447.571	791.38
447.792	769.38
448.013	773.38
448.234	773.38
448.455	766.38
448.675	765.38
448.896	787.38
449.117	755.38
449.338	765.38
449.559	753.38
449.779	769.38
450	769.38
450.221	757.38
450.442	751.38
450.662	778.38
450.883	772.38
451.104	780.38
451.324	793.38
451.545	787.38
451.766	784.38
451.986	762.38
452.207	772.38
452.428	759.38
452.648	768.38
452.869	751.38
453.089	756.38
453.31	758.38
453.53	743.38
453.751	738.38
453.971	707.38
454.192	759.38
454.412	739.38
454.633	735.38
454.853	712.38
455.073	732.38
455.294	753.38
455.514	737.38
455.734	708.38
455.955	719.38
456.175	714.38
456.395	724.38
456.616	721.38
456.836	732.38
457.056	732.38
457.276	724.38
457.497	726.38
457.717	722.38
457.937	750.38
458.157	755.38
458.377	747.38
458.598	750.38
458.818	765.38
459.038	789.38
459.258	822.38
459.478	851.38
459.698	820.38
459.918	905.38
460.138	910.38
460.358	941.38
460.578	969.38
460.798	950.38
461.018	983.38
461.238	952.38
461.458	971.38
461.678	958.38
461.898	963.38
462.118	975.38
462.338	1044.38
462.558	1066.38
462.777	1107.38
462.997	1177.38
463.217	1248.38
463.437	1278.38
463.657	1161.38
463.876	1114.38
464.096	1129.38
464.316	1110.38
464.536	1104.38
464.755	1052.38
464.975	1013.38
465.195	988.38
465.414	959.38
465.634	938.38
465.854	890.38
466.073	860.38
466.293	837.38
466.512	814.38
466.732	854.38
466.951	841.38
467.171	825.38
467.391	827.38
467.61	811.38
467.829	803.38
468.049	801.38
468.268	797.38
468.488	781.38
468.707	796.38
468.927	783.38
469.146	795.38
469.365	797.38
469.585	798.38
469.804	830.38
470.023	827.38
470.243	799.38
470.462	847.38
470.681	858.38
470.901	840.38
471.12	817.38
471.339	824.38
471.558	807.38
471.777	791.38
471.997	780.38
472.216	771.38
472.435	779.38
472.654	769.38
472.873	749.38
473.092	765.38
473.311	738.38
473.53	758.38
473.749	774.38
473.968	763.38
474.187	737.38
474.406	797.38
474.625	766.38
474.844	765.38
475.063	770.38
475.282	774.38
475.501	790.38
475.72	766.38
475.939	807.38
476.158	805.38
476.377	793.38
476.596	800.38
476.814	811.38
477.033	836.38
477.252	807.38
477.471	834.38
477.69	865.38
477.908	858.38
478.127	907.38
478.346	923.38
478.564	913.38
478.783	914.38
479.002	956.38
479.22	940.38
479.439	967.38
479.658	934.38
479.876	956.38
480.095	968.38
480.313	1020.38
480.532	995.38
480.751	993.38
480.969	984.38
481.188	971.38
481.406	921.38
481.624	891.38
481.843	897.38
482.061	877.38
482.28	876.38
482.498	850.38
482.717	896.38
482.935	898.38
483.153	875.38
483.372	886.38
483.59	883.38
483.808	906.38
484.027	915.38
484.245	908.38
484.463	905.38
484.681	926.38
484.9	922.38
485.118	916.38
485.336	898.38
485.554	911.38
485.772	917.38
485.99	906.38
486.209	919.38
486.427	931.38
486.645	948.38
486.863	938.38
487.081	935.38
487.299	923.38
487.517	962.38
487.735	911.38
487.953	934.38
488.171	934.38
488.389	964.38
488.607	927.38
488.825	918.38
489.043	923.38
489.261	916.38
489.479	923.38
489.696	921.38
489.914	910.38
490.132	938.38
490.35	935.38
490.568	913.38
490.786	933.38
491.003	925.38
491.221	939.38
491.439	984.38
491.657	984.38
491.874	955.38
492.092	954.38
492.31	972.38
492.527	958.38
492.745	957.38
492.963	986.38
493.18	990.38
493.398	979.38
493.615	993.38
493.833	974.38
494.05	976.38
494.268	965.38
494.485	997.38
494.703	979.38
494.92	1002.38
495.138	962.38
495.355	996.38
495.573	1001.38
495.79	1007.38
496.008	1021.38
496.225	1029.38
496.442	1018.38
496.66	1037.38
496.877	1021.38
497.094	1077.38
497.312	1072.38
497.529	1116.38
497.746	1091.38
497.963	1167.38
498.181	1181.38
498.398	1250.38
498.615	1323.38
498.832	1410.38
499.049	1482.38
499.267	1565.38
499.484	1704.38
499.701	1886.38
499.918	2048.38
500.135	2273.38
500.352	2527.38
500.569	2644.38
