Data from NiCl2@0.125M.TitratingCurve.Agarose3%dH2O.NegLispCup.LampEnergy10.LIBS07252019_HRD10591_18-30-16-575.txt Node
Date: Thu Jul 25 18:30:16 EDT 2019
User: cochatt
Spectrometer: HR+D1059
Trigger mode: 1
Integration Time (sec): 1.000000E-1
Scans to average: 1
Electric dark correction enabled: true
Nonlinearity correction enabled: false
Boxcar width: 0
XAxis mode: Wavelengths
Number of Pixels in Spectrum: 2048
>>>>>Begin Spectral Data<<<<<
223.165	-11.06
223.4	-11.06
223.635	-11.06
223.869	-28.06
224.104	-24.06
224.338	-13.06
224.573	-37.06
224.808	-4.06
225.042	-8.06
225.277	6.94
225.511	-2.06
225.746	3.94
225.98	6.94
226.215	5.94
226.449	27.94
226.683	28.94
226.918	19.94
227.152	26.94
227.387	41.94
227.621	38.94
227.856	45.94
228.09	32.94
228.324	50.94
228.559	51.94
228.793	85.94
229.027	105.94
229.262	108.94
229.496	106.94
229.73	113.94
229.964	133.94
230.199	126.94
230.433	140.94
230.667	145.94
230.901	128.94
231.136	130.94
231.37	140.94
231.604	139.94
231.838	152.94
232.072	128.94
232.306	149.94
232.541	154.94
232.775	151.94
233.009	146.94
233.243	151.94
233.477	155.94
233.711	156.94
233.945	140.94
234.179	143.94
234.413	156.94
234.647	142.94
234.881	141.94
235.115	146.94
235.349	155.94
235.583	160.94
235.817	150.94
236.051	148.94
236.285	155.94
236.519	164.94
236.753	169.94
236.987	169.94
237.221	159.94
237.455	156.94
237.689	146.94
237.922	161.94
238.156	180.94
238.39	178.94
238.624	175.94
238.858	168.94
239.091	191.94
239.325	176.94
239.559	176.94
239.793	170.94
240.027	180.94
240.26	158.94
240.494	186.94
240.728	174.94
240.961	203.94
241.195	207.94
241.429	190.94
241.662	187.94
241.896	190.94
242.13	198.94
242.363	190.94
242.597	202.94
242.83	191.94
243.064	213.94
243.298	212.94
243.531	210.94
243.765	210.94
243.998	214.94
244.232	207.94
244.465	223.94
244.699	199.94
244.932	229.94
245.166	227.94
245.399	213.94
245.633	219.94
245.866	232.94
246.099	220.94
246.333	211.94
246.566	234.94
246.8	228.94
247.033	232.94
247.266	233.94
247.5	227.94
247.733	243.94
247.966	240.94
248.2	258.94
248.433	230.94
248.666	238.94
248.899	217.94
249.133	246.94
249.366	236.94
249.599	245.94
249.832	259.94
250.066	248.94
250.299	274.94
250.532	254.94
250.765	259.94
250.998	255.94
251.231	275.94
251.465	277.94
251.698	259.94
251.931	246.94
252.164	268.94
252.397	256.94
252.63	269.94
252.863	278.94
253.096	278.94
253.329	282.94
253.562	275.94
253.795	285.94
254.028	281.94
254.261	287.94
254.494	281.94
254.727	290.94
254.96	271.94
255.193	276.94
255.426	296.94
255.659	310.94
255.892	291.94
256.124	297.94
256.357	303.94
256.59	298.94
256.823	312.94
257.056	308.94
257.289	283.94
257.521	309.94
257.754	314.94
257.987	283.94
258.22	301.94
258.452	317.94
258.685	323.94
258.918	295.94
259.151	297.94
259.383	321.94
259.616	320.94
259.849	306.94
260.081	308.94
260.314	338.94
260.547	313.94
260.779	320.94
261.012	344.94
261.244	340.94
261.477	322.94
261.71	356.94
261.942	332.94
262.175	326.94
262.407	345.94
262.64	328.94
262.872	328.94
263.105	339.94
263.337	337.94
263.57	348.94
263.802	344.94
264.035	356.94
264.267	333.94
264.499	352.94
264.732	316.94
264.964	350.94
265.197	347.94
265.429	348.94
265.661	340.94
265.894	361.94
266.126	356.94
266.358	373.94
266.591	388.94
266.823	371.94
267.055	353.94
267.287	361.94
267.52	371.94
267.752	360.94
267.984	363.94
268.216	373.94
268.448	363.94
268.681	361.94
268.913	372.94
269.145	384.94
269.377	396.94
269.609	379.94
269.841	352.94
270.073	368.94
270.306	372.94
270.538	375.94
270.77	381.94
271.002	397.94
271.234	360.94
271.466	393.94
271.698	395.94
271.93	383.94
272.162	379.94
272.394	412.94
272.626	373.94
272.858	390.94
273.09	394.94
273.322	419.94
273.553	407.94
273.785	392.94
274.017	388.94
274.249	417.94
274.481	412.94
274.713	408.94
274.945	406.94
275.176	407.94
275.408	432.94
275.64	404.94
275.872	404.94
276.104	401.94
276.335	424.94
276.567	424.94
276.799	423.94
277.031	424.94
277.262	438.94
277.494	416.94
277.726	430.94
277.957	434.94
278.189	443.94
278.421	418.94
278.652	425.94
278.884	421.94
279.115	442.94
279.347	440.94
279.579	455.94
279.81	465.94
280.042	451.94
280.273	451.94
280.505	444.94
280.736	448.94
280.968	460.94
281.199	456.94
281.431	457.94
281.662	474.94
281.894	431.94
282.125	465.94
282.356	476.94
282.588	475.94
282.819	471.94
283.051	470.94
283.282	472.94
283.513	488.94
283.745	475.94
283.976	447.94
284.207	495.94
284.439	485.94
284.67	517.94
284.901	475.94
285.132	472.94
285.364	479.94
285.595	484.94
285.826	491.94
286.057	511.94
286.288	496.94
286.52	494.94
286.751	506.94
286.982	500.94
287.213	489.94
287.444	504.94
287.675	492.94
287.906	498.94
288.138	514.94
288.369	501.94
288.6	523.94
288.831	518.94
289.062	517.94
289.293	536.94
289.524	501.94
289.755	530.94
289.986	514.94
290.217	515.94
290.448	520.94
290.679	516.94
290.91	545.94
291.141	525.94
291.371	552.94
291.602	524.94
291.833	521.94
292.064	536.94
292.295	546.94
292.526	534.94
292.757	532.94
292.987	535.94
293.218	519.94
293.449	528.94
293.68	512.94
293.91	519.94
294.141	520.94
294.372	547.94
294.603	543.94
294.833	571.94
295.064	550.94
295.295	556.94
295.525	540.94
295.756	524.94
295.987	556.94
296.217	571.94
296.448	531.94
296.679	549.94
296.909	545.94
297.14	558.94
297.37	569.94
297.601	590.94
297.831	570.94
298.062	582.94
298.292	590.94
298.523	605.94
298.753	572.94
298.984	608.94
299.214	572.94
299.445	572.94
299.675	601.94
299.905	570.94
300.136	586.94
300.366	603.94
300.597	592.94
300.827	599.94
301.057	609.94
301.288	598.94
301.518	602.94
301.748	602.94
301.979	599.94
302.209	604.94
302.439	606.94
302.669	614.94
302.9	605.94
303.13	617.94
303.36	583.94
303.59	580.94
303.82	576.94
304.051	593.94
304.281	601.94
304.511	564.94
304.741	590.94
304.971	579.94
305.201	595.94
305.431	588.94
305.661	588.94
305.891	584.94
306.121	552.94
306.352	589.94
306.582	580.94
306.812	576.94
307.042	592.94
307.272	595.94
307.502	559.94
307.731	588.94
307.961	589.94
308.191	570.94
308.421	569.94
308.651	582.94
308.881	596.94
309.111	569.94
309.341	556.94
309.571	595.94
309.8	585.94
310.03	603.94
310.26	603.94
310.49	570.94
310.72	592.94
310.949	573.94
311.179	581.94
311.409	596.94
311.639	579.94
311.868	604.94
312.098	592.94
312.328	578.94
312.557	589.94
312.787	615.94
313.017	621.94
313.246	632.94
313.476	601.94
313.706	619.94
313.935	634.94
314.165	630.94
314.394	599.94
314.624	627.94
314.853	619.94
315.083	618.94
315.312	623.94
315.542	629.94
315.771	619.94
316.001	637.94
316.23	619.94
316.46	633.94
316.689	611.94
316.919	601.94
317.148	615.94
317.377	609.94
317.607	617.94
317.836	596.94
318.065	603.94
318.295	587.94
318.524	600.94
318.753	601.94
318.983	606.94
319.212	603.94
319.441	610.94
319.67	628.94
319.9	609.94
320.129	587.94
320.358	593.94
320.587	605.94
320.816	606.94
321.046	615.94
321.275	602.94
321.504	604.94
321.733	616.94
321.962	617.94
322.191	600.94
322.42	596.94
322.649	639.94
322.878	626.94
323.108	637.94
323.337	635.94
323.566	614.94
323.795	609.94
324.024	622.94
324.253	635.94
324.482	625.94
324.71	626.94
324.939	609.94
325.168	644.94
325.397	635.94
325.626	631.94
325.855	651.94
326.084	663.94
326.313	676.94
326.542	683.94
326.77	687.94
326.999	675.94
327.228	676.94
327.457	661.94
327.686	670.94
327.914	668.94
328.143	682.94
328.372	672.94
328.6	688.94
328.829	658.94
329.058	689.94
329.287	674.94
329.515	654.94
329.744	669.94
329.972	668.94
330.201	690.94
330.43	698.94
330.658	686.94
330.887	680.94
331.115	686.94
331.344	730.94
331.572	697.94
331.801	710.94
332.03	726.94
332.258	732.94
332.486	780.94
332.715	778.94
332.943	778.94
333.172	866.94
333.4	890.94
333.629	899.94
333.857	919.94
334.085	891.94
334.314	887.94
334.542	874.94
334.771	870.94
334.999	847.94
335.227	834.94
335.455	836.94
335.684	839.94
335.912	819.94
336.14	805.94
336.369	800.94
336.597	780.94
336.825	816.94
337.053	800.94
337.281	790.94
337.51	772.94
337.738	771.94
337.966	736.94
338.194	745.94
338.422	722.94
338.65	703.94
338.878	716.94
339.106	702.94
339.334	708.94
339.562	708.94
339.79	686.94
340.018	695.94
340.246	670.94
340.474	686.94
340.702	709.94
340.93	704.94
341.158	726.94
341.386	711.94
341.614	707.94
341.842	699.94
342.07	700.94
342.298	690.94
342.526	702.94
342.754	687.94
342.981	672.94
343.209	714.94
343.437	727.94
343.665	786.94
343.893	832.94
344.12	896.94
344.348	858.94
344.576	790.94
344.804	756.94
345.031	713.94
345.259	710.94
345.487	698.94
345.714	688.94
345.942	698.94
346.17	668.94
346.397	674.94
346.625	664.94
346.853	691.94
347.08	684.94
347.308	699.94
347.535	661.94
347.763	699.94
347.99	702.94
348.218	704.94
348.445	696.94
348.673	695.94
348.9	680.94
349.128	676.94
349.355	682.94
349.583	674.94
349.81	673.94
350.037	628.94
350.265	660.94
350.492	659.94
350.72	644.94
350.947	647.94
351.174	664.94
351.402	642.94
351.629	640.94
351.856	660.94
352.083	643.94
352.311	645.94
352.538	631.94
352.765	634.94
352.992	635.94
353.22	613.94
353.447	637.94
353.674	646.94
353.901	647.94
354.128	665.94
354.355	652.94
354.583	635.94
354.81	666.94
355.037	662.94
355.264	636.94
355.491	651.94
355.718	648.94
355.945	640.94
356.172	643.94
356.399	653.94
356.626	644.94
356.853	678.94
357.08	657.94
357.307	642.94
357.534	644.94
357.761	650.94
357.988	650.94
358.215	640.94
358.441	633.94
358.668	639.94
358.895	650.94
359.122	666.94
359.349	662.94
359.576	641.94
359.802	652.94
360.029	646.94
360.256	670.94
360.483	685.94
360.709	634.94
360.936	630.94
361.163	645.94
361.39	646.94
361.616	662.94
361.843	636.94
362.07	651.94
362.296	658.94
362.523	669.94
362.749	635.94
362.976	639.94
363.203	653.94
363.429	613.94
363.656	654.94
363.882	640.94
364.109	659.94
364.335	645.94
364.562	640.94
364.788	639.94
365.015	632.94
365.241	632.94
365.468	639.94
365.694	645.94
365.92	666.94
366.147	658.94
366.373	625.94
366.599	646.94
366.826	656.94
367.052	648.94
367.278	641.94
367.505	639.94
367.731	626.94
367.957	640.94
368.184	658.94
368.41	651.94
368.636	664.94
368.862	672.94
369.089	667.94
369.315	671.94
369.541	666.94
369.767	682.94
369.993	681.94
370.219	651.94
370.445	686.94
370.672	690.94
370.898	705.94
371.124	683.94
371.35	688.94
371.576	686.94
371.802	708.94
372.028	701.94
372.254	699.94
372.48	719.94
372.706	719.94
372.932	730.94
373.158	763.94
373.384	688.94
373.61	724.94
373.835	711.94
374.061	708.94
374.287	690.94
374.513	729.94
374.739	739.94
374.965	754.94
375.191	799.94
375.416	818.94
375.642	773.94
375.868	763.94
376.094	743.94
376.319	739.94
376.545	750.94
376.771	712.94
376.997	712.94
377.222	702.94
377.448	710.94
377.674	720.94
377.899	691.94
378.125	714.94
378.35	695.94
378.576	699.94
378.802	702.94
379.027	693.94
379.253	721.94
379.478	707.94
379.704	710.94
379.929	707.94
380.155	699.94
380.38	716.94
380.606	694.94
380.831	704.94
381.057	703.94
381.282	716.94
381.507	724.94
381.733	716.94
381.958	716.94
382.184	707.94
382.409	711.94
382.634	723.94
382.86	731.94
383.085	770.94
383.31	774.94
383.535	778.94
383.761	780.94
383.986	778.94
384.211	792.94
384.436	827.94
384.662	845.94
384.887	853.94
385.112	830.94
385.337	888.94
385.562	853.94
385.787	862.94
386.013	860.94
386.238	852.94
386.463	845.94
386.688	877.94
386.913	862.94
387.138	852.94
387.363	844.94
387.588	825.94
387.813	818.94
388.038	838.94
388.263	836.94
388.488	852.94
388.713	865.94
388.938	832.94
389.163	819.94
389.387	844.94
389.612	792.94
389.837	804.94
390.062	822.94
390.287	798.94
390.512	823.94
390.736	823.94
390.961	829.94
391.186	841.94
391.411	891.94
391.636	922.94
391.86	952.94
392.085	966.94
392.31	936.94
392.534	916.94
392.759	913.94
392.984	883.94
393.208	882.94
393.433	914.94
393.658	898.94
393.882	895.94
394.107	927.94
394.331	912.94
394.556	916.94
394.78	928.94
395.005	908.94
395.229	920.94
395.454	940.94
395.678	971.94
395.903	956.94
396.127	915.94
396.352	907.94
396.576	892.94
396.801	873.94
397.025	896.94
397.249	908.94
397.474	912.94
397.698	958.94
397.922	949.94
398.147	935.94
398.371	923.94
398.595	984.94
398.82	1013.94
399.044	1111.94
399.268	1184.94
399.492	1435.94
399.717	1620.94
399.941	1643.94
400.165	1434.94
400.389	1302.94
400.613	1161.94
400.837	1092.94
401.062	1059.94
401.286	1034.94
401.51	1026.94
401.734	1052.94
401.958	1072.94
402.182	1061.94
402.406	1082.94
402.63	1112.94
402.854	1110.94
403.078	1152.94
403.302	1190.94
403.526	1208.94
403.75	1215.94
403.974	1254.94
404.198	1254.94
404.422	1263.94
404.645	1216.94
404.869	1218.94
405.093	1223.94
405.317	1204.94
405.541	1172.94
405.765	1182.94
405.988	1164.94
406.212	1185.94
406.436	1168.94
406.66	1164.94
406.883	1206.94
407.107	1276.94
407.331	1350.94
407.555	1376.94
407.778	1392.94
408.002	1356.94
408.226	1297.94
408.449	1255.94
408.673	1200.94
408.896	1202.94
409.12	1170.94
409.344	1202.94
409.567	1209.94
409.791	1248.94
410.014	1223.94
410.238	1215.94
410.461	1199.94
410.685	1186.94
410.908	1174.94
411.132	1115.94
411.355	1100.94
411.578	1112.94
411.802	1095.94
412.025	1137.94
412.249	1134.94
412.472	1137.94
412.695	1094.94
412.919	1077.94
413.142	1034.94
413.365	1061.94
413.589	1080.94
413.812	1049.94
414.035	1058.94
414.258	1033.94
414.482	1050.94
414.705	1067.94
414.928	1085.94
415.151	1072.94
415.374	1086.94
415.597	1042.94
415.821	1050.94
416.044	1066.94
416.267	1008.94
416.49	1043.94
416.713	1000.94
416.936	1039.94
417.159	1028.94
417.382	1046.94
417.605	1041.94
417.828	1017.94
418.051	1086.94
418.274	1052.94
418.497	1044.94
418.72	1112.94
418.943	1118.94
419.166	1149.94
419.389	1244.94
419.611	1191.94
419.834	1176.94
420.057	1102.94
420.28	1089.94
420.503	1044.94
420.726	1055.94
420.948	1024.94
421.171	1012.94
421.394	1020.94
421.617	1039.94
421.839	1042.94
422.062	1032.94
422.285	1000.94
422.507	1100.94
422.73	1081.94
422.953	1109.94
423.175	1103.94
423.398	1112.94
423.621	1104.94
423.843	1148.94
424.066	1134.94
424.288	1157.94
424.511	1134.94
424.733	1119.94
424.956	1062.94
425.178	1070.94
425.401	1055.94
425.623	1061.94
425.846	1003.94
426.068	1044.94
426.291	1022.94
426.513	995.94
426.735	996.94
426.958	980.94
427.18	968.94
427.402	961.94
427.625	957.94
427.847	932.94
428.069	961.94
428.292	979.94
428.514	936.94
428.736	944.94
428.958	933.94
429.181	916.94
429.403	924.94
429.625	927.94
429.847	944.94
430.069	918.94
430.292	929.94
430.514	904.94
430.736	927.94
430.958	928.94
431.18	880.94
431.402	937.94
431.624	920.94
431.846	933.94
432.068	967.94
432.29	981.94
432.512	936.94
432.734	923.94
432.956	954.94
433.178	962.94
433.4	974.94
433.622	953.94
433.844	937.94
434.066	979.94
434.287	974.94
434.509	1013.94
434.731	987.94
434.953	1061.94
435.175	1090.94
435.397	1070.94
435.618	1002.94
435.84	987.94
436.062	953.94
436.284	919.94
436.505	925.94
436.727	955.94
436.949	959.94
437.17	946.94
437.392	926.94
437.614	923.94
437.835	891.94
438.057	916.94
438.278	912.94
438.5	913.94
438.721	884.94
438.943	926.94
439.165	901.94
439.386	934.94
439.608	943.94
439.829	949.94
440.05	947.94
440.272	943.94
440.493	939.94
440.715	957.94
440.936	982.94
441.158	969.94
441.379	1040.94
441.6	1097.94
441.822	1072.94
442.043	1105.94
442.264	1064.94
442.486	1025.94
442.707	1067.94
442.928	1075.94
443.149	1051.94
443.371	1049.94
443.592	1094.94
443.813	1055.94
444.034	1070.94
444.255	1110.94
444.476	1169.94
444.698	1242.94
444.919	1320.94
445.14	1381.94
445.361	1224.94
445.582	1106.94
445.803	1062.94
446.024	1019.94
446.245	997.94
446.466	954.94
446.687	959.94
446.908	985.94
447.129	920.94
447.35	931.94
447.571	962.94
447.792	890.94
448.013	904.94
448.234	882.94
448.455	907.94
448.675	898.94
448.896	908.94
449.117	870.94
449.338	886.94
449.559	880.94
449.779	851.94
450	854.94
450.221	871.94
450.442	877.94
450.662	876.94
450.883	887.94
451.104	919.94
451.324	944.94
451.545	912.94
451.766	899.94
451.986	900.94
452.207	894.94
452.428	884.94
452.648	870.94
452.869	889.94
453.089	856.94
453.31	876.94
453.53	842.94
453.751	885.94
453.971	824.94
454.192	838.94
454.412	851.94
454.633	842.94
454.853	840.94
455.073	849.94
455.294	825.94
455.514	849.94
455.734	855.94
455.955	841.94
456.175	830.94
456.395	810.94
456.616	823.94
456.836	817.94
457.056	832.94
457.276	821.94
457.497	802.94
457.717	819.94
457.937	812.94
458.157	841.94
458.377	843.94
458.598	887.94
458.818	866.94
459.038	871.94
459.258	951.94
459.478	969.94
459.698	1001.94
459.918	1014.94
460.138	1034.94
460.358	1086.94
460.578	1130.94
460.798	1107.94
461.018	1147.94
461.238	1143.94
461.458	1125.94
461.678	1090.94
461.898	1124.94
462.118	1135.94
462.338	1209.94
462.558	1231.94
462.777	1264.94
462.997	1386.94
463.217	1519.94
463.437	1568.94
463.657	1406.94
463.876	1337.94
464.096	1310.94
464.316	1328.94
464.536	1340.94
464.755	1279.94
464.975	1268.94
465.195	1202.94
465.414	1110.94
465.634	1040.94
465.854	990.94
466.073	966.94
466.293	963.94
466.512	939.94
466.732	932.94
466.951	955.94
467.171	900.94
467.391	946.94
467.61	907.94
467.829	921.94
468.049	916.94
468.268	874.94
468.488	887.94
468.707	872.94
468.927	889.94
469.146	875.94
469.365	866.94
469.585	912.94
469.804	912.94
470.023	934.94
470.243	931.94
470.462	949.94
470.681	957.94
470.901	962.94
471.12	979.94
471.339	930.94
471.558	897.94
471.777	885.94
471.997	887.94
472.216	889.94
472.435	876.94
472.654	884.94
472.873	866.94
473.092	868.94
473.311	863.94
473.53	847.94
473.749	839.94
473.968	853.94
474.187	832.94
474.406	864.94
474.625	849.94
474.844	856.94
475.063	873.94
475.282	875.94
475.501	840.94
475.72	858.94
475.939	880.94
476.158	886.94
476.377	913.94
476.596	875.94
476.814	908.94
477.033	900.94
477.252	933.94
477.471	946.94
477.69	979.94
477.908	992.94
478.127	1026.94
478.346	1059.94
478.564	1048.94
478.783	1073.94
479.002	1093.94
479.22	1086.94
479.439	1083.94
479.658	1054.94
479.876	1057.94
480.095	1097.94
480.313	1141.94
480.532	1156.94
480.751	1168.94
480.969	1088.94
481.188	1060.94
481.406	1036.94
481.624	1017.94
481.843	992.94
482.061	976.94
482.28	988.94
482.498	989.94
482.717	987.94
482.935	981.94
483.153	988.94
483.372	973.94
483.59	1000.94
483.808	985.94
484.027	1007.94
484.245	1008.94
484.463	1002.94
484.681	1011.94
484.9	1025.94
485.118	1028.94
485.336	1027.94
485.554	1034.94
485.772	1040.94
485.99	1068.94
486.209	1063.94
486.427	1038.94
486.645	1060.94
486.863	1054.94
487.081	1080.94
487.299	1034.94
487.517	1028.94
487.735	1041.94
487.953	1035.94
488.171	1029.94
488.389	1024.94
488.607	991.94
488.825	1003.94
489.043	1022.94
489.261	1013.94
489.479	1024.94
489.696	1017.94
489.914	1012.94
490.132	1017.94
490.35	1035.94
490.568	1032.94
490.786	1042.94
491.003	1025.94
491.221	1022.94
491.439	1043.94
491.657	1036.94
491.874	1040.94
492.092	1042.94
492.31	1044.94
492.527	1048.94
492.745	1046.94
492.963	1048.94
493.18	1044.94
493.398	1075.94
493.615	1068.94
493.833	1076.94
494.05	1057.94
494.268	1089.94
494.485	1096.94
494.703	1117.94
494.92	1099.94
495.138	1077.94
495.355	1114.94
495.573	1096.94
495.79	1091.94
496.008	1104.94
496.225	1097.94
496.442	1106.94
496.66	1119.94
496.877	1112.94
497.094	1130.94
497.312	1192.94
497.529	1200.94
497.746	1212.94
497.963	1237.94
