Data from NiCl2@0.5M.TitratingCurve.Agarose3%dH2O.NegLispCup.LampEnergy10.LIBS07252019_HRD10591_18-21-10-577.txt Node
Date: Thu Jul 25 18:21:10 EDT 2019
User: cochatt
Spectrometer: HR+D1059
Trigger mode: 1
Integration Time (sec): 1.000000E-1
Scans to average: 1
Electric dark correction enabled: true
Nonlinearity correction enabled: false
Boxcar width: 0
XAxis mode: Wavelengths
Number of Pixels in Spectrum: 2048
>>>>>Begin Spectral Data<<<<<
223.165	-28.19
223.4	-28.19
223.635	-28.19
223.869	-15.19
224.104	-8.19
224.338	-13.19
224.573	-15.19
224.808	-20.19
225.042	-10.19
225.277	5.81
225.511	1.81
225.746	-1.19
225.98	11.81
226.215	6.81
226.449	16.81
226.683	9.81
226.918	28.81
227.152	29.81
227.387	45.81
227.621	27.81
227.856	44.81
228.09	54.81
228.324	37.81
228.559	60.81
228.793	66.81
229.027	103.81
229.262	101.81
229.496	116.81
229.73	116.81
229.964	122.81
230.199	111.81
230.433	119.81
230.667	132.81
230.901	121.81
231.136	117.81
231.37	139.81
231.604	135.81
231.838	120.81
232.072	140.81
232.306	139.81
232.541	151.81
232.775	134.81
233.009	140.81
233.243	142.81
233.477	141.81
233.711	131.81
233.945	137.81
234.179	143.81
234.413	144.81
234.647	151.81
234.881	150.81
235.115	136.81
235.349	142.81
235.583	152.81
235.817	157.81
236.051	138.81
236.285	144.81
236.519	125.81
236.753	136.81
236.987	140.81
237.221	147.81
237.455	158.81
237.689	152.81
237.922	152.81
238.156	135.81
238.39	152.81
238.624	136.81
238.858	145.81
239.091	161.81
239.325	156.81
239.559	155.81
239.793	169.81
240.027	168.81
240.26	159.81
240.494	156.81
240.728	164.81
240.961	160.81
241.195	163.81
241.429	174.81
241.662	169.81
241.896	171.81
242.13	171.81
242.363	158.81
242.597	159.81
242.83	173.81
243.064	172.81
243.298	160.81
243.531	188.81
243.765	207.81
243.998	191.81
244.232	174.81
244.465	194.81
244.699	171.81
244.932	177.81
245.166	194.81
245.399	202.81
245.633	194.81
245.866	197.81
246.099	175.81
246.333	186.81
246.566	183.81
246.8	204.81
247.033	194.81
247.266	215.81
247.5	189.81
247.733	210.81
247.966	206.81
248.2	205.81
248.433	204.81
248.666	202.81
248.899	193.81
249.133	209.81
249.366	215.81
249.599	223.81
249.832	208.81
250.066	205.81
250.299	234.81
250.532	214.81
250.765	222.81
250.998	203.81
251.231	224.81
251.465	210.81
251.698	215.81
251.931	219.81
252.164	239.81
252.397	225.81
252.63	235.81
252.863	217.81
253.096	223.81
253.329	219.81
253.562	219.81
253.795	253.81
254.028	237.81
254.261	254.81
254.494	244.81
254.727	239.81
254.96	238.81
255.193	239.81
255.426	235.81
255.659	259.81
255.892	249.81
256.124	256.81
256.357	246.81
256.59	252.81
256.823	239.81
257.056	251.81
257.289	246.81
257.521	259.81
257.754	250.81
257.987	253.81
258.22	251.81
258.452	252.81
258.685	258.81
258.918	262.81
259.151	264.81
259.383	263.81
259.616	256.81
259.849	267.81
260.081	258.81
260.314	275.81
260.547	265.81
260.779	272.81
261.012	284.81
261.244	278.81
261.477	293.81
261.71	287.81
261.942	295.81
262.175	273.81
262.407	286.81
262.64	284.81
262.872	265.81
263.105	277.81
263.337	309.81
263.57	284.81
263.802	306.81
264.035	282.81
264.267	303.81
264.499	291.81
264.732	291.81
264.964	294.81
265.197	310.81
265.429	283.81
265.661	302.81
265.894	278.81
266.126	302.81
266.358	292.81
266.591	289.81
266.823	291.81
267.055	283.81
267.287	288.81
267.52	299.81
267.752	311.81
267.984	310.81
268.216	316.81
268.448	318.81
268.681	318.81
268.913	286.81
269.145	324.81
269.377	294.81
269.609	327.81
269.841	318.81
270.073	320.81
270.306	317.81
270.538	315.81
270.77	314.81
271.002	324.81
271.234	314.81
271.466	337.81
271.698	326.81
271.93	314.81
272.162	335.81
272.394	335.81
272.626	318.81
272.858	314.81
273.09	339.81
273.322	343.81
273.553	333.81
273.785	358.81
274.017	346.81
274.249	352.81
274.481	364.81
274.713	356.81
274.945	358.81
275.176	331.81
275.408	343.81
275.64	327.81
275.872	353.81
276.104	354.81
276.335	348.81
276.567	361.81
276.799	346.81
277.031	350.81
277.262	346.81
277.494	376.81
277.726	371.81
277.957	371.81
278.189	352.81
278.421	356.81
278.652	371.81
278.884	362.81
279.115	366.81
279.347	387.81
279.579	360.81
279.81	372.81
280.042	378.81
280.273	375.81
280.505	376.81
280.736	400.81
280.968	375.81
281.199	369.81
281.431	374.81
281.662	390.81
281.894	376.81
282.125	389.81
282.356	390.81
282.588	391.81
282.819	387.81
283.051	390.81
283.282	389.81
283.513	413.81
283.745	396.81
283.976	394.81
284.207	404.81
284.439	410.81
284.67	416.81
284.901	440.81
285.132	416.81
285.364	400.81
285.595	404.81
285.826	393.81
286.057	406.81
286.288	407.81
286.52	417.81
286.751	436.81
286.982	445.81
287.213	427.81
287.444	413.81
287.675	441.81
287.906	419.81
288.138	429.81
288.369	439.81
288.6	442.81
288.831	449.81
289.062	422.81
289.293	422.81
289.524	427.81
289.755	446.81
289.986	458.81
290.217	419.81
290.448	425.81
290.679	437.81
290.91	436.81
291.141	452.81
291.371	438.81
291.602	438.81
291.833	435.81
292.064	468.81
292.295	432.81
292.526	441.81
292.757	448.81
292.987	422.81
293.218	415.81
293.449	441.81
293.68	457.81
293.91	440.81
294.141	438.81
294.372	441.81
294.603	450.81
294.833	445.81
295.064	459.81
295.295	456.81
295.525	441.81
295.756	444.81
295.987	457.81
296.217	463.81
296.448	482.81
296.679	444.81
296.909	449.81
297.14	471.81
297.37	483.81
297.601	476.81
297.831	484.81
298.062	469.81
298.292	504.81
298.523	490.81
298.753	474.81
298.984	468.81
299.214	478.81
299.445	471.81
299.675	483.81
299.905	484.81
300.136	514.81
300.366	482.81
300.597	495.81
300.827	520.81
301.057	518.81
301.288	523.81
301.518	530.81
301.748	505.81
301.979	517.81
302.209	514.81
302.439	516.81
302.669	506.81
302.9	504.81
303.13	502.81
303.36	515.81
303.59	518.81
303.82	522.81
304.051	481.81
304.281	524.81
304.511	502.81
304.741	508.81
304.971	522.81
305.201	505.81
305.431	502.81
305.661	517.81
305.891	501.81
306.121	529.81
306.352	498.81
306.582	503.81
306.812	503.81
307.042	514.81
307.272	499.81
307.502	498.81
307.731	494.81
307.961	524.81
308.191	498.81
308.421	488.81
308.651	514.81
308.881	514.81
309.111	506.81
309.341	503.81
309.571	498.81
309.8	508.81
310.03	510.81
310.26	528.81
310.49	504.81
310.72	495.81
310.949	498.81
311.179	510.81
311.409	536.81
311.639	521.81
311.868	498.81
312.098	515.81
312.328	539.81
312.557	524.81
312.787	519.81
313.017	514.81
313.246	554.81
313.476	543.81
313.706	555.81
313.935	549.81
314.165	534.81
314.394	549.81
314.624	539.81
314.853	553.81
315.083	542.81
315.312	542.81
315.542	546.81
315.771	556.81
316.001	528.81
316.23	552.81
316.46	532.81
316.689	529.81
316.919	534.81
317.148	534.81
317.377	532.81
317.607	527.81
317.836	532.81
318.065	527.81
318.295	534.81
318.524	542.81
318.753	518.81
318.983	523.81
319.212	538.81
319.441	544.81
319.67	547.81
319.9	544.81
320.129	528.81
320.358	531.81
320.587	536.81
320.816	536.81
321.046	550.81
321.275	544.81
321.504	525.81
321.733	544.81
321.962	542.81
322.191	553.81
322.42	533.81
322.649	550.81
322.878	535.81
323.108	532.81
323.337	557.81
323.566	564.81
323.795	546.81
324.024	547.81
324.253	572.81
324.482	568.81
324.71	548.81
324.939	570.81
325.168	570.81
325.397	578.81
325.626	571.81
325.855	570.81
326.084	578.81
326.313	607.81
326.542	591.81
326.77	589.81
326.999	585.81
327.228	598.81
327.457	582.81
327.686	565.81
327.914	575.81
328.143	590.81
328.372	572.81
328.6	591.81
328.829	592.81
329.058	581.81
329.287	586.81
329.515	598.81
329.744	575.81
329.972	607.81
330.201	612.81
330.43	616.81
330.658	607.81
330.887	629.81
331.115	612.81
331.344	620.81
331.572	635.81
331.801	633.81
332.03	621.81
332.258	669.81
332.486	670.81
332.715	695.81
332.943	702.81
333.172	741.81
333.4	772.81
333.629	762.81
333.857	748.81
334.085	748.81
334.314	759.81
334.542	748.81
334.771	754.81
334.999	742.81
335.227	722.81
335.455	727.81
335.684	734.81
335.912	714.81
336.14	713.81
336.369	702.81
336.597	690.81
336.825	679.81
337.053	703.81
337.281	699.81
337.51	674.81
337.738	671.81
337.966	668.81
338.194	655.81
338.422	662.81
338.65	626.81
338.878	650.81
339.106	626.81
339.334	667.81
339.562	653.81
339.79	607.81
340.018	598.81
340.246	646.81
340.474	615.81
340.702	620.81
340.93	625.81
341.158	633.81
341.386	620.81
341.614	629.81
341.842	630.81
342.07	612.81
342.298	643.81
342.526	625.81
342.754	605.81
342.981	602.81
343.209	637.81
343.437	662.81
343.665	689.81
343.893	715.81
344.12	750.81
344.348	731.81
344.576	690.81
344.804	668.81
345.031	637.81
345.259	638.81
345.487	639.81
345.714	614.81
345.942	612.81
346.17	624.81
346.397	631.81
346.625	603.81
346.853	586.81
347.08	578.81
347.308	584.81
347.535	580.81
347.763	602.81
347.99	611.81
348.218	596.81
348.445	589.81
348.673	582.81
348.9	608.81
349.128	585.81
349.355	589.81
349.583	587.81
349.81	588.81
350.037	573.81
350.265	568.81
350.492	566.81
350.72	588.81
350.947	582.81
351.174	587.81
351.402	591.81
351.629	593.81
351.856	600.81
352.083	564.81
352.311	567.81
352.538	580.81
352.765	570.81
352.992	572.81
353.22	559.81
353.447	534.81
353.674	546.81
353.901	559.81
354.128	539.81
354.355	557.81
354.583	555.81
354.81	571.81
355.037	578.81
355.264	572.81
355.491	586.81
355.718	555.81
355.945	557.81
356.172	577.81
356.399	575.81
356.626	571.81
356.853	586.81
357.08	552.81
357.307	561.81
357.534	562.81
357.761	566.81
357.988	593.81
358.215	576.81
358.441	574.81
358.668	552.81
358.895	571.81
359.122	564.81
359.349	557.81
359.576	561.81
359.802	555.81
360.029	550.81
360.256	571.81
360.483	579.81
360.709	559.81
360.936	582.81
361.163	555.81
361.39	564.81
361.616	582.81
361.843	569.81
362.07	595.81
362.296	574.81
362.523	554.81
362.749	573.81
362.976	579.81
363.203	557.81
363.429	544.81
363.656	550.81
363.882	579.81
364.109	556.81
364.335	554.81
364.562	543.81
364.788	564.81
365.015	566.81
365.241	546.81
365.468	543.81
365.694	558.81
365.92	552.81
366.147	538.81
366.373	540.81
366.599	569.81
366.826	556.81
367.052	547.81
367.278	578.81
367.505	588.81
367.731	565.81
367.957	567.81
368.184	557.81
368.41	563.81
368.636	560.81
368.862	568.81
369.089	575.81
369.315	568.81
369.541	576.81
369.767	587.81
369.993	593.81
370.219	562.81
370.445	611.81
370.672	586.81
370.898	599.81
371.124	601.81
371.35	595.81
371.576	615.81
371.802	614.81
372.028	601.81
372.254	591.81
372.48	599.81
372.706	615.81
372.932	620.81
373.158	624.81
373.384	622.81
373.61	605.81
373.835	586.81
374.061	621.81
374.287	634.81
374.513	622.81
374.739	639.81
374.965	650.81
375.191	656.81
375.416	665.81
375.642	629.81
375.868	636.81
376.094	588.81
376.319	615.81
376.545	611.81
376.771	624.81
376.997	594.81
377.222	622.81
377.448	603.81
377.674	565.81
377.899	602.81
378.125	572.81
378.35	590.81
378.576	577.81
378.802	578.81
379.027	596.81
379.253	581.81
379.478	577.81
379.704	599.81
379.929	599.81
380.155	584.81
380.38	587.81
380.606	606.81
380.831	595.81
381.057	616.81
381.282	605.81
381.507	588.81
381.733	591.81
381.958	596.81
382.184	604.81
382.409	616.81
382.634	627.81
382.86	642.81
383.085	660.81
383.31	618.81
383.535	665.81
383.761	651.81
383.986	647.81
384.211	686.81
384.436	668.81
384.662	698.81
384.887	715.81
385.112	698.81
385.337	724.81
385.562	706.81
385.787	719.81
386.013	732.81
386.238	714.81
386.463	701.81
386.688	720.81
386.913	718.81
387.138	702.81
387.363	733.81
387.588	698.81
387.813	699.81
388.038	726.81
388.263	720.81
388.488	735.81
388.713	720.81
388.938	710.81
389.163	707.81
389.387	696.81
389.612	670.81
389.837	703.81
390.062	674.81
390.287	708.81
390.512	674.81
390.736	725.81
390.961	731.81
391.186	745.81
391.411	751.81
391.636	804.81
391.86	783.81
392.085	801.81
392.31	808.81
392.534	768.81
392.759	780.81
392.984	772.81
393.208	733.81
393.433	755.81
393.658	747.81
393.882	737.81
394.107	743.81
394.331	757.81
394.556	748.81
394.78	756.81
395.005	757.81
395.229	783.81
395.454	813.81
395.678	796.81
395.903	808.81
396.127	793.81
396.352	759.81
396.576	769.81
396.801	804.81
397.025	802.81
397.249	784.81
397.474	823.81
397.698	829.81
397.922	796.81
398.147	804.81
398.371	805.81
398.595	850.81
398.82	886.81
399.044	951.81
399.268	1042.81
399.492	1178.81
399.717	1297.81
399.941	1269.81
400.165	1176.81
400.389	1108.81
400.613	999.81
400.837	943.81
401.062	915.81
401.286	908.81
401.51	899.81
401.734	878.81
401.958	914.81
402.182	906.81
402.406	852.81
402.63	924.81
402.854	953.81
403.078	940.81
403.302	963.81
403.526	989.81
403.75	1003.81
403.974	1005.81
404.198	1017.81
404.422	1006.81
404.645	992.81
404.869	991.81
405.093	1017.81
405.317	971.81
405.541	997.81
405.765	965.81
405.988	979.81
406.212	973.81
406.436	998.81
406.66	1027.81
406.883	1013.81
407.107	1078.81
407.331	1100.81
407.555	1126.81
407.778	1135.81
408.002	1144.81
408.226	1093.81
408.449	1062.81
408.673	1049.81
408.896	1021.81
409.12	1021.81
409.344	1031.81
409.567	1001.81
409.791	997.81
410.014	1006.81
410.238	1010.81
410.461	970.81
410.685	951.81
410.908	970.81
411.132	973.81
411.355	923.81
411.578	916.81
411.802	920.81
412.025	903.81
412.249	946.81
412.472	936.81
412.695	938.81
412.919	910.81
413.142	911.81
413.365	910.81
413.589	894.81
413.812	888.81
414.035	901.81
414.258	876.81
414.482	908.81
414.705	900.81
414.928	910.81
415.151	908.81
415.374	930.81
415.597	902.81
415.821	896.81
416.044	895.81
416.267	885.81
416.49	867.81
416.713	876.81
416.936	869.81
417.159	863.81
417.382	875.81
417.605	885.81
417.828	894.81
418.051	893.81
418.274	891.81
418.497	895.81
418.72	930.81
418.943	895.81
419.166	935.81
419.389	1006.81
419.611	975.81
419.834	970.81
420.057	941.81
420.28	897.81
420.503	884.81
420.726	896.81
420.948	873.81
421.171	873.81
421.394	888.81
421.617	865.81
421.839	888.81
422.062	904.81
422.285	899.81
422.507	912.81
422.73	895.81
422.953	919.81
423.175	943.81
423.398	950.81
423.621	910.81
423.843	954.81
424.066	924.81
424.288	933.81
424.511	949.81
424.733	926.81
424.956	930.81
425.178	882.81
425.401	916.81
425.623	900.81
425.846	866.81
426.068	893.81
426.291	849.81
426.513	876.81
426.735	847.81
426.958	847.81
427.18	839.81
427.402	853.81
427.625	863.81
427.847	810.81
428.069	835.81
428.292	832.81
428.514	818.81
428.736	831.81
428.958	808.81
429.181	782.81
429.403	782.81
429.625	804.81
429.847	770.81
430.069	785.81
430.292	790.81
430.514	761.81
430.736	802.81
430.958	800.81
431.18	796.81
431.402	800.81
431.624	813.81
431.846	856.81
432.068	814.81
432.29	842.81
432.512	802.81
432.734	824.81
432.956	820.81
433.178	784.81
433.4	793.81
433.622	822.81
433.844	820.81
434.066	830.81
434.287	828.81
434.509	856.81
434.731	884.81
434.953	902.81
435.175	896.81
435.397	912.81
435.618	868.81
435.84	860.81
436.062	812.81
436.284	834.81
436.505	810.81
436.727	831.81
436.949	813.81
437.17	825.81
437.392	811.81
437.614	803.81
437.835	793.81
438.057	808.81
438.278	760.81
438.5	751.81
438.721	798.81
438.943	778.81
439.165	788.81
439.386	805.81
439.608	802.81
439.829	832.81
440.05	818.81
440.272	809.81
440.493	829.81
440.715	839.81
440.936	867.81
441.158	856.81
441.379	910.81
441.6	908.81
441.822	908.81
442.043	920.81
442.264	911.81
442.486	869.81
442.707	894.81
442.928	867.81
443.149	898.81
443.371	900.81
443.592	899.81
443.813	906.81
444.034	939.81
444.255	947.81
444.476	1002.81
444.698	1030.81
444.919	1074.81
445.14	1128.81
445.361	1015.81
445.582	941.81
445.803	900.81
446.024	882.81
446.245	863.81
446.466	847.81
446.687	838.81
446.908	830.81
447.129	798.81
447.35	810.81
447.571	819.81
447.792	799.81
448.013	773.81
448.234	780.81
448.455	784.81
448.675	774.81
448.896	742.81
449.117	727.81
449.338	754.81
449.559	754.81
449.779	754.81
450	742.81
450.221	766.81
450.442	760.81
450.662	772.81
450.883	781.81
451.104	779.81
451.324	782.81
451.545	778.81
451.766	781.81
451.986	748.81
452.207	746.81
452.428	747.81
452.648	762.81
452.869	750.81
453.089	711.81
453.31	744.81
453.53	733.81
453.751	738.81
453.971	726.81
454.192	733.81
454.412	716.81
454.633	711.81
454.853	738.81
455.073	731.81
455.294	718.81
455.514	713.81
455.734	697.81
455.955	699.81
456.175	716.81
456.395	696.81
456.616	734.81
456.836	694.81
457.056	718.81
457.276	701.81
457.497	731.81
457.717	703.81
457.937	739.81
458.157	725.81
458.377	728.81
458.598	727.81
458.818	760.81
459.038	792.81
459.258	801.81
459.478	840.81
459.698	888.81
459.918	871.81
460.138	884.81
460.358	956.81
460.578	939.81
460.798	988.81
461.018	978.81
461.238	981.81
461.458	978.81
461.678	958.81
461.898	990.81
462.118	977.81
462.338	1015.81
462.558	1069.81
462.777	1127.81
462.997	1204.81
463.217	1254.81
463.437	1262.81
463.657	1156.81
463.876	1082.81
464.096	1112.81
464.316	1122.81
464.536	1128.81
464.755	1092.81
464.975	1052.81
465.195	974.81
465.414	934.81
465.634	899.81
465.854	892.81
466.073	858.81
466.293	826.81
466.512	790.81
466.732	800.81
466.951	820.81
467.171	808.81
467.391	808.81
467.61	809.81
467.829	806.81
468.049	767.81
468.268	764.81
468.488	776.81
468.707	763.81
468.927	766.81
469.146	774.81
469.365	805.81
469.585	798.81
469.804	799.81
470.023	822.81
470.243	830.81
470.462	824.81
470.681	815.81
470.901	832.81
471.12	830.81
471.339	807.81
471.558	790.81
471.777	777.81
471.997	789.81
472.216	795.81
472.435	751.81
472.654	784.81
472.873	764.81
473.092	742.81
473.311	731.81
473.53	772.81
473.749	751.81
473.968	770.81
474.187	717.81
474.406	737.81
474.625	758.81
474.844	755.81
475.063	738.81
475.282	764.81
475.501	771.81
475.72	760.81
475.939	784.81
476.158	799.81
476.377	794.81
476.596	810.81
476.814	805.81
477.033	802.81
477.252	814.81
477.471	840.81
477.69	866.81
477.908	835.81
478.127	878.81
478.346	887.81
478.564	913.81
478.783	913.81
479.002	929.81
479.22	966.81
479.439	925.81
479.658	932.81
479.876	938.81
480.095	951.81
480.313	989.81
480.532	1020.81
480.751	950.81
480.969	954.81
481.188	893.81
481.406	914.81
481.624	875.81
481.843	882.81
482.061	870.81
482.28	869.81
482.498	855.81
482.717	835.81
482.935	847.81
483.153	843.81
483.372	876.81
483.59	858.81
483.808	857.81
484.027	858.81
484.245	877.81
484.463	869.81
484.681	876.81
484.9	877.81
485.118	905.81
485.336	910.81
485.554	920.81
485.772	904.81
485.99	910.81
486.209	883.81
486.427	904.81
486.645	909.81
486.863	894.81
487.081	942.81
487.299	914.81
487.517	895.81
487.735	886.81
487.953	912.81
488.171	898.81
488.389	925.81
488.607	896.81
488.825	894.81
489.043	885.81
489.261	883.81
489.479	915.81
489.696	905.81
489.914	894.81
490.132	898.81
490.35	918.81
490.568	918.81
490.786	909.81
491.003	934.81
491.221	911.81
491.439	944.81
491.657	896.81
491.874	922.81
492.092	924.81
492.31	953.81
492.527	972.81
492.745	964.81
492.963	926.81
493.18	950.81
493.398	950.81
493.615	935.81
493.833	957.81
494.05	954.81
494.268	983.81
494.485	974.81
494.703	983.81
494.92	974.81
495.138	956.81
495.355	981.81
495.573	966.81
495.79	964.81
496.008	974.81
496.225	987.81
496.442	984.81
496.66	997.81
496.877	989.81
497.094	1024.81
497.312	1055.81
497.529	1076.81
497.746	1071.81
497.963	1128.81
498.181	1190.81
498.398	1229.81
498.615	1274.81
498.832	1386.81
499.049	1507.81
499.267	1586.81
499.484	1725.81
499.701	1899.81
499.918	2047.81
500.135	2370.81
500.352	2634.81
500.569	2670.81
500.786	2676.81
