Data from NiCl2@0.0625M.TitratingCurve.Agarose3%dH2O.NegLispCup.LampEnergy10.LIBS07252019_HRD10591_18-34-22-576.txt Node
Date: Thu Jul 25 18:34:22 EDT 2019
User: cochatt
Spectrometer: HR+D1059
Trigger mode: 1
Integration Time (sec): 1.000000E-1
Scans to average: 1
Electric dark correction enabled: true
Nonlinearity correction enabled: false
Boxcar width: 0
XAxis mode: Wavelengths
Number of Pixels in Spectrum: 2048
>>>>>Begin Spectral Data<<<<<
223.165	-8.69
223.4	-8.69
223.635	-8.69
223.869	-26.69
224.104	-16.69
224.338	-12.69
224.573	-19.69
224.808	-12.69
225.042	-6.69
225.277	-2.69
225.511	0.31
225.746	5.31
225.98	3.31
226.215	20.31
226.449	9.31
226.683	15.31
226.918	30.31
227.152	22.31
227.387	43.31
227.621	37.31
227.856	55.31
228.09	54.31
228.324	43.31
228.559	60.31
228.793	73.31
229.027	141.31
229.262	161.31
229.496	142.31
229.73	171.31
229.964	183.31
230.199	175.31
230.433	173.31
230.667	182.31
230.901	172.31
231.136	183.31
231.37	181.31
231.604	185.31
231.838	195.31
232.072	197.31
232.306	189.31
232.541	187.31
232.775	206.31
233.009	192.31
233.243	201.31
233.477	215.31
233.711	190.31
233.945	198.31
234.179	200.31
234.413	217.31
234.647	217.31
234.881	201.31
235.115	197.31
235.349	224.31
235.583	230.31
235.817	221.31
236.051	220.31
236.285	228.31
236.519	232.31
236.753	220.31
236.987	242.31
237.221	233.31
237.455	233.31
237.689	238.31
237.922	248.31
238.156	241.31
238.39	233.31
238.624	244.31
238.858	251.31
239.091	263.31
239.325	265.31
239.559	250.31
239.793	244.31
240.027	271.31
240.26	250.31
240.494	260.31
240.728	265.31
240.961	252.31
241.195	277.31
241.429	285.31
241.662	279.31
241.896	280.31
242.13	297.31
242.363	295.31
242.597	316.31
242.83	289.31
243.064	289.31
243.298	287.31
243.531	294.31
243.765	307.31
243.998	325.31
244.232	331.31
244.465	331.31
244.699	321.31
244.932	332.31
245.166	319.31
245.399	326.31
245.633	322.31
245.866	363.31
246.099	345.31
246.333	342.31
246.566	335.31
246.8	348.31
247.033	337.31
247.266	331.31
247.5	357.31
247.733	376.31
247.966	342.31
248.2	399.31
248.433	369.31
248.666	377.31
248.899	381.31
249.133	356.31
249.366	376.31
249.599	381.31
249.832	387.31
250.066	395.31
250.299	394.31
250.532	395.31
250.765	377.31
250.998	433.31
251.231	391.31
251.465	417.31
251.698	409.31
251.931	403.31
252.164	385.31
252.397	426.31
252.63	424.31
252.863	426.31
253.096	435.31
253.329	423.31
253.562	412.31
253.795	415.31
254.028	436.31
254.261	439.31
254.494	434.31
254.727	460.31
254.96	442.31
255.193	439.31
255.426	449.31
255.659	455.31
255.892	437.31
256.124	437.31
256.357	486.31
256.59	461.31
256.823	479.31
257.056	466.31
257.289	485.31
257.521	458.31
257.754	468.31
257.987	471.31
258.22	482.31
258.452	498.31
258.685	488.31
258.918	487.31
259.151	483.31
259.383	491.31
259.616	493.31
259.849	504.31
260.081	508.31
260.314	511.31
260.547	502.31
260.779	521.31
261.012	503.31
261.244	511.31
261.477	537.31
261.71	542.31
261.942	521.31
262.175	522.31
262.407	532.31
262.64	526.31
262.872	561.31
263.105	540.31
263.337	558.31
263.57	554.31
263.802	564.31
264.035	571.31
264.267	538.31
264.499	571.31
264.732	555.31
264.964	574.31
265.197	573.31
265.429	594.31
265.661	573.31
265.894	561.31
266.126	575.31
266.358	569.31
266.591	579.31
266.823	603.31
267.055	593.31
267.287	586.31
267.52	595.31
267.752	572.31
267.984	607.31
268.216	589.31
268.448	578.31
268.681	622.31
268.913	595.31
269.145	622.31
269.377	616.31
269.609	618.31
269.841	625.31
270.073	638.31
270.306	607.31
270.538	625.31
270.77	618.31
271.002	631.31
271.234	631.31
271.466	638.31
271.698	654.31
271.93	649.31
272.162	639.31
272.394	634.31
272.626	658.31
272.858	665.31
273.09	683.31
273.322	672.31
273.553	673.31
273.785	663.31
274.017	660.31
274.249	662.31
274.481	681.31
274.713	674.31
274.945	674.31
275.176	715.31
275.408	698.31
275.64	722.31
275.872	691.31
276.104	699.31
276.335	680.31
276.567	700.31
276.799	695.31
277.031	743.31
277.262	713.31
277.494	725.31
277.726	692.31
277.957	725.31
278.189	727.31
278.421	717.31
278.652	707.31
278.884	742.31
279.115	731.31
279.347	711.31
279.579	744.31
279.81	720.31
280.042	750.31
280.273	755.31
280.505	743.31
280.736	747.31
280.968	757.31
281.199	750.31
281.431	754.31
281.662	786.31
281.894	755.31
282.125	785.31
282.356	772.31
282.588	763.31
282.819	755.31
283.051	796.31
283.282	787.31
283.513	782.31
283.745	801.31
283.976	790.31
284.207	778.31
284.439	843.31
284.67	826.31
284.901	817.31
285.132	804.31
285.364	806.31
285.595	825.31
285.826	801.31
286.057	793.31
286.288	814.31
286.52	799.31
286.751	822.31
286.982	846.31
287.213	796.31
287.444	826.31
287.675	832.31
287.906	866.31
288.138	838.31
288.369	843.31
288.6	860.31
288.831	838.31
289.062	856.31
289.293	861.31
289.524	869.31
289.755	854.31
289.986	884.31
290.217	861.31
290.448	851.31
290.679	860.31
290.91	861.31
291.141	874.31
291.371	874.31
291.602	865.31
291.833	863.31
292.064	883.31
292.295	875.31
292.526	890.31
292.757	869.31
292.987	863.31
293.218	890.31
293.449	883.31
293.68	871.31
293.91	862.31
294.141	863.31
294.372	863.31
294.603	885.31
294.833	901.31
295.064	886.31
295.295	885.31
295.525	907.31
295.756	894.31
295.987	885.31
296.217	887.31
296.448	891.31
296.679	892.31
296.909	883.31
297.14	897.31
297.37	920.31
297.601	944.31
297.831	920.31
298.062	923.31
298.292	962.31
298.523	942.31
298.753	957.31
298.984	961.31
299.214	957.31
299.445	970.31
299.675	957.31
299.905	948.31
300.136	925.31
300.366	916.31
300.597	948.31
300.827	985.31
301.057	983.31
301.288	993.31
301.518	986.31
301.748	1005.31
301.979	1009.31
302.209	1023.31
302.439	1019.31
302.669	989.31
302.9	1011.31
303.13	965.31
303.36	987.31
303.59	994.31
303.82	1017.31
304.051	1014.31
304.281	1009.31
304.511	995.31
304.741	1002.31
304.971	984.31
305.201	1000.31
305.431	1005.31
305.661	1006.31
305.891	991.31
306.121	975.31
306.352	979.31
306.582	972.31
306.812	966.31
307.042	996.31
307.272	972.31
307.502	1005.31
307.731	976.31
307.961	974.31
308.191	981.31
308.421	986.31
308.651	1013.31
308.881	961.31
309.111	969.31
309.341	994.31
309.571	986.31
309.8	969.31
310.03	976.31
310.26	991.31
310.49	953.31
310.72	1001.31
310.949	996.31
311.179	990.31
311.409	1022.31
311.639	974.31
311.868	1024.31
312.098	1025.31
312.328	1026.31
312.557	1029.31
312.787	1031.31
313.017	1026.31
313.246	1012.31
313.476	1053.31
313.706	1065.31
313.935	1049.31
314.165	1073.31
314.394	1055.31
314.624	1071.31
314.853	1067.31
315.083	1065.31
315.312	1066.31
315.542	1044.31
315.771	1062.31
316.001	1057.31
316.23	1033.31
316.46	1055.31
316.689	1062.31
316.919	1055.31
317.148	1030.31
317.377	1057.31
317.607	1043.31
317.836	1061.31
318.065	1041.31
318.295	1024.31
318.524	1049.31
318.753	1026.31
318.983	1075.31
319.212	1042.31
319.441	1059.31
319.67	1078.31
319.9	1055.31
320.129	1053.31
320.358	1079.31
320.587	1085.31
320.816	1058.31
321.046	1047.31
321.275	1069.31
321.504	1070.31
321.733	1048.31
321.962	1065.31
322.191	1102.31
322.42	1061.31
322.649	1065.31
322.878	1033.31
323.108	1068.31
323.337	1128.31
323.566	1086.31
323.795	1098.31
324.024	1109.31
324.253	1095.31
324.482	1097.31
324.71	1132.31
324.939	1092.31
325.168	1126.31
325.397	1089.31
325.626	1115.31
325.855	1138.31
326.084	1141.31
326.313	1135.31
326.542	1150.31
326.77	1173.31
326.999	1132.31
327.228	1137.31
327.457	1143.31
327.686	1136.31
327.914	1153.31
328.143	1157.31
328.372	1139.31
328.6	1173.31
328.829	1173.31
329.058	1173.31
329.287	1166.31
329.515	1146.31
329.744	1186.31
329.972	1174.31
330.201	1143.31
330.43	1184.31
330.658	1167.31
330.887	1173.31
331.115	1194.31
331.344	1203.31
331.572	1207.31
331.801	1230.31
332.03	1250.31
332.258	1250.31
332.486	1306.31
332.715	1309.31
332.943	1336.31
333.172	1376.31
333.4	1418.31
333.629	1469.31
333.857	1460.31
334.085	1496.31
334.314	1460.31
334.542	1425.31
334.771	1463.31
334.999	1416.31
335.227	1419.31
335.455	1430.31
335.684	1398.31
335.912	1410.31
336.14	1421.31
336.369	1364.31
336.597	1380.31
336.825	1354.31
337.053	1365.31
337.281	1325.31
337.51	1338.31
337.738	1324.31
337.966	1314.31
338.194	1278.31
338.422	1275.31
338.65	1260.31
338.878	1248.31
339.106	1260.31
339.334	1281.31
339.562	1235.31
339.79	1226.31
340.018	1204.31
340.246	1236.31
340.474	1212.31
340.702	1221.31
340.93	1184.31
341.158	1205.31
341.386	1225.31
341.614	1209.31
341.842	1211.31
342.07	1182.31
342.298	1189.31
342.526	1217.31
342.754	1192.31
342.981	1183.31
343.209	1218.31
343.437	1270.31
343.665	1353.31
343.893	1358.31
344.12	1444.31
344.348	1395.31
344.576	1363.31
344.804	1301.31
345.031	1247.31
345.259	1250.31
345.487	1229.31
345.714	1211.31
345.942	1219.31
346.17	1210.31
346.397	1209.31
346.625	1170.31
346.853	1140.31
347.08	1163.31
347.308	1173.31
347.535	1152.31
347.763	1178.31
347.99	1174.31
348.218	1168.31
348.445	1173.31
348.673	1155.31
348.9	1152.31
349.128	1160.31
349.355	1157.31
349.583	1155.31
349.81	1155.31
350.037	1141.31
350.265	1151.31
350.492	1151.31
350.72	1158.31
350.947	1102.31
351.174	1141.31
351.402	1145.31
351.629	1110.31
351.856	1119.31
352.083	1107.31
352.311	1157.31
352.538	1128.31
352.765	1112.31
352.992	1107.31
353.22	1108.31
353.447	1107.31
353.674	1094.31
353.901	1117.31
354.128	1110.31
354.355	1124.31
354.583	1087.31
354.81	1099.31
355.037	1113.31
355.264	1145.31
355.491	1091.31
355.718	1121.31
355.945	1108.31
356.172	1141.31
356.399	1143.31
356.626	1150.31
356.853	1142.31
357.08	1102.31
357.307	1110.31
357.534	1118.31
357.761	1140.31
357.988	1109.31
358.215	1113.31
358.441	1132.31
358.668	1126.31
358.895	1118.31
359.122	1124.31
359.349	1125.31
359.576	1128.31
359.802	1130.31
360.029	1102.31
360.256	1122.31
360.483	1130.31
360.709	1104.31
360.936	1108.31
361.163	1133.31
361.39	1132.31
361.616	1119.31
361.843	1102.31
362.07	1118.31
362.296	1118.31
362.523	1116.31
362.749	1127.31
362.976	1115.31
363.203	1093.31
363.429	1092.31
363.656	1134.31
363.882	1123.31
364.109	1130.31
364.335	1126.31
364.562	1119.31
364.788	1119.31
365.015	1148.31
365.241	1128.31
365.468	1109.31
365.694	1114.31
365.92	1145.31
366.147	1138.31
366.373	1140.31
366.599	1143.31
366.826	1134.31
367.052	1128.31
367.278	1114.31
367.505	1125.31
367.731	1173.31
367.957	1147.31
368.184	1133.31
368.41	1159.31
368.636	1147.31
368.862	1171.31
369.089	1171.31
369.315	1153.31
369.541	1178.31
369.767	1142.31
369.993	1166.31
370.219	1191.31
370.445	1177.31
370.672	1203.31
370.898	1153.31
371.124	1197.31
371.35	1173.31
371.576	1248.31
371.802	1207.31
372.028	1185.31
372.254	1219.31
372.48	1209.31
372.706	1249.31
372.932	1241.31
373.158	1251.31
373.384	1247.31
373.61	1257.31
373.835	1249.31
374.061	1221.31
374.287	1247.31
374.513	1237.31
374.739	1305.31
374.965	1308.31
375.191	1322.31
375.416	1334.31
375.642	1315.31
375.868	1301.31
376.094	1230.31
376.319	1225.31
376.545	1259.31
376.771	1251.31
376.997	1212.31
377.222	1246.31
377.448	1224.31
377.674	1235.31
377.899	1231.31
378.125	1198.31
378.35	1200.31
378.576	1198.31
378.802	1204.31
379.027	1185.31
379.253	1217.31
379.478	1174.31
379.704	1199.31
379.929	1177.31
380.155	1173.31
380.38	1205.31
380.606	1218.31
380.831	1201.31
381.057	1216.31
381.282	1219.31
381.507	1236.31
381.733	1221.31
381.958	1220.31
382.184	1261.31
382.409	1254.31
382.634	1284.31
382.86	1281.31
383.085	1258.31
383.31	1317.31
383.535	1297.31
383.761	1314.31
383.986	1325.31
384.211	1331.31
384.436	1343.31
384.662	1417.31
384.887	1403.31
385.112	1403.31
385.337	1429.31
385.562	1449.31
385.787	1452.31
386.013	1466.31
386.238	1464.31
386.463	1490.31
386.688	1467.31
386.913	1433.31
387.138	1432.31
387.363	1417.31
387.588	1412.31
387.813	1441.31
388.038	1430.31
388.263	1482.31
388.488	1438.31
388.713	1451.31
388.938	1467.31
389.163	1414.31
389.387	1440.31
389.612	1433.31
389.837	1382.31
390.062	1415.31
390.287	1437.31
390.512	1440.31
390.736	1444.31
390.961	1487.31
391.186	1507.31
391.411	1509.31
391.636	1533.31
391.86	1622.31
392.085	1597.31
392.31	1596.31
392.534	1599.31
392.759	1550.31
392.984	1521.31
393.208	1524.31
393.433	1563.31
393.658	1521.31
393.882	1480.31
394.107	1492.31
394.331	1527.31
394.556	1521.31
394.78	1568.31
395.005	1567.31
395.229	1568.31
395.454	1595.31
395.678	1631.31
395.903	1585.31
396.127	1580.31
396.352	1552.31
396.576	1544.31
396.801	1597.31
397.025	1597.31
397.249	1576.31
397.474	1649.31
397.698	1649.31
397.922	1654.31
398.147	1635.31
398.371	1660.31
398.595	1729.31
398.82	1802.31
399.044	1909.31
399.268	2037.31
399.492	2259.31
399.717	2457.31
399.941	2529.31
400.165	2336.31
400.389	2194.31
400.613	1972.31
400.837	1883.31
401.062	1889.31
401.286	1863.31
401.51	1809.31
401.734	1777.31
401.958	1789.31
402.182	1794.31
402.406	1819.31
402.63	1855.31
402.854	1877.31
403.078	1882.31
403.302	1941.31
403.526	1939.31
403.75	1941.31
403.974	1967.31
404.198	1981.31
404.422	1931.31
404.645	1937.31
404.869	1961.31
405.093	1977.31
405.317	1948.31
405.541	1934.31
405.765	1943.31
405.988	1929.31
406.212	1962.31
406.436	1927.31
406.66	2038.31
406.883	2014.31
407.107	2128.31
407.331	2225.31
407.555	2264.31
407.778	2257.31
408.002	2216.31
408.226	2174.31
408.449	2117.31
408.673	2068.31
408.896	2055.31
409.12	2005.31
409.344	1986.31
409.567	2000.31
409.791	2007.31
410.014	1972.31
410.238	1927.31
410.461	1996.31
410.685	1941.31
410.908	1912.31
411.132	1897.31
411.355	1866.31
411.578	1889.31
411.802	1861.31
412.025	1834.31
412.249	1902.31
412.472	1860.31
412.695	1848.31
412.919	1793.31
413.142	1836.31
413.365	1793.31
413.589	1837.31
413.812	1796.31
414.035	1797.31
414.258	1807.31
414.482	1821.31
414.705	1807.31
414.928	1778.31
415.151	1794.31
415.374	1813.31
415.597	1765.31
415.821	1731.31
416.044	1723.31
416.267	1714.31
416.49	1723.31
416.713	1732.31
416.936	1760.31
417.159	1688.31
417.382	1672.31
417.605	1694.31
417.828	1712.31
418.051	1721.31
418.274	1677.31
418.497	1714.31
418.72	1773.31
418.943	1753.31
419.166	1874.31
419.389	1983.31
419.611	1931.31
419.834	1909.31
420.057	1815.31
420.28	1748.31
420.503	1705.31
420.726	1703.31
420.948	1708.31
421.171	1698.31
421.394	1723.31
421.617	1680.31
421.839	1683.31
422.062	1738.31
422.285	1709.31
422.507	1729.31
422.73	1698.31
422.953	1729.31
423.175	1786.31
423.398	1775.31
423.621	1743.31
423.843	1780.31
424.066	1782.31
424.288	1766.31
424.511	1766.31
424.733	1771.31
424.956	1735.31
425.178	1726.31
425.401	1719.31
425.623	1709.31
425.846	1691.31
426.068	1699.31
426.291	1647.31
426.513	1679.31
426.735	1651.31
426.958	1641.31
427.18	1625.31
427.402	1648.31
427.625	1597.31
427.847	1579.31
428.069	1577.31
428.292	1607.31
428.514	1568.31
428.736	1565.31
428.958	1580.31
429.181	1566.31
429.403	1539.31
429.625	1535.31
429.847	1541.31
430.069	1534.31
430.292	1551.31
430.514	1560.31
430.736	1553.31
430.958	1555.31
431.18	1569.31
431.402	1614.31
431.624	1574.31
431.846	1592.31
432.068	1581.31
432.29	1596.31
432.512	1578.31
432.734	1581.31
432.956	1576.31
433.178	1594.31
433.4	1579.31
433.622	1597.31
433.844	1625.31
434.066	1628.31
434.287	1629.31
434.509	1697.31
434.731	1726.31
434.953	1739.31
435.175	1767.31
435.397	1719.31
435.618	1651.31
435.84	1682.31
436.062	1610.31
436.284	1612.31
436.505	1590.31
436.727	1594.31
436.949	1616.31
437.17	1564.31
437.392	1571.31
437.614	1549.31
437.835	1512.31
438.057	1527.31
438.278	1539.31
438.5	1524.31
438.721	1525.31
438.943	1508.31
439.165	1502.31
439.386	1504.31
439.608	1542.31
439.829	1556.31
440.05	1494.31
440.272	1535.31
440.493	1564.31
440.715	1577.31
440.936	1601.31
441.158	1610.31
441.379	1677.31
441.6	1688.31
441.822	1676.31
442.043	1688.31
442.264	1689.31
442.486	1659.31
442.707	1709.31
442.928	1670.31
443.149	1652.31
443.371	1649.31
443.592	1678.31
443.813	1673.31
444.034	1720.31
444.255	1745.31
444.476	1805.31
444.698	1913.31
444.919	1967.31
445.14	2022.31
445.361	1902.31
445.582	1777.31
445.803	1693.31
446.024	1652.31
446.245	1628.31
446.466	1585.31
446.687	1556.31
446.908	1526.31
447.129	1503.31
447.35	1483.31
447.571	1500.31
447.792	1475.31
448.013	1465.31
448.234	1449.31
448.455	1420.31
448.675	1439.31
448.896	1421.31
449.117	1379.31
449.338	1386.31
449.559	1401.31
449.779	1407.31
450	1431.31
450.221	1379.31
450.442	1421.31
450.662	1388.31
450.883	1401.31
451.104	1409.31
451.324	1404.31
451.545	1436.31
451.766	1377.31
451.986	1379.31
452.207	1415.31
452.428	1386.31
452.648	1374.31
452.869	1361.31
453.089	1353.31
453.31	1370.31
453.53	1362.31
453.751	1380.31
453.971	1351.31
454.192	1323.31
454.412	1328.31
454.633	1346.31
454.853	1328.31
455.073	1318.31
455.294	1319.31
455.514	1289.31
455.734	1319.31
455.955	1322.31
456.175	1356.31
456.395	1318.31
456.616	1315.31
456.836	1343.31
457.056	1310.31
457.276	1282.31
457.497	1335.31
457.717	1307.31
457.937	1375.31
458.157	1358.31
458.377	1371.31
458.598	1396.31
458.818	1448.31
459.038	1462.31
459.258	1491.31
459.478	1565.31
459.698	1597.31
459.918	1598.31
460.138	1650.31
460.358	1724.31
460.578	1742.31
460.798	1756.31
461.018	1738.31
461.238	1771.31
461.458	1738.31
461.678	1769.31
461.898	1764.31
462.118	1797.31
462.338	1881.31
462.558	1912.31
462.777	1988.31
462.997	2114.31
463.217	2238.31
463.437	2196.31
463.657	2116.31
463.876	2081.31
464.096	2043.31
464.316	1973.31
464.536	1987.31
464.755	1936.31
464.975	1901.31
465.195	1814.31
465.414	1745.31
465.634	1646.31
465.854	1595.31
466.073	1583.31
466.293	1495.31
466.512	1505.31
466.732	1478.31
466.951	1474.31
467.171	1451.31
467.391	1477.31
467.61	1476.31
467.829	1457.31
468.049	1452.31
468.268	1423.31
468.488	1427.31
468.707	1396.31
468.927	1393.31
469.146	1393.31
469.365	1474.31
469.585	1461.31
469.804	1493.31
470.023	1535.31
470.243	1500.31
470.462	1505.31
470.681	1510.31
470.901	1482.31
471.12	1478.31
471.339	1510.31
471.558	1437.31
471.777	1466.31
471.997	1431.31
472.216	1434.31
472.435	1415.31
472.654	1429.31
472.873	1408.31
473.092	1397.31
473.311	1396.31
473.53	1433.31
473.749	1417.31
473.968	1397.31
474.187	1373.31
474.406	1371.31
474.625	1420.31
474.844	1395.31
475.063	1420.31
475.282	1439.31
475.501	1432.31
475.72	1480.31
475.939	1474.31
476.158	1463.31
476.377	1512.31
476.596	1462.31
476.814	1514.31
477.033	1472.31
477.252	1504.31
477.471	1579.31
477.69	1565.31
477.908	1595.31
478.127	1659.31
478.346	1640.31
478.564	1698.31
478.783	1740.31
479.002	1740.31
479.22	1781.31
479.439	1725.31
479.658	1799.31
479.876	1769.31
480.095	1795.31
480.313	1843.31
480.532	1869.31
480.751	1887.31
480.969	1824.31
481.188	1777.31
481.406	1786.31
481.624	1750.31
481.843	1740.31
482.061	1713.31
482.28	1697.31
482.498	1705.31
482.717	1705.31
482.935	1721.31
483.153	1676.31
483.372	1742.31
483.59	1719.31
483.808	1739.31
484.027	1768.31
484.245	1782.31
484.463	1816.31
484.681	1821.31
484.9	1827.31
485.118	1845.31
485.336	1851.31
485.554	1867.31
485.772	1891.31
485.99	1877.31
486.209	1850.31
486.427	1869.31
486.645	1868.31
486.863	1879.31
487.081	1854.31
487.299	1861.31
487.517	1858.31
487.735	1823.31
487.953	1869.31
488.171	1829.31
488.389	1817.31
488.607	1801.31
488.825	1798.31
489.043	1780.31
489.261	1780.31
489.479	1788.31
489.696	1756.31
489.914	1772.31
490.132	1774.31
490.35	1792.31
490.568	1798.31
