Data from NiCl2@0.5M.TitratingCurve.Agarose3%dH2O.NegLispCup.LampEnergy10.LIBS07252019_HRD10591_18-18-37-570.txt Node
Date: Thu Jul 25 18:18:37 EDT 2019
User: cochatt
Spectrometer: HR+D1059
Trigger mode: 1
Integration Time (sec): 1.000000E-1
Scans to average: 1
Electric dark correction enabled: true
Nonlinearity correction enabled: false
Boxcar width: 0
XAxis mode: Wavelengths
Number of Pixels in Spectrum: 2048
>>>>>Begin Spectral Data<<<<<
223.165	-3.38
223.4	-3.38
223.635	-3.38
223.869	-14.38
224.104	-26.38
224.338	-18.38
224.573	-15.38
224.808	-25.38
225.042	2.62
225.277	-5.38
225.511	3.62
225.746	0.62
225.98	12.62
226.215	9.62
226.449	-2.38
226.683	22.62
226.918	32.62
227.152	26.62
227.387	40.62
227.621	36.62
227.856	22.62
228.09	39.62
228.324	42.62
228.559	44.62
228.793	72.62
229.027	148.62
229.262	152.62
229.496	180.62
229.73	173.62
229.964	190.62
230.199	202.62
230.433	234.62
230.667	206.62
230.901	203.62
231.136	200.62
231.37	203.62
231.604	209.62
231.838	227.62
232.072	241.62
232.306	233.62
232.541	215.62
232.775	215.62
233.009	202.62
233.243	216.62
233.477	207.62
233.711	208.62
233.945	215.62
234.179	205.62
234.413	228.62
234.647	206.62
234.881	220.62
235.115	220.62
235.349	226.62
235.583	226.62
235.817	216.62
236.051	212.62
236.285	219.62
236.519	219.62
236.753	227.62
236.987	246.62
237.221	243.62
237.455	230.62
237.689	229.62
237.922	246.62
238.156	258.62
238.39	248.62
238.624	237.62
238.858	252.62
239.091	264.62
239.325	285.62
239.559	267.62
239.793	292.62
240.027	323.62
240.26	280.62
240.494	292.62
240.728	278.62
240.961	291.62
241.195	282.62
241.429	286.62
241.662	298.62
241.896	313.62
242.13	311.62
242.363	302.62
242.597	312.62
242.83	296.62
243.064	301.62
243.298	312.62
243.531	328.62
243.765	314.62
243.998	316.62
244.232	314.62
244.465	324.62
244.699	305.62
244.932	335.62
245.166	342.62
245.399	348.62
245.633	334.62
245.866	357.62
246.099	326.62
246.333	347.62
246.566	349.62
246.8	333.62
247.033	370.62
247.266	346.62
247.5	375.62
247.733	365.62
247.966	366.62
248.2	361.62
248.433	362.62
248.666	378.62
248.899	382.62
249.133	389.62
249.366	395.62
249.599	408.62
249.832	386.62
250.066	408.62
250.299	395.62
250.532	411.62
250.765	441.62
250.998	422.62
251.231	427.62
251.465	441.62
251.698	449.62
251.931	444.62
252.164	431.62
252.397	405.62
252.63	448.62
252.863	425.62
253.096	425.62
253.329	434.62
253.562	437.62
253.795	438.62
254.028	456.62
254.261	454.62
254.494	468.62
254.727	442.62
254.96	449.62
255.193	468.62
255.426	459.62
255.659	481.62
255.892	480.62
256.124	480.62
256.357	483.62
256.59	493.62
256.823	460.62
257.056	497.62
257.289	472.62
257.521	473.62
257.754	501.62
257.987	500.62
258.22	491.62
258.452	496.62
258.685	512.62
258.918	507.62
259.151	477.62
259.383	512.62
259.616	502.62
259.849	506.62
260.081	503.62
260.314	525.62
260.547	546.62
260.779	516.62
261.012	534.62
261.244	512.62
261.477	525.62
261.71	536.62
261.942	570.62
262.175	545.62
262.407	557.62
262.64	541.62
262.872	555.62
263.105	567.62
263.337	584.62
263.57	576.62
263.802	573.62
264.035	595.62
264.267	584.62
264.499	568.62
264.732	589.62
264.964	605.62
265.197	602.62
265.429	590.62
265.661	594.62
265.894	589.62
266.126	613.62
266.358	628.62
266.591	586.62
266.823	621.62
267.055	621.62
267.287	624.62
267.52	615.62
267.752	632.62
267.984	624.62
268.216	643.62
268.448	653.62
268.681	638.62
268.913	646.62
269.145	646.62
269.377	633.62
269.609	618.62
269.841	627.62
270.073	664.62
270.306	661.62
270.538	638.62
270.77	618.62
271.002	665.62
271.234	660.62
271.466	668.62
271.698	674.62
271.93	671.62
272.162	644.62
272.394	665.62
272.626	680.62
272.858	669.62
273.09	681.62
273.322	682.62
273.553	691.62
273.785	714.62
274.017	727.62
274.249	703.62
274.481	701.62
274.713	700.62
274.945	710.62
275.176	735.62
275.408	722.62
275.64	714.62
275.872	706.62
276.104	736.62
276.335	721.62
276.567	738.62
276.799	737.62
277.031	749.62
277.262	745.62
277.494	748.62
277.726	722.62
277.957	778.62
278.189	747.62
278.421	755.62
278.652	788.62
278.884	747.62
279.115	762.62
279.347	778.62
279.579	805.62
279.81	778.62
280.042	778.62
280.273	782.62
280.505	795.62
280.736	820.62
280.968	800.62
281.199	791.62
281.431	821.62
281.662	812.62
281.894	820.62
282.125	806.62
282.356	837.62
282.588	799.62
282.819	829.62
283.051	819.62
283.282	809.62
283.513	845.62
283.745	832.62
283.976	839.62
284.207	836.62
284.439	852.62
284.67	870.62
284.901	851.62
285.132	834.62
285.364	856.62
285.595	877.62
285.826	894.62
286.057	862.62
286.288	861.62
286.52	899.62
286.751	878.62
286.982	870.62
287.213	878.62
287.444	875.62
287.675	872.62
287.906	900.62
288.138	888.62
288.369	884.62
288.6	880.62
288.831	889.62
289.062	904.62
289.293	901.62
289.524	896.62
289.755	911.62
289.986	908.62
290.217	920.62
290.448	902.62
290.679	914.62
290.91	924.62
291.141	913.62
291.371	905.62
291.602	926.62
291.833	894.62
292.064	899.62
292.295	930.62
292.526	935.62
292.757	914.62
292.987	913.62
293.218	931.62
293.449	938.62
293.68	920.62
293.91	914.62
294.141	908.62
294.372	923.62
294.603	960.62
294.833	925.62
295.064	948.62
295.295	935.62
295.525	920.62
295.756	927.62
295.987	937.62
296.217	957.62
296.448	953.62
296.679	960.62
296.909	953.62
297.14	929.62
297.37	995.62
297.601	970.62
297.831	997.62
298.062	972.62
298.292	989.62
298.523	1020.62
298.753	987.62
298.984	1004.62
299.214	994.62
299.445	1011.62
299.675	991.62
299.905	1006.62
300.136	996.62
300.366	1004.62
300.597	1055.62
300.827	996.62
301.057	1011.62
301.288	1042.62
301.518	1012.62
301.748	1043.62
301.979	1073.62
302.209	1064.62
302.439	1040.62
302.669	1072.62
302.9	1038.62
303.13	1058.62
303.36	1080.62
303.59	1042.62
303.82	1038.62
304.051	1094.62
304.281	1052.62
304.511	1051.62
304.741	1069.62
304.971	1037.62
305.201	1081.62
305.431	1126.62
305.661	1065.62
305.891	1090.62
306.121	1072.62
306.352	1054.62
306.582	1063.62
306.812	1032.62
307.042	1056.62
307.272	1053.62
307.502	1050.62
307.731	1057.62
307.961	1074.62
308.191	1061.62
308.421	1085.62
308.651	1040.62
308.881	1058.62
309.111	1069.62
309.341	1026.62
309.571	1050.62
309.8	1101.62
310.03	1093.62
310.26	1120.62
310.49	1118.62
310.72	1090.62
310.949	1092.62
311.179	1116.62
311.409	1099.62
311.639	1101.62
311.868	1106.62
312.098	1098.62
312.328	1090.62
312.557	1135.62
312.787	1110.62
313.017	1104.62
313.246	1135.62
313.476	1146.62
313.706	1165.62
313.935	1117.62
314.165	1131.62
314.394	1140.62
314.624	1141.62
314.853	1147.62
315.083	1154.62
315.312	1124.62
315.542	1176.62
315.771	1152.62
316.001	1145.62
316.23	1174.62
316.46	1145.62
316.689	1138.62
316.919	1181.62
317.148	1176.62
317.377	1190.62
317.607	1149.62
317.836	1160.62
318.065	1180.62
318.295	1150.62
318.524	1185.62
318.753	1180.62
318.983	1148.62
319.212	1159.62
319.441	1148.62
319.67	1170.62
319.9	1170.62
320.129	1186.62
320.358	1181.62
320.587	1186.62
320.816	1185.62
321.046	1189.62
321.275	1192.62
321.504	1197.62
321.733	1197.62
321.962	1242.62
322.191	1181.62
322.42	1203.62
322.649	1170.62
322.878	1170.62
323.108	1181.62
323.337	1229.62
323.566	1203.62
323.795	1247.62
324.024	1220.62
324.253	1225.62
324.482	1200.62
324.71	1204.62
324.939	1211.62
325.168	1254.62
325.397	1233.62
325.626	1241.62
325.855	1258.62
326.084	1249.62
326.313	1302.62
326.542	1274.62
326.77	1294.62
326.999	1276.62
327.228	1255.62
327.457	1272.62
327.686	1291.62
327.914	1266.62
328.143	1264.62
328.372	1244.62
328.6	1268.62
328.829	1287.62
329.058	1278.62
329.287	1257.62
329.515	1292.62
329.744	1283.62
329.972	1287.62
330.201	1267.62
330.43	1288.62
330.658	1282.62
330.887	1308.62
331.115	1306.62
331.344	1318.62
331.572	1321.62
331.801	1376.62
332.03	1342.62
332.258	1337.62
332.486	1376.62
332.715	1377.62
332.943	1396.62
333.172	1434.62
333.4	1451.62
333.629	1488.62
333.857	1435.62
334.085	1477.62
334.314	1495.62
334.542	1502.62
334.771	1489.62
334.999	1452.62
335.227	1487.62
335.455	1497.62
335.684	1495.62
335.912	1461.62
336.14	1491.62
336.369	1497.62
336.597	1495.62
336.825	1485.62
337.053	1486.62
337.281	1458.62
337.51	1448.62
337.738	1443.62
337.966	1418.62
338.194	1416.62
338.422	1426.62
338.65	1389.62
338.878	1402.62
339.106	1370.62
339.334	1404.62
339.562	1396.62
339.79	1356.62
340.018	1381.62
340.246	1337.62
340.474	1374.62
340.702	1345.62
340.93	1349.62
341.158	1341.62
341.386	1384.62
341.614	1400.62
341.842	1378.62
342.07	1335.62
342.298	1344.62
342.526	1326.62
342.754	1346.62
342.981	1324.62
343.209	1365.62
343.437	1390.62
343.665	1440.62
343.893	1416.62
344.12	1494.62
344.348	1468.62
344.576	1432.62
344.804	1419.62
345.031	1369.62
345.259	1330.62
345.487	1349.62
345.714	1359.62
345.942	1382.62
346.17	1376.62
346.397	1334.62
346.625	1284.62
346.853	1267.62
347.08	1270.62
347.308	1292.62
347.535	1278.62
347.763	1306.62
347.99	1298.62
348.218	1267.62
348.445	1258.62
348.673	1279.62
348.9	1280.62
349.128	1285.62
349.355	1294.62
349.583	1274.62
349.81	1277.62
350.037	1244.62
350.265	1241.62
350.492	1279.62
350.72	1240.62
350.947	1300.62
351.174	1286.62
351.402	1266.62
351.629	1322.62
351.856	1266.62
352.083	1268.62
352.311	1253.62
352.538	1294.62
352.765	1305.62
352.992	1218.62
353.22	1216.62
353.447	1239.62
353.674	1222.62
353.901	1249.62
354.128	1208.62
354.355	1220.62
354.583	1225.62
354.81	1228.62
355.037	1226.62
355.264	1238.62
355.491	1239.62
355.718	1243.62
355.945	1248.62
356.172	1234.62
356.399	1264.62
356.626	1248.62
356.853	1291.62
357.08	1273.62
357.307	1253.62
357.534	1242.62
357.761	1230.62
357.988	1234.62
358.215	1214.62
358.441	1251.62
358.668	1251.62
358.895	1228.62
359.122	1213.62
359.349	1203.62
359.576	1228.62
359.802	1217.62
360.029	1233.62
360.256	1234.62
360.483	1210.62
360.709	1228.62
360.936	1253.62
361.163	1204.62
361.39	1241.62
361.616	1248.62
361.843	1240.62
362.07	1316.62
362.296	1246.62
362.523	1225.62
362.749	1218.62
362.976	1218.62
363.203	1229.62
363.429	1199.62
363.656	1213.62
363.882	1216.62
364.109	1210.62
364.335	1236.62
364.562	1233.62
364.788	1212.62
365.015	1235.62
365.241	1248.62
365.468	1234.62
365.694	1195.62
365.92	1239.62
366.147	1234.62
366.373	1222.62
366.599	1225.62
366.826	1218.62
367.052	1231.62
367.278	1196.62
367.505	1237.62
367.731	1245.62
367.957	1194.62
368.184	1229.62
368.41	1233.62
368.636	1285.62
368.862	1262.62
369.089	1247.62
369.315	1239.62
369.541	1277.62
369.767	1257.62
369.993	1268.62
370.219	1244.62
370.445	1261.62
370.672	1299.62
370.898	1288.62
371.124	1290.62
371.35	1298.62
371.576	1277.62
371.802	1316.62
372.028	1256.62
372.254	1255.62
372.48	1309.62
372.706	1308.62
372.932	1290.62
373.158	1307.62
373.384	1316.62
373.61	1272.62
373.835	1284.62
374.061	1261.62
374.287	1316.62
374.513	1292.62
374.739	1322.62
374.965	1333.62
375.191	1341.62
375.416	1320.62
375.642	1333.62
375.868	1325.62
376.094	1309.62
376.319	1317.62
376.545	1332.62
376.771	1256.62
376.997	1282.62
377.222	1279.62
377.448	1265.62
377.674	1257.62
377.899	1248.62
378.125	1250.62
378.35	1263.62
378.576	1256.62
378.802	1265.62
379.027	1261.62
379.253	1242.62
379.478	1255.62
379.704	1250.62
379.929	1275.62
380.155	1288.62
380.38	1260.62
380.606	1298.62
380.831	1264.62
381.057	1258.62
381.282	1272.62
381.507	1289.62
381.733	1280.62
381.958	1275.62
382.184	1313.62
382.409	1266.62
382.634	1299.62
382.86	1294.62
383.085	1295.62
383.31	1344.62
383.535	1286.62
383.761	1337.62
383.986	1342.62
384.211	1371.62
384.436	1353.62
384.662	1404.62
384.887	1386.62
385.112	1407.62
385.337	1376.62
385.562	1416.62
385.787	1391.62
386.013	1441.62
386.238	1463.62
386.463	1436.62
386.688	1423.62
386.913	1448.62
387.138	1442.62
387.363	1482.62
387.588	1433.62
387.813	1408.62
388.038	1450.62
388.263	1429.62
388.488	1431.62
388.713	1476.62
388.938	1448.62
389.163	1430.62
389.387	1436.62
389.612	1462.62
389.837	1449.62
390.062	1451.62
390.287	1466.62
390.512	1452.62
390.736	1431.62
390.961	1467.62
391.186	1490.62
391.411	1500.62
391.636	1501.62
391.86	1548.62
392.085	1523.62
392.31	1547.62
392.534	1516.62
392.759	1519.62
392.984	1475.62
393.208	1529.62
393.433	1496.62
393.658	1504.62
393.882	1494.62
394.107	1499.62
394.331	1541.62
394.556	1512.62
394.78	1484.62
395.005	1504.62
395.229	1523.62
395.454	1545.62
395.678	1560.62
395.903	1578.62
396.127	1590.62
396.352	1516.62
396.576	1532.62
396.801	1560.62
397.025	1547.62
397.249	1597.62
397.474	1591.62
397.698	1611.62
397.922	1603.62
398.147	1612.62
398.371	1675.62
398.595	1664.62
398.82	1713.62
399.044	1789.62
399.268	1864.62
399.492	1983.62
399.717	2104.62
399.941	2082.62
400.165	2016.62
400.389	1953.62
400.613	1921.62
400.837	1858.62
401.062	1812.62
401.286	1785.62
401.51	1782.62
401.734	1706.62
401.958	1757.62
402.182	1721.62
402.406	1706.62
402.63	1760.62
402.854	1722.62
403.078	1754.62
403.302	1797.62
403.526	1778.62
403.75	1787.62
403.974	1794.62
404.198	1806.62
404.422	1815.62
404.645	1836.62
404.869	1780.62
405.093	1826.62
405.317	1826.62
405.541	1797.62
405.765	1780.62
405.988	1804.62
406.212	1813.62
406.436	1840.62
406.66	1868.62
406.883	1911.62
407.107	1960.62
407.331	1942.62
407.555	1998.62
407.778	1995.62
408.002	1992.62
408.226	1986.62
408.449	1997.62
408.673	1952.62
408.896	1916.62
409.12	1885.62
409.344	1925.62
409.567	1859.62
409.791	1877.62
410.014	1887.62
410.238	1834.62
410.461	1868.62
410.685	1858.62
410.908	1851.62
411.132	1816.62
411.355	1831.62
411.578	1821.62
411.802	1786.62
412.025	1825.62
412.249	1814.62
412.472	1841.62
412.695	1777.62
412.919	1769.62
413.142	1765.62
413.365	1761.62
413.589	1726.62
413.812	1743.62
414.035	1745.62
414.258	1734.62
414.482	1739.62
414.705	1752.62
414.928	1778.62
415.151	1691.62
415.374	1727.62
415.597	1702.62
415.821	1709.62
416.044	1715.62
416.267	1716.62
416.49	1681.62
416.713	1688.62
416.936	1702.62
417.159	1664.62
417.382	1664.62
417.605	1656.62
417.828	1707.62
418.051	1684.62
418.274	1670.62
418.497	1677.62
418.72	1696.62
418.943	1656.62
419.166	1784.62
419.389	1865.62
419.611	1887.62
419.834	1782.62
420.057	1731.62
420.28	1688.62
420.503	1646.62
420.726	1620.62
420.948	1653.62
421.171	1654.62
421.394	1686.62
421.617	1675.62
421.839	1693.62
422.062	1694.62
422.285	1661.62
422.507	1693.62
422.73	1687.62
422.953	1661.62
423.175	1715.62
423.398	1724.62
423.621	1690.62
423.843	1725.62
424.066	1712.62
424.288	1714.62
424.511	1674.62
424.733	1712.62
424.956	1693.62
425.178	1709.62
425.401	1699.62
425.623	1690.62
425.846	1626.62
426.068	1663.62
426.291	1677.62
426.513	1654.62
426.735	1684.62
426.958	1664.62
427.18	1660.62
427.402	1681.62
427.625	1636.62
427.847	1622.62
428.069	1649.62
428.292	1666.62
428.514	1635.62
428.736	1616.62
428.958	1604.62
429.181	1594.62
429.403	1620.62
429.625	1590.62
429.847	1596.62
430.069	1632.62
430.292	1620.62
430.514	1614.62
430.736	1604.62
430.958	1608.62
431.18	1621.62
431.402	1658.62
431.624	1617.62
431.846	1602.62
432.068	1633.62
432.29	1638.62
432.512	1624.62
432.734	1663.62
432.956	1657.62
433.178	1681.62
433.4	1655.62
433.622	1702.62
433.844	1659.62
434.066	1695.62
434.287	1696.62
434.509	1676.62
434.731	1738.62
434.953	1731.62
435.175	1752.62
435.397	1753.62
435.618	1690.62
435.84	1697.62
436.062	1661.62
436.284	1672.62
436.505	1625.62
436.727	1662.62
436.949	1638.62
437.17	1666.62
437.392	1631.62
437.614	1622.62
437.835	1608.62
438.057	1592.62
438.278	1552.62
438.5	1543.62
438.721	1576.62
438.943	1590.62
439.165	1559.62
439.386	1622.62
439.608	1634.62
439.829	1644.62
440.05	1593.62
440.272	1631.62
440.493	1603.62
440.715	1627.62
440.936	1675.62
441.158	1669.62
441.379	1705.62
441.6	1737.62
441.822	1703.62
442.043	1751.62
442.264	1720.62
442.486	1703.62
442.707	1697.62
442.928	1702.62
443.149	1704.62
443.371	1737.62
443.592	1787.62
443.813	1781.62
444.034	1776.62
444.255	1772.62
444.476	1805.62
444.698	1833.62
444.919	1878.62
445.14	1971.62
445.361	1888.62
445.582	1774.62
445.803	1749.62
446.024	1696.62
446.245	1698.62
446.466	1708.62
446.687	1661.62
446.908	1638.62
447.129	1621.62
447.35	1587.62
447.571	1607.62
447.792	1581.62
448.013	1572.62
448.234	1556.62
448.455	1499.62
448.675	1497.62
448.896	1549.62
449.117	1511.62
449.338	1518.62
449.559	1473.62
449.779	1492.62
450	1510.62
450.221	1528.62
450.442	1515.62
450.662	1481.62
450.883	1514.62
451.104	1554.62
451.324	1509.62
451.545	1512.62
451.766	1491.62
451.986	1501.62
452.207	1503.62
452.428	1486.62
452.648	1474.62
452.869	1449.62
453.089	1478.62
453.31	1524.62
453.53	1477.62
453.751	1485.62
453.971	1422.62
454.192	1500.62
454.412	1472.62
454.633	1456.62
454.853	1464.62
455.073	1439.62
455.294	1496.62
455.514	1450.62
455.734	1513.62
455.955	1480.62
456.175	1497.62
456.395	1418.62
456.616	1436.62
456.836	1452.62
457.056	1473.62
457.276	1429.62
457.497	1486.62
457.717	1434.62
457.937	1476.62
458.157	1514.62
458.377	1549.62
458.598	1521.62
458.818	1556.62
459.038	1559.62
459.258	1608.62
459.478	1658.62
459.698	1718.62
459.918	1766.62
460.138	1728.62
460.358	1795.62
460.578	1771.62
460.798	1843.62
461.018	1848.62
461.238	1882.62
461.458	1833.62
461.678	1804.62
461.898	1871.62
462.118	1872.62
462.338	1931.62
462.558	1942.62
462.777	1967.62
462.997	2049.62
463.217	2112.62
463.437	2178.62
463.657	2100.62
463.876	1990.62
464.096	2012.62
464.316	1962.62
464.536	2003.62
464.755	1982.62
464.975	1913.62
465.195	1835.62
465.414	1814.62
465.634	1721.62
465.854	1714.62
466.073	1715.62
466.293	1677.62
466.512	1650.62
466.732	1646.62
466.951	1637.62
467.171	1593.62
467.391	1645.62
467.61	1609.62
467.829	1615.62
468.049	1620.62
468.268	1595.62
468.488	1577.62
468.707	1614.62
468.927	1612.62
469.146	1579.62
469.365	1641.62
469.585	1602.62
469.804	1607.62
470.023	1608.62
470.243	1618.62
470.462	1619.62
470.681	1661.62
470.901	1635.62
471.12	1662.62
471.339	1664.62
471.558	1615.62
471.777	1658.62
471.997	1634.62
472.216	1604.62
472.435	1601.62
472.654	1622.62
472.873	1620.62
473.092	1599.62
473.311	1586.62
473.53	1636.62
473.749	1578.62
473.968	1595.62
474.187	1617.62
474.406	1596.62
474.625	1595.62
474.844	1614.62
475.063	1650.62
475.282	1637.62
475.501	1658.62
475.72	1671.62
475.939	1659.62
476.158	1678.62
476.377	1655.62
476.596	1671.62
476.814	1687.62
477.033	1689.62
477.252	1716.62
477.471	1771.62
477.69	1798.62
477.908	1813.62
478.127	1863.62
478.346	1844.62
478.564	1894.62
478.783	1925.62
479.002	1919.62
479.22	1976.62
479.439	1921.62
479.658	1908.62
479.876	1991.62
480.095	1944.62
480.313	1989.62
480.532	1981.62
480.751	1950.62
480.969	1985.62
481.188	1968.62
481.406	1913.62
481.624	1913.62
481.843	1889.62
482.061	1885.62
482.28	1921.62
482.498	1909.62
482.717	1880.62
482.935	1957.62
483.153	1986.62
483.372	1960.62
483.59	2012.62
483.808	1973.62
484.027	1927.62
484.245	1959.62
484.463	1943.62
484.681	1995.62
484.9	1950.62
485.118	2006.62
485.336	2001.62
485.554	2008.62
485.772	1991.62
485.99	2018.62
486.209	1979.62
486.427	2000.62
486.645	1979.62
486.863	2005.62
487.081	2015.62
487.299	2009.62
487.517	2032.62
487.735	1989.62
487.953	2051.62
488.171	2026.62
488.389	2023.62
488.607	2018.62
488.825	2002.62
489.043	1984.62
489.261	1975.62
489.479	1988.62
489.696	2019.62
489.914	1983.62
490.132	1997.62
