Data from NiCl2@0.5M.TitratingCurve.Agarose3%dH2O.NegLispCup.LampEnergy10.LIBS07252019_HRD10591_18-21-46-572.txt Node
Date: Thu Jul 25 18:21:46 EDT 2019
User: cochatt
Spectrometer: HR+D1059
Trigger mode: 1
Integration Time (sec): 1.000000E-1
Scans to average: 1
Electric dark correction enabled: true
Nonlinearity correction enabled: false
Boxcar width: 0
XAxis mode: Wavelengths
Number of Pixels in Spectrum: 2048
>>>>>Begin Spectral Data<<<<<
223.165	-17.88
223.4	-17.88
223.635	-17.88
223.869	-21.88
224.104	-14.88
224.338	-10.88
224.573	-10.88
224.808	-8.88
225.042	-7.88
225.277	-1.88
225.511	6.12
225.746	-5.88
225.98	1.12
226.215	15.12
226.449	14.12
226.683	16.12
226.918	21.12
227.152	27.12
227.387	37.12
227.621	36.12
227.856	22.12
228.09	33.12
228.324	46.12
228.559	61.12
228.793	81.12
229.027	109.12
229.262	119.12
229.496	106.12
229.73	127.12
229.964	118.12
230.199	116.12
230.433	136.12
230.667	148.12
230.901	135.12
231.136	124.12
231.37	140.12
231.604	134.12
231.838	132.12
232.072	134.12
232.306	134.12
232.541	152.12
232.775	128.12
233.009	137.12
233.243	127.12
233.477	141.12
233.711	156.12
233.945	147.12
234.179	138.12
234.413	143.12
234.647	144.12
234.881	134.12
235.115	134.12
235.349	150.12
235.583	157.12
235.817	144.12
236.051	146.12
236.285	139.12
236.519	150.12
236.753	141.12
236.987	151.12
237.221	143.12
237.455	151.12
237.689	142.12
237.922	150.12
238.156	150.12
238.39	148.12
238.624	151.12
238.858	156.12
239.091	157.12
239.325	159.12
239.559	154.12
239.793	161.12
240.027	167.12
240.26	164.12
240.494	172.12
240.728	163.12
240.961	173.12
241.195	176.12
241.429	175.12
241.662	177.12
241.896	156.12
242.13	156.12
242.363	193.12
242.597	181.12
242.83	174.12
243.064	187.12
243.298	173.12
243.531	181.12
243.765	184.12
243.998	188.12
244.232	179.12
244.465	193.12
244.699	212.12
244.932	195.12
245.166	189.12
245.399	210.12
245.633	204.12
245.866	192.12
246.099	204.12
246.333	198.12
246.566	209.12
246.8	199.12
247.033	205.12
247.266	191.12
247.5	202.12
247.733	218.12
247.966	223.12
248.2	211.12
248.433	205.12
248.666	213.12
248.899	212.12
249.133	208.12
249.366	219.12
249.599	218.12
249.832	228.12
250.066	235.12
250.299	230.12
250.532	228.12
250.765	224.12
250.998	233.12
251.231	224.12
251.465	228.12
251.698	218.12
251.931	228.12
252.164	240.12
252.397	240.12
252.63	238.12
252.863	253.12
253.096	244.12
253.329	229.12
253.562	251.12
253.795	261.12
254.028	245.12
254.261	245.12
254.494	237.12
254.727	234.12
254.96	248.12
255.193	241.12
255.426	235.12
255.659	260.12
255.892	238.12
256.124	242.12
256.357	259.12
256.59	241.12
256.823	239.12
257.056	253.12
257.289	273.12
257.521	276.12
257.754	272.12
257.987	260.12
258.22	274.12
258.452	271.12
258.685	276.12
258.918	275.12
259.151	277.12
259.383	256.12
259.616	288.12
259.849	272.12
260.081	276.12
260.314	272.12
260.547	275.12
260.779	290.12
261.012	278.12
261.244	273.12
261.477	285.12
261.71	272.12
261.942	300.12
262.175	291.12
262.407	285.12
262.64	290.12
262.872	295.12
263.105	283.12
263.337	293.12
263.57	288.12
263.802	299.12
264.035	299.12
264.267	301.12
264.499	303.12
264.732	304.12
264.964	289.12
265.197	297.12
265.429	304.12
265.661	304.12
265.894	290.12
266.126	311.12
266.358	318.12
266.591	309.12
266.823	313.12
267.055	324.12
267.287	337.12
267.52	308.12
267.752	331.12
267.984	326.12
268.216	307.12
268.448	324.12
268.681	315.12
268.913	323.12
269.145	326.12
269.377	311.12
269.609	342.12
269.841	301.12
270.073	318.12
270.306	353.12
270.538	319.12
270.77	324.12
271.002	342.12
271.234	346.12
271.466	343.12
271.698	333.12
271.93	329.12
272.162	336.12
272.394	355.12
272.626	351.12
272.858	351.12
273.09	354.12
273.322	348.12
273.553	332.12
273.785	356.12
274.017	362.12
274.249	348.12
274.481	361.12
274.713	356.12
274.945	364.12
275.176	363.12
275.408	348.12
275.64	367.12
275.872	375.12
276.104	371.12
276.335	374.12
276.567	376.12
276.799	375.12
277.031	372.12
277.262	356.12
277.494	377.12
277.726	361.12
277.957	373.12
278.189	392.12
278.421	366.12
278.652	382.12
278.884	361.12
279.115	367.12
279.347	377.12
279.579	389.12
279.81	383.12
280.042	401.12
280.273	378.12
280.505	407.12
280.736	409.12
280.968	408.12
281.199	401.12
281.431	383.12
281.662	394.12
281.894	393.12
282.125	411.12
282.356	407.12
282.588	396.12
282.819	421.12
283.051	436.12
283.282	429.12
283.513	412.12
283.745	413.12
283.976	421.12
284.207	425.12
284.439	413.12
284.67	428.12
284.901	425.12
285.132	426.12
285.364	421.12
285.595	423.12
285.826	426.12
286.057	441.12
286.288	441.12
286.52	454.12
286.751	449.12
286.982	432.12
287.213	444.12
287.444	459.12
287.675	422.12
287.906	433.12
288.138	466.12
288.369	424.12
288.6	460.12
288.831	457.12
289.062	454.12
289.293	460.12
289.524	446.12
289.755	452.12
289.986	447.12
290.217	453.12
290.448	458.12
290.679	460.12
290.91	481.12
291.141	440.12
291.371	455.12
291.602	447.12
291.833	437.12
292.064	474.12
292.295	464.12
292.526	455.12
292.757	445.12
292.987	448.12
293.218	438.12
293.449	479.12
293.68	463.12
293.91	472.12
294.141	485.12
294.372	462.12
294.603	468.12
294.833	469.12
295.064	476.12
295.295	456.12
295.525	476.12
295.756	473.12
295.987	474.12
296.217	464.12
296.448	504.12
296.679	485.12
296.909	482.12
297.14	501.12
297.37	479.12
297.601	480.12
297.831	495.12
298.062	513.12
298.292	496.12
298.523	513.12
298.753	526.12
298.984	507.12
299.214	502.12
299.445	491.12
299.675	486.12
299.905	506.12
300.136	498.12
300.366	498.12
300.597	501.12
300.827	533.12
301.057	519.12
301.288	536.12
301.518	540.12
301.748	520.12
301.979	546.12
302.209	552.12
302.439	535.12
302.669	524.12
302.9	517.12
303.13	524.12
303.36	519.12
303.59	522.12
303.82	529.12
304.051	525.12
304.281	524.12
304.511	532.12
304.741	530.12
304.971	517.12
305.201	548.12
305.431	527.12
305.661	529.12
305.891	518.12
306.121	540.12
306.352	529.12
306.582	509.12
306.812	511.12
307.042	522.12
307.272	524.12
307.502	504.12
307.731	515.12
307.961	523.12
308.191	529.12
308.421	542.12
308.651	541.12
308.881	515.12
309.111	511.12
309.341	521.12
309.571	500.12
309.8	524.12
310.03	522.12
310.26	525.12
310.49	535.12
310.72	529.12
310.949	529.12
311.179	521.12
311.409	537.12
311.639	510.12
311.868	526.12
312.098	544.12
312.328	552.12
312.557	570.12
312.787	544.12
313.017	568.12
313.246	535.12
313.476	558.12
313.706	566.12
313.935	542.12
314.165	583.12
314.394	541.12
314.624	569.12
314.853	577.12
315.083	550.12
315.312	585.12
315.542	577.12
315.771	562.12
316.001	531.12
316.23	552.12
316.46	531.12
316.689	559.12
316.919	577.12
317.148	567.12
317.377	545.12
317.607	570.12
317.836	535.12
318.065	550.12
318.295	550.12
318.524	539.12
318.753	560.12
318.983	553.12
319.212	548.12
319.441	541.12
319.67	544.12
319.9	547.12
320.129	551.12
320.358	552.12
320.587	536.12
320.816	546.12
321.046	542.12
321.275	576.12
321.504	566.12
321.733	543.12
321.962	563.12
322.191	564.12
322.42	558.12
322.649	569.12
322.878	555.12
323.108	553.12
323.337	590.12
323.566	562.12
323.795	584.12
324.024	580.12
324.253	547.12
324.482	571.12
324.71	565.12
324.939	573.12
325.168	567.12
325.397	581.12
325.626	584.12
325.855	585.12
326.084	597.12
326.313	593.12
326.542	611.12
326.77	632.12
326.999	599.12
327.228	605.12
327.457	613.12
327.686	621.12
327.914	609.12
328.143	597.12
328.372	590.12
328.6	588.12
328.829	592.12
329.058	580.12
329.287	582.12
329.515	588.12
329.744	612.12
329.972	617.12
330.201	591.12
330.43	633.12
330.658	633.12
330.887	612.12
331.115	623.12
331.344	629.12
331.572	636.12
331.801	675.12
332.03	674.12
332.258	667.12
332.486	711.12
332.715	712.12
332.943	751.12
333.172	760.12
333.4	787.12
333.629	808.12
333.857	806.12
334.085	816.12
334.314	804.12
334.542	768.12
334.771	750.12
334.999	746.12
335.227	760.12
335.455	755.12
335.684	743.12
335.912	728.12
336.14	732.12
336.369	731.12
336.597	730.12
336.825	732.12
337.053	731.12
337.281	703.12
337.51	681.12
337.738	697.12
337.966	678.12
338.194	677.12
338.422	681.12
338.65	662.12
338.878	665.12
339.106	658.12
339.334	688.12
339.562	653.12
339.79	636.12
340.018	637.12
340.246	629.12
340.474	620.12
340.702	633.12
340.93	621.12
341.158	638.12
341.386	667.12
341.614	649.12
341.842	637.12
342.07	616.12
342.298	654.12
342.526	617.12
342.754	633.12
342.981	620.12
343.209	639.12
343.437	665.12
343.665	715.12
343.893	768.12
344.12	782.12
344.348	731.12
344.576	696.12
344.804	666.12
345.031	668.12
345.259	648.12
345.487	635.12
345.714	625.12
345.942	627.12
346.17	635.12
346.397	628.12
346.625	613.12
346.853	611.12
347.08	601.12
347.308	608.12
347.535	617.12
347.763	619.12
347.99	604.12
348.218	632.12
348.445	619.12
348.673	591.12
348.9	601.12
349.128	583.12
349.355	601.12
349.583	631.12
349.81	572.12
350.037	591.12
350.265	585.12
350.492	587.12
350.72	565.12
350.947	581.12
351.174	583.12
351.402	607.12
351.629	621.12
351.856	602.12
352.083	574.12
352.311	601.12
352.538	613.12
352.765	594.12
352.992	577.12
353.22	560.12
353.447	557.12
353.674	548.12
353.901	555.12
354.128	571.12
354.355	541.12
354.583	586.12
354.81	569.12
355.037	564.12
355.264	585.12
355.491	587.12
355.718	574.12
355.945	576.12
356.172	572.12
356.399	582.12
356.626	601.12
356.853	605.12
357.08	611.12
357.307	583.12
357.534	569.12
357.761	585.12
357.988	570.12
358.215	575.12
358.441	575.12
358.668	585.12
358.895	554.12
359.122	589.12
359.349	582.12
359.576	584.12
359.802	605.12
360.029	573.12
360.256	575.12
360.483	583.12
360.709	586.12
360.936	586.12
361.163	573.12
361.39	565.12
361.616	570.12
361.843	573.12
362.07	615.12
362.296	603.12
362.523	563.12
362.749	560.12
362.976	567.12
363.203	580.12
363.429	576.12
363.656	570.12
363.882	580.12
364.109	566.12
364.335	543.12
364.562	549.12
364.788	573.12
365.015	555.12
365.241	571.12
365.468	588.12
365.694	582.12
365.92	554.12
366.147	554.12
366.373	573.12
366.599	561.12
366.826	574.12
367.052	571.12
367.278	569.12
367.505	588.12
367.731	567.12
367.957	564.12
368.184	537.12
368.41	559.12
368.636	575.12
368.862	558.12
369.089	591.12
369.315	589.12
369.541	569.12
369.767	582.12
369.993	584.12
370.219	584.12
370.445	605.12
370.672	593.12
370.898	592.12
371.124	603.12
371.35	608.12
371.576	619.12
371.802	614.12
372.028	611.12
372.254	621.12
372.48	624.12
372.706	637.12
372.932	670.12
373.158	648.12
373.384	645.12
373.61	632.12
373.835	628.12
374.061	605.12
374.287	633.12
374.513	633.12
374.739	649.12
374.965	677.12
375.191	686.12
375.416	671.12
375.642	646.12
375.868	650.12
376.094	651.12
376.319	633.12
376.545	633.12
376.771	629.12
376.997	635.12
377.222	633.12
377.448	637.12
377.674	624.12
377.899	614.12
378.125	604.12
378.35	611.12
378.576	604.12
378.802	609.12
379.027	604.12
379.253	621.12
379.478	586.12
379.704	593.12
379.929	609.12
380.155	592.12
380.38	604.12
380.606	579.12
380.831	599.12
381.057	600.12
381.282	586.12
381.507	602.12
381.733	589.12
381.958	658.12
382.184	619.12
382.409	647.12
382.634	631.12
382.86	641.12
383.085	649.12
383.31	634.12
383.535	655.12
383.761	680.12
383.986	687.12
384.211	707.12
384.436	722.12
384.662	732.12
384.887	708.12
385.112	723.12
385.337	715.12
385.562	716.12
385.787	736.12
386.013	727.12
386.238	722.12
386.463	724.12
386.688	701.12
386.913	720.12
387.138	714.12
387.363	710.12
387.588	709.12
387.813	710.12
388.038	709.12
388.263	700.12
388.488	704.12
388.713	697.12
388.938	708.12
389.163	724.12
389.387	714.12
389.612	702.12
389.837	697.12
390.062	702.12
390.287	701.12
390.512	701.12
390.736	717.12
390.961	726.12
391.186	730.12
391.411	775.12
391.636	781.12
391.86	808.12
392.085	837.12
392.31	805.12
392.534	790.12
392.759	783.12
392.984	749.12
393.208	756.12
393.433	777.12
393.658	780.12
393.882	745.12
394.107	783.12
394.331	791.12
394.556	761.12
394.78	780.12
395.005	782.12
395.229	757.12
395.454	776.12
395.678	820.12
395.903	816.12
396.127	802.12
396.352	755.12
396.576	732.12
396.801	771.12
397.025	759.12
397.249	781.12
397.474	777.12
397.698	819.12
397.922	839.12
398.147	788.12
398.371	835.12
398.595	867.12
398.82	867.12
399.044	956.12
399.268	1040.12
399.492	1229.12
399.717	1360.12
399.941	1351.12
400.165	1177.12
400.389	1086.12
400.613	1011.12
400.837	943.12
401.062	931.12
401.286	927.12
401.51	884.12
401.734	872.12
401.958	935.12
402.182	941.12
402.406	924.12
402.63	963.12
402.854	977.12
403.078	968.12
403.302	1009.12
403.526	1046.12
403.75	1037.12
403.974	1070.12
404.198	1059.12
404.422	1047.12
404.645	1031.12
404.869	1039.12
405.093	1007.12
405.317	1024.12
405.541	999.12
405.765	990.12
405.988	982.12
406.212	999.12
406.436	985.12
406.66	1017.12
406.883	1049.12
407.107	1105.12
407.331	1131.12
407.555	1157.12
407.778	1153.12
408.002	1128.12
408.226	1126.12
408.449	1098.12
408.673	1069.12
408.896	1072.12
409.12	1039.12
409.344	1061.12
409.567	1007.12
409.791	1023.12
410.014	1031.12
410.238	982.12
410.461	1014.12
410.685	1004.12
410.908	965.12
411.132	975.12
411.355	936.12
411.578	963.12
411.802	947.12
412.025	961.12
412.249	963.12
412.472	927.12
412.695	933.12
412.919	910.12
413.142	907.12
413.365	914.12
413.589	931.12
413.812	891.12
414.035	915.12
414.258	928.12
414.482	879.12
414.705	940.12
414.928	910.12
415.151	919.12
415.374	911.12
415.597	913.12
415.821	895.12
416.044	877.12
416.267	903.12
416.49	897.12
416.713	854.12
416.936	905.12
417.159	913.12
417.382	894.12
417.605	878.12
417.828	891.12
418.051	908.12
418.274	920.12
418.497	903.12
418.72	932.12
418.943	922.12
419.166	996.12
419.389	1036.12
419.611	1005.12
419.834	965.12
420.057	952.12
420.28	944.12
420.503	917.12
420.726	897.12
420.948	899.12
421.171	898.12
421.394	892.12
421.617	899.12
421.839	936.12
422.062	911.12
422.285	893.12
422.507	923.12
422.73	920.12
422.953	927.12
423.175	944.12
423.398	976.12
423.621	967.12
423.843	959.12
424.066	1003.12
424.288	980.12
424.511	962.12
424.733	919.12
424.956	941.12
425.178	943.12
425.401	939.12
425.623	917.12
425.846	872.12
426.068	881.12
426.291	885.12
426.513	858.12
426.735	854.12
426.958	838.12
427.18	832.12
427.402	847.12
427.625	836.12
427.847	800.12
428.069	823.12
428.292	826.12
428.514	835.12
428.736	813.12
428.958	843.12
429.181	811.12
429.403	796.12
429.625	784.12
429.847	805.12
430.069	797.12
430.292	785.12
430.514	808.12
430.736	799.12
430.958	780.12
431.18	797.12
431.402	795.12
431.624	802.12
431.846	795.12
432.068	785.12
432.29	833.12
432.512	820.12
432.734	849.12
432.956	801.12
433.178	839.12
433.4	806.12
433.622	845.12
433.844	851.12
434.066	855.12
434.287	844.12
434.509	859.12
434.731	884.12
434.953	913.12
435.175	936.12
435.397	930.12
435.618	852.12
435.84	857.12
436.062	827.12
436.284	826.12
436.505	833.12
436.727	827.12
436.949	854.12
437.17	839.12
437.392	813.12
437.614	819.12
437.835	798.12
438.057	811.12
438.278	790.12
438.5	771.12
438.721	773.12
438.943	776.12
439.165	785.12
439.386	815.12
439.608	834.12
439.829	833.12
440.05	840.12
440.272	842.12
440.493	821.12
440.715	837.12
440.936	860.12
441.158	889.12
441.379	910.12
441.6	943.12
441.822	942.12
442.043	927.12
442.264	938.12
442.486	950.12
442.707	919.12
442.928	915.12
443.149	940.12
443.371	896.12
443.592	955.12
443.813	949.12
444.034	931.12
444.255	968.12
444.476	1019.12
444.698	1052.12
444.919	1134.12
445.14	1163.12
445.361	1053.12
445.582	969.12
445.803	925.12
446.024	899.12
446.245	893.12
446.466	889.12
446.687	837.12
446.908	829.12
447.129	812.12
447.35	823.12
447.571	830.12
447.792	795.12
448.013	805.12
448.234	792.12
448.455	784.12
448.675	772.12
448.896	777.12
449.117	750.12
449.338	766.12
449.559	745.12
449.779	766.12
450	787.12
450.221	789.12
450.442	792.12
450.662	769.12
450.883	796.12
451.104	793.12
451.324	806.12
451.545	780.12
451.766	789.12
451.986	771.12
452.207	792.12
452.428	755.12
452.648	769.12
452.869	751.12
453.089	751.12
453.31	751.12
453.53	751.12
453.751	735.12
453.971	740.12
454.192	734.12
454.412	731.12
454.633	723.12
454.853	719.12
455.073	745.12
455.294	730.12
455.514	691.12
455.734	721.12
455.955	718.12
456.175	716.12
456.395	709.12
456.616	710.12
456.836	728.12
457.056	715.12
457.276	710.12
457.497	701.12
457.717	727.12
457.937	739.12
458.157	723.12
458.377	727.12
458.598	768.12
458.818	768.12
459.038	803.12
459.258	800.12
459.478	851.12
459.698	847.12
459.918	876.12
460.138	909.12
460.358	961.12
460.578	987.12
460.798	1028.12
461.018	1020.12
461.238	995.12
461.458	964.12
461.678	965.12
461.898	1014.12
462.118	990.12
462.338	1061.12
462.558	1070.12
462.777	1100.12
462.997	1224.12
463.217	1335.12
463.437	1305.12
463.657	1217.12
463.876	1150.12
464.096	1163.12
464.316	1155.12
464.536	1155.12
464.755	1105.12
464.975	1085.12
465.195	991.12
465.414	938.12
465.634	898.12
465.854	862.12
466.073	846.12
466.293	833.12
466.512	826.12
466.732	820.12
466.951	805.12
467.171	817.12
467.391	796.12
467.61	811.12
467.829	792.12
468.049	816.12
468.268	757.12
468.488	749.12
468.707	763.12
468.927	764.12
469.146	761.12
469.365	799.12
469.585	783.12
469.804	814.12
470.023	835.12
470.243	831.12
470.462	859.12
470.681	848.12
470.901	830.12
471.12	835.12
471.339	826.12
471.558	801.12
471.777	816.12
471.997	816.12
472.216	799.12
472.435	791.12
472.654	763.12
472.873	743.12
473.092	723.12
473.311	743.12
473.53	737.12
473.749	751.12
473.968	729.12
474.187	768.12
474.406	761.12
474.625	749.12
474.844	782.12
475.063	766.12
475.282	774.12
475.501	757.12
475.72	791.12
475.939	761.12
476.158	772.12
476.377	791.12
476.596	785.12
476.814	801.12
477.033	786.12
477.252	808.12
477.471	793.12
477.69	836.12
477.908	883.12
478.127	878.12
478.346	919.12
478.564	905.12
478.783	920.12
479.002	972.12
479.22	927.12
479.439	921.12
479.658	944.12
479.876	920.12
480.095	928.12
480.313	972.12
480.532	1021.12
480.751	1015.12
480.969	937.12
481.188	907.12
481.406	907.12
481.624	883.12
481.843	870.12
482.061	873.12
482.28	856.12
482.498	846.12
482.717	845.12
482.935	877.12
483.153	860.12
483.372	873.12
483.59	877.12
483.808	888.12
484.027	855.12
484.245	861.12
484.463	889.12
484.681	871.12
484.9	878.12
485.118	865.12
485.336	885.12
485.554	923.12
485.772	891.12
485.99	906.12
486.209	905.12
486.427	890.12
486.645	894.12
486.863	909.12
487.081	935.12
487.299	903.12
487.517	913.12
487.735	906.12
487.953	928.12
488.171	952.12
488.389	879.12
488.607	900.12
488.825	880.12
489.043	885.12
489.261	889.12
489.479	870.12
489.696	920.12
489.914	892.12
490.132	888.12
490.35	903.12
490.568	860.12
490.786	908.12
491.003	905.12
491.221	920.12
491.439	912.12
491.657	888.12
491.874	913.12
492.092	929.12
492.31	940.12
492.527	949.12
492.745	926.12
492.963	926.12
493.18	931.12
493.398	935.12
493.615	950.12
493.833	974.12
494.05	980.12
494.268	971.12
494.485	991.12
494.703	963.12
494.92	969.12
495.138	970.12
495.355	957.12
495.573	961.12
495.79	941.12
496.008	957.12
496.225	996.12
496.442	977.12
496.66	990.12
496.877	1000.12
497.094	1025.12
497.312	1073.12
497.529	1069.12
497.746	1084.12
497.963	1119.12
498.181	1175.12
498.398	1207.12
498.615	1270.12
498.832	1377.12
499.049	1461.12
499.267	1591.12
499.484	1732.12
499.701	1955.12
499.918	2141.12
500.135	2456.12
500.352	2795.12
500.569	2886.12
