Data from NiCl2@0.125M.TitratingCurve.Agarose3%dH2O.NegLispCup.LampEnergy10.LIBS07252019_HRD10591_18-28-09-574.txt Node
Date: Thu Jul 25 18:28:09 EDT 2019
User: cochatt
Spectrometer: HR+D1059
Trigger mode: 1
Integration Time (sec): 1.000000E-1
Scans to average: 1
Electric dark correction enabled: true
Nonlinearity correction enabled: false
Boxcar width: 0
XAxis mode: Wavelengths
Number of Pixels in Spectrum: 2048
>>>>>Begin Spectral Data<<<<<
223.165	-5.75
223.4	-5.75
223.635	-5.75
223.869	-10.75
224.104	-26.75
224.338	-6.75
224.573	-21.75
224.808	-7.75
225.042	9.25
225.277	-11.75
225.511	-12.75
225.746	-7.75
225.98	4.25
226.215	14.25
226.449	5.25
226.683	21.25
226.918	27.25
227.152	30.25
227.387	28.25
227.621	36.25
227.856	51.25
228.09	46.25
228.324	65.25
228.559	72.25
228.793	58.25
229.027	118.25
229.262	122.25
229.496	135.25
229.73	136.25
229.964	151.25
230.199	155.25
230.433	147.25
230.667	149.25
230.901	143.25
231.136	154.25
231.37	157.25
231.604	161.25
231.838	172.25
232.072	172.25
232.306	165.25
232.541	166.25
232.775	174.25
233.009	167.25
233.243	168.25
233.477	170.25
233.711	173.25
233.945	174.25
234.179	180.25
234.413	173.25
234.647	179.25
234.881	153.25
235.115	190.25
235.349	165.25
235.583	191.25
235.817	172.25
236.051	188.25
236.285	179.25
236.519	185.25
236.753	186.25
236.987	184.25
237.221	194.25
237.455	185.25
237.689	189.25
237.922	179.25
238.156	189.25
238.39	193.25
238.624	197.25
238.858	205.25
239.091	214.25
239.325	209.25
239.559	185.25
239.793	206.25
240.027	205.25
240.26	205.25
240.494	210.25
240.728	214.25
240.961	216.25
241.195	236.25
241.429	230.25
241.662	232.25
241.896	228.25
242.13	234.25
242.363	221.25
242.597	242.25
242.83	253.25
243.064	230.25
243.298	249.25
243.531	249.25
243.765	259.25
243.998	246.25
244.232	256.25
244.465	242.25
244.699	255.25
244.932	273.25
245.166	267.25
245.399	259.25
245.633	274.25
245.866	272.25
246.099	267.25
246.333	273.25
246.566	281.25
246.8	277.25
247.033	305.25
247.266	288.25
247.5	277.25
247.733	305.25
247.966	296.25
248.2	297.25
248.433	289.25
248.666	295.25
248.899	294.25
249.133	283.25
249.366	330.25
249.599	320.25
249.832	326.25
250.066	312.25
250.299	293.25
250.532	299.25
250.765	317.25
250.998	322.25
251.231	323.25
251.465	308.25
251.698	334.25
251.931	345.25
252.164	336.25
252.397	348.25
252.63	333.25
252.863	335.25
253.096	336.25
253.329	337.25
253.562	360.25
253.795	348.25
254.028	346.25
254.261	359.25
254.494	345.25
254.727	354.25
254.96	346.25
255.193	371.25
255.426	366.25
255.659	371.25
255.892	362.25
256.124	362.25
256.357	353.25
256.59	357.25
256.823	381.25
257.056	376.25
257.289	354.25
257.521	386.25
257.754	379.25
257.987	396.25
258.22	385.25
258.452	381.25
258.685	366.25
258.918	375.25
259.151	400.25
259.383	400.25
259.616	397.25
259.849	410.25
260.081	400.25
260.314	387.25
260.547	412.25
260.779	395.25
261.012	402.25
261.244	411.25
261.477	409.25
261.71	421.25
261.942	399.25
262.175	409.25
262.407	432.25
262.64	414.25
262.872	416.25
263.105	423.25
263.337	421.25
263.57	430.25
263.802	404.25
264.035	396.25
264.267	430.25
264.499	444.25
264.732	443.25
264.964	447.25
265.197	459.25
265.429	454.25
265.661	448.25
265.894	449.25
266.126	446.25
266.358	431.25
266.591	453.25
266.823	479.25
267.055	455.25
267.287	455.25
267.52	457.25
267.752	451.25
267.984	449.25
268.216	474.25
268.448	458.25
268.681	459.25
268.913	476.25
269.145	459.25
269.377	485.25
269.609	451.25
269.841	494.25
270.073	465.25
270.306	480.25
270.538	470.25
270.77	471.25
271.002	475.25
271.234	486.25
271.466	465.25
271.698	482.25
271.93	498.25
272.162	508.25
272.394	483.25
272.626	509.25
272.858	502.25
273.09	522.25
273.322	518.25
273.553	499.25
273.785	485.25
274.017	527.25
274.249	526.25
274.481	539.25
274.713	529.25
274.945	505.25
275.176	533.25
275.408	511.25
275.64	530.25
275.872	531.25
276.104	543.25
276.335	521.25
276.567	537.25
276.799	524.25
277.031	532.25
277.262	534.25
277.494	559.25
277.726	573.25
277.957	546.25
278.189	536.25
278.421	534.25
278.652	558.25
278.884	582.25
279.115	541.25
279.347	549.25
279.579	551.25
279.81	554.25
280.042	567.25
280.273	559.25
280.505	581.25
280.736	578.25
280.968	583.25
281.199	579.25
281.431	581.25
281.662	608.25
281.894	596.25
282.125	614.25
282.356	602.25
282.588	592.25
282.819	594.25
283.051	618.25
283.282	597.25
283.513	595.25
283.745	605.25
283.976	593.25
284.207	619.25
284.439	605.25
284.67	633.25
284.901	625.25
285.132	617.25
285.364	602.25
285.595	646.25
285.826	609.25
286.057	635.25
286.288	633.25
286.52	674.25
286.751	669.25
286.982	646.25
287.213	652.25
287.444	660.25
287.675	659.25
287.906	669.25
288.138	654.25
288.369	693.25
288.6	674.25
288.831	679.25
289.062	648.25
289.293	647.25
289.524	676.25
289.755	653.25
289.986	656.25
290.217	673.25
290.448	681.25
290.679	648.25
290.91	658.25
291.141	655.25
291.371	687.25
291.602	678.25
291.833	678.25
292.064	652.25
292.295	685.25
292.526	675.25
292.757	666.25
292.987	675.25
293.218	681.25
293.449	673.25
293.68	692.25
293.91	689.25
294.141	702.25
294.372	689.25
294.603	685.25
294.833	683.25
295.064	683.25
295.295	673.25
295.525	685.25
295.756	693.25
295.987	678.25
296.217	717.25
296.448	678.25
296.679	709.25
296.909	707.25
297.14	710.25
297.37	700.25
297.601	723.25
297.831	748.25
298.062	739.25
298.292	731.25
298.523	757.25
298.753	750.25
298.984	764.25
299.214	728.25
299.445	728.25
299.675	738.25
299.905	729.25
300.136	732.25
300.366	736.25
300.597	739.25
300.827	770.25
301.057	780.25
301.288	768.25
301.518	786.25
301.748	804.25
301.979	786.25
302.209	783.25
302.439	775.25
302.669	747.25
302.9	771.25
303.13	767.25
303.36	765.25
303.59	758.25
303.82	804.25
304.051	797.25
304.281	755.25
304.511	756.25
304.741	750.25
304.971	760.25
305.201	769.25
305.431	747.25
305.661	723.25
305.891	742.25
306.121	747.25
306.352	759.25
306.582	724.25
306.812	729.25
307.042	729.25
307.272	748.25
307.502	759.25
307.731	755.25
307.961	740.25
308.191	743.25
308.421	743.25
308.651	763.25
308.881	748.25
309.111	745.25
309.341	751.25
309.571	758.25
309.8	756.25
310.03	756.25
310.26	723.25
310.49	746.25
310.72	765.25
310.949	738.25
311.179	777.25
311.409	756.25
311.639	783.25
311.868	742.25
312.098	785.25
312.328	765.25
312.557	791.25
312.787	791.25
313.017	805.25
313.246	795.25
313.476	775.25
313.706	807.25
313.935	805.25
314.165	797.25
314.394	788.25
314.624	809.25
314.853	811.25
315.083	803.25
315.312	817.25
315.542	793.25
315.771	771.25
316.001	807.25
316.23	805.25
316.46	814.25
316.689	784.25
316.919	783.25
317.148	788.25
317.377	788.25
317.607	785.25
317.836	774.25
318.065	786.25
318.295	804.25
318.524	787.25
318.753	786.25
318.983	794.25
319.212	783.25
319.441	798.25
319.67	804.25
319.9	789.25
320.129	806.25
320.358	811.25
320.587	775.25
320.816	764.25
321.046	793.25
321.275	797.25
321.504	793.25
321.733	796.25
321.962	787.25
322.191	810.25
322.42	791.25
322.649	779.25
322.878	774.25
323.108	805.25
323.337	810.25
323.566	810.25
323.795	773.25
324.024	814.25
324.253	821.25
324.482	825.25
324.71	829.25
324.939	811.25
325.168	811.25
325.397	827.25
325.626	805.25
325.855	843.25
326.084	866.25
326.313	876.25
326.542	875.25
326.77	877.25
326.999	842.25
327.228	833.25
327.457	846.25
327.686	837.25
327.914	876.25
328.143	879.25
328.372	862.25
328.6	862.25
328.829	862.25
329.058	861.25
329.287	873.25
329.515	878.25
329.744	877.25
329.972	891.25
330.201	878.25
330.43	851.25
330.658	875.25
330.887	902.25
331.115	907.25
331.344	914.25
331.572	915.25
331.801	931.25
332.03	962.25
332.258	977.25
332.486	1004.25
332.715	1036.25
332.943	1115.25
333.172	1091.25
333.4	1149.25
333.629	1175.25
333.857	1196.25
334.085	1186.25
334.314	1187.25
334.542	1131.25
334.771	1119.25
334.999	1107.25
335.227	1097.25
335.455	1098.25
335.684	1050.25
335.912	1065.25
336.14	1044.25
336.369	1040.25
336.597	1017.25
336.825	1049.25
337.053	1049.25
337.281	1038.25
337.51	1013.25
337.738	976.25
337.966	990.25
338.194	969.25
338.422	952.25
338.65	926.25
338.878	974.25
339.106	966.25
339.334	951.25
339.562	942.25
339.79	887.25
340.018	893.25
340.246	886.25
340.474	901.25
340.702	886.25
340.93	911.25
341.158	908.25
341.386	908.25
341.614	899.25
341.842	901.25
342.07	898.25
342.298	891.25
342.526	891.25
342.754	897.25
342.981	897.25
343.209	907.25
343.437	933.25
343.665	1005.25
343.893	1122.25
344.12	1140.25
344.348	1089.25
344.576	1038.25
344.804	991.25
345.031	972.25
345.259	945.25
345.487	903.25
345.714	915.25
345.942	901.25
346.17	900.25
346.397	892.25
346.625	871.25
346.853	887.25
347.08	866.25
347.308	869.25
347.535	871.25
347.763	888.25
347.99	851.25
348.218	887.25
348.445	866.25
348.673	860.25
348.9	903.25
349.128	856.25
349.355	846.25
349.583	863.25
349.81	846.25
350.037	844.25
350.265	860.25
350.492	842.25
350.72	847.25
350.947	845.25
351.174	851.25
351.402	826.25
351.629	838.25
351.856	839.25
352.083	798.25
352.311	829.25
352.538	837.25
352.765	825.25
352.992	836.25
353.22	838.25
353.447	849.25
353.674	840.25
353.901	856.25
354.128	820.25
354.355	822.25
354.583	871.25
354.81	836.25
355.037	843.25
355.264	841.25
355.491	867.25
355.718	854.25
355.945	865.25
356.172	876.25
356.399	855.25
356.626	855.25
356.853	840.25
357.08	838.25
357.307	822.25
357.534	818.25
357.761	861.25
357.988	844.25
358.215	849.25
358.441	838.25
358.668	836.25
358.895	836.25
359.122	846.25
359.349	836.25
359.576	850.25
359.802	823.25
360.029	833.25
360.256	824.25
360.483	844.25
360.709	831.25
360.936	843.25
361.163	850.25
361.39	844.25
361.616	824.25
361.843	833.25
362.07	825.25
362.296	834.25
362.523	836.25
362.749	835.25
362.976	848.25
363.203	837.25
363.429	813.25
363.656	820.25
363.882	817.25
364.109	832.25
364.335	802.25
364.562	832.25
364.788	805.25
365.015	858.25
365.241	835.25
365.468	833.25
365.694	838.25
365.92	831.25
366.147	804.25
366.373	826.25
366.599	845.25
366.826	805.25
367.052	813.25
367.278	831.25
367.505	837.25
367.731	837.25
367.957	839.25
368.184	863.25
368.41	837.25
368.636	864.25
368.862	873.25
369.089	856.25
369.315	870.25
369.541	889.25
369.767	857.25
369.993	881.25
370.219	881.25
370.445	898.25
370.672	896.25
370.898	884.25
371.124	934.25
371.35	925.25
371.576	887.25
371.802	913.25
372.028	914.25
372.254	923.25
372.48	930.25
372.706	902.25
372.932	995.25
373.158	958.25
373.384	935.25
373.61	929.25
373.835	909.25
374.061	895.25
374.287	903.25
374.513	929.25
374.739	950.25
374.965	1015.25
375.191	1011.25
375.416	1015.25
375.642	984.25
375.868	963.25
376.094	957.25
376.319	935.25
376.545	936.25
376.771	955.25
376.997	939.25
377.222	913.25
377.448	933.25
377.674	938.25
377.899	899.25
378.125	904.25
378.35	908.25
378.576	878.25
378.802	883.25
379.027	902.25
379.253	894.25
379.478	904.25
379.704	883.25
379.929	935.25
380.155	905.25
380.38	897.25
380.606	897.25
380.831	918.25
381.057	912.25
381.282	925.25
381.507	913.25
381.733	928.25
381.958	937.25
382.184	929.25
382.409	934.25
382.634	931.25
382.86	932.25
383.085	966.25
383.31	997.25
383.535	1002.25
383.761	1014.25
383.986	1011.25
384.211	1078.25
384.436	1071.25
384.662	1105.25
384.887	1106.25
385.112	1122.25
385.337	1100.25
385.562	1117.25
385.787	1118.25
386.013	1131.25
386.238	1103.25
386.463	1134.25
386.688	1119.25
386.913	1123.25
387.138	1095.25
387.363	1076.25
387.588	1037.25
387.813	1057.25
388.038	1085.25
388.263	1110.25
388.488	1122.25
388.713	1085.25
388.938	1065.25
389.163	1037.25
389.387	1086.25
389.612	1043.25
389.837	1084.25
390.062	1079.25
390.287	1099.25
390.512	1082.25
390.736	1077.25
390.961	1114.25
391.186	1127.25
391.411	1149.25
391.636	1195.25
391.86	1245.25
392.085	1254.25
392.31	1266.25
392.534	1217.25
392.759	1169.25
392.984	1160.25
393.208	1164.25
393.433	1162.25
393.658	1159.25
393.882	1188.25
394.107	1179.25
394.331	1174.25
394.556	1157.25
394.78	1189.25
395.005	1183.25
395.229	1186.25
395.454	1194.25
395.678	1231.25
395.903	1280.25
396.127	1181.25
396.352	1167.25
396.576	1159.25
396.801	1154.25
397.025	1155.25
397.249	1172.25
397.474	1220.25
397.698	1217.25
397.922	1245.25
398.147	1211.25
398.371	1250.25
398.595	1270.25
398.82	1361.25
399.044	1455.25
399.268	1625.25
399.492	1803.25
399.717	2174.25
399.941	2181.25
400.165	1886.25
400.389	1660.25
400.613	1542.25
400.837	1438.25
401.062	1404.25
401.286	1408.25
401.51	1393.25
401.734	1377.25
401.958	1386.25
402.182	1363.25
402.406	1428.25
402.63	1434.25
402.854	1460.25
403.078	1517.25
403.302	1521.25
403.526	1574.25
403.75	1594.25
403.974	1605.25
404.198	1609.25
404.422	1619.25
404.645	1630.25
404.869	1599.25
405.093	1618.25
405.317	1521.25
405.541	1546.25
405.765	1512.25
405.988	1539.25
406.212	1565.25
406.436	1478.25
406.66	1539.25
406.883	1567.25
407.107	1713.25
407.331	1766.25
407.555	1824.25
407.778	1791.25
408.002	1743.25
408.226	1704.25
408.449	1693.25
408.673	1627.25
408.896	1609.25
409.12	1572.25
409.344	1592.25
409.567	1531.25
409.791	1578.25
410.014	1545.25
410.238	1569.25
410.461	1524.25
410.685	1543.25
410.908	1501.25
411.132	1494.25
411.355	1425.25
411.578	1452.25
411.802	1416.25
412.025	1410.25
412.249	1446.25
412.472	1467.25
412.695	1441.25
412.919	1399.25
413.142	1359.25
413.365	1398.25
413.589	1409.25
413.812	1367.25
414.035	1373.25
414.258	1365.25
414.482	1391.25
414.705	1406.25
414.928	1408.25
415.151	1408.25
415.374	1396.25
415.597	1397.25
415.821	1341.25
416.044	1343.25
416.267	1341.25
416.49	1318.25
416.713	1330.25
416.936	1380.25
417.159	1335.25
417.382	1359.25
417.605	1354.25
417.828	1376.25
418.051	1396.25
418.274	1377.25
418.497	1363.25
418.72	1379.25
418.943	1410.25
419.166	1501.25
419.389	1597.25
419.611	1535.25
419.834	1513.25
420.057	1404.25
420.28	1388.25
420.503	1340.25
420.726	1369.25
420.948	1358.25
421.171	1335.25
421.394	1340.25
421.617	1384.25
421.839	1333.25
422.062	1348.25
422.285	1376.25
422.507	1418.25
422.73	1425.25
422.953	1404.25
423.175	1426.25
423.398	1460.25
423.621	1415.25
423.843	1475.25
424.066	1533.25
424.288	1461.25
424.511	1468.25
424.733	1444.25
424.956	1391.25
425.178	1364.25
425.401	1369.25
425.623	1405.25
425.846	1335.25
426.068	1293.25
426.291	1315.25
426.513	1258.25
426.735	1262.25
426.958	1285.25
427.18	1265.25
427.402	1268.25
427.625	1230.25
427.847	1226.25
428.069	1234.25
428.292	1223.25
428.514	1186.25
428.736	1193.25
428.958	1213.25
429.181	1202.25
429.403	1182.25
429.625	1159.25
429.847	1187.25
430.069	1187.25
430.292	1213.25
430.514	1167.25
430.736	1186.25
430.958	1196.25
431.18	1175.25
431.402	1195.25
431.624	1206.25
431.846	1198.25
432.068	1222.25
432.29	1253.25
432.512	1211.25
432.734	1255.25
432.956	1191.25
433.178	1243.25
433.4	1261.25
433.622	1231.25
433.844	1244.25
434.066	1271.25
434.287	1207.25
434.509	1271.25
434.731	1357.25
434.953	1371.25
435.175	1397.25
435.397	1380.25
435.618	1263.25
435.84	1265.25
436.062	1244.25
436.284	1237.25
436.505	1187.25
436.727	1228.25
436.949	1236.25
437.17	1213.25
437.392	1193.25
437.614	1198.25
437.835	1161.25
438.057	1212.25
438.278	1181.25
438.5	1169.25
438.721	1160.25
438.943	1141.25
439.165	1165.25
439.386	1184.25
439.608	1203.25
439.829	1195.25
440.05	1223.25
440.272	1231.25
440.493	1235.25
440.715	1246.25
440.936	1221.25
441.158	1258.25
441.379	1299.25
441.6	1355.25
441.822	1366.25
442.043	1390.25
442.264	1362.25
442.486	1326.25
442.707	1326.25
442.928	1330.25
443.149	1365.25
443.371	1333.25
443.592	1374.25
443.813	1359.25
444.034	1379.25
444.255	1452.25
444.476	1507.25
444.698	1589.25
444.919	1693.25
445.14	1746.25
445.361	1555.25
445.582	1413.25
445.803	1341.25
446.024	1277.25
446.245	1273.25
446.466	1276.25
446.687	1206.25
446.908	1191.25
447.129	1199.25
447.35	1209.25
447.571	1183.25
447.792	1146.25
448.013	1163.25
448.234	1132.25
448.455	1139.25
448.675	1119.25
448.896	1132.25
449.117	1129.25
449.338	1117.25
449.559	1075.25
449.779	1079.25
450	1095.25
450.221	1092.25
450.442	1105.25
450.662	1128.25
450.883	1142.25
451.104	1151.25
451.324	1163.25
451.545	1126.25
451.766	1107.25
451.986	1120.25
452.207	1109.25
452.428	1123.25
452.648	1118.25
452.869	1068.25
453.089	1077.25
453.31	1118.25
453.53	1086.25
453.751	1081.25
453.971	1120.25
454.192	1074.25
454.412	1048.25
454.633	1069.25
454.853	1067.25
455.073	1035.25
455.294	1048.25
455.514	1011.25
455.734	1053.25
455.955	993.25
456.175	1037.25
456.395	1016.25
456.616	1013.25
456.836	1035.25
457.056	1025.25
457.276	1005.25
457.497	1033.25
457.717	1045.25
457.937	1002.25
458.157	1056.25
458.377	1056.25
458.598	1061.25
458.818	1122.25
459.038	1143.25
459.258	1175.25
459.478	1215.25
459.698	1255.25
459.918	1289.25
460.138	1320.25
460.358	1409.25
460.578	1417.25
460.798	1438.25
461.018	1445.25
461.238	1400.25
461.458	1422.25
461.678	1432.25
461.898	1422.25
462.118	1450.25
462.338	1533.25
462.558	1579.25
462.777	1634.25
462.997	1758.25
463.217	1943.25
463.437	2002.25
463.657	1770.25
463.876	1667.25
464.096	1656.25
464.316	1653.25
464.536	1738.25
464.755	1671.25
464.975	1573.25
465.195	1497.25
465.414	1396.25
465.634	1286.25
465.854	1302.25
466.073	1243.25
466.293	1246.25
466.512	1195.25
466.732	1189.25
466.951	1177.25
467.171	1180.25
467.391	1180.25
467.61	1187.25
467.829	1148.25
468.049	1175.25
468.268	1137.25
468.488	1131.25
468.707	1105.25
468.927	1108.25
469.146	1068.25
469.365	1142.25
469.585	1120.25
469.804	1149.25
470.023	1207.25
470.243	1184.25
470.462	1218.25
470.681	1226.25
470.901	1210.25
471.12	1193.25
471.339	1159.25
471.558	1146.25
471.777	1147.25
471.997	1140.25
472.216	1106.25
472.435	1105.25
472.654	1086.25
472.873	1043.25
473.092	1077.25
473.311	1078.25
473.53	1074.25
473.749	1091.25
473.968	1071.25
474.187	1071.25
474.406	1053.25
474.625	1084.25
474.844	1039.25
475.063	1089.25
475.282	1066.25
475.501	1093.25
475.72	1114.25
475.939	1078.25
476.158	1119.25
476.377	1137.25
476.596	1112.25
476.814	1143.25
477.033	1135.25
477.252	1140.25
477.471	1157.25
477.69	1207.25
477.908	1278.25
478.127	1314.25
478.346	1256.25
478.564	1318.25
478.783	1337.25
479.002	1373.25
479.22	1387.25
479.439	1366.25
479.658	1323.25
479.876	1361.25
480.095	1352.25
480.313	1417.25
480.532	1461.25
480.751	1441.25
480.969	1436.25
481.188	1347.25
481.406	1285.25
481.624	1274.25
481.843	1225.25
482.061	1243.25
482.28	1214.25
482.498	1208.25
482.717	1238.25
482.935	1229.25
483.153	1253.25
483.372	1231.25
483.59	1244.25
483.808	1217.25
484.027	1231.25
484.245	1216.25
484.463	1277.25
484.681	1286.25
484.9	1304.25
485.118	1277.25
485.336	1271.25
485.554	1264.25
485.772	1280.25
485.99	1331.25
486.209	1337.25
486.427	1323.25
486.645	1310.25
486.863	1311.25
487.081	1289.25
487.299	1295.25
487.517	1285.25
487.735	1291.25
487.953	1320.25
488.171	1274.25
488.389	1265.25
488.607	1261.25
488.825	1278.25
489.043	1262.25
489.261	1291.25
489.479	1292.25
489.696	1291.25
489.914	1319.25
490.132	1276.25
490.35	1299.25
490.568	1293.25
490.786	1291.25
491.003	1277.25
491.221	1334.25
491.439	1313.25
491.657	1303.25
491.874	1318.25
492.092	1318.25
492.31	1340.25
492.527	1293.25
492.745	1306.25
492.963	1355.25
493.18	1356.25
493.398	1357.25
493.615	1383.25
493.833	1366.25
494.05	1353.25
494.268	1359.25
