Data from NiCl2@0.25M.TitratingCurve.Agarose3%dH2O.NegLispCup.LampEnergy10.LIBS07252019_HRD10591_18-23-28-572.txt Node
Date: Thu Jul 25 18:23:28 EDT 2019
User: cochatt
Spectrometer: HR+D1059
Trigger mode: 1
Integration Time (sec): 1.000000E-1
Scans to average: 1
Electric dark correction enabled: true
Nonlinearity correction enabled: false
Boxcar width: 0
XAxis mode: Wavelengths
Number of Pixels in Spectrum: 2048
>>>>>Begin Spectral Data<<<<<
223.165	-9.12
223.4	-9.12
223.635	-9.12
223.869	-8.12
224.104	-19.12
224.338	-30.12
224.573	-16.12
224.808	-17.12
225.042	-1.12
225.277	-17.12
225.511	10.88
225.746	-6.12
225.98	5.88
226.215	18.88
226.449	5.88
226.683	17.88
226.918	23.88
227.152	40.88
227.387	36.88
227.621	42.88
227.856	48.88
228.09	53.88
228.324	48.88
228.559	49.88
228.793	81.88
229.027	83.88
229.262	95.88
229.496	81.88
229.73	107.88
229.964	104.88
230.199	109.88
230.433	113.88
230.667	103.88
230.901	107.88
231.136	119.88
231.37	112.88
231.604	118.88
231.838	125.88
232.072	130.88
232.306	128.88
232.541	130.88
232.775	131.88
233.009	133.88
233.243	128.88
233.477	121.88
233.711	118.88
233.945	129.88
234.179	127.88
234.413	132.88
234.647	141.88
234.881	143.88
235.115	130.88
235.349	111.88
235.583	134.88
235.817	117.88
236.051	139.88
236.285	127.88
236.519	124.88
236.753	140.88
236.987	131.88
237.221	124.88
237.455	133.88
237.689	126.88
237.922	131.88
238.156	132.88
238.39	144.88
238.624	147.88
238.858	147.88
239.091	145.88
239.325	142.88
239.559	151.88
239.793	138.88
240.027	151.88
240.26	157.88
240.494	156.88
240.728	150.88
240.961	142.88
241.195	158.88
241.429	155.88
241.662	152.88
241.896	137.88
242.13	156.88
242.363	153.88
242.597	146.88
242.83	163.88
243.064	157.88
243.298	153.88
243.531	154.88
243.765	161.88
243.998	158.88
244.232	161.88
244.465	172.88
244.699	170.88
244.932	164.88
245.166	155.88
245.399	172.88
245.633	173.88
245.866	177.88
246.099	169.88
246.333	188.88
246.566	180.88
246.8	183.88
247.033	184.88
247.266	200.88
247.5	176.88
247.733	193.88
247.966	184.88
248.2	195.88
248.433	177.88
248.666	179.88
248.899	189.88
249.133	192.88
249.366	203.88
249.599	182.88
249.832	190.88
250.066	180.88
250.299	198.88
250.532	198.88
250.765	191.88
250.998	197.88
251.231	206.88
251.465	191.88
251.698	212.88
251.931	202.88
252.164	201.88
252.397	199.88
252.63	213.88
252.863	204.88
253.096	205.88
253.329	214.88
253.562	211.88
253.795	203.88
254.028	218.88
254.261	203.88
254.494	204.88
254.727	223.88
254.96	214.88
255.193	222.88
255.426	222.88
255.659	222.88
255.892	219.88
256.124	223.88
256.357	240.88
256.59	212.88
256.823	225.88
257.056	231.88
257.289	224.88
257.521	220.88
257.754	225.88
257.987	214.88
258.22	221.88
258.452	235.88
258.685	231.88
258.918	221.88
259.151	221.88
259.383	243.88
259.616	238.88
259.849	232.88
260.081	244.88
260.314	259.88
260.547	233.88
260.779	232.88
261.012	245.88
261.244	232.88
261.477	254.88
261.71	233.88
261.942	235.88
262.175	234.88
262.407	255.88
262.64	257.88
262.872	264.88
263.105	259.88
263.337	251.88
263.57	252.88
263.802	262.88
264.035	265.88
264.267	240.88
264.499	258.88
264.732	245.88
264.964	281.88
265.197	248.88
265.429	257.88
265.661	263.88
265.894	265.88
266.126	268.88
266.358	248.88
266.591	264.88
266.823	277.88
267.055	301.88
267.287	293.88
267.52	251.88
267.752	267.88
267.984	283.88
268.216	282.88
268.448	269.88
268.681	291.88
268.913	281.88
269.145	309.88
269.377	276.88
269.609	271.88
269.841	296.88
270.073	293.88
270.306	281.88
270.538	292.88
270.77	298.88
271.002	295.88
271.234	283.88
271.466	291.88
271.698	296.88
271.93	300.88
272.162	296.88
272.394	308.88
272.626	303.88
272.858	312.88
273.09	277.88
273.322	303.88
273.553	291.88
273.785	285.88
274.017	328.88
274.249	298.88
274.481	308.88
274.713	316.88
274.945	322.88
275.176	326.88
275.408	323.88
275.64	315.88
275.872	297.88
276.104	312.88
276.335	294.88
276.567	317.88
276.799	325.88
277.031	341.88
277.262	308.88
277.494	323.88
277.726	319.88
277.957	322.88
278.189	339.88
278.421	336.88
278.652	328.88
278.884	340.88
279.115	309.88
279.347	329.88
279.579	333.88
279.81	333.88
280.042	349.88
280.273	331.88
280.505	336.88
280.736	329.88
280.968	351.88
281.199	351.88
281.431	347.88
281.662	351.88
281.894	369.88
282.125	325.88
282.356	342.88
282.588	360.88
282.819	353.88
283.051	355.88
283.282	348.88
283.513	333.88
283.745	363.88
283.976	338.88
284.207	363.88
284.439	359.88
284.67	356.88
284.901	375.88
285.132	372.88
285.364	385.88
285.595	352.88
285.826	353.88
286.057	373.88
286.288	381.88
286.52	371.88
286.751	372.88
286.982	394.88
287.213	352.88
287.444	379.88
287.675	357.88
287.906	373.88
288.138	374.88
288.369	381.88
288.6	377.88
288.831	377.88
289.062	380.88
289.293	397.88
289.524	389.88
289.755	377.88
289.986	398.88
290.217	389.88
290.448	405.88
290.679	391.88
290.91	407.88
291.141	379.88
291.371	385.88
291.602	381.88
291.833	379.88
292.064	388.88
292.295	385.88
292.526	396.88
292.757	411.88
292.987	389.88
293.218	395.88
293.449	393.88
293.68	392.88
293.91	393.88
294.141	390.88
294.372	396.88
294.603	406.88
294.833	415.88
295.064	402.88
295.295	399.88
295.525	387.88
295.756	415.88
295.987	412.88
296.217	421.88
296.448	421.88
296.679	404.88
296.909	399.88
297.14	401.88
297.37	428.88
297.601	400.88
297.831	418.88
298.062	418.88
298.292	405.88
298.523	439.88
298.753	421.88
298.984	423.88
299.214	431.88
299.445	455.88
299.675	422.88
299.905	427.88
300.136	416.88
300.366	432.88
300.597	426.88
300.827	447.88
301.057	441.88
301.288	462.88
301.518	464.88
301.748	459.88
301.979	440.88
302.209	459.88
302.439	448.88
302.669	458.88
302.9	437.88
303.13	464.88
303.36	449.88
303.59	450.88
303.82	417.88
304.051	454.88
304.281	457.88
304.511	442.88
304.741	459.88
304.971	464.88
305.201	468.88
305.431	452.88
305.661	443.88
305.891	451.88
306.121	437.88
306.352	443.88
306.582	447.88
306.812	416.88
307.042	429.88
307.272	441.88
307.502	453.88
307.731	447.88
307.961	421.88
308.191	451.88
308.421	453.88
308.651	449.88
308.881	448.88
309.111	453.88
309.341	436.88
309.571	427.88
309.8	454.88
310.03	437.88
310.26	440.88
310.49	459.88
310.72	441.88
310.949	447.88
311.179	457.88
311.409	436.88
311.639	480.88
311.868	457.88
312.098	454.88
312.328	455.88
312.557	467.88
312.787	469.88
313.017	471.88
313.246	483.88
313.476	481.88
313.706	466.88
313.935	476.88
314.165	474.88
314.394	464.88
314.624	475.88
314.853	486.88
315.083	461.88
315.312	482.88
315.542	474.88
315.771	486.88
316.001	489.88
316.23	485.88
316.46	479.88
316.689	466.88
316.919	466.88
317.148	456.88
317.377	474.88
317.607	460.88
317.836	474.88
318.065	473.88
318.295	475.88
318.524	481.88
318.753	459.88
318.983	471.88
319.212	452.88
319.441	471.88
319.67	465.88
319.9	466.88
320.129	480.88
320.358	481.88
320.587	467.88
320.816	481.88
321.046	463.88
321.275	455.88
321.504	475.88
321.733	483.88
321.962	474.88
322.191	483.88
322.42	474.88
322.649	487.88
322.878	486.88
323.108	488.88
323.337	502.88
323.566	494.88
323.795	471.88
324.024	497.88
324.253	476.88
324.482	489.88
324.71	499.88
324.939	487.88
325.168	489.88
325.397	520.88
325.626	505.88
325.855	509.88
326.084	512.88
326.313	516.88
326.542	519.88
326.77	522.88
326.999	531.88
327.228	521.88
327.457	526.88
327.686	505.88
327.914	520.88
328.143	524.88
328.372	531.88
328.6	537.88
328.829	529.88
329.058	520.88
329.287	535.88
329.515	547.88
329.744	546.88
329.972	534.88
330.201	515.88
330.43	525.88
330.658	534.88
330.887	538.88
331.115	553.88
331.344	561.88
331.572	557.88
331.801	557.88
332.03	547.88
332.258	567.88
332.486	576.88
332.715	610.88
332.943	610.88
333.172	640.88
333.4	668.88
333.629	672.88
333.857	704.88
334.085	681.88
334.314	661.88
334.542	660.88
334.771	635.88
334.999	651.88
335.227	637.88
335.455	660.88
335.684	637.88
335.912	636.88
336.14	634.88
336.369	625.88
336.597	647.88
336.825	633.88
337.053	629.88
337.281	604.88
337.51	608.88
337.738	592.88
337.966	582.88
338.194	584.88
338.422	558.88
338.65	577.88
338.878	572.88
339.106	572.88
339.334	566.88
339.562	556.88
339.79	556.88
340.018	547.88
340.246	549.88
340.474	548.88
340.702	579.88
340.93	538.88
341.158	557.88
341.386	547.88
341.614	570.88
341.842	571.88
342.07	566.88
342.298	520.88
342.526	523.88
342.754	530.88
342.981	556.88
343.209	556.88
343.437	599.88
343.665	617.88
343.893	649.88
344.12	653.88
344.348	639.88
344.576	618.88
344.804	626.88
345.031	589.88
345.259	553.88
345.487	568.88
345.714	556.88
345.942	539.88
346.17	525.88
346.397	563.88
346.625	549.88
346.853	526.88
347.08	528.88
347.308	525.88
347.535	539.88
347.763	542.88
347.99	545.88
348.218	532.88
348.445	532.88
348.673	523.88
348.9	523.88
349.128	539.88
349.355	536.88
349.583	533.88
349.81	536.88
350.037	499.88
350.265	511.88
350.492	503.88
350.72	534.88
350.947	519.88
351.174	534.88
351.402	522.88
351.629	509.88
351.856	495.88
352.083	510.88
352.311	539.88
352.538	504.88
352.765	525.88
352.992	499.88
353.22	519.88
353.447	510.88
353.674	512.88
353.901	495.88
354.128	509.88
354.355	508.88
354.583	523.88
354.81	513.88
355.037	510.88
355.264	511.88
355.491	540.88
355.718	525.88
355.945	516.88
356.172	492.88
356.399	517.88
356.626	521.88
356.853	541.88
357.08	517.88
357.307	501.88
357.534	532.88
357.761	521.88
357.988	538.88
358.215	512.88
358.441	516.88
358.668	543.88
358.895	522.88
359.122	497.88
359.349	547.88
359.576	521.88
359.802	518.88
360.029	524.88
360.256	504.88
360.483	542.88
360.709	542.88
360.936	511.88
361.163	535.88
361.39	529.88
361.616	550.88
361.843	525.88
362.07	515.88
362.296	531.88
362.523	525.88
362.749	510.88
362.976	508.88
363.203	507.88
363.429	530.88
363.656	506.88
363.882	517.88
364.109	501.88
364.335	531.88
364.562	533.88
364.788	526.88
365.015	514.88
365.241	513.88
365.468	517.88
365.694	536.88
365.92	506.88
366.147	501.88
366.373	491.88
366.599	523.88
366.826	505.88
367.052	512.88
367.278	520.88
367.505	537.88
367.731	505.88
367.957	487.88
368.184	522.88
368.41	538.88
368.636	512.88
368.862	533.88
369.089	521.88
369.315	524.88
369.541	554.88
369.767	541.88
369.993	540.88
370.219	544.88
370.445	546.88
370.672	542.88
370.898	551.88
371.124	542.88
371.35	596.88
371.576	577.88
371.802	562.88
372.028	555.88
372.254	571.88
372.48	569.88
372.706	569.88
372.932	563.88
373.158	581.88
373.384	573.88
373.61	588.88
373.835	572.88
374.061	577.88
374.287	578.88
374.513	585.88
374.739	606.88
374.965	604.88
375.191	610.88
375.416	630.88
375.642	589.88
375.868	627.88
376.094	571.88
376.319	564.88
376.545	575.88
376.771	572.88
376.997	569.88
377.222	551.88
377.448	563.88
377.674	554.88
377.899	549.88
378.125	551.88
378.35	569.88
378.576	585.88
378.802	545.88
379.027	563.88
379.253	566.88
379.478	572.88
379.704	549.88
379.929	558.88
380.155	561.88
380.38	570.88
380.606	559.88
380.831	559.88
381.057	569.88
381.282	563.88
381.507	549.88
381.733	588.88
381.958	562.88
382.184	565.88
382.409	576.88
382.634	602.88
382.86	575.88
383.085	610.88
383.31	612.88
383.535	618.88
383.761	635.88
383.986	639.88
384.211	617.88
384.436	639.88
384.662	659.88
384.887	649.88
385.112	662.88
385.337	662.88
385.562	678.88
385.787	674.88
386.013	675.88
386.238	658.88
386.463	653.88
386.688	677.88
386.913	674.88
387.138	642.88
387.363	680.88
387.588	672.88
387.813	665.88
388.038	660.88
388.263	674.88
388.488	676.88
388.713	664.88
388.938	641.88
389.163	664.88
389.387	663.88
389.612	652.88
389.837	649.88
390.062	649.88
390.287	653.88
390.512	653.88
390.736	682.88
390.961	667.88
391.186	680.88
391.411	699.88
391.636	731.88
391.86	726.88
392.085	764.88
392.31	748.88
392.534	724.88
392.759	721.88
392.984	717.88
393.208	723.88
393.433	735.88
393.658	708.88
393.882	713.88
394.107	705.88
394.331	712.88
394.556	722.88
394.78	704.88
395.005	744.88
395.229	715.88
395.454	745.88
395.678	771.88
395.903	748.88
396.127	740.88
396.352	723.88
396.576	713.88
396.801	707.88
397.025	729.88
397.249	746.88
397.474	773.88
397.698	769.88
397.922	768.88
398.147	767.88
398.371	782.88
398.595	760.88
398.82	828.88
399.044	885.88
399.268	949.88
399.492	1118.88
399.717	1184.88
399.941	1180.88
400.165	1121.88
400.389	1003.88
400.613	913.88
400.837	865.88
401.062	837.88
401.286	838.88
401.51	832.88
401.734	837.88
401.958	846.88
402.182	820.88
402.406	833.88
402.63	864.88
402.854	881.88
403.078	870.88
403.302	903.88
403.526	915.88
403.75	947.88
403.974	929.88
404.198	942.88
404.422	941.88
404.645	939.88
404.869	930.88
405.093	916.88
405.317	939.88
405.541	907.88
405.765	929.88
405.988	891.88
406.212	885.88
406.436	904.88
406.66	937.88
406.883	947.88
407.107	983.88
407.331	1044.88
407.555	1075.88
407.778	1020.88
408.002	1031.88
408.226	1020.88
408.449	987.88
408.673	955.88
408.896	944.88
409.12	928.88
409.344	941.88
409.567	932.88
409.791	947.88
410.014	949.88
410.238	904.88
410.461	917.88
410.685	905.88
410.908	915.88
411.132	892.88
411.355	855.88
411.578	863.88
411.802	860.88
412.025	863.88
412.249	915.88
412.472	877.88
412.695	857.88
412.919	870.88
413.142	885.88
413.365	841.88
413.589	871.88
413.812	848.88
414.035	823.88
414.258	818.88
414.482	812.88
414.705	843.88
414.928	839.88
415.151	865.88
415.374	844.88
415.597	872.88
415.821	821.88
416.044	796.88
416.267	817.88
416.49	807.88
416.713	809.88
416.936	823.88
417.159	791.88
417.382	817.88
417.605	818.88
417.828	807.88
418.051	825.88
418.274	844.88
418.497	795.88
418.72	838.88
418.943	848.88
419.166	903.88
419.389	935.88
419.611	910.88
419.834	848.88
420.057	836.88
420.28	807.88
420.503	820.88
420.726	823.88
420.948	826.88
421.171	816.88
421.394	817.88
421.617	786.88
421.839	817.88
422.062	832.88
422.285	797.88
422.507	831.88
422.73	844.88
422.953	847.88
423.175	833.88
423.398	856.88
423.621	857.88
423.843	875.88
424.066	856.88
424.288	827.88
424.511	848.88
424.733	858.88
424.956	801.88
425.178	843.88
425.401	788.88
425.623	810.88
425.846	804.88
426.068	802.88
426.291	759.88
426.513	809.88
426.735	765.88
426.958	777.88
427.18	752.88
427.402	772.88
427.625	757.88
427.847	744.88
428.069	735.88
428.292	761.88
428.514	732.88
428.736	735.88
428.958	756.88
429.181	698.88
429.403	716.88
429.625	727.88
429.847	713.88
430.069	742.88
430.292	736.88
430.514	709.88
430.736	712.88
430.958	740.88
431.18	704.88
431.402	722.88
431.624	732.88
431.846	735.88
432.068	727.88
432.29	755.88
432.512	743.88
432.734	757.88
432.956	728.88
433.178	781.88
433.4	759.88
433.622	731.88
433.844	743.88
434.066	738.88
434.287	741.88
434.509	779.88
434.731	793.88
434.953	799.88
435.175	838.88
435.397	827.88
435.618	789.88
435.84	745.88
436.062	746.88
436.284	730.88
436.505	763.88
436.727	734.88
436.949	723.88
437.17	725.88
437.392	728.88
437.614	713.88
437.835	692.88
438.057	713.88
438.278	731.88
438.5	717.88
438.721	682.88
438.943	705.88
439.165	722.88
439.386	719.88
439.608	724.88
439.829	734.88
440.05	735.88
440.272	742.88
440.493	724.88
440.715	773.88
440.936	773.88
441.158	762.88
441.379	789.88
441.6	817.88
441.822	825.88
442.043	805.88
442.264	793.88
442.486	817.88
442.707	793.88
442.928	789.88
443.149	817.88
443.371	795.88
443.592	830.88
443.813	830.88
444.034	831.88
444.255	834.88
444.476	889.88
444.698	921.88
444.919	961.88
445.14	1038.88
445.361	924.88
445.582	840.88
445.803	795.88
446.024	791.88
446.245	747.88
446.466	733.88
446.687	765.88
446.908	737.88
447.129	735.88
447.35	720.88
447.571	725.88
447.792	691.88
448.013	676.88
448.234	677.88
448.455	690.88
448.675	705.88
448.896	680.88
449.117	664.88
449.338	685.88
449.559	674.88
449.779	648.88
450	679.88
450.221	693.88
450.442	693.88
450.662	672.88
450.883	674.88
451.104	693.88
451.324	706.88
451.545	679.88
451.766	684.88
451.986	668.88
452.207	671.88
452.428	651.88
452.648	673.88
452.869	663.88
453.089	654.88
453.31	672.88
453.53	642.88
453.751	643.88
453.971	626.88
454.192	665.88
454.412	635.88
454.633	630.88
454.853	631.88
455.073	634.88
455.294	635.88
455.514	632.88
455.734	640.88
455.955	653.88
456.175	652.88
456.395	634.88
456.616	631.88
456.836	635.88
457.056	615.88
457.276	615.88
457.497	646.88
457.717	655.88
457.937	646.88
458.157	664.88
458.377	673.88
458.598	661.88
458.818	693.88
459.038	715.88
459.258	698.88
459.478	722.88
459.698	777.88
459.918	789.88
460.138	772.88
460.358	835.88
460.578	855.88
460.798	867.88
461.018	848.88
461.238	871.88
461.458	832.88
461.678	865.88
461.898	852.88
462.118	868.88
462.338	920.88
462.558	911.88
462.777	976.88
462.997	1025.88
463.217	1108.88
463.437	1128.88
463.657	1008.88
463.876	989.88
464.096	976.88
464.316	995.88
464.536	997.88
464.755	946.88
464.975	929.88
465.195	876.88
465.414	839.88
465.634	792.88
465.854	747.88
466.073	754.88
466.293	735.88
466.512	727.88
466.732	717.88
466.951	737.88
467.171	689.88
467.391	719.88
467.61	728.88
467.829	694.88
468.049	683.88
468.268	693.88
468.488	705.88
468.707	694.88
468.927	684.88
469.146	688.88
469.365	687.88
469.585	702.88
469.804	730.88
470.023	731.88
470.243	729.88
470.462	721.88
470.681	724.88
470.901	722.88
471.12	728.88
471.339	706.88
471.558	697.88
471.777	691.88
471.997	697.88
472.216	669.88
472.435	690.88
472.654	679.88
472.873	663.88
473.092	667.88
473.311	664.88
473.53	668.88
473.749	660.88
473.968	649.88
474.187	682.88
474.406	680.88
474.625	689.88
474.844	684.88
475.063	673.88
475.282	670.88
475.501	693.88
475.72	695.88
475.939	683.88
476.158	712.88
476.377	693.88
476.596	697.88
476.814	707.88
477.033	728.88
477.252	746.88
477.471	718.88
477.69	761.88
477.908	763.88
478.127	780.88
478.346	772.88
478.564	801.88
478.783	799.88
479.002	807.88
479.22	843.88
479.439	848.88
479.658	815.88
479.876	813.88
480.095	839.88
480.313	872.88
480.532	895.88
480.751	871.88
480.969	849.88
481.188	835.88
481.406	793.88
481.624	785.88
481.843	763.88
482.061	784.88
482.28	762.88
482.498	759.88
482.717	764.88
482.935	737.88
483.153	763.88
483.372	775.88
483.59	769.88
483.808	768.88
484.027	776.88
484.245	790.88
484.463	818.88
484.681	798.88
484.9	785.88
485.118	814.88
485.336	772.88
485.554	783.88
485.772	779.88
485.99	789.88
486.209	797.88
486.427	803.88
486.645	795.88
486.863	787.88
487.081	820.88
487.299	812.88
487.517	803.88
487.735	809.88
487.953	805.88
488.171	808.88
488.389	799.88
488.607	797.88
488.825	799.88
489.043	788.88
489.261	815.88
489.479	797.88
489.696	806.88
489.914	800.88
490.132	818.88
490.35	809.88
490.568	802.88
490.786	812.88
491.003	832.88
491.221	838.88
491.439	804.88
491.657	832.88
491.874	843.88
492.092	817.88
492.31	827.88
492.527	827.88
492.745	826.88
492.963	854.88
493.18	852.88
493.398	867.88
493.615	863.88
493.833	845.88
494.05	865.88
494.268	875.88
494.485	875.88
494.703	881.88
494.92	891.88
495.138	894.88
495.355	876.88
495.573	865.88
495.79	894.88
496.008	906.88
496.225	911.88
496.442	908.88
496.66	931.88
496.877	911.88
497.094	909.88
497.312	959.88
497.529	951.88
497.746	984.88
497.963	1001.88
498.181	1066.88
498.398	1084.88
498.615	1138.88
498.832	1225.88
499.049	1323.88
499.267	1389.88
499.484	1509.88
499.701	1691.88
499.918	1807.88
500.135	2052.88
500.352	2282.88
500.569	2331.88
500.786	2324.88
501.003	2162.88
501.22	1978.88
