Data from NiCl2@0.0625M.TitratingCurve.Agarose3%dH2O.NegLispCup.LampEnergy10.LIBS07252019_HRD10591_18-35-17-578.txt Node
Date: Thu Jul 25 18:35:17 EDT 2019
User: cochatt
Spectrometer: HR+D1059
Trigger mode: 1
Integration Time (sec): 1.000000E-1
Scans to average: 1
Electric dark correction enabled: true
Nonlinearity correction enabled: false
Boxcar width: 0
XAxis mode: Wavelengths
Number of Pixels in Spectrum: 2048
>>>>>Begin Spectral Data<<<<<
223.165	-9.31
223.4	-9.31
223.635	-9.31
223.869	-15.31
224.104	-20.31
224.338	-10.31
224.573	-8.31
224.808	-12.31
225.042	-5.31
225.277	-9.31
225.511	-7.31
225.746	3.69
225.98	12.69
226.215	6.69
226.449	15.69
226.683	10.69
226.918	28.69
227.152	19.69
227.387	19.69
227.621	32.69
227.856	41.69
228.09	45.69
228.324	61.69
228.559	62.69
228.793	76.69
229.027	145.69
229.262	148.69
229.496	156.69
229.73	157.69
229.964	165.69
230.199	180.69
230.433	185.69
230.667	181.69
230.901	183.69
231.136	172.69
231.37	185.69
231.604	184.69
231.838	193.69
232.072	195.69
232.306	203.69
232.541	197.69
232.775	191.69
233.009	195.69
233.243	197.69
233.477	195.69
233.711	191.69
233.945	203.69
234.179	209.69
234.413	200.69
234.647	217.69
234.881	206.69
235.115	216.69
235.349	197.69
235.583	210.69
235.817	204.69
236.051	216.69
236.285	217.69
236.519	221.69
236.753	223.69
236.987	214.69
237.221	230.69
237.455	220.69
237.689	230.69
237.922	218.69
238.156	229.69
238.39	245.69
238.624	246.69
238.858	249.69
239.091	228.69
239.325	259.69
239.559	233.69
239.793	256.69
240.027	262.69
240.26	272.69
240.494	255.69
240.728	267.69
240.961	276.69
241.195	271.69
241.429	281.69
241.662	275.69
241.896	282.69
242.13	284.69
242.363	292.69
242.597	286.69
242.83	283.69
243.064	302.69
243.298	296.69
243.531	295.69
243.765	313.69
243.998	299.69
244.232	323.69
244.465	339.69
244.699	316.69
244.932	310.69
245.166	317.69
245.399	324.69
245.633	337.69
245.866	342.69
246.099	342.69
246.333	337.69
246.566	333.69
246.8	332.69
247.033	330.69
247.266	339.69
247.5	346.69
247.733	339.69
247.966	357.69
248.2	354.69
248.433	367.69
248.666	369.69
248.899	369.69
249.133	372.69
249.366	367.69
249.599	370.69
249.832	364.69
250.066	375.69
250.299	379.69
250.532	384.69
250.765	396.69
250.998	391.69
251.231	387.69
251.465	398.69
251.698	404.69
251.931	405.69
252.164	420.69
252.397	416.69
252.63	428.69
252.863	427.69
253.096	417.69
253.329	391.69
253.562	400.69
253.795	424.69
254.028	425.69
254.261	434.69
254.494	446.69
254.727	431.69
254.96	446.69
255.193	444.69
255.426	465.69
255.659	455.69
255.892	450.69
256.124	452.69
256.357	453.69
256.59	455.69
256.823	457.69
257.056	471.69
257.289	466.69
257.521	475.69
257.754	471.69
257.987	486.69
258.22	482.69
258.452	496.69
258.685	466.69
258.918	491.69
259.151	500.69
259.383	495.69
259.616	477.69
259.849	483.69
260.081	485.69
260.314	492.69
260.547	512.69
260.779	505.69
261.012	499.69
261.244	514.69
261.477	519.69
261.71	508.69
261.942	512.69
262.175	517.69
262.407	509.69
262.64	525.69
262.872	523.69
263.105	533.69
263.337	522.69
263.57	531.69
263.802	537.69
264.035	559.69
264.267	539.69
264.499	548.69
264.732	541.69
264.964	580.69
265.197	564.69
265.429	559.69
265.661	561.69
265.894	539.69
266.126	551.69
266.358	573.69
266.591	562.69
266.823	587.69
267.055	566.69
267.287	585.69
267.52	576.69
267.752	580.69
267.984	575.69
268.216	595.69
268.448	585.69
268.681	631.69
268.913	599.69
269.145	588.69
269.377	614.69
269.609	633.69
269.841	603.69
270.073	623.69
270.306	607.69
270.538	623.69
270.77	610.69
271.002	617.69
271.234	616.69
271.466	604.69
271.698	612.69
271.93	620.69
272.162	627.69
272.394	651.69
272.626	631.69
272.858	651.69
273.09	645.69
273.322	684.69
273.553	655.69
273.785	655.69
274.017	636.69
274.249	677.69
274.481	653.69
274.713	663.69
274.945	681.69
275.176	687.69
275.408	672.69
275.64	687.69
275.872	674.69
276.104	685.69
276.335	689.69
276.567	687.69
276.799	681.69
277.031	716.69
277.262	715.69
277.494	694.69
277.726	701.69
277.957	727.69
278.189	724.69
278.421	694.69
278.652	710.69
278.884	715.69
279.115	728.69
279.347	713.69
279.579	728.69
279.81	727.69
280.042	721.69
280.273	747.69
280.505	743.69
280.736	734.69
280.968	748.69
281.199	745.69
281.431	767.69
281.662	764.69
281.894	779.69
282.125	760.69
282.356	771.69
282.588	769.69
282.819	763.69
283.051	768.69
283.282	745.69
283.513	775.69
283.745	810.69
283.976	809.69
284.207	801.69
284.439	796.69
284.67	805.69
284.901	782.69
285.132	821.69
285.364	808.69
285.595	790.69
285.826	831.69
286.057	824.69
286.288	817.69
286.52	845.69
286.751	804.69
286.982	815.69
287.213	829.69
287.444	838.69
287.675	846.69
287.906	834.69
288.138	832.69
288.369	837.69
288.6	843.69
288.831	836.69
289.062	846.69
289.293	843.69
289.524	820.69
289.755	865.69
289.986	865.69
290.217	847.69
290.448	828.69
290.679	880.69
290.91	867.69
291.141	876.69
291.371	857.69
291.602	871.69
291.833	850.69
292.064	851.69
292.295	848.69
292.526	839.69
292.757	883.69
292.987	874.69
293.218	846.69
293.449	902.69
293.68	871.69
293.91	840.69
294.141	868.69
294.372	885.69
294.603	867.69
294.833	892.69
295.064	881.69
295.295	896.69
295.525	858.69
295.756	887.69
295.987	907.69
296.217	873.69
296.448	909.69
296.679	899.69
296.909	891.69
297.14	938.69
297.37	940.69
297.601	934.69
297.831	896.69
298.062	909.69
298.292	948.69
298.523	953.69
298.753	934.69
298.984	965.69
299.214	933.69
299.445	950.69
299.675	932.69
299.905	929.69
300.136	933.69
300.366	967.69
300.597	929.69
300.827	967.69
301.057	984.69
301.288	983.69
301.518	973.69
301.748	958.69
301.979	987.69
302.209	1023.69
302.439	973.69
302.669	954.69
302.9	986.69
303.13	986.69
303.36	980.69
303.59	970.69
303.82	981.69
304.051	993.69
304.281	991.69
304.511	982.69
304.741	981.69
304.971	978.69
305.201	981.69
305.431	978.69
305.661	1021.69
305.891	974.69
306.121	972.69
306.352	964.69
306.582	977.69
306.812	927.69
307.042	977.69
307.272	966.69
307.502	948.69
307.731	967.69
307.961	959.69
308.191	937.69
308.421	966.69
308.651	978.69
308.881	952.69
309.111	971.69
309.341	982.69
309.571	967.69
309.8	966.69
310.03	997.69
310.26	979.69
310.49	976.69
310.72	959.69
310.949	980.69
311.179	973.69
311.409	968.69
311.639	1016.69
311.868	1032.69
312.098	999.69
312.328	985.69
312.557	1025.69
312.787	1008.69
313.017	1041.69
313.246	1017.69
313.476	1025.69
313.706	1078.69
313.935	1078.69
314.165	1042.69
314.394	1036.69
314.624	1076.69
314.853	1032.69
315.083	1027.69
315.312	1040.69
315.542	1028.69
315.771	1064.69
316.001	1079.69
316.23	1074.69
316.46	1035.69
316.689	1026.69
316.919	1053.69
317.148	1055.69
317.377	1027.69
317.607	1020.69
317.836	1017.69
318.065	1055.69
318.295	1046.69
318.524	1011.69
318.753	1021.69
318.983	1020.69
319.212	1028.69
319.441	1009.69
319.67	1029.69
319.9	1033.69
320.129	1079.69
320.358	1033.69
320.587	1042.69
320.816	1038.69
321.046	1051.69
321.275	1057.69
321.504	1031.69
321.733	1064.69
321.962	1061.69
322.191	1028.69
322.42	1020.69
322.649	1066.69
322.878	1016.69
323.108	1049.69
323.337	1072.69
323.566	1073.69
323.795	1109.69
324.024	1086.69
324.253	1069.69
324.482	1069.69
324.71	1076.69
324.939	1077.69
325.168	1084.69
325.397	1066.69
325.626	1110.69
325.855	1137.69
326.084	1140.69
326.313	1116.69
326.542	1147.69
326.77	1144.69
326.999	1106.69
327.228	1119.69
327.457	1128.69
327.686	1152.69
327.914	1127.69
328.143	1155.69
328.372	1121.69
328.6	1143.69
328.829	1144.69
329.058	1130.69
329.287	1129.69
329.515	1146.69
329.744	1155.69
329.972	1185.69
330.201	1162.69
330.43	1142.69
330.658	1149.69
330.887	1167.69
331.115	1189.69
331.344	1189.69
331.572	1226.69
331.801	1236.69
332.03	1208.69
332.258	1256.69
332.486	1274.69
332.715	1303.69
332.943	1349.69
333.172	1370.69
333.4	1393.69
333.629	1453.69
333.857	1452.69
334.085	1456.69
334.314	1455.69
334.542	1456.69
334.771	1458.69
334.999	1411.69
335.227	1391.69
335.455	1431.69
335.684	1388.69
335.912	1403.69
336.14	1391.69
336.369	1335.69
336.597	1367.69
336.825	1338.69
337.053	1356.69
337.281	1360.69
337.51	1317.69
337.738	1297.69
337.966	1295.69
338.194	1251.69
338.422	1222.69
338.65	1233.69
338.878	1248.69
339.106	1210.69
339.334	1255.69
339.562	1227.69
339.79	1181.69
340.018	1233.69
340.246	1202.69
340.474	1195.69
340.702	1191.69
340.93	1223.69
341.158	1184.69
341.386	1202.69
341.614	1191.69
341.842	1201.69
342.07	1199.69
342.298	1171.69
342.526	1153.69
342.754	1183.69
342.981	1186.69
343.209	1221.69
343.437	1257.69
343.665	1321.69
343.893	1359.69
344.12	1401.69
344.348	1388.69
344.576	1348.69
344.804	1327.69
345.031	1258.69
345.259	1209.69
345.487	1217.69
345.714	1159.69
345.942	1146.69
346.17	1187.69
346.397	1173.69
346.625	1146.69
346.853	1156.69
347.08	1125.69
347.308	1148.69
347.535	1139.69
347.763	1129.69
347.99	1151.69
348.218	1135.69
348.445	1129.69
348.673	1139.69
348.9	1148.69
349.128	1140.69
349.355	1103.69
349.583	1145.69
349.81	1119.69
350.037	1129.69
350.265	1107.69
350.492	1101.69
350.72	1097.69
350.947	1085.69
351.174	1115.69
351.402	1099.69
351.629	1114.69
351.856	1109.69
352.083	1094.69
352.311	1089.69
352.538	1086.69
352.765	1107.69
352.992	1119.69
353.22	1085.69
353.447	1105.69
353.674	1104.69
353.901	1093.69
354.128	1077.69
354.355	1069.69
354.583	1101.69
354.81	1116.69
355.037	1080.69
355.264	1101.69
355.491	1099.69
355.718	1091.69
355.945	1089.69
356.172	1112.69
356.399	1115.69
356.626	1134.69
356.853	1091.69
357.08	1113.69
357.307	1097.69
357.534	1109.69
357.761	1109.69
357.988	1124.69
358.215	1100.69
358.441	1133.69
358.668	1095.69
358.895	1094.69
359.122	1101.69
359.349	1083.69
359.576	1118.69
359.802	1116.69
360.029	1093.69
360.256	1103.69
360.483	1116.69
360.709	1103.69
360.936	1123.69
361.163	1089.69
361.39	1117.69
361.616	1109.69
361.843	1116.69
362.07	1101.69
362.296	1108.69
362.523	1129.69
362.749	1131.69
362.976	1116.69
363.203	1119.69
363.429	1085.69
363.656	1124.69
363.882	1093.69
364.109	1111.69
364.335	1102.69
364.562	1105.69
364.788	1127.69
365.015	1096.69
365.241	1121.69
365.468	1086.69
365.694	1101.69
365.92	1116.69
366.147	1132.69
366.373	1127.69
366.599	1129.69
366.826	1086.69
367.052	1092.69
367.278	1107.69
367.505	1105.69
367.731	1120.69
367.957	1092.69
368.184	1141.69
368.41	1117.69
368.636	1116.69
368.862	1167.69
369.089	1139.69
369.315	1141.69
369.541	1152.69
369.767	1155.69
369.993	1165.69
370.219	1162.69
370.445	1151.69
370.672	1188.69
370.898	1181.69
371.124	1187.69
371.35	1215.69
371.576	1244.69
371.802	1187.69
372.028	1173.69
372.254	1226.69
372.48	1193.69
372.706	1231.69
372.932	1257.69
373.158	1236.69
373.384	1219.69
373.61	1235.69
373.835	1233.69
374.061	1211.69
374.287	1230.69
374.513	1235.69
374.739	1253.69
374.965	1333.69
375.191	1340.69
375.416	1281.69
375.642	1263.69
375.868	1234.69
376.094	1229.69
376.319	1229.69
376.545	1241.69
376.771	1199.69
376.997	1209.69
377.222	1186.69
377.448	1181.69
377.674	1196.69
377.899	1173.69
378.125	1199.69
378.35	1210.69
378.576	1175.69
378.802	1182.69
379.027	1187.69
379.253	1213.69
379.478	1184.69
379.704	1217.69
379.929	1186.69
380.155	1177.69
380.38	1171.69
380.606	1170.69
380.831	1179.69
381.057	1231.69
381.282	1195.69
381.507	1202.69
381.733	1212.69
381.958	1197.69
382.184	1202.69
382.409	1237.69
382.634	1249.69
382.86	1273.69
383.085	1254.69
383.31	1277.69
383.535	1267.69
383.761	1264.69
383.986	1342.69
384.211	1354.69
384.436	1375.69
384.662	1329.69
384.887	1397.69
385.112	1393.69
385.337	1405.69
385.562	1428.69
385.787	1425.69
386.013	1450.69
386.238	1429.69
386.463	1415.69
386.688	1432.69
386.913	1432.69
387.138	1440.69
387.363	1409.69
387.588	1417.69
387.813	1408.69
388.038	1406.69
388.263	1388.69
388.488	1441.69
388.713	1461.69
388.938	1422.69
389.163	1364.69
389.387	1428.69
389.612	1397.69
389.837	1387.69
390.062	1417.69
390.287	1386.69
390.512	1405.69
390.736	1443.69
390.961	1430.69
391.186	1446.69
391.411	1509.69
391.636	1505.69
391.86	1561.69
392.085	1578.69
392.31	1542.69
392.534	1547.69
392.759	1517.69
392.984	1512.69
393.208	1456.69
393.433	1512.69
393.658	1495.69
393.882	1449.69
394.107	1493.69
394.331	1510.69
394.556	1530.69
394.78	1516.69
395.005	1519.69
395.229	1543.69
395.454	1545.69
395.678	1621.69
395.903	1586.69
396.127	1548.69
396.352	1541.69
396.576	1558.69
396.801	1501.69
397.025	1520.69
397.249	1567.69
397.474	1592.69
397.698	1596.69
397.922	1626.69
398.147	1604.69
398.371	1659.69
398.595	1678.69
398.82	1769.69
399.044	1871.69
399.268	2007.69
399.492	2218.69
399.717	2355.69
399.941	2431.69
400.165	2285.69
400.389	2103.69
400.613	1983.69
400.837	1906.69
401.062	1815.69
401.286	1772.69
401.51	1779.69
401.734	1795.69
401.958	1780.69
402.182	1815.69
402.406	1821.69
402.63	1785.69
402.854	1799.69
403.078	1829.69
403.302	1877.69
403.526	1892.69
403.75	1950.69
403.974	1948.69
404.198	1938.69
404.422	1921.69
404.645	1948.69
404.869	1937.69
405.093	1899.69
405.317	1882.69
405.541	1873.69
405.765	1907.69
405.988	1866.69
406.212	1913.69
406.436	1919.69
406.66	1953.69
406.883	2008.69
407.107	2093.69
407.331	2113.69
407.555	2230.69
407.778	2250.69
408.002	2179.69
408.226	2107.69
408.449	2097.69
408.673	2041.69
408.896	2005.69
409.12	1927.69
409.344	1976.69
409.567	1988.69
409.791	1989.69
410.014	1913.69
410.238	1925.69
410.461	1928.69
410.685	1948.69
410.908	1897.69
411.132	1884.69
411.355	1847.69
411.578	1849.69
411.802	1865.69
412.025	1845.69
412.249	1847.69
412.472	1878.69
412.695	1837.69
412.919	1822.69
413.142	1784.69
413.365	1778.69
413.589	1765.69
413.812	1773.69
414.035	1780.69
414.258	1763.69
414.482	1764.69
414.705	1805.69
414.928	1794.69
415.151	1783.69
415.374	1784.69
415.597	1728.69
415.821	1715.69
416.044	1713.69
416.267	1727.69
416.49	1703.69
416.713	1698.69
416.936	1689.69
417.159	1637.69
417.382	1683.69
417.605	1675.69
417.828	1695.69
418.051	1731.69
418.274	1726.69
418.497	1696.69
418.72	1761.69
418.943	1723.69
419.166	1820.69
419.389	1978.69
419.611	1901.69
419.834	1791.69
420.057	1797.69
420.28	1736.69
420.503	1704.69
420.726	1672.69
420.948	1663.69
421.171	1686.69
421.394	1674.69
421.617	1715.69
421.839	1714.69
422.062	1719.69
422.285	1674.69
422.507	1740.69
422.73	1706.69
422.953	1671.69
423.175	1695.69
423.398	1764.69
423.621	1705.69
423.843	1772.69
424.066	1760.69
424.288	1766.69
424.511	1764.69
424.733	1739.69
424.956	1728.69
425.178	1663.69
425.401	1715.69
425.623	1681.69
425.846	1649.69
426.068	1664.69
426.291	1663.69
426.513	1627.69
426.735	1618.69
426.958	1651.69
427.18	1604.69
427.402	1592.69
427.625	1624.69
427.847	1504.69
428.069	1560.69
428.292	1575.69
428.514	1507.69
428.736	1543.69
428.958	1572.69
429.181	1519.69
429.403	1525.69
429.625	1518.69
429.847	1523.69
430.069	1537.69
430.292	1539.69
430.514	1510.69
430.736	1549.69
430.958	1562.69
431.18	1544.69
431.402	1551.69
431.624	1558.69
431.846	1590.69
432.068	1554.69
432.29	1620.69
432.512	1526.69
432.734	1570.69
432.956	1551.69
433.178	1553.69
433.4	1567.69
433.622	1602.69
433.844	1620.69
434.066	1642.69
434.287	1641.69
434.509	1687.69
434.731	1720.69
434.953	1724.69
435.175	1735.69
435.397	1716.69
435.618	1676.69
435.84	1608.69
436.062	1599.69
436.284	1601.69
436.505	1532.69
436.727	1553.69
436.949	1567.69
437.17	1577.69
437.392	1535.69
437.614	1508.69
437.835	1442.69
438.057	1496.69
438.278	1471.69
438.5	1505.69
438.721	1498.69
438.943	1510.69
439.165	1458.69
439.386	1488.69
439.608	1491.69
439.829	1518.69
440.05	1505.69
440.272	1493.69
440.493	1536.69
440.715	1500.69
440.936	1582.69
441.158	1597.69
441.379	1627.69
441.6	1721.69
441.822	1673.69
442.043	1720.69
442.264	1652.69
442.486	1639.69
442.707	1662.69
442.928	1651.69
443.149	1626.69
443.371	1629.69
443.592	1686.69
443.813	1697.69
444.034	1752.69
444.255	1733.69
444.476	1803.69
444.698	1871.69
444.919	1889.69
445.14	1975.69
445.361	1851.69
445.582	1712.69
445.803	1641.69
446.024	1644.69
446.245	1566.69
446.466	1583.69
446.687	1532.69
446.908	1527.69
447.129	1484.69
447.35	1469.69
447.571	1469.69
447.792	1424.69
448.013	1426.69
448.234	1446.69
448.455	1384.69
448.675	1403.69
448.896	1404.69
449.117	1384.69
449.338	1377.69
449.559	1372.69
449.779	1395.69
450	1375.69
450.221	1395.69
450.442	1407.69
450.662	1368.69
450.883	1371.69
451.104	1377.69
451.324	1426.69
451.545	1403.69
451.766	1400.69
451.986	1408.69
452.207	1393.69
452.428	1393.69
452.648	1359.69
452.869	1311.69
453.089	1332.69
453.31	1343.69
453.53	1369.69
453.751	1333.69
453.971	1347.69
454.192	1334.69
454.412	1343.69
454.633	1339.69
454.853	1297.69
455.073	1313.69
455.294	1298.69
455.514	1314.69
455.734	1333.69
455.955	1292.69
456.175	1297.69
456.395	1295.69
456.616	1283.69
456.836	1293.69
457.056	1291.69
457.276	1272.69
457.497	1328.69
457.717	1319.69
457.937	1333.69
458.157	1334.69
458.377	1359.69
458.598	1386.69
458.818	1404.69
459.038	1433.69
459.258	1494.69
459.478	1529.69
459.698	1515.69
459.918	1611.69
460.138	1656.69
460.358	1719.69
460.578	1703.69
460.798	1744.69
461.018	1714.69
461.238	1756.69
461.458	1741.69
461.678	1739.69
461.898	1771.69
462.118	1775.69
462.338	1890.69
462.558	1875.69
462.777	1992.69
462.997	2062.69
463.217	2201.69
463.437	2232.69
463.657	2110.69
463.876	1992.69
464.096	1992.69
464.316	1988.69
464.536	1994.69
464.755	1983.69
464.975	1912.69
465.195	1792.69
465.414	1719.69
465.634	1605.69
465.854	1556.69
466.073	1522.69
466.293	1532.69
466.512	1462.69
466.732	1487.69
466.951	1508.69
467.171	1464.69
467.391	1474.69
467.61	1452.69
467.829	1471.69
468.049	1452.69
468.268	1407.69
468.488	1378.69
468.707	1371.69
468.927	1396.69
469.146	1409.69
469.365	1438.69
469.585	1418.69
469.804	1439.69
470.023	1463.69
470.243	1481.69
470.462	1551.69
470.681	1463.69
470.901	1477.69
471.12	1493.69
471.339	1462.69
471.558	1415.69
471.777	1432.69
471.997	1459.69
472.216	1415.69
472.435	1427.69
472.654	1369.69
472.873	1375.69
473.092	1407.69
473.311	1360.69
473.53	1380.69
473.749	1412.69
473.968	1395.69
474.187	1385.69
474.406	1378.69
474.625	1390.69
474.844	1395.69
475.063	1412.69
475.282	1409.69
475.501	1417.69
475.72	1428.69
475.939	1427.69
476.158	1455.69
476.377	1455.69
476.596	1488.69
476.814	1510.69
477.033	1482.69
477.252	1525.69
477.471	1541.69
477.69	1585.69
477.908	1620.69
478.127	1653.69
478.346	1648.69
478.564	1679.69
478.783	1699.69
479.002	1728.69
479.22	1761.69
479.439	1759.69
479.658	1748.69
479.876	1729.69
480.095	1740.69
480.313	1820.69
480.532	1867.69
480.751	1849.69
480.969	1806.69
481.188	1763.69
481.406	1729.69
481.624	1731.69
481.843	1689.69
482.061	1687.69
482.28	1697.69
482.498	1684.69
482.717	1687.69
482.935	1656.69
483.153	1683.69
483.372	1720.69
483.59	1763.69
483.808	1719.69
484.027	1719.69
484.245	1756.69
484.463	1804.69
484.681	1831.69
484.9	1817.69
485.118	1828.69
485.336	1841.69
485.554	1891.69
485.772	1857.69
485.99	1867.69
486.209	1900.69
486.427	1875.69
486.645	1869.69
486.863	1884.69
487.081	1831.69
487.299	1864.69
487.517	1818.69
487.735	1836.69
487.953	1816.69
488.171	1831.69
488.389	1817.69
488.607	1785.69
488.825	1761.69
489.043	1765.69
489.261	1767.69
489.479	1748.69
489.696	1772.69
489.914	1804.69
490.132	1796.69
490.35	1754.69
490.568	1745.69
