Data from NiCl2@0.0625M.TitratingCurve.Agarose3%dH2O.NegLispCup.LampEnergy10.LIBS07252019_HRD10591_18-32-22-576.txt Node
Date: Thu Jul 25 18:32:22 EDT 2019
User: cochatt
Spectrometer: HR+D1059
Trigger mode: 1
Integration Time (sec): 1.000000E-1
Scans to average: 1
Electric dark correction enabled: true
Nonlinearity correction enabled: false
Boxcar width: 0
XAxis mode: Wavelengths
Number of Pixels in Spectrum: 2048
>>>>>Begin Spectral Data<<<<<
223.165	-16.88
223.4	-16.88
223.635	-16.88
223.869	-22.88
224.104	-24.88
224.338	-14.88
224.573	-22.88
224.808	-6.88
225.042	3.12
225.277	9.12
225.511	-22.88
225.746	8.12
225.98	15.12
226.215	16.12
226.449	23.12
226.683	18.12
226.918	26.12
227.152	13.12
227.387	31.12
227.621	23.12
227.856	31.12
228.09	46.12
228.324	45.12
228.559	55.12
228.793	81.12
229.027	168.12
229.262	161.12
229.496	173.12
229.73	183.12
229.964	182.12
230.199	211.12
230.433	183.12
230.667	201.12
230.901	206.12
231.136	194.12
231.37	193.12
231.604	198.12
231.838	191.12
232.072	218.12
232.306	219.12
232.541	218.12
232.775	229.12
233.009	207.12
233.243	219.12
233.477	210.12
233.711	221.12
233.945	232.12
234.179	235.12
234.413	223.12
234.647	236.12
234.881	227.12
235.115	229.12
235.349	231.12
235.583	243.12
235.817	265.12
236.051	247.12
236.285	260.12
236.519	238.12
236.753	245.12
236.987	254.12
237.221	266.12
237.455	271.12
237.689	251.12
237.922	272.12
238.156	259.12
238.39	267.12
238.624	270.12
238.858	273.12
239.091	265.12
239.325	299.12
239.559	301.12
239.793	287.12
240.027	304.12
240.26	271.12
240.494	269.12
240.728	299.12
240.961	289.12
241.195	311.12
241.429	292.12
241.662	317.12
241.896	321.12
242.13	308.12
242.363	335.12
242.597	324.12
242.83	327.12
243.064	327.12
243.298	329.12
243.531	366.12
243.765	351.12
243.998	335.12
244.232	372.12
244.465	362.12
244.699	377.12
244.932	354.12
245.166	389.12
245.399	373.12
245.633	365.12
245.866	369.12
246.099	355.12
246.333	373.12
246.566	385.12
246.8	377.12
247.033	382.12
247.266	395.12
247.5	395.12
247.733	401.12
247.966	418.12
248.2	436.12
248.433	437.12
248.666	418.12
248.899	427.12
249.133	414.12
249.366	430.12
249.599	440.12
249.832	419.12
250.066	417.12
250.299	424.12
250.532	446.12
250.765	453.12
250.998	432.12
251.231	469.12
251.465	450.12
251.698	476.12
251.931	482.12
252.164	470.12
252.397	465.12
252.63	488.12
252.863	476.12
253.096	478.12
253.329	482.12
253.562	481.12
253.795	480.12
254.028	496.12
254.261	499.12
254.494	488.12
254.727	505.12
254.96	489.12
255.193	498.12
255.426	508.12
255.659	509.12
255.892	522.12
256.124	514.12
256.357	526.12
256.59	522.12
256.823	509.12
257.056	547.12
257.289	533.12
257.521	560.12
257.754	532.12
257.987	515.12
258.22	533.12
258.452	536.12
258.685	524.12
258.918	546.12
259.151	548.12
259.383	565.12
259.616	548.12
259.849	564.12
260.081	553.12
260.314	584.12
260.547	564.12
260.779	564.12
261.012	571.12
261.244	581.12
261.477	585.12
261.71	615.12
261.942	593.12
262.175	615.12
262.407	589.12
262.64	576.12
262.872	591.12
263.105	604.12
263.337	587.12
263.57	614.12
263.802	617.12
264.035	606.12
264.267	623.12
264.499	614.12
264.732	613.12
264.964	634.12
265.197	627.12
265.429	615.12
265.661	605.12
265.894	640.12
266.126	648.12
266.358	629.12
266.591	639.12
266.823	640.12
267.055	663.12
267.287	649.12
267.52	651.12
267.752	665.12
267.984	667.12
268.216	660.12
268.448	680.12
268.681	678.12
268.913	663.12
269.145	680.12
269.377	671.12
269.609	696.12
269.841	693.12
270.073	697.12
270.306	719.12
270.538	668.12
270.77	702.12
271.002	689.12
271.234	707.12
271.466	710.12
271.698	723.12
271.93	723.12
272.162	716.12
272.394	721.12
272.626	729.12
272.858	715.12
273.09	733.12
273.322	733.12
273.553	740.12
273.785	754.12
274.017	742.12
274.249	756.12
274.481	768.12
274.713	757.12
274.945	760.12
275.176	758.12
275.408	777.12
275.64	769.12
275.872	790.12
276.104	763.12
276.335	782.12
276.567	770.12
276.799	787.12
277.031	798.12
277.262	801.12
277.494	803.12
277.726	792.12
277.957	806.12
278.189	802.12
278.421	804.12
278.652	815.12
278.884	834.12
279.115	837.12
279.347	838.12
279.579	850.12
279.81	829.12
280.042	824.12
280.273	843.12
280.505	848.12
280.736	827.12
280.968	863.12
281.199	848.12
281.431	865.12
281.662	864.12
281.894	889.12
282.125	843.12
282.356	874.12
282.588	870.12
282.819	900.12
283.051	900.12
283.282	863.12
283.513	881.12
283.745	887.12
283.976	909.12
284.207	907.12
284.439	872.12
284.67	913.12
284.901	925.12
285.132	920.12
285.364	923.12
285.595	904.12
285.826	896.12
286.057	903.12
286.288	921.12
286.52	919.12
286.751	957.12
286.982	944.12
287.213	951.12
287.444	931.12
287.675	950.12
287.906	924.12
288.138	940.12
288.369	949.12
288.6	981.12
288.831	952.12
289.062	954.12
289.293	944.12
289.524	936.12
289.755	949.12
289.986	967.12
290.217	936.12
290.448	983.12
290.679	944.12
290.91	964.12
291.141	989.12
291.371	989.12
291.602	996.12
291.833	977.12
292.064	982.12
292.295	965.12
292.526	1001.12
292.757	980.12
292.987	1000.12
293.218	946.12
293.449	979.12
293.68	972.12
293.91	989.12
294.141	1009.12
294.372	989.12
294.603	996.12
294.833	984.12
295.064	997.12
295.295	1024.12
295.525	978.12
295.756	1006.12
295.987	991.12
296.217	999.12
296.448	1005.12
296.679	1008.12
296.909	1016.12
297.14	1009.12
297.37	1032.12
297.601	1034.12
297.831	1058.12
298.062	1059.12
298.292	1041.12
298.523	1073.12
298.753	1114.12
298.984	1060.12
299.214	1057.12
299.445	1045.12
299.675	1057.12
299.905	1082.12
300.136	1058.12
300.366	1096.12
300.597	1086.12
300.827	1086.12
301.057	1102.12
301.288	1094.12
301.518	1099.12
301.748	1123.12
301.979	1123.12
302.209	1133.12
302.439	1127.12
302.669	1141.12
302.9	1103.12
303.13	1113.12
303.36	1111.12
303.59	1135.12
303.82	1113.12
304.051	1113.12
304.281	1088.12
304.511	1102.12
304.741	1111.12
304.971	1107.12
305.201	1112.12
305.431	1110.12
305.661	1122.12
305.891	1126.12
306.121	1061.12
306.352	1137.12
306.582	1112.12
306.812	1101.12
307.042	1114.12
307.272	1098.12
307.502	1074.12
307.731	1109.12
307.961	1129.12
308.191	1100.12
308.421	1112.12
308.651	1105.12
308.881	1089.12
309.111	1093.12
309.341	1089.12
309.571	1135.12
309.8	1122.12
310.03	1096.12
310.26	1119.12
310.49	1117.12
310.72	1110.12
310.949	1141.12
311.179	1149.12
311.409	1135.12
311.639	1162.12
311.868	1162.12
312.098	1158.12
312.328	1149.12
312.557	1187.12
312.787	1148.12
313.017	1181.12
313.246	1170.12
313.476	1156.12
313.706	1189.12
313.935	1218.12
314.165	1191.12
314.394	1201.12
314.624	1194.12
314.853	1185.12
315.083	1214.12
315.312	1222.12
315.542	1202.12
315.771	1202.12
316.001	1146.12
316.23	1191.12
316.46	1175.12
316.689	1194.12
316.919	1171.12
317.148	1172.12
317.377	1181.12
317.607	1172.12
317.836	1181.12
318.065	1165.12
318.295	1174.12
318.524	1189.12
318.753	1180.12
318.983	1197.12
319.212	1179.12
319.441	1157.12
319.67	1185.12
319.9	1165.12
320.129	1192.12
320.358	1189.12
320.587	1182.12
320.816	1213.12
321.046	1175.12
321.275	1186.12
321.504	1210.12
321.733	1204.12
321.962	1189.12
322.191	1174.12
322.42	1215.12
322.649	1208.12
322.878	1211.12
323.108	1207.12
323.337	1215.12
323.566	1225.12
323.795	1224.12
324.024	1246.12
324.253	1223.12
324.482	1251.12
324.71	1221.12
324.939	1231.12
325.168	1295.12
325.397	1240.12
325.626	1244.12
325.855	1280.12
326.084	1337.12
326.313	1306.12
326.542	1286.12
326.77	1331.12
326.999	1281.12
327.228	1299.12
327.457	1281.12
327.686	1313.12
327.914	1302.12
328.143	1309.12
328.372	1294.12
328.6	1281.12
328.829	1292.12
329.058	1270.12
329.287	1312.12
329.515	1322.12
329.744	1285.12
329.972	1316.12
330.201	1301.12
330.43	1330.12
330.658	1308.12
330.887	1343.12
331.115	1341.12
331.344	1381.12
331.572	1400.12
331.801	1415.12
332.03	1418.12
332.258	1426.12
332.486	1458.12
332.715	1512.12
332.943	1540.12
333.172	1552.12
333.4	1614.12
333.629	1632.12
333.857	1693.12
334.085	1662.12
334.314	1675.12
334.542	1654.12
334.771	1661.12
334.999	1599.12
335.227	1603.12
335.455	1604.12
335.684	1603.12
335.912	1612.12
336.14	1569.12
336.369	1551.12
336.597	1572.12
336.825	1511.12
337.053	1545.12
337.281	1526.12
337.51	1471.12
337.738	1488.12
337.966	1430.12
338.194	1458.12
338.422	1421.12
338.65	1433.12
338.878	1401.12
339.106	1433.12
339.334	1430.12
339.562	1418.12
339.79	1417.12
340.018	1360.12
340.246	1346.12
340.474	1351.12
340.702	1345.12
340.93	1360.12
341.158	1361.12
341.386	1403.12
341.614	1401.12
341.842	1374.12
342.07	1321.12
342.298	1389.12
342.526	1322.12
342.754	1346.12
342.981	1349.12
343.209	1427.12
343.437	1426.12
343.665	1535.12
343.893	1573.12
344.12	1610.12
344.348	1594.12
344.576	1503.12
344.804	1495.12
345.031	1449.12
345.259	1383.12
345.487	1382.12
345.714	1343.12
345.942	1369.12
346.17	1336.12
346.397	1341.12
346.625	1320.12
346.853	1306.12
347.08	1313.12
347.308	1291.12
347.535	1286.12
347.763	1291.12
347.99	1298.12
348.218	1326.12
348.445	1317.12
348.673	1290.12
348.9	1290.12
349.128	1307.12
349.355	1308.12
349.583	1283.12
349.81	1288.12
350.037	1252.12
350.265	1249.12
350.492	1258.12
350.72	1282.12
350.947	1266.12
351.174	1274.12
351.402	1289.12
351.629	1261.12
351.856	1240.12
352.083	1258.12
352.311	1231.12
352.538	1266.12
352.765	1255.12
352.992	1246.12
353.22	1233.12
353.447	1247.12
353.674	1261.12
353.901	1219.12
354.128	1257.12
354.355	1223.12
354.583	1223.12
354.81	1266.12
355.037	1268.12
355.264	1238.12
355.491	1269.12
355.718	1260.12
355.945	1230.12
356.172	1251.12
356.399	1256.12
356.626	1261.12
356.853	1286.12
357.08	1242.12
357.307	1237.12
357.534	1266.12
357.761	1305.12
357.988	1276.12
358.215	1258.12
358.441	1252.12
358.668	1289.12
358.895	1269.12
359.122	1304.12
359.349	1290.12
359.576	1244.12
359.802	1241.12
360.029	1228.12
360.256	1259.12
360.483	1244.12
360.709	1249.12
360.936	1275.12
361.163	1282.12
361.39	1241.12
361.616	1298.12
361.843	1280.12
362.07	1239.12
362.296	1270.12
362.523	1279.12
362.749	1259.12
362.976	1262.12
363.203	1237.12
363.429	1273.12
363.656	1275.12
363.882	1240.12
364.109	1225.12
364.335	1247.12
364.562	1252.12
364.788	1231.12
365.015	1253.12
365.241	1258.12
365.468	1265.12
365.694	1267.12
365.92	1275.12
366.147	1238.12
366.373	1259.12
366.599	1232.12
366.826	1248.12
367.052	1242.12
367.278	1225.12
367.505	1282.12
367.731	1310.12
367.957	1292.12
368.184	1275.12
368.41	1306.12
368.636	1325.12
368.862	1310.12
369.089	1313.12
369.315	1297.12
369.541	1297.12
369.767	1288.12
369.993	1291.12
370.219	1316.12
370.445	1321.12
370.672	1328.12
370.898	1327.12
371.124	1362.12
371.35	1389.12
371.576	1384.12
371.802	1358.12
372.028	1376.12
372.254	1361.12
372.48	1373.12
372.706	1406.12
372.932	1425.12
373.158	1401.12
373.384	1430.12
373.61	1389.12
373.835	1384.12
374.061	1389.12
374.287	1391.12
374.513	1394.12
374.739	1432.12
374.965	1443.12
375.191	1485.12
375.416	1491.12
375.642	1445.12
375.868	1438.12
376.094	1376.12
376.319	1416.12
376.545	1427.12
376.771	1354.12
376.997	1358.12
377.222	1325.12
377.448	1355.12
377.674	1373.12
377.899	1346.12
378.125	1322.12
378.35	1395.12
378.576	1335.12
378.802	1319.12
379.027	1357.12
379.253	1382.12
379.478	1353.12
379.704	1366.12
379.929	1376.12
380.155	1332.12
380.38	1348.12
380.606	1364.12
380.831	1367.12
381.057	1342.12
381.282	1378.12
381.507	1364.12
381.733	1362.12
381.958	1371.12
382.184	1409.12
382.409	1403.12
382.634	1465.12
382.86	1430.12
383.085	1421.12
383.31	1451.12
383.535	1496.12
383.761	1473.12
383.986	1508.12
384.211	1531.12
384.436	1555.12
384.662	1591.12
384.887	1574.12
385.112	1571.12
385.337	1630.12
385.562	1616.12
385.787	1626.12
386.013	1673.12
386.238	1675.12
386.463	1653.12
386.688	1670.12
386.913	1621.12
387.138	1640.12
387.363	1616.12
387.588	1602.12
387.813	1622.12
388.038	1603.12
388.263	1614.12
388.488	1637.12
388.713	1624.12
388.938	1608.12
389.163	1600.12
389.387	1632.12
389.612	1592.12
389.837	1623.12
390.062	1619.12
390.287	1592.12
390.512	1608.12
390.736	1643.12
390.961	1667.12
391.186	1637.12
391.411	1696.12
391.636	1749.12
391.86	1780.12
392.085	1820.12
392.31	1797.12
392.534	1815.12
392.759	1759.12
392.984	1734.12
393.208	1731.12
393.433	1736.12
393.658	1754.12
393.882	1707.12
394.107	1711.12
394.331	1735.12
394.556	1681.12
394.78	1749.12
395.005	1745.12
395.229	1736.12
395.454	1807.12
395.678	1821.12
395.903	1809.12
396.127	1807.12
396.352	1743.12
396.576	1731.12
396.801	1721.12
397.025	1775.12
397.249	1788.12
397.474	1809.12
397.698	1871.12
397.922	1816.12
398.147	1810.12
398.371	1880.12
398.595	1948.12
398.82	2019.12
399.044	2160.12
399.268	2341.12
399.492	2576.12
399.717	2802.12
399.941	2811.12
400.165	2593.12
400.389	2438.12
400.613	2296.12
400.837	2195.12
401.062	2093.12
401.286	2086.12
401.51	2056.12
401.734	1974.12
401.958	2088.12
402.182	2037.12
402.406	2066.12
402.63	2075.12
402.854	2083.12
403.078	2115.12
403.302	2134.12
403.526	2175.12
403.75	2175.12
403.974	2228.12
404.198	2235.12
404.422	2219.12
404.645	2173.12
404.869	2207.12
405.093	2176.12
405.317	2198.12
405.541	2193.12
405.765	2185.12
405.988	2175.12
406.212	2175.12
406.436	2165.12
406.66	2255.12
406.883	2241.12
407.107	2426.12
407.331	2463.12
407.555	2557.12
407.778	2500.12
408.002	2490.12
408.226	2409.12
408.449	2378.12
408.673	2309.12
408.896	2293.12
409.12	2239.12
409.344	2253.12
409.567	2238.12
409.791	2234.12
410.014	2186.12
410.238	2191.12
410.461	2181.12
410.685	2201.12
410.908	2120.12
411.132	2116.12
411.355	2081.12
411.578	2057.12
411.802	2094.12
412.025	2108.12
412.249	2136.12
412.472	2132.12
412.695	2081.12
412.919	2030.12
413.142	2019.12
413.365	2019.12
413.589	2035.12
413.812	2044.12
414.035	1987.12
414.258	2031.12
414.482	2046.12
414.705	2041.12
414.928	2035.12
415.151	2020.12
415.374	1997.12
415.597	2015.12
415.821	1949.12
416.044	1947.12
416.267	1927.12
416.49	1948.12
416.713	1898.12
416.936	1954.12
417.159	1946.12
417.382	1922.12
417.605	1944.12
417.828	1974.12
418.051	2005.12
418.274	1912.12
418.497	1963.12
418.72	1981.12
418.943	1941.12
419.166	2120.12
419.389	2271.12
419.611	2154.12
419.834	2082.12
420.057	2046.12
420.28	1999.12
420.503	1949.12
420.726	1929.12
420.948	1867.12
421.171	1895.12
421.394	1953.12
421.617	1924.12
421.839	1954.12
422.062	1976.12
422.285	1886.12
422.507	1929.12
422.73	1951.12
422.953	1975.12
423.175	2003.12
423.398	2001.12
423.621	1959.12
423.843	2004.12
424.066	2015.12
424.288	2011.12
424.511	1968.12
424.733	2009.12
424.956	1942.12
425.178	1930.12
425.401	1975.12
425.623	1922.12
425.846	1917.12
426.068	1901.12
426.291	1898.12
426.513	1875.12
426.735	1815.12
426.958	1860.12
427.18	1820.12
427.402	1841.12
427.625	1843.12
427.847	1779.12
428.069	1755.12
428.292	1811.12
428.514	1758.12
428.736	1774.12
428.958	1766.12
429.181	1755.12
429.403	1742.12
429.625	1763.12
429.847	1744.12
430.069	1725.12
430.292	1774.12
430.514	1693.12
430.736	1754.12
430.958	1736.12
431.18	1737.12
431.402	1784.12
431.624	1744.12
431.846	1782.12
432.068	1814.12
432.29	1806.12
432.512	1778.12
432.734	1786.12
432.956	1770.12
433.178	1789.12
433.4	1790.12
433.622	1833.12
433.844	1841.12
434.066	1802.12
434.287	1848.12
434.509	1902.12
434.731	1958.12
434.953	1955.12
435.175	1967.12
435.397	1905.12
435.618	1891.12
435.84	1832.12
436.062	1802.12
436.284	1807.12
436.505	1789.12
436.727	1766.12
436.949	1793.12
437.17	1789.12
437.392	1740.12
437.614	1712.12
437.835	1700.12
438.057	1684.12
438.278	1673.12
438.5	1674.12
438.721	1669.12
438.943	1686.12
439.165	1723.12
439.386	1721.12
439.608	1723.12
439.829	1709.12
440.05	1707.12
440.272	1762.12
440.493	1745.12
440.715	1794.12
440.936	1785.12
441.158	1828.12
441.379	1847.12
441.6	1877.12
441.822	1928.12
442.043	1909.12
442.264	1896.12
442.486	1835.12
442.707	1885.12
442.928	1869.12
443.149	1930.12
443.371	1912.12
443.592	1941.12
443.813	1901.12
444.034	1904.12
444.255	1991.12
444.476	2085.12
444.698	2218.12
444.919	2201.12
445.14	2212.12
445.361	2138.12
445.582	2017.12
445.803	1903.12
446.024	1843.12
446.245	1845.12
446.466	1815.12
446.687	1790.12
446.908	1757.12
447.129	1741.12
447.35	1694.12
447.571	1676.12
447.792	1616.12
448.013	1626.12
448.234	1632.12
448.455	1609.12
448.675	1624.12
448.896	1595.12
449.117	1552.12
449.338	1618.12
449.559	1615.12
449.779	1575.12
450	1562.12
450.221	1591.12
450.442	1557.12
450.662	1573.12
450.883	1594.12
451.104	1623.12
451.324	1571.12
451.545	1602.12
451.766	1598.12
451.986	1593.12
452.207	1555.12
452.428	1569.12
452.648	1577.12
452.869	1502.12
453.089	1506.12
453.31	1550.12
453.53	1524.12
453.751	1533.12
453.971	1510.12
454.192	1487.12
454.412	1472.12
454.633	1486.12
454.853	1494.12
455.073	1487.12
455.294	1486.12
455.514	1468.12
455.734	1487.12
455.955	1462.12
456.175	1484.12
456.395	1479.12
456.616	1474.12
456.836	1505.12
457.056	1474.12
457.276	1471.12
457.497	1511.12
457.717	1495.12
457.937	1516.12
458.157	1536.12
458.377	1552.12
458.598	1553.12
458.818	1632.12
459.038	1656.12
459.258	1679.12
459.478	1783.12
459.698	1825.12
459.918	1823.12
460.138	1897.12
460.358	1919.12
460.578	1980.12
460.798	1996.12
461.018	2035.12
461.238	2013.12
461.458	2009.12
461.678	1987.12
461.898	2019.12
462.118	2064.12
462.338	2135.12
462.558	2195.12
462.777	2257.12
462.997	2391.12
463.217	2494.12
463.437	2582.12
463.657	2383.12
463.876	2344.12
464.096	2305.12
464.316	2315.12
464.536	2312.12
464.755	2230.12
464.975	2147.12
465.195	2051.12
465.414	1989.12
465.634	1869.12
465.854	1793.12
466.073	1758.12
466.293	1765.12
466.512	1734.12
466.732	1658.12
466.951	1668.12
467.171	1643.12
467.391	1723.12
467.61	1687.12
467.829	1632.12
468.049	1640.12
468.268	1595.12
468.488	1605.12
468.707	1584.12
468.927	1609.12
469.146	1591.12
469.365	1608.12
469.585	1584.12
469.804	1664.12
470.023	1685.12
470.243	1689.12
470.462	1685.12
470.681	1689.12
470.901	1701.12
471.12	1709.12
471.339	1666.12
471.558	1647.12
471.777	1648.12
471.997	1639.12
472.216	1623.12
472.435	1654.12
472.654	1559.12
472.873	1579.12
473.092	1583.12
473.311	1598.12
473.53	1581.12
473.749	1582.12
473.968	1582.12
474.187	1616.12
474.406	1581.12
474.625	1594.12
474.844	1589.12
475.063	1592.12
475.282	1635.12
475.501	1612.12
475.72	1657.12
475.939	1639.12
476.158	1656.12
476.377	1672.12
476.596	1687.12
476.814	1699.12
477.033	1686.12
477.252	1735.12
477.471	1737.12
477.69	1817.12
477.908	1861.12
478.127	1867.12
478.346	1890.12
478.564	1951.12
478.783	1937.12
479.002	2025.12
479.22	2011.12
479.439	1998.12
479.658	2005.12
479.876	2007.12
480.095	2038.12
480.313	2083.12
480.532	2150.12
480.751	2138.12
480.969	2066.12
481.188	2033.12
481.406	1987.12
481.624	1990.12
481.843	1901.12
482.061	1920.12
482.28	1928.12
482.498	1955.12
482.717	1938.12
482.935	1918.12
483.153	1941.12
483.372	1944.12
483.59	1964.12
483.808	1988.12
484.027	1972.12
484.245	2027.12
484.463	1999.12
484.681	2066.12
484.9	2065.12
485.118	2054.12
485.336	2047.12
485.554	2090.12
485.772	2110.12
485.99	2050.12
486.209	2090.12
486.427	2070.12
486.645	2036.12
486.863	2087.12
487.081	2062.12
487.299	2022.12
487.517	2078.12
487.735	2026.12
487.953	2080.12
488.171	1997.12
488.389	2017.12
488.607	2030.12
488.825	2023.12
489.043	1996.12
489.261	1993.12
489.479	2010.12
489.696	2023.12
