Data from NiCl2@0.0625M.TitratingCurve.Agarose3%dH2O.NegLispCup.LampEnergy10.LIBS07252019_HRD10591_18-35-16-577.txt Node
Date: Thu Jul 25 18:35:16 EDT 2019
User: cochatt
Spectrometer: HR+D1059
Trigger mode: 1
Integration Time (sec): 1.000000E-1
Scans to average: 1
Electric dark correction enabled: true
Nonlinearity correction enabled: false
Boxcar width: 0
XAxis mode: Wavelengths
Number of Pixels in Spectrum: 2048
>>>>>Begin Spectral Data<<<<<
223.165	-15.81
223.4	-15.81
223.635	-15.81
223.869	-11.81
224.104	-25.81
224.338	-22.81
224.573	-12.81
224.808	-20.81
225.042	-1.81
225.277	-4.81
225.511	-1.81
225.746	14.19
225.98	8.19
226.215	4.19
226.449	16.19
226.683	28.19
226.918	22.19
227.152	25.19
227.387	31.19
227.621	30.19
227.856	46.19
228.09	48.19
228.324	54.19
228.559	50.19
228.793	68.19
229.027	138.19
229.262	147.19
229.496	144.19
229.73	162.19
229.964	151.19
230.199	148.19
230.433	168.19
230.667	160.19
230.901	151.19
231.136	168.19
231.37	183.19
231.604	193.19
231.838	178.19
232.072	175.19
232.306	175.19
232.541	181.19
232.775	177.19
233.009	184.19
233.243	194.19
233.477	192.19
233.711	184.19
233.945	186.19
234.179	205.19
234.413	199.19
234.647	183.19
234.881	200.19
235.115	197.19
235.349	182.19
235.583	201.19
235.817	199.19
236.051	204.19
236.285	210.19
236.519	211.19
236.753	209.19
236.987	194.19
237.221	225.19
237.455	210.19
237.689	212.19
237.922	224.19
238.156	236.19
238.39	219.19
238.624	226.19
238.858	224.19
239.091	234.19
239.325	231.19
239.559	237.19
239.793	252.19
240.027	258.19
240.26	226.19
240.494	228.19
240.728	239.19
240.961	256.19
241.195	254.19
241.429	277.19
241.662	260.19
241.896	253.19
242.13	268.19
242.363	285.19
242.597	277.19
242.83	280.19
243.064	276.19
243.298	279.19
243.531	288.19
243.765	297.19
243.998	309.19
244.232	294.19
244.465	282.19
244.699	289.19
244.932	299.19
245.166	297.19
245.399	311.19
245.633	310.19
245.866	305.19
246.099	315.19
246.333	307.19
246.566	301.19
246.8	322.19
247.033	292.19
247.266	324.19
247.5	336.19
247.733	329.19
247.966	327.19
248.2	343.19
248.433	318.19
248.666	331.19
248.899	337.19
249.133	336.19
249.366	342.19
249.599	339.19
249.832	371.19
250.066	350.19
250.299	358.19
250.532	332.19
250.765	354.19
250.998	352.19
251.231	369.19
251.465	368.19
251.698	380.19
251.931	383.19
252.164	386.19
252.397	389.19
252.63	391.19
252.863	385.19
253.096	389.19
253.329	403.19
253.562	380.19
253.795	407.19
254.028	388.19
254.261	392.19
254.494	405.19
254.727	418.19
254.96	398.19
255.193	406.19
255.426	406.19
255.659	416.19
255.892	438.19
256.124	421.19
256.357	411.19
256.59	425.19
256.823	448.19
257.056	457.19
257.289	435.19
257.521	435.19
257.754	441.19
257.987	452.19
258.22	451.19
258.452	475.19
258.685	438.19
258.918	465.19
259.151	454.19
259.383	467.19
259.616	453.19
259.849	459.19
260.081	462.19
260.314	462.19
260.547	476.19
260.779	477.19
261.012	481.19
261.244	486.19
261.477	480.19
261.71	504.19
261.942	484.19
262.175	476.19
262.407	466.19
262.64	481.19
262.872	472.19
263.105	499.19
263.337	494.19
263.57	478.19
263.802	520.19
264.035	522.19
264.267	490.19
264.499	476.19
264.732	511.19
264.964	514.19
265.197	520.19
265.429	525.19
265.661	530.19
265.894	507.19
266.126	516.19
266.358	495.19
266.591	517.19
266.823	530.19
267.055	502.19
267.287	523.19
267.52	543.19
267.752	527.19
267.984	508.19
268.216	536.19
268.448	550.19
268.681	576.19
268.913	536.19
269.145	568.19
269.377	531.19
269.609	561.19
269.841	542.19
270.073	552.19
270.306	576.19
270.538	583.19
270.77	566.19
271.002	567.19
271.234	554.19
271.466	579.19
271.698	577.19
271.93	581.19
272.162	594.19
272.394	595.19
272.626	591.19
272.858	599.19
273.09	599.19
273.322	589.19
273.553	584.19
273.785	616.19
274.017	583.19
274.249	601.19
274.481	614.19
274.713	617.19
274.945	630.19
275.176	612.19
275.408	610.19
275.64	624.19
275.872	622.19
276.104	624.19
276.335	627.19
276.567	634.19
276.799	658.19
277.031	664.19
277.262	635.19
277.494	630.19
277.726	643.19
277.957	654.19
278.189	641.19
278.421	645.19
278.652	637.19
278.884	641.19
279.115	677.19
279.347	687.19
279.579	670.19
279.81	662.19
280.042	659.19
280.273	673.19
280.505	682.19
280.736	700.19
280.968	674.19
281.199	683.19
281.431	680.19
281.662	668.19
281.894	698.19
282.125	678.19
282.356	699.19
282.588	702.19
282.819	723.19
283.051	715.19
283.282	692.19
283.513	722.19
283.745	742.19
283.976	727.19
284.207	709.19
284.439	707.19
284.67	742.19
284.901	720.19
285.132	726.19
285.364	713.19
285.595	736.19
285.826	718.19
286.057	776.19
286.288	724.19
286.52	745.19
286.751	741.19
286.982	746.19
287.213	745.19
287.444	735.19
287.675	747.19
287.906	752.19
288.138	774.19
288.369	770.19
288.6	755.19
288.831	785.19
289.062	752.19
289.293	766.19
289.524	755.19
289.755	780.19
289.986	798.19
290.217	762.19
290.448	795.19
290.679	805.19
290.91	786.19
291.141	775.19
291.371	786.19
291.602	814.19
291.833	801.19
292.064	801.19
292.295	786.19
292.526	779.19
292.757	783.19
292.987	791.19
293.218	771.19
293.449	794.19
293.68	805.19
293.91	776.19
294.141	794.19
294.372	815.19
294.603	790.19
294.833	807.19
295.064	793.19
295.295	802.19
295.525	823.19
295.756	826.19
295.987	788.19
296.217	822.19
296.448	797.19
296.679	809.19
296.909	837.19
297.14	804.19
297.37	866.19
297.601	848.19
297.831	855.19
298.062	835.19
298.292	860.19
298.523	875.19
298.753	871.19
298.984	864.19
299.214	839.19
299.445	874.19
299.675	870.19
299.905	868.19
300.136	861.19
300.366	864.19
300.597	874.19
300.827	880.19
301.057	878.19
301.288	881.19
301.518	890.19
301.748	901.19
301.979	930.19
302.209	916.19
302.439	902.19
302.669	921.19
302.9	928.19
303.13	904.19
303.36	891.19
303.59	896.19
303.82	921.19
304.051	885.19
304.281	897.19
304.511	907.19
304.741	880.19
304.971	937.19
305.201	892.19
305.431	882.19
305.661	904.19
305.891	906.19
306.121	913.19
306.352	886.19
306.582	891.19
306.812	918.19
307.042	886.19
307.272	902.19
307.502	886.19
307.731	901.19
307.961	894.19
308.191	893.19
308.421	868.19
308.651	876.19
308.881	856.19
309.111	891.19
309.341	890.19
309.571	902.19
309.8	894.19
310.03	923.19
310.26	875.19
310.49	868.19
310.72	867.19
310.949	907.19
311.179	914.19
311.409	901.19
311.639	952.19
311.868	918.19
312.098	912.19
312.328	943.19
312.557	952.19
312.787	936.19
313.017	943.19
313.246	949.19
313.476	922.19
313.706	963.19
313.935	942.19
314.165	942.19
314.394	973.19
314.624	963.19
314.853	950.19
315.083	985.19
315.312	972.19
315.542	976.19
315.771	944.19
316.001	964.19
316.23	939.19
316.46	963.19
316.689	950.19
316.919	958.19
317.148	974.19
317.377	969.19
317.607	940.19
317.836	928.19
318.065	939.19
318.295	951.19
318.524	973.19
318.753	948.19
318.983	932.19
319.212	931.19
319.441	930.19
319.67	934.19
319.9	952.19
320.129	952.19
320.358	968.19
320.587	965.19
320.816	957.19
321.046	933.19
321.275	947.19
321.504	981.19
321.733	986.19
321.962	980.19
322.191	990.19
322.42	968.19
322.649	981.19
322.878	996.19
323.108	968.19
323.337	993.19
323.566	956.19
323.795	988.19
324.024	976.19
324.253	1015.19
324.482	983.19
324.71	995.19
324.939	985.19
325.168	1010.19
325.397	1010.19
325.626	994.19
325.855	1029.19
326.084	1030.19
326.313	1044.19
326.542	1028.19
326.77	1077.19
326.999	1039.19
327.228	1040.19
327.457	1023.19
327.686	1012.19
327.914	1019.19
328.143	1028.19
328.372	1030.19
328.6	1030.19
328.829	1080.19
329.058	1071.19
329.287	1094.19
329.515	1050.19
329.744	1049.19
329.972	1062.19
330.201	1036.19
330.43	1050.19
330.658	1055.19
330.887	1070.19
331.115	1119.19
331.344	1087.19
331.572	1087.19
331.801	1111.19
332.03	1110.19
332.258	1136.19
332.486	1174.19
332.715	1163.19
332.943	1209.19
333.172	1224.19
333.4	1269.19
333.629	1257.19
333.857	1300.19
334.085	1321.19
334.314	1326.19
334.542	1296.19
334.771	1311.19
334.999	1296.19
335.227	1308.19
335.455	1302.19
335.684	1251.19
335.912	1264.19
336.14	1257.19
336.369	1284.19
336.597	1250.19
336.825	1261.19
337.053	1233.19
337.281	1228.19
337.51	1202.19
337.738	1188.19
337.966	1169.19
338.194	1176.19
338.422	1163.19
338.65	1140.19
338.878	1158.19
339.106	1150.19
339.334	1168.19
339.562	1150.19
339.79	1130.19
340.018	1116.19
340.246	1091.19
340.474	1087.19
340.702	1082.19
340.93	1104.19
341.158	1077.19
341.386	1093.19
341.614	1097.19
341.842	1118.19
342.07	1084.19
342.298	1102.19
342.526	1083.19
342.754	1083.19
342.981	1079.19
343.209	1114.19
343.437	1129.19
343.665	1215.19
343.893	1246.19
344.12	1265.19
344.348	1216.19
344.576	1173.19
344.804	1187.19
345.031	1163.19
345.259	1137.19
345.487	1093.19
345.714	1078.19
345.942	1110.19
346.17	1070.19
346.397	1079.19
346.625	1067.19
346.853	1061.19
347.08	1067.19
347.308	1040.19
347.535	1044.19
347.763	1079.19
347.99	1043.19
348.218	1047.19
348.445	1054.19
348.673	1033.19
348.9	1017.19
349.128	993.19
349.355	1018.19
349.583	1050.19
349.81	1060.19
350.037	985.19
350.265	1034.19
350.492	1047.19
350.72	998.19
350.947	1018.19
351.174	1018.19
351.402	1019.19
351.629	1017.19
351.856	1032.19
352.083	1018.19
352.311	959.19
352.538	1010.19
352.765	1006.19
352.992	1000.19
353.22	1008.19
353.447	966.19
353.674	1004.19
353.901	982.19
354.128	966.19
354.355	991.19
354.583	982.19
354.81	978.19
355.037	1010.19
355.264	988.19
355.491	995.19
355.718	973.19
355.945	1014.19
356.172	1000.19
356.399	1011.19
356.626	1000.19
356.853	1049.19
357.08	991.19
357.307	1005.19
357.534	1001.19
357.761	987.19
357.988	1022.19
358.215	968.19
358.441	1003.19
358.668	994.19
358.895	1009.19
359.122	1012.19
359.349	1028.19
359.576	1009.19
359.802	998.19
360.029	1013.19
360.256	1007.19
360.483	1002.19
360.709	1002.19
360.936	1008.19
361.163	985.19
361.39	1006.19
361.616	999.19
361.843	998.19
362.07	994.19
362.296	1002.19
362.523	967.19
362.749	1001.19
362.976	1040.19
363.203	1008.19
363.429	995.19
363.656	1022.19
363.882	976.19
364.109	1016.19
364.335	984.19
364.562	1006.19
364.788	994.19
365.015	1022.19
365.241	995.19
365.468	1001.19
365.694	993.19
365.92	1009.19
366.147	1008.19
366.373	998.19
366.599	988.19
366.826	999.19
367.052	1011.19
367.278	1024.19
367.505	1004.19
367.731	1012.19
367.957	1028.19
368.184	1048.19
368.41	1020.19
368.636	1057.19
368.862	1024.19
369.089	1052.19
369.315	1004.19
369.541	1030.19
369.767	1066.19
369.993	1048.19
370.219	1045.19
370.445	1067.19
370.672	1069.19
370.898	1090.19
371.124	1080.19
371.35	1121.19
371.576	1082.19
371.802	1099.19
372.028	1076.19
372.254	1102.19
372.48	1115.19
372.706	1104.19
372.932	1132.19
373.158	1148.19
373.384	1115.19
373.61	1091.19
373.835	1124.19
374.061	1084.19
374.287	1114.19
374.513	1107.19
374.739	1127.19
374.965	1179.19
375.191	1198.19
375.416	1182.19
375.642	1152.19
375.868	1136.19
376.094	1117.19
376.319	1110.19
376.545	1127.19
376.771	1096.19
376.997	1095.19
377.222	1075.19
377.448	1102.19
377.674	1102.19
377.899	1103.19
378.125	1096.19
378.35	1072.19
378.576	1084.19
378.802	1068.19
379.027	1093.19
379.253	1096.19
379.478	1081.19
379.704	1070.19
379.929	1070.19
380.155	1086.19
380.38	1062.19
380.606	1077.19
380.831	1081.19
381.057	1091.19
381.282	1086.19
381.507	1063.19
381.733	1079.19
381.958	1095.19
382.184	1121.19
382.409	1102.19
382.634	1100.19
382.86	1119.19
383.085	1159.19
383.31	1164.19
383.535	1181.19
383.761	1170.19
383.986	1174.19
384.211	1216.19
384.436	1217.19
384.662	1244.19
384.887	1278.19
385.112	1243.19
385.337	1285.19
385.562	1284.19
385.787	1317.19
386.013	1280.19
386.238	1280.19
386.463	1278.19
386.688	1282.19
386.913	1279.19
387.138	1275.19
387.363	1265.19
387.588	1287.19
387.813	1284.19
388.038	1310.19
388.263	1294.19
388.488	1281.19
388.713	1308.19
388.938	1333.19
389.163	1312.19
389.387	1278.19
389.612	1263.19
389.837	1268.19
390.062	1284.19
390.287	1262.19
390.512	1272.19
390.736	1268.19
390.961	1324.19
391.186	1322.19
391.411	1361.19
391.636	1375.19
391.86	1433.19
392.085	1391.19
392.31	1450.19
392.534	1377.19
392.759	1396.19
392.984	1384.19
393.208	1382.19
393.433	1398.19
393.658	1381.19
393.882	1359.19
394.107	1335.19
394.331	1371.19
394.556	1361.19
394.78	1366.19
395.005	1413.19
395.229	1401.19
395.454	1400.19
395.678	1400.19
395.903	1427.19
396.127	1403.19
396.352	1421.19
396.576	1381.19
396.801	1368.19
397.025	1394.19
397.249	1426.19
397.474	1432.19
397.698	1458.19
397.922	1458.19
398.147	1461.19
398.371	1503.19
398.595	1568.19
398.82	1580.19
399.044	1672.19
399.268	1806.19
399.492	1995.19
399.717	2152.19
399.941	2200.19
400.165	2043.19
400.389	1989.19
400.613	1801.19
400.837	1724.19
401.062	1669.19
401.286	1659.19
401.51	1611.19
401.734	1621.19
401.958	1654.19
402.182	1616.19
402.406	1651.19
402.63	1643.19
402.854	1670.19
403.078	1639.19
403.302	1682.19
403.526	1689.19
403.75	1725.19
403.974	1769.19
404.198	1730.19
404.422	1721.19
404.645	1741.19
404.869	1766.19
405.093	1727.19
405.317	1736.19
405.541	1732.19
405.765	1752.19
405.988	1749.19
406.212	1737.19
406.436	1753.19
406.66	1831.19
406.883	1768.19
407.107	1890.19
407.331	1959.19
407.555	1992.19
407.778	1994.19
408.002	2000.19
408.226	1980.19
408.449	1936.19
408.673	1848.19
408.896	1792.19
409.12	1798.19
409.344	1800.19
409.567	1784.19
409.791	1778.19
410.014	1784.19
410.238	1739.19
410.461	1740.19
410.685	1708.19
410.908	1742.19
411.132	1716.19
411.355	1700.19
411.578	1627.19
411.802	1639.19
412.025	1686.19
412.249	1685.19
412.472	1675.19
412.695	1628.19
412.919	1604.19
413.142	1641.19
413.365	1617.19
413.589	1655.19
413.812	1608.19
414.035	1604.19
414.258	1596.19
414.482	1632.19
414.705	1610.19
414.928	1618.19
415.151	1607.19
415.374	1643.19
415.597	1584.19
415.821	1587.19
416.044	1549.19
416.267	1548.19
416.49	1538.19
416.713	1528.19
416.936	1578.19
417.159	1543.19
417.382	1524.19
417.605	1513.19
417.828	1538.19
418.051	1550.19
418.274	1537.19
418.497	1540.19
418.72	1545.19
418.943	1598.19
419.166	1654.19
419.389	1764.19
419.611	1733.19
419.834	1670.19
420.057	1667.19
420.28	1577.19
420.503	1542.19
420.726	1516.19
420.948	1528.19
421.171	1559.19
421.394	1552.19
421.617	1534.19
421.839	1537.19
422.062	1542.19
422.285	1522.19
422.507	1544.19
422.73	1543.19
422.953	1567.19
423.175	1580.19
423.398	1576.19
423.621	1555.19
423.843	1571.19
424.066	1585.19
424.288	1607.19
424.511	1567.19
424.733	1578.19
424.956	1537.19
425.178	1520.19
425.401	1523.19
425.623	1557.19
425.846	1520.19
426.068	1505.19
426.291	1540.19
426.513	1504.19
426.735	1446.19
426.958	1452.19
427.18	1452.19
427.402	1457.19
427.625	1454.19
427.847	1415.19
428.069	1409.19
428.292	1426.19
428.514	1388.19
428.736	1400.19
428.958	1429.19
429.181	1386.19
429.403	1348.19
429.625	1374.19
429.847	1373.19
430.069	1369.19
430.292	1374.19
430.514	1390.19
430.736	1405.19
430.958	1418.19
431.18	1395.19
431.402	1383.19
431.624	1383.19
431.846	1435.19
432.068	1414.19
432.29	1452.19
432.512	1452.19
432.734	1435.19
432.956	1412.19
433.178	1418.19
433.4	1469.19
433.622	1429.19
433.844	1462.19
434.066	1460.19
434.287	1437.19
434.509	1502.19
434.731	1511.19
434.953	1520.19
435.175	1539.19
435.397	1527.19
435.618	1487.19
435.84	1442.19
436.062	1459.19
436.284	1395.19
436.505	1425.19
436.727	1370.19
436.949	1381.19
437.17	1428.19
437.392	1360.19
437.614	1387.19
437.835	1318.19
438.057	1340.19
438.278	1351.19
438.5	1331.19
438.721	1343.19
438.943	1351.19
439.165	1353.19
439.386	1337.19
439.608	1375.19
439.829	1385.19
440.05	1375.19
440.272	1395.19
440.493	1362.19
440.715	1389.19
440.936	1436.19
441.158	1420.19
441.379	1456.19
441.6	1556.19
441.822	1515.19
442.043	1500.19
442.264	1485.19
442.486	1443.19
442.707	1518.19
442.928	1487.19
443.149	1537.19
443.371	1494.19
443.592	1503.19
443.813	1481.19
444.034	1520.19
444.255	1567.19
444.476	1655.19
444.698	1671.19
444.919	1673.19
445.14	1782.19
445.361	1650.19
445.582	1585.19
445.803	1500.19
446.024	1504.19
446.245	1448.19
446.466	1447.19
446.687	1390.19
446.908	1391.19
447.129	1363.19
447.35	1319.19
447.571	1348.19
447.792	1338.19
448.013	1316.19
448.234	1323.19
448.455	1310.19
448.675	1253.19
448.896	1264.19
449.117	1248.19
449.338	1256.19
449.559	1240.19
449.779	1244.19
450	1250.19
450.221	1262.19
450.442	1257.19
450.662	1236.19
450.883	1271.19
451.104	1300.19
451.324	1273.19
451.545	1264.19
451.766	1262.19
451.986	1247.19
452.207	1255.19
452.428	1227.19
452.648	1279.19
452.869	1232.19
453.089	1235.19
453.31	1226.19
453.53	1231.19
453.751	1191.19
453.971	1231.19
454.192	1218.19
454.412	1202.19
454.633	1195.19
454.853	1204.19
455.073	1178.19
455.294	1196.19
455.514	1154.19
455.734	1192.19
455.955	1173.19
456.175	1189.19
456.395	1201.19
456.616	1160.19
456.836	1201.19
457.056	1190.19
457.276	1175.19
457.497	1216.19
457.717	1201.19
457.937	1221.19
458.157	1199.19
458.377	1246.19
458.598	1252.19
458.818	1310.19
459.038	1320.19
459.258	1348.19
459.478	1390.19
459.698	1417.19
459.918	1447.19
460.138	1474.19
460.358	1517.19
460.578	1542.19
460.798	1536.19
461.018	1576.19
461.238	1565.19
461.458	1562.19
461.678	1596.19
461.898	1601.19
462.118	1626.19
462.338	1644.19
462.558	1704.19
462.777	1769.19
462.997	1874.19
463.217	1966.19
463.437	2015.19
463.657	1944.19
463.876	1826.19
464.096	1810.19
464.316	1769.19
464.536	1801.19
464.755	1770.19
464.975	1688.19
465.195	1612.19
465.414	1566.19
465.634	1479.19
465.854	1451.19
466.073	1423.19
466.293	1342.19
466.512	1374.19
466.732	1346.19
466.951	1352.19
467.171	1323.19
467.391	1323.19
467.61	1300.19
467.829	1286.19
468.049	1328.19
468.268	1272.19
468.488	1288.19
468.707	1289.19
468.927	1274.19
469.146	1266.19
469.365	1302.19
469.585	1332.19
469.804	1314.19
470.023	1352.19
470.243	1333.19
470.462	1335.19
470.681	1345.19
470.901	1376.19
471.12	1353.19
471.339	1326.19
471.558	1281.19
471.777	1304.19
471.997	1303.19
472.216	1286.19
472.435	1264.19
472.654	1273.19
472.873	1264.19
473.092	1269.19
473.311	1263.19
473.53	1278.19
473.749	1272.19
473.968	1248.19
474.187	1259.19
474.406	1245.19
474.625	1266.19
474.844	1272.19
475.063	1267.19
475.282	1233.19
475.501	1290.19
475.72	1294.19
475.939	1310.19
476.158	1314.19
476.377	1311.19
476.596	1351.19
476.814	1373.19
477.033	1377.19
477.252	1394.19
477.471	1362.19
477.69	1422.19
477.908	1467.19
478.127	1480.19
478.346	1504.19
478.564	1483.19
478.783	1533.19
479.002	1574.19
479.22	1589.19
479.439	1595.19
479.658	1575.19
479.876	1570.19
480.095	1623.19
480.313	1653.19
480.532	1673.19
480.751	1698.19
480.969	1636.19
481.188	1557.19
481.406	1568.19
481.624	1543.19
481.843	1511.19
482.061	1508.19
482.28	1575.19
482.498	1576.19
482.717	1548.19
482.935	1536.19
483.153	1530.19
483.372	1512.19
483.59	1550.19
483.808	1540.19
484.027	1571.19
484.245	1556.19
484.463	1587.19
484.681	1622.19
484.9	1610.19
485.118	1652.19
485.336	1649.19
485.554	1660.19
485.772	1647.19
485.99	1649.19
486.209	1671.19
486.427	1675.19
486.645	1633.19
486.863	1664.19
487.081	1648.19
487.299	1638.19
487.517	1646.19
487.735	1642.19
487.953	1611.19
488.171	1638.19
488.389	1602.19
488.607	1620.19
488.825	1572.19
489.043	1593.19
489.261	1596.19
489.479	1584.19
489.696	1595.19
489.914	1587.19
490.132	1597.19
490.35	1597.19
490.568	1563.19
490.786	1594.19
491.003	1583.19
491.221	1610.19
491.439	1602.19
491.657	1578.19
491.874	1548.19
