Data from NiCl2@0.0625M.TitratingCurve.Agarose3%dH2O.NegLispCup.LampEnergy10.LIBS07252019_HRD10591_18-34-33-577.txt Node
Date: Thu Jul 25 18:34:33 EDT 2019
User: cochatt
Spectrometer: HR+D1059
Trigger mode: 1
Integration Time (sec): 1.000000E-1
Scans to average: 1
Electric dark correction enabled: true
Nonlinearity correction enabled: false
Boxcar width: 0
XAxis mode: Wavelengths
Number of Pixels in Spectrum: 2048
>>>>>Begin Spectral Data<<<<<
223.165	-11.25
223.4	-11.25
223.635	-11.25
223.869	-14.25
224.104	-26.25
224.338	-8.25
224.573	-13.25
224.808	-21.25
225.042	-18.25
225.277	1.75
225.511	1.75
225.746	1.75
225.98	12.75
226.215	15.75
226.449	19.75
226.683	7.75
226.918	17.75
227.152	33.75
227.387	40.75
227.621	37.75
227.856	40.75
228.09	51.75
228.324	58.75
228.559	59.75
228.793	72.75
229.027	143.75
229.262	155.75
229.496	137.75
229.73	158.75
229.964	171.75
230.199	155.75
230.433	179.75
230.667	175.75
230.901	181.75
231.136	172.75
231.37	179.75
231.604	186.75
231.838	202.75
232.072	191.75
232.306	199.75
232.541	189.75
232.775	203.75
233.009	202.75
233.243	203.75
233.477	186.75
233.711	197.75
233.945	199.75
234.179	180.75
234.413	207.75
234.647	195.75
234.881	208.75
235.115	216.75
235.349	219.75
235.583	214.75
235.817	212.75
236.051	224.75
236.285	198.75
236.519	246.75
236.753	229.75
236.987	231.75
237.221	227.75
237.455	233.75
237.689	245.75
237.922	233.75
238.156	240.75
238.39	220.75
238.624	247.75
238.858	241.75
239.091	271.75
239.325	251.75
239.559	246.75
239.793	265.75
240.027	263.75
240.26	260.75
240.494	249.75
240.728	267.75
240.961	253.75
241.195	266.75
241.429	286.75
241.662	269.75
241.896	284.75
242.13	298.75
242.363	277.75
242.597	287.75
242.83	300.75
243.064	292.75
243.298	280.75
243.531	312.75
243.765	296.75
243.998	316.75
244.232	309.75
244.465	316.75
244.699	321.75
244.932	327.75
245.166	337.75
245.399	330.75
245.633	315.75
245.866	320.75
246.099	333.75
246.333	325.75
246.566	337.75
246.8	335.75
247.033	348.75
247.266	329.75
247.5	344.75
247.733	359.75
247.966	368.75
248.2	363.75
248.433	361.75
248.666	362.75
248.899	373.75
249.133	355.75
249.366	359.75
249.599	380.75
249.832	394.75
250.066	398.75
250.299	375.75
250.532	379.75
250.765	390.75
250.998	393.75
251.231	381.75
251.465	403.75
251.698	396.75
251.931	423.75
252.164	426.75
252.397	416.75
252.63	401.75
252.863	408.75
253.096	428.75
253.329	440.75
253.562	405.75
253.795	412.75
254.028	423.75
254.261	431.75
254.494	447.75
254.727	428.75
254.96	422.75
255.193	431.75
255.426	429.75
255.659	465.75
255.892	455.75
256.124	465.75
256.357	460.75
256.59	438.75
256.823	467.75
257.056	462.75
257.289	445.75
257.521	468.75
257.754	467.75
257.987	450.75
258.22	454.75
258.452	479.75
258.685	498.75
258.918	483.75
259.151	487.75
259.383	490.75
259.616	481.75
259.849	497.75
260.081	496.75
260.314	512.75
260.547	514.75
260.779	512.75
261.012	496.75
261.244	504.75
261.477	525.75
261.71	519.75
261.942	522.75
262.175	503.75
262.407	515.75
262.64	525.75
262.872	520.75
263.105	529.75
263.337	544.75
263.57	526.75
263.802	514.75
264.035	536.75
264.267	545.75
264.499	526.75
264.732	554.75
264.964	559.75
265.197	572.75
265.429	559.75
265.661	553.75
265.894	557.75
266.126	579.75
266.358	541.75
266.591	573.75
266.823	589.75
267.055	565.75
267.287	569.75
267.52	579.75
267.752	572.75
267.984	587.75
268.216	593.75
268.448	596.75
268.681	594.75
268.913	594.75
269.145	584.75
269.377	611.75
269.609	604.75
269.841	581.75
270.073	590.75
270.306	595.75
270.538	617.75
270.77	579.75
271.002	633.75
271.234	599.75
271.466	612.75
271.698	622.75
271.93	620.75
272.162	618.75
272.394	632.75
272.626	651.75
272.858	629.75
273.09	648.75
273.322	657.75
273.553	642.75
273.785	627.75
274.017	629.75
274.249	657.75
274.481	641.75
274.713	658.75
274.945	653.75
275.176	653.75
275.408	700.75
275.64	677.75
275.872	667.75
276.104	689.75
276.335	689.75
276.567	672.75
276.799	709.75
277.031	692.75
277.262	711.75
277.494	686.75
277.726	683.75
277.957	715.75
278.189	720.75
278.421	724.75
278.652	713.75
278.884	724.75
279.115	701.75
279.347	743.75
279.579	730.75
279.81	741.75
280.042	699.75
280.273	741.75
280.505	737.75
280.736	735.75
280.968	760.75
281.199	757.75
281.431	766.75
281.662	759.75
281.894	737.75
282.125	745.75
282.356	767.75
282.588	780.75
282.819	758.75
283.051	771.75
283.282	757.75
283.513	770.75
283.745	781.75
283.976	781.75
284.207	794.75
284.439	805.75
284.67	800.75
284.901	801.75
285.132	800.75
285.364	814.75
285.595	812.75
285.826	805.75
286.057	821.75
286.288	790.75
286.52	792.75
286.751	812.75
286.982	810.75
287.213	804.75
287.444	825.75
287.675	823.75
287.906	820.75
288.138	809.75
288.369	849.75
288.6	864.75
288.831	849.75
289.062	849.75
289.293	867.75
289.524	863.75
289.755	874.75
289.986	841.75
290.217	833.75
290.448	838.75
290.679	852.75
290.91	871.75
291.141	847.75
291.371	877.75
291.602	879.75
291.833	881.75
292.064	850.75
292.295	863.75
292.526	848.75
292.757	846.75
292.987	855.75
293.218	865.75
293.449	862.75
293.68	875.75
293.91	875.75
294.141	844.75
294.372	836.75
294.603	856.75
294.833	873.75
295.064	854.75
295.295	857.75
295.525	860.75
295.756	888.75
295.987	852.75
296.217	905.75
296.448	916.75
296.679	915.75
296.909	897.75
297.14	893.75
297.37	892.75
297.601	919.75
297.831	932.75
298.062	908.75
298.292	899.75
298.523	941.75
298.753	930.75
298.984	921.75
299.214	947.75
299.445	909.75
299.675	888.75
299.905	940.75
300.136	940.75
300.366	930.75
300.597	949.75
300.827	964.75
301.057	949.75
301.288	967.75
301.518	961.75
301.748	989.75
301.979	984.75
302.209	988.75
302.439	999.75
302.669	1004.75
302.9	975.75
303.13	965.75
303.36	999.75
303.59	983.75
303.82	977.75
304.051	995.75
304.281	998.75
304.511	964.75
304.741	976.75
304.971	963.75
305.201	974.75
305.431	976.75
305.661	989.75
305.891	972.75
306.121	956.75
306.352	962.75
306.582	974.75
306.812	972.75
307.042	984.75
307.272	965.75
307.502	950.75
307.731	945.75
307.961	963.75
308.191	964.75
308.421	947.75
308.651	964.75
308.881	945.75
309.111	955.75
309.341	947.75
309.571	979.75
309.8	984.75
310.03	961.75
310.26	943.75
310.49	985.75
310.72	992.75
310.949	973.75
311.179	987.75
311.409	979.75
311.639	990.75
311.868	999.75
312.098	1007.75
312.328	1023.75
312.557	1015.75
312.787	988.75
313.017	1031.75
313.246	1049.75
313.476	1020.75
313.706	1053.75
313.935	1040.75
314.165	1012.75
314.394	1040.75
314.624	1056.75
314.853	1048.75
315.083	1028.75
315.312	1047.75
315.542	1081.75
315.771	1036.75
316.001	1035.75
316.23	1038.75
316.46	1064.75
316.689	1043.75
316.919	1029.75
317.148	1010.75
317.377	1050.75
317.607	1007.75
317.836	1010.75
318.065	997.75
318.295	1055.75
318.524	1029.75
318.753	1030.75
318.983	1029.75
319.212	1042.75
319.441	1013.75
319.67	1040.75
319.9	1025.75
320.129	1029.75
320.358	1064.75
320.587	1068.75
320.816	1053.75
321.046	1042.75
321.275	1081.75
321.504	1052.75
321.733	1063.75
321.962	1023.75
322.191	1068.75
322.42	1052.75
322.649	1049.75
322.878	1051.75
323.108	1068.75
323.337	1092.75
323.566	1045.75
323.795	1060.75
324.024	1061.75
324.253	1072.75
324.482	1067.75
324.71	1054.75
324.939	1052.75
325.168	1088.75
325.397	1060.75
325.626	1076.75
325.855	1098.75
326.084	1103.75
326.313	1141.75
326.542	1143.75
326.77	1155.75
326.999	1112.75
327.228	1120.75
327.457	1117.75
327.686	1132.75
327.914	1130.75
328.143	1101.75
328.372	1147.75
328.6	1131.75
328.829	1147.75
329.058	1154.75
329.287	1130.75
329.515	1117.75
329.744	1157.75
329.972	1136.75
330.201	1164.75
330.43	1168.75
330.658	1159.75
330.887	1178.75
331.115	1187.75
331.344	1186.75
331.572	1179.75
331.801	1246.75
332.03	1216.75
332.258	1249.75
332.486	1307.75
332.715	1316.75
332.943	1332.75
333.172	1382.75
333.4	1439.75
333.629	1437.75
333.857	1460.75
334.085	1469.75
334.314	1420.75
334.542	1411.75
334.771	1425.75
334.999	1406.75
335.227	1452.75
335.455	1445.75
335.684	1399.75
335.912	1413.75
336.14	1397.75
336.369	1349.75
336.597	1378.75
336.825	1359.75
337.053	1346.75
337.281	1337.75
337.51	1315.75
337.738	1291.75
337.966	1283.75
338.194	1269.75
338.422	1248.75
338.65	1260.75
338.878	1271.75
339.106	1235.75
339.334	1223.75
339.562	1211.75
339.79	1215.75
340.018	1218.75
340.246	1211.75
340.474	1190.75
340.702	1153.75
340.93	1189.75
341.158	1211.75
341.386	1234.75
341.614	1205.75
341.842	1218.75
342.07	1157.75
342.298	1190.75
342.526	1173.75
342.754	1172.75
342.981	1178.75
343.209	1190.75
343.437	1247.75
343.665	1269.75
343.893	1357.75
344.12	1405.75
344.348	1359.75
344.576	1317.75
344.804	1306.75
345.031	1237.75
345.259	1208.75
345.487	1184.75
345.714	1171.75
345.942	1187.75
346.17	1168.75
346.397	1191.75
346.625	1156.75
346.853	1161.75
347.08	1162.75
347.308	1145.75
347.535	1119.75
347.763	1163.75
347.99	1138.75
348.218	1141.75
348.445	1158.75
348.673	1141.75
348.9	1114.75
349.128	1119.75
349.355	1100.75
349.583	1138.75
349.81	1124.75
350.037	1111.75
350.265	1119.75
350.492	1107.75
350.72	1100.75
350.947	1095.75
351.174	1118.75
351.402	1119.75
351.629	1111.75
351.856	1091.75
352.083	1107.75
352.311	1124.75
352.538	1086.75
352.765	1098.75
352.992	1074.75
353.22	1084.75
353.447	1064.75
353.674	1105.75
353.901	1108.75
354.128	1104.75
354.355	1095.75
354.583	1077.75
354.81	1085.75
355.037	1081.75
355.264	1103.75
355.491	1101.75
355.718	1075.75
355.945	1095.75
356.172	1109.75
356.399	1121.75
356.626	1135.75
356.853	1096.75
357.08	1083.75
357.307	1119.75
357.534	1127.75
357.761	1120.75
357.988	1122.75
358.215	1117.75
358.441	1092.75
358.668	1080.75
358.895	1073.75
359.122	1094.75
359.349	1118.75
359.576	1072.75
359.802	1085.75
360.029	1129.75
360.256	1115.75
360.483	1091.75
360.709	1085.75
360.936	1106.75
361.163	1108.75
361.39	1082.75
361.616	1079.75
361.843	1113.75
362.07	1097.75
362.296	1117.75
362.523	1096.75
362.749	1105.75
362.976	1084.75
363.203	1105.75
363.429	1099.75
363.656	1119.75
363.882	1097.75
364.109	1079.75
364.335	1108.75
364.562	1093.75
364.788	1120.75
365.015	1088.75
365.241	1110.75
365.468	1098.75
365.694	1110.75
365.92	1093.75
366.147	1104.75
366.373	1094.75
366.599	1095.75
366.826	1084.75
367.052	1107.75
367.278	1095.75
367.505	1095.75
367.731	1139.75
367.957	1101.75
368.184	1120.75
368.41	1143.75
368.636	1130.75
368.862	1153.75
369.089	1145.75
369.315	1152.75
369.541	1124.75
369.767	1160.75
369.993	1149.75
370.219	1158.75
370.445	1164.75
370.672	1160.75
370.898	1174.75
371.124	1188.75
371.35	1196.75
371.576	1194.75
371.802	1224.75
372.028	1193.75
372.254	1187.75
372.48	1219.75
372.706	1224.75
372.932	1232.75
373.158	1249.75
373.384	1215.75
373.61	1213.75
373.835	1250.75
374.061	1207.75
374.287	1215.75
374.513	1244.75
374.739	1269.75
374.965	1289.75
375.191	1307.75
375.416	1310.75
375.642	1276.75
375.868	1308.75
376.094	1240.75
376.319	1234.75
376.545	1183.75
376.771	1196.75
376.997	1230.75
377.222	1171.75
377.448	1194.75
377.674	1153.75
377.899	1186.75
378.125	1177.75
378.35	1181.75
378.576	1185.75
378.802	1163.75
379.027	1178.75
379.253	1180.75
379.478	1186.75
379.704	1153.75
379.929	1176.75
380.155	1169.75
380.38	1166.75
380.606	1215.75
380.831	1188.75
381.057	1203.75
381.282	1187.75
381.507	1210.75
381.733	1210.75
381.958	1225.75
382.184	1219.75
382.409	1217.75
382.634	1244.75
382.86	1216.75
383.085	1231.75
383.31	1275.75
383.535	1285.75
383.761	1292.75
383.986	1348.75
384.211	1349.75
384.436	1341.75
384.662	1345.75
384.887	1370.75
385.112	1379.75
385.337	1374.75
385.562	1378.75
385.787	1430.75
386.013	1459.75
386.238	1422.75
386.463	1405.75
386.688	1385.75
386.913	1427.75
387.138	1421.75
387.363	1436.75
387.588	1399.75
387.813	1411.75
388.038	1410.75
388.263	1424.75
388.488	1413.75
388.713	1450.75
388.938	1348.75
389.163	1390.75
389.387	1395.75
389.612	1398.75
389.837	1384.75
390.062	1393.75
390.287	1425.75
390.512	1437.75
390.736	1433.75
390.961	1432.75
391.186	1484.75
391.411	1498.75
391.636	1481.75
391.86	1571.75
392.085	1583.75
392.31	1564.75
392.534	1567.75
392.759	1526.75
392.984	1563.75
393.208	1533.75
393.433	1527.75
393.658	1506.75
393.882	1471.75
394.107	1484.75
394.331	1501.75
394.556	1499.75
394.78	1512.75
395.005	1545.75
395.229	1549.75
395.454	1554.75
395.678	1619.75
395.903	1580.75
396.127	1593.75
396.352	1561.75
396.576	1544.75
396.801	1524.75
397.025	1522.75
397.249	1574.75
397.474	1617.75
397.698	1619.75
397.922	1592.75
398.147	1644.75
398.371	1689.75
398.595	1657.75
398.82	1765.75
399.044	1876.75
399.268	2000.75
399.492	2216.75
399.717	2389.75
399.941	2457.75
400.165	2295.75
400.389	2148.75
400.613	1965.75
400.837	1840.75
401.062	1859.75
401.286	1815.75
401.51	1806.75
401.734	1746.75
401.958	1805.75
402.182	1802.75
402.406	1778.75
402.63	1809.75
402.854	1819.75
403.078	1828.75
403.302	1873.75
403.526	1887.75
403.75	1942.75
403.974	1933.75
404.198	1931.75
404.422	1964.75
404.645	1924.75
404.869	1888.75
405.093	1933.75
405.317	1923.75
405.541	1899.75
405.765	1911.75
405.988	1923.75
406.212	1895.75
406.436	1951.75
406.66	1990.75
406.883	1992.75
407.107	2105.75
407.331	2201.75
407.555	2203.75
407.778	2252.75
408.002	2174.75
408.226	2129.75
408.449	2115.75
408.673	2029.75
408.896	2023.75
409.12	2008.75
409.344	1987.75
409.567	1977.75
409.791	1971.75
410.014	1946.75
410.238	1947.75
410.461	1922.75
410.685	1912.75
410.908	1897.75
411.132	1878.75
411.355	1831.75
411.578	1842.75
411.802	1852.75
412.025	1849.75
412.249	1855.75
412.472	1857.75
412.695	1811.75
412.919	1807.75
413.142	1793.75
413.365	1796.75
413.589	1831.75
413.812	1782.75
414.035	1811.75
414.258	1793.75
414.482	1766.75
414.705	1813.75
414.928	1737.75
415.151	1763.75
415.374	1746.75
415.597	1751.75
415.821	1714.75
416.044	1742.75
416.267	1697.75
416.49	1695.75
416.713	1701.75
416.936	1712.75
417.159	1684.75
417.382	1653.75
417.605	1669.75
417.828	1656.75
418.051	1711.75
418.274	1729.75
418.497	1657.75
418.72	1725.75
418.943	1719.75
419.166	1844.75
419.389	1963.75
419.611	1921.75
419.834	1821.75
420.057	1805.75
420.28	1741.75
420.503	1677.75
420.726	1677.75
420.948	1665.75
421.171	1659.75
421.394	1718.75
421.617	1713.75
421.839	1698.75
422.062	1698.75
422.285	1696.75
422.507	1735.75
422.73	1727.75
422.953	1712.75
423.175	1732.75
423.398	1763.75
423.621	1715.75
423.843	1748.75
424.066	1770.75
424.288	1749.75
424.511	1736.75
424.733	1703.75
424.956	1699.75
425.178	1687.75
425.401	1717.75
425.623	1719.75
425.846	1667.75
426.068	1663.75
426.291	1637.75
426.513	1657.75
426.735	1617.75
426.958	1620.75
427.18	1604.75
427.402	1585.75
427.625	1582.75
427.847	1559.75
428.069	1543.75
428.292	1569.75
428.514	1548.75
428.736	1543.75
428.958	1576.75
429.181	1522.75
429.403	1514.75
429.625	1510.75
429.847	1531.75
430.069	1511.75
430.292	1529.75
430.514	1471.75
430.736	1516.75
430.958	1537.75
431.18	1513.75
431.402	1552.75
431.624	1545.75
431.846	1559.75
432.068	1547.75
432.29	1599.75
432.512	1592.75
432.734	1572.75
432.956	1568.75
433.178	1559.75
433.4	1593.75
433.622	1584.75
433.844	1614.75
434.066	1609.75
434.287	1641.75
434.509	1633.75
434.731	1673.75
434.953	1705.75
435.175	1722.75
435.397	1749.75
435.618	1636.75
435.84	1634.75
436.062	1572.75
436.284	1567.75
436.505	1603.75
436.727	1535.75
436.949	1552.75
437.17	1568.75
437.392	1536.75
437.614	1537.75
437.835	1489.75
438.057	1459.75
438.278	1445.75
438.5	1476.75
438.721	1481.75
438.943	1498.75
439.165	1491.75
439.386	1492.75
439.608	1525.75
439.829	1516.75
440.05	1527.75
440.272	1512.75
440.493	1491.75
440.715	1552.75
440.936	1571.75
441.158	1531.75
441.379	1612.75
441.6	1711.75
441.822	1681.75
442.043	1686.75
442.264	1643.75
442.486	1625.75
442.707	1673.75
442.928	1648.75
443.149	1648.75
443.371	1670.75
443.592	1645.75
443.813	1661.75
444.034	1685.75
444.255	1770.75
444.476	1797.75
444.698	1873.75
444.919	1912.75
445.14	1993.75
445.361	1842.75
445.582	1737.75
445.803	1702.75
446.024	1611.75
446.245	1596.75
446.466	1570.75
446.687	1509.75
446.908	1557.75
447.129	1455.75
447.35	1448.75
447.571	1469.75
447.792	1442.75
448.013	1427.75
448.234	1436.75
448.455	1410.75
448.675	1435.75
448.896	1409.75
449.117	1340.75
449.338	1369.75
449.559	1395.75
449.779	1372.75
450	1368.75
450.221	1336.75
450.442	1364.75
450.662	1383.75
450.883	1385.75
451.104	1391.75
451.324	1378.75
451.545	1375.75
451.766	1378.75
451.986	1375.75
452.207	1373.75
452.428	1348.75
452.648	1350.75
452.869	1367.75
453.089	1337.75
453.31	1351.75
453.53	1317.75
453.751	1311.75
453.971	1338.75
454.192	1335.75
454.412	1293.75
454.633	1295.75
454.853	1289.75
455.073	1299.75
455.294	1312.75
455.514	1283.75
455.734	1287.75
455.955	1269.75
456.175	1259.75
456.395	1261.75
456.616	1279.75
456.836	1315.75
457.056	1309.75
457.276	1259.75
457.497	1290.75
457.717	1299.75
457.937	1296.75
458.157	1352.75
458.377	1352.75
458.598	1413.75
458.818	1411.75
459.038	1425.75
459.258	1470.75
459.478	1503.75
459.698	1561.75
459.918	1608.75
460.138	1629.75
460.358	1698.75
460.578	1702.75
460.798	1749.75
461.018	1736.75
461.238	1700.75
461.458	1713.75
461.678	1705.75
461.898	1751.75
462.118	1780.75
462.338	1849.75
462.558	1895.75
462.777	1960.75
462.997	2061.75
463.217	2180.75
463.437	2203.75
463.657	2008.75
463.876	2053.75
464.096	2031.75
464.316	1985.75
464.536	1989.75
464.755	1920.75
464.975	1872.75
465.195	1781.75
465.414	1737.75
465.634	1658.75
465.854	1622.75
466.073	1519.75
466.293	1531.75
466.512	1493.75
466.732	1459.75
466.951	1480.75
467.171	1474.75
467.391	1452.75
467.61	1454.75
467.829	1431.75
468.049	1435.75
468.268	1448.75
468.488	1371.75
468.707	1391.75
468.927	1415.75
469.146	1407.75
469.365	1399.75
469.585	1432.75
469.804	1458.75
470.023	1483.75
470.243	1478.75
470.462	1504.75
470.681	1502.75
470.901	1468.75
471.12	1488.75
471.339	1463.75
471.558	1416.75
471.777	1433.75
471.997	1431.75
472.216	1387.75
472.435	1428.75
472.654	1372.75
472.873	1398.75
473.092	1409.75
473.311	1396.75
473.53	1388.75
473.749	1362.75
473.968	1397.75
474.187	1380.75
474.406	1384.75
474.625	1375.75
474.844	1360.75
475.063	1381.75
475.282	1420.75
475.501	1383.75
475.72	1427.75
475.939	1439.75
476.158	1416.75
476.377	1473.75
476.596	1486.75
476.814	1501.75
477.033	1471.75
477.252	1522.75
477.471	1506.75
477.69	1568.75
477.908	1599.75
478.127	1625.75
478.346	1660.75
478.564	1674.75
478.783	1683.75
479.002	1779.75
479.22	1749.75
479.439	1738.75
479.658	1715.75
479.876	1725.75
480.095	1770.75
480.313	1830.75
480.532	1817.75
480.751	1851.75
480.969	1809.75
481.188	1738.75
481.406	1735.75
481.624	1744.75
481.843	1725.75
482.061	1689.75
482.28	1692.75
482.498	1693.75
482.717	1685.75
482.935	1666.75
483.153	1687.75
483.372	1742.75
483.59	1722.75
483.808	1703.75
484.027	1779.75
484.245	1728.75
484.463	1801.75
484.681	1834.75
484.9	1817.75
485.118	1820.75
485.336	1825.75
485.554	1887.75
485.772	1875.75
485.99	1917.75
486.209	1876.75
486.427	1879.75
486.645	1836.75
486.863	1851.75
487.081	1834.75
487.299	1856.75
487.517	1855.75
487.735	1820.75
487.953	1831.75
488.171	1815.75
488.389	1755.75
488.607	1773.75
488.825	1803.75
489.043	1779.75
489.261	1809.75
489.479	1757.75
489.696	1757.75
489.914	1765.75
490.132	1739.75
490.35	1775.75
490.568	1732.75
