Data from NiCl2@0.0625M.TitratingCurve.Agarose3%dH2O.NegLispCup.LampEnergy10.LIBS07252019_HRD10591_18-33-22-576.txt Node
Date: Thu Jul 25 18:33:22 EDT 2019
User: cochatt
Spectrometer: HR+D1059
Trigger mode: 1
Integration Time (sec): 1.000000E-1
Scans to average: 1
Electric dark correction enabled: true
Nonlinearity correction enabled: false
Boxcar width: 0
XAxis mode: Wavelengths
Number of Pixels in Spectrum: 2048
>>>>>Begin Spectral Data<<<<<
223.165	-15.56
223.4	-15.56
223.635	-15.56
223.869	-22.56
224.104	-23.56
224.338	-11.56
224.573	-23.56
224.808	-24.56
225.042	2.44
225.277	-9.56
225.511	-8.56
225.746	6.44
225.98	10.44
226.215	12.44
226.449	26.44
226.683	12.44
226.918	29.44
227.152	39.44
227.387	37.44
227.621	18.44
227.856	44.44
228.09	44.44
228.324	65.44
228.559	53.44
228.793	80.44
229.027	151.44
229.262	171.44
229.496	166.44
229.73	165.44
229.964	177.44
230.199	180.44
230.433	189.44
230.667	181.44
230.901	197.44
231.136	183.44
231.37	171.44
231.604	184.44
231.838	209.44
232.072	194.44
232.306	204.44
232.541	214.44
232.775	199.44
233.009	210.44
233.243	226.44
233.477	213.44
233.711	219.44
233.945	215.44
234.179	203.44
234.413	221.44
234.647	212.44
234.881	228.44
235.115	241.44
235.349	235.44
235.583	217.44
235.817	219.44
236.051	232.44
236.285	228.44
236.519	229.44
236.753	225.44
236.987	238.44
237.221	244.44
237.455	250.44
237.689	251.44
237.922	241.44
238.156	263.44
238.39	259.44
238.624	280.44
238.858	268.44
239.091	267.44
239.325	246.44
239.559	274.44
239.793	273.44
240.027	292.44
240.26	266.44
240.494	276.44
240.728	304.44
240.961	295.44
241.195	317.44
241.429	298.44
241.662	298.44
241.896	312.44
242.13	304.44
242.363	308.44
242.597	297.44
242.83	309.44
243.064	328.44
243.298	304.44
243.531	309.44
243.765	325.44
243.998	326.44
244.232	328.44
244.465	335.44
244.699	332.44
244.932	347.44
245.166	356.44
245.399	370.44
245.633	348.44
245.866	338.44
246.099	347.44
246.333	368.44
246.566	347.44
246.8	352.44
247.033	381.44
247.266	369.44
247.5	357.44
247.733	376.44
247.966	368.44
248.2	374.44
248.433	388.44
248.666	370.44
248.899	369.44
249.133	386.44
249.366	399.44
249.599	394.44
249.832	393.44
250.066	411.44
250.299	401.44
250.532	398.44
250.765	416.44
250.998	426.44
251.231	416.44
251.465	412.44
251.698	423.44
251.931	418.44
252.164	459.44
252.397	428.44
252.63	444.44
252.863	464.44
253.096	459.44
253.329	454.44
253.562	457.44
253.795	472.44
254.028	441.44
254.261	487.44
254.494	462.44
254.727	453.44
254.96	452.44
255.193	468.44
255.426	458.44
255.659	469.44
255.892	457.44
256.124	463.44
256.357	499.44
256.59	474.44
256.823	504.44
257.056	490.44
257.289	499.44
257.521	481.44
257.754	514.44
257.987	502.44
258.22	525.44
258.452	490.44
258.685	490.44
258.918	505.44
259.151	515.44
259.383	496.44
259.616	520.44
259.849	526.44
260.081	541.44
260.314	549.44
260.547	549.44
260.779	537.44
261.012	550.44
261.244	545.44
261.477	551.44
261.71	546.44
261.942	558.44
262.175	549.44
262.407	544.44
262.64	562.44
262.872	558.44
263.105	566.44
263.337	552.44
263.57	585.44
263.802	589.44
264.035	580.44
264.267	602.44
264.499	593.44
264.732	591.44
264.964	581.44
265.197	600.44
265.429	612.44
265.661	592.44
265.894	590.44
266.126	607.44
266.358	596.44
266.591	592.44
266.823	606.44
267.055	606.44
267.287	618.44
267.52	613.44
267.752	630.44
267.984	634.44
268.216	609.44
268.448	642.44
268.681	624.44
268.913	626.44
269.145	656.44
269.377	627.44
269.609	649.44
269.841	637.44
270.073	646.44
270.306	630.44
270.538	651.44
270.77	640.44
271.002	642.44
271.234	644.44
271.466	662.44
271.698	673.44
271.93	682.44
272.162	654.44
272.394	663.44
272.626	684.44
272.858	683.44
273.09	688.44
273.322	700.44
273.553	696.44
273.785	684.44
274.017	699.44
274.249	727.44
274.481	700.44
274.713	721.44
274.945	744.44
275.176	745.44
275.408	738.44
275.64	721.44
275.872	729.44
276.104	753.44
276.335	741.44
276.567	737.44
276.799	747.44
277.031	755.44
277.262	728.44
277.494	738.44
277.726	752.44
277.957	745.44
278.189	755.44
278.421	743.44
278.652	744.44
278.884	771.44
279.115	760.44
279.347	777.44
279.579	761.44
279.81	786.44
280.042	770.44
280.273	792.44
280.505	773.44
280.736	781.44
280.968	796.44
281.199	794.44
281.431	821.44
281.662	796.44
281.894	816.44
282.125	792.44
282.356	824.44
282.588	813.44
282.819	814.44
283.051	821.44
283.282	818.44
283.513	829.44
283.745	814.44
283.976	818.44
284.207	872.44
284.439	850.44
284.67	856.44
284.901	862.44
285.132	867.44
285.364	852.44
285.595	842.44
285.826	829.44
286.057	857.44
286.288	855.44
286.52	851.44
286.751	881.44
286.982	852.44
287.213	896.44
287.444	870.44
287.675	891.44
287.906	869.44
288.138	889.44
288.369	884.44
288.6	876.44
288.831	928.44
289.062	906.44
289.293	885.44
289.524	882.44
289.755	901.44
289.986	886.44
290.217	891.44
290.448	901.44
290.679	903.44
290.91	901.44
291.141	917.44
291.371	891.44
291.602	895.44
291.833	917.44
292.064	899.44
292.295	905.44
292.526	893.44
292.757	894.44
292.987	908.44
293.218	909.44
293.449	928.44
293.68	900.44
293.91	893.44
294.141	920.44
294.372	908.44
294.603	901.44
294.833	959.44
295.064	941.44
295.295	906.44
295.525	912.44
295.756	944.44
295.987	888.44
296.217	949.44
296.448	940.44
296.679	925.44
296.909	963.44
297.14	937.44
297.37	976.44
297.601	969.44
297.831	981.44
298.062	946.44
298.292	978.44
298.523	995.44
298.753	998.44
298.984	1001.44
299.214	978.44
299.445	986.44
299.675	994.44
299.905	996.44
300.136	1001.44
300.366	1001.44
300.597	981.44
300.827	1052.44
301.057	1059.44
301.288	1056.44
301.518	1033.44
301.748	1039.44
301.979	1044.44
302.209	1061.44
302.439	1086.44
302.669	1016.44
302.9	1034.44
303.13	1022.44
303.36	1026.44
303.59	1045.44
303.82	1028.44
304.051	1075.44
304.281	1050.44
304.511	1049.44
304.741	1034.44
304.971	1063.44
305.201	1024.44
305.431	1061.44
305.661	1028.44
305.891	1028.44
306.121	1046.44
306.352	1045.44
306.582	1024.44
306.812	1014.44
307.042	1043.44
307.272	1008.44
307.502	1011.44
307.731	1005.44
307.961	1007.44
308.191	1032.44
308.421	1038.44
308.651	1026.44
308.881	1020.44
309.111	1023.44
309.341	1005.44
309.571	1040.44
309.8	1058.44
310.03	1042.44
310.26	1030.44
310.49	1067.44
310.72	1044.44
310.949	1044.44
311.179	1084.44
311.409	1038.44
311.639	1064.44
311.868	1043.44
312.098	1056.44
312.328	1074.44
312.557	1062.44
312.787	1061.44
313.017	1064.44
313.246	1098.44
313.476	1101.44
313.706	1117.44
313.935	1127.44
314.165	1113.44
314.394	1120.44
314.624	1130.44
314.853	1083.44
315.083	1106.44
315.312	1142.44
315.542	1113.44
315.771	1132.44
316.001	1118.44
316.23	1118.44
316.46	1100.44
316.689	1121.44
316.919	1076.44
317.148	1092.44
317.377	1109.44
317.607	1114.44
317.836	1070.44
318.065	1117.44
318.295	1107.44
318.524	1125.44
318.753	1093.44
318.983	1108.44
319.212	1099.44
319.441	1084.44
319.67	1093.44
319.9	1119.44
320.129	1111.44
320.358	1098.44
320.587	1117.44
320.816	1100.44
321.046	1107.44
321.275	1131.44
321.504	1099.44
321.733	1136.44
321.962	1110.44
322.191	1108.44
322.42	1133.44
322.649	1120.44
322.878	1153.44
323.108	1126.44
323.337	1133.44
323.566	1139.44
323.795	1117.44
324.024	1120.44
324.253	1130.44
324.482	1145.44
324.71	1157.44
324.939	1134.44
325.168	1158.44
325.397	1119.44
325.626	1181.44
325.855	1202.44
326.084	1192.44
326.313	1191.44
326.542	1188.44
326.77	1229.44
326.999	1195.44
327.228	1183.44
327.457	1189.44
327.686	1204.44
327.914	1189.44
328.143	1226.44
328.372	1212.44
328.6	1164.44
328.829	1217.44
329.058	1212.44
329.287	1212.44
329.515	1216.44
329.744	1216.44
329.972	1254.44
330.201	1248.44
330.43	1256.44
330.658	1221.44
330.887	1254.44
331.115	1266.44
331.344	1292.44
331.572	1264.44
331.801	1290.44
332.03	1303.44
332.258	1346.44
332.486	1381.44
332.715	1355.44
332.943	1412.44
333.172	1415.44
333.4	1493.44
333.629	1477.44
333.857	1523.44
334.085	1547.44
334.314	1575.44
334.542	1515.44
334.771	1524.44
334.999	1498.44
335.227	1481.44
335.455	1485.44
335.684	1493.44
335.912	1465.44
336.14	1485.44
336.369	1491.44
336.597	1439.44
336.825	1472.44
337.053	1401.44
337.281	1433.44
337.51	1390.44
337.738	1381.44
337.966	1368.44
338.194	1364.44
338.422	1332.44
338.65	1316.44
338.878	1328.44
339.106	1352.44
339.334	1317.44
339.562	1332.44
339.79	1305.44
340.018	1264.44
340.246	1245.44
340.474	1222.44
340.702	1236.44
340.93	1289.44
341.158	1285.44
341.386	1276.44
341.614	1271.44
341.842	1275.44
342.07	1256.44
342.298	1245.44
342.526	1220.44
342.754	1254.44
342.981	1257.44
343.209	1254.44
343.437	1345.44
343.665	1390.44
343.893	1445.44
344.12	1508.44
344.348	1445.44
344.576	1386.44
344.804	1400.44
345.031	1310.44
345.259	1322.44
345.487	1258.44
345.714	1269.44
345.942	1249.44
346.17	1241.44
346.397	1222.44
346.625	1225.44
346.853	1226.44
347.08	1206.44
347.308	1215.44
347.535	1238.44
347.763	1207.44
347.99	1218.44
348.218	1204.44
348.445	1192.44
348.673	1192.44
348.9	1194.44
349.128	1210.44
349.355	1221.44
349.583	1202.44
349.81	1211.44
350.037	1189.44
350.265	1213.44
350.492	1169.44
350.72	1203.44
350.947	1184.44
351.174	1188.44
351.402	1176.44
351.629	1192.44
351.856	1163.44
352.083	1155.44
352.311	1180.44
352.538	1169.44
352.765	1170.44
352.992	1156.44
353.22	1157.44
353.447	1170.44
353.674	1139.44
353.901	1165.44
354.128	1156.44
354.355	1145.44
354.583	1184.44
354.81	1181.44
355.037	1152.44
355.264	1223.44
355.491	1186.44
355.718	1186.44
355.945	1182.44
356.172	1173.44
356.399	1168.44
356.626	1189.44
356.853	1191.44
357.08	1182.44
357.307	1161.44
357.534	1183.44
357.761	1167.44
357.988	1172.44
358.215	1163.44
358.441	1167.44
358.668	1188.44
358.895	1165.44
359.122	1150.44
359.349	1169.44
359.576	1184.44
359.802	1162.44
360.029	1185.44
360.256	1186.44
360.483	1203.44
360.709	1159.44
360.936	1235.44
361.163	1178.44
361.39	1176.44
361.616	1166.44
361.843	1201.44
362.07	1169.44
362.296	1204.44
362.523	1168.44
362.749	1170.44
362.976	1159.44
363.203	1139.44
363.429	1167.44
363.656	1182.44
363.882	1180.44
364.109	1172.44
364.335	1170.44
364.562	1180.44
364.788	1170.44
365.015	1158.44
365.241	1166.44
365.468	1159.44
365.694	1174.44
365.92	1197.44
366.147	1156.44
366.373	1165.44
366.599	1203.44
366.826	1229.44
367.052	1160.44
367.278	1174.44
367.505	1185.44
367.731	1217.44
367.957	1185.44
368.184	1216.44
368.41	1216.44
368.636	1216.44
368.862	1219.44
369.089	1196.44
369.315	1221.44
369.541	1188.44
369.767	1256.44
369.993	1204.44
370.219	1258.44
370.445	1203.44
370.672	1259.44
370.898	1215.44
371.124	1302.44
371.35	1282.44
371.576	1307.44
371.802	1270.44
372.028	1239.44
372.254	1310.44
372.48	1283.44
372.706	1316.44
372.932	1349.44
373.158	1319.44
373.384	1322.44
373.61	1257.44
373.835	1295.44
374.061	1281.44
374.287	1323.44
374.513	1291.44
374.739	1336.44
374.965	1380.44
375.191	1424.44
375.416	1398.44
375.642	1356.44
375.868	1352.44
376.094	1316.44
376.319	1311.44
376.545	1290.44
376.771	1274.44
376.997	1275.44
377.222	1314.44
377.448	1302.44
377.674	1244.44
377.899	1258.44
378.125	1256.44
378.35	1249.44
378.576	1265.44
378.802	1260.44
379.027	1264.44
379.253	1262.44
379.478	1282.44
379.704	1280.44
379.929	1270.44
380.155	1249.44
380.38	1232.44
380.606	1233.44
380.831	1257.44
381.057	1288.44
381.282	1261.44
381.507	1261.44
381.733	1304.44
381.958	1280.44
382.184	1284.44
382.409	1354.44
382.634	1346.44
382.86	1331.44
383.085	1334.44
383.31	1361.44
383.535	1384.44
383.761	1393.44
383.986	1402.44
384.211	1414.44
384.436	1411.44
384.662	1461.44
384.887	1474.44
385.112	1498.44
385.337	1502.44
385.562	1503.44
385.787	1497.44
386.013	1504.44
386.238	1552.44
386.463	1534.44
386.688	1523.44
386.913	1527.44
387.138	1514.44
387.363	1503.44
387.588	1514.44
387.813	1490.44
388.038	1510.44
388.263	1518.44
388.488	1513.44
388.713	1502.44
388.938	1514.44
389.163	1493.44
389.387	1493.44
389.612	1510.44
389.837	1513.44
390.062	1479.44
390.287	1506.44
390.512	1498.44
390.736	1496.44
390.961	1561.44
391.186	1589.44
391.411	1592.44
391.636	1630.44
391.86	1663.44
392.085	1728.44
392.31	1702.44
392.534	1652.44
392.759	1603.44
392.984	1596.44
393.208	1595.44
393.433	1610.44
393.658	1600.44
393.882	1569.44
394.107	1603.44
394.331	1615.44
394.556	1587.44
394.78	1619.44
395.005	1590.44
395.229	1589.44
395.454	1645.44
395.678	1683.44
395.903	1702.44
396.127	1692.44
396.352	1635.44
396.576	1619.44
396.801	1598.44
397.025	1655.44
397.249	1677.44
397.474	1708.44
397.698	1719.44
397.922	1707.44
398.147	1730.44
398.371	1747.44
398.595	1807.44
398.82	1864.44
399.044	1966.44
399.268	2117.44
399.492	2330.44
399.717	2531.44
399.941	2628.44
400.165	2416.44
400.389	2221.44
400.613	2102.44
400.837	1956.44
401.062	1915.44
401.286	1879.44
401.51	1890.44
401.734	1886.44
401.958	1868.44
402.182	1884.44
402.406	1918.44
402.63	1950.44
402.854	1937.44
403.078	1964.44
403.302	1957.44
403.526	2011.44
403.75	1989.44
403.974	2006.44
404.198	2018.44
404.422	2050.44
404.645	2015.44
404.869	2050.44
405.093	1988.44
405.317	1992.44
405.541	2008.44
405.765	2035.44
405.988	2000.44
406.212	2021.44
406.436	2031.44
406.66	2101.44
406.883	2104.44
407.107	2200.44
407.331	2265.44
407.555	2320.44
407.778	2310.44
408.002	2281.44
408.226	2259.44
408.449	2246.44
408.673	2163.44
408.896	2130.44
409.12	2122.44
409.344	2078.44
409.567	2064.44
409.791	2096.44
410.014	2081.44
410.238	2072.44
410.461	2029.44
410.685	2028.44
410.908	1993.44
411.132	1962.44
411.355	1984.44
411.578	1922.44
411.802	1941.44
412.025	1980.44
412.249	1972.44
412.472	1965.44
412.695	1951.44
412.919	1878.44
413.142	1894.44
413.365	1878.44
413.589	1883.44
413.812	1842.44
414.035	1862.44
414.258	1916.44
414.482	1864.44
414.705	1905.44
414.928	1861.44
415.151	1904.44
415.374	1894.44
415.597	1860.44
415.821	1816.44
416.044	1843.44
416.267	1810.44
416.49	1785.44
416.713	1796.44
416.936	1810.44
417.159	1796.44
417.382	1778.44
417.605	1782.44
417.828	1821.44
418.051	1803.44
418.274	1807.44
418.497	1820.44
418.72	1852.44
418.943	1856.44
419.166	1947.44
419.389	2082.44
419.611	2040.44
419.834	1931.44
420.057	1889.44
420.28	1836.44
420.503	1809.44
420.726	1796.44
420.948	1791.44
421.171	1808.44
421.394	1770.44
421.617	1789.44
421.839	1812.44
422.062	1832.44
422.285	1771.44
422.507	1849.44
422.73	1822.44
422.953	1796.44
423.175	1827.44
423.398	1838.44
423.621	1853.44
423.843	1857.44
424.066	1852.44
424.288	1844.44
424.511	1850.44
424.733	1852.44
424.956	1796.44
425.178	1778.44
425.401	1787.44
425.623	1798.44
425.846	1753.44
426.068	1752.44
426.291	1775.44
426.513	1723.44
426.735	1678.44
426.958	1755.44
427.18	1700.44
427.402	1661.44
427.625	1687.44
427.847	1661.44
428.069	1664.44
428.292	1680.44
428.514	1670.44
428.736	1618.44
428.958	1612.44
429.181	1610.44
429.403	1606.44
429.625	1607.44
429.847	1605.44
430.069	1607.44
430.292	1576.44
430.514	1559.44
430.736	1640.44
430.958	1650.44
431.18	1618.44
431.402	1657.44
431.624	1633.44
431.846	1643.44
432.068	1708.44
432.29	1720.44
432.512	1653.44
432.734	1666.44
432.956	1654.44
433.178	1685.44
433.4	1677.44
433.622	1676.44
433.844	1726.44
434.066	1717.44
434.287	1695.44
434.509	1798.44
434.731	1793.44
434.953	1825.44
435.175	1866.44
435.397	1824.44
435.618	1781.44
435.84	1737.44
436.062	1680.44
436.284	1697.44
436.505	1645.44
436.727	1626.44
436.949	1630.44
437.17	1675.44
437.392	1617.44
437.614	1662.44
437.835	1580.44
438.057	1592.44
438.278	1547.44
438.5	1559.44
438.721	1543.44
438.943	1574.44
439.165	1573.44
439.386	1585.44
439.608	1595.44
439.829	1614.44
440.05	1621.44
440.272	1609.44
440.493	1636.44
440.715	1602.44
440.936	1655.44
441.158	1666.44
441.379	1724.44
441.6	1789.44
441.822	1776.44
442.043	1794.44
442.264	1794.44
442.486	1717.44
442.707	1767.44
442.928	1726.44
443.149	1755.44
443.371	1745.44
443.592	1770.44
443.813	1778.44
444.034	1795.44
444.255	1845.44
444.476	1914.44
444.698	2000.44
444.919	1992.44
445.14	2083.44
445.361	1928.44
445.582	1844.44
445.803	1736.44
446.024	1669.44
446.245	1660.44
446.466	1675.44
446.687	1605.44
446.908	1593.44
447.129	1584.44
447.35	1576.44
447.571	1562.44
447.792	1506.44
448.013	1502.44
448.234	1494.44
448.455	1492.44
448.675	1481.44
448.896	1474.44
449.117	1470.44
449.338	1476.44
449.559	1468.44
449.779	1439.44
450	1447.44
450.221	1457.44
450.442	1454.44
450.662	1460.44
450.883	1472.44
451.104	1496.44
451.324	1476.44
451.545	1459.44
451.766	1440.44
451.986	1461.44
452.207	1447.44
452.428	1440.44
452.648	1454.44
452.869	1432.44
453.089	1419.44
453.31	1429.44
453.53	1404.44
453.751	1404.44
453.971	1372.44
454.192	1395.44
454.412	1392.44
454.633	1405.44
454.853	1417.44
455.073	1396.44
455.294	1408.44
455.514	1366.44
455.734	1376.44
455.955	1366.44
456.175	1368.44
456.395	1352.44
456.616	1346.44
456.836	1371.44
457.056	1386.44
457.276	1400.44
457.497	1421.44
457.717	1399.44
457.937	1413.44
458.157	1418.44
458.377	1425.44
458.598	1462.44
458.818	1488.44
459.038	1528.44
459.258	1585.44
459.478	1623.44
459.698	1624.44
459.918	1656.44
460.138	1703.44
460.358	1774.44
460.578	1815.44
460.798	1862.44
461.018	1840.44
461.238	1784.44
461.458	1830.44
461.678	1820.44
461.898	1884.44
462.118	1878.44
462.338	1991.44
462.558	1978.44
462.777	2113.44
462.997	2184.44
463.217	2327.44
463.437	2310.44
463.657	2212.44
463.876	2129.44
464.096	2133.44
464.316	2099.44
464.536	2104.44
464.755	2025.44
464.975	1981.44
465.195	1899.44
465.414	1838.44
465.634	1701.44
465.854	1696.44
466.073	1662.44
466.293	1635.44
466.512	1579.44
466.732	1566.44
466.951	1558.44
467.171	1569.44
467.391	1563.44
467.61	1518.44
467.829	1512.44
468.049	1508.44
468.268	1497.44
468.488	1454.44
468.707	1471.44
468.927	1492.44
469.146	1460.44
469.365	1507.44
469.585	1510.44
469.804	1546.44
470.023	1579.44
470.243	1554.44
470.462	1609.44
470.681	1566.44
470.901	1589.44
471.12	1597.44
471.339	1546.44
471.558	1525.44
471.777	1520.44
471.997	1504.44
472.216	1507.44
472.435	1517.44
472.654	1494.44
472.873	1446.44
473.092	1501.44
473.311	1479.44
473.53	1471.44
473.749	1492.44
473.968	1484.44
474.187	1465.44
474.406	1489.44
474.625	1483.44
474.844	1484.44
475.063	1506.44
475.282	1531.44
475.501	1504.44
475.72	1497.44
475.939	1511.44
476.158	1542.44
476.377	1568.44
476.596	1587.44
476.814	1603.44
477.033	1571.44
477.252	1590.44
477.471	1621.44
477.69	1632.44
477.908	1703.44
478.127	1733.44
478.346	1746.44
478.564	1794.44
478.783	1817.44
479.002	1840.44
479.22	1843.44
479.439	1845.44
479.658	1833.44
479.876	1877.44
480.095	1886.44
480.313	1910.44
480.532	1994.44
480.751	1989.44
480.969	1924.44
481.188	1869.44
481.406	1866.44
481.624	1827.44
481.843	1864.44
482.061	1844.44
482.28	1801.44
482.498	1824.44
482.717	1774.44
482.935	1808.44
483.153	1812.44
483.372	1852.44
483.59	1847.44
483.808	1814.44
484.027	1837.44
484.245	1950.44
484.463	1921.44
484.681	1919.44
484.9	1958.44
485.118	1971.44
485.336	1968.44
485.554	1961.44
485.772	2082.44
485.99	1991.44
486.209	1943.44
486.427	1985.44
486.645	1979.44
486.863	1963.44
487.081	1974.44
487.299	1918.44
487.517	1957.44
487.735	1974.44
487.953	1941.44
488.171	1917.44
488.389	1945.44
488.607	1904.44
488.825	1922.44
489.043	1884.44
489.261	1860.44
489.479	1889.44
489.696	1919.44
489.914	1915.44
