Data from NiCl2@0.125M.TitratingCurve.Agarose3%dH2O.NegLispCup.LampEnergy10.LIBS07252019_HRD10591_18-29-14-574.txt Node
Date: Thu Jul 25 18:29:14 EDT 2019
User: cochatt
Spectrometer: HR+D1059
Trigger mode: 1
Integration Time (sec): 1.000000E-1
Scans to average: 1
Electric dark correction enabled: true
Nonlinearity correction enabled: false
Boxcar width: 0
XAxis mode: Wavelengths
Number of Pixels in Spectrum: 2048
>>>>>Begin Spectral Data<<<<<
223.165	-22
223.4	-22
223.635	-22
223.869	-14
224.104	-25
224.338	-15
224.573	-29
224.808	-2
225.042	-12
225.277	6
225.511	3
225.746	12
225.98	5
226.215	-1
226.449	26
226.683	25
226.918	25
227.152	18
227.387	38
227.621	44
227.856	41
228.09	51
228.324	67
228.559	60
228.793	77
229.027	100
229.262	111
229.496	125
229.73	125
229.964	128
230.199	133
230.433	148
230.667	137
230.901	139
231.136	139
231.37	119
231.604	133
231.838	148
232.072	158
232.306	160
232.541	159
232.775	147
233.009	143
233.243	161
233.477	159
233.711	174
233.945	153
234.179	146
234.413	157
234.647	153
234.881	150
235.115	149
235.349	169
235.583	169
235.817	149
236.051	165
236.285	155
236.519	154
236.753	184
236.987	159
237.221	179
237.455	163
237.689	162
237.922	161
238.156	158
238.39	183
238.624	174
238.858	174
239.091	182
239.325	161
239.559	176
239.793	166
240.027	176
240.26	184
240.494	188
240.728	195
240.961	203
241.195	194
241.429	184
241.662	188
241.896	186
242.13	202
242.363	195
242.597	196
242.83	192
243.064	209
243.298	197
243.531	217
243.765	215
243.998	226
244.232	215
244.465	232
244.699	233
244.932	232
245.166	216
245.399	232
245.633	219
245.866	223
246.099	225
246.333	228
246.566	232
246.8	221
247.033	237
247.266	228
247.5	247
247.733	234
247.966	259
248.2	257
248.433	247
248.666	261
248.899	251
249.133	265
249.366	257
249.599	251
249.832	239
250.066	248
250.299	237
250.532	253
250.765	263
250.998	270
251.231	271
251.465	290
251.698	277
251.931	286
252.164	277
252.397	259
252.63	286
252.863	298
253.096	290
253.329	306
253.562	286
253.795	282
254.028	298
254.261	290
254.494	284
254.727	291
254.96	297
255.193	294
255.426	294
255.659	315
255.892	300
256.124	295
256.357	302
256.59	311
256.823	294
257.056	306
257.289	324
257.521	318
257.754	320
257.987	315
258.22	317
258.452	323
258.685	314
258.918	332
259.151	328
259.383	321
259.616	316
259.849	321
260.081	341
260.314	339
260.547	338
260.779	343
261.012	346
261.244	321
261.477	364
261.71	335
261.942	325
262.175	347
262.407	332
262.64	353
262.872	325
263.105	343
263.337	340
263.57	347
263.802	354
264.035	365
264.267	357
264.499	357
264.732	375
264.964	366
265.197	366
265.429	377
265.661	369
265.894	355
266.126	358
266.358	377
266.591	363
266.823	376
267.055	379
267.287	377
267.52	360
267.752	400
267.984	389
268.216	369
268.448	390
268.681	391
268.913	397
269.145	365
269.377	386
269.609	379
269.841	387
270.073	358
270.306	394
270.538	399
270.77	395
271.002	390
271.234	386
271.466	408
271.698	389
271.93	404
272.162	419
272.394	404
272.626	412
272.858	396
273.09	410
273.322	411
273.553	411
273.785	409
274.017	403
274.249	419
274.481	407
274.713	424
274.945	441
275.176	425
275.408	407
275.64	409
275.872	430
276.104	422
276.335	424
276.567	437
276.799	435
277.031	434
277.262	436
277.494	449
277.726	437
277.957	441
278.189	461
278.421	460
278.652	463
278.884	452
279.115	455
279.347	448
279.579	459
279.81	466
280.042	452
280.273	465
280.505	481
280.736	429
280.968	486
281.199	452
281.431	463
281.662	491
281.894	488
282.125	479
282.356	475
282.588	477
282.819	477
283.051	472
283.282	493
283.513	499
283.745	492
283.976	507
284.207	492
284.439	497
284.67	512
284.901	490
285.132	508
285.364	486
285.595	506
285.826	501
286.057	527
286.288	491
286.52	525
286.751	523
286.982	502
287.213	527
287.444	533
287.675	524
287.906	515
288.138	508
288.369	553
288.6	527
288.831	533
289.062	541
289.293	532
289.524	536
289.755	549
289.986	557
290.217	537
290.448	530
290.679	540
290.91	561
291.141	549
291.371	545
291.602	548
291.833	541
292.064	537
292.295	549
292.526	540
292.757	557
292.987	558
293.218	543
293.449	559
293.68	549
293.91	555
294.141	571
294.372	538
294.603	551
294.833	567
295.064	577
295.295	557
295.525	546
295.756	555
295.987	565
296.217	576
296.448	579
296.679	598
296.909	571
297.14	580
297.37	607
297.601	583
297.831	597
298.062	599
298.292	592
298.523	645
298.753	613
298.984	604
299.214	602
299.445	611
299.675	591
299.905	610
300.136	609
300.366	601
300.597	625
300.827	614
301.057	645
301.288	654
301.518	629
301.748	651
301.979	644
302.209	631
302.439	633
302.669	649
302.9	599
303.13	643
303.36	631
303.59	617
303.82	614
304.051	607
304.281	601
304.511	604
304.741	612
304.971	615
305.201	611
305.431	621
305.661	602
305.891	613
306.121	601
306.352	607
306.582	614
306.812	594
307.042	601
307.272	589
307.502	620
307.731	605
307.961	592
308.191	594
308.421	596
308.651	605
308.881	594
309.111	602
309.341	604
309.571	598
309.8	597
310.03	596
310.26	609
310.49	588
310.72	604
310.949	604
311.179	626
311.409	587
311.639	608
311.868	592
312.098	598
312.328	614
312.557	611
312.787	635
313.017	601
313.246	647
313.476	638
313.706	639
313.935	662
314.165	642
314.394	633
314.624	657
314.853	629
315.083	631
315.312	655
315.542	634
315.771	618
316.001	634
316.23	638
316.46	617
316.689	633
316.919	621
317.148	647
317.377	640
317.607	614
317.836	595
318.065	638
318.295	627
318.524	635
318.753	582
318.983	622
319.212	621
319.441	613
319.67	631
319.9	629
320.129	604
320.358	630
320.587	613
320.816	649
321.046	640
321.275	625
321.504	624
321.733	625
321.962	598
322.191	631
322.42	622
322.649	623
322.878	612
323.108	633
323.337	637
323.566	629
323.795	633
324.024	632
324.253	635
324.482	632
324.71	630
324.939	633
325.168	651
325.397	632
325.626	670
325.855	663
326.084	686
326.313	684
326.542	713
326.77	707
326.999	705
327.228	666
327.457	655
327.686	672
327.914	667
328.143	692
328.372	694
328.6	677
328.829	661
329.058	653
329.287	669
329.515	691
329.744	693
329.972	686
330.201	716
330.43	691
330.658	690
330.887	695
331.115	693
331.344	718
331.572	739
331.801	726
332.03	759
332.258	778
332.486	793
332.715	786
332.943	859
333.172	884
333.4	939
333.629	915
333.857	947
334.085	950
334.314	902
334.542	900
334.771	902
334.999	861
335.227	866
335.455	855
335.684	858
335.912	837
336.14	811
336.369	853
336.597	837
336.825	816
337.053	820
337.281	810
337.51	822
337.738	820
337.966	763
338.194	738
338.422	740
338.65	748
338.878	735
339.106	722
339.334	753
339.562	708
339.79	711
340.018	701
340.246	709
340.474	703
340.702	703
340.93	727
341.158	721
341.386	711
341.614	711
341.842	682
342.07	693
342.298	683
342.526	686
342.754	693
342.981	704
343.209	715
343.437	757
343.665	808
343.893	853
344.12	909
344.348	878
344.576	807
344.804	781
345.031	758
345.259	733
345.487	717
345.714	710
345.942	707
346.17	712
346.397	683
346.625	682
346.853	687
347.08	678
347.308	704
347.535	706
347.763	723
347.99	730
348.218	723
348.445	729
348.673	704
348.9	681
349.128	687
349.355	675
349.583	684
349.81	685
350.037	636
350.265	651
350.492	674
350.72	656
350.947	681
351.174	663
351.402	652
351.629	645
351.856	659
352.083	667
352.311	657
352.538	676
352.765	653
352.992	651
353.22	658
353.447	645
353.674	636
353.901	654
354.128	644
354.355	668
354.583	660
354.81	654
355.037	667
355.264	649
355.491	682
355.718	643
355.945	654
356.172	689
356.399	671
356.626	677
356.853	668
357.08	655
357.307	658
357.534	661
357.761	655
357.988	668
358.215	629
358.441	663
358.668	649
358.895	651
359.122	670
359.349	655
359.576	656
359.802	662
360.029	645
360.256	665
360.483	660
360.709	679
360.936	687
361.163	681
361.39	684
361.616	668
361.843	667
362.07	654
362.296	656
362.523	655
362.749	649
362.976	665
363.203	657
363.429	621
363.656	661
363.882	639
364.109	661
364.335	649
364.562	665
364.788	643
365.015	636
365.241	641
365.468	640
365.694	633
365.92	636
366.147	664
366.373	676
366.599	659
366.826	643
367.052	643
367.278	656
367.505	646
367.731	669
367.957	661
368.184	665
368.41	684
368.636	671
368.862	704
369.089	661
369.315	688
369.541	639
369.767	677
369.993	693
370.219	694
370.445	698
370.672	714
370.898	699
371.124	709
371.35	754
371.576	714
371.802	715
372.028	673
372.254	718
372.48	719
372.706	733
372.932	755
373.158	761
373.384	719
373.61	706
373.835	700
374.061	705
374.287	726
374.513	717
374.739	768
374.965	767
375.191	817
375.416	805
375.642	790
375.868	781
376.094	762
376.319	741
376.545	731
376.771	715
376.997	732
377.222	730
377.448	707
377.674	724
377.899	710
378.125	705
378.35	706
378.576	715
378.802	691
379.027	731
379.253	710
379.478	685
379.704	710
379.929	718
380.155	714
380.38	693
380.606	696
380.831	697
381.057	706
381.282	689
381.507	703
381.733	711
381.958	710
382.184	714
382.409	741
382.634	743
382.86	742
383.085	755
383.31	758
383.535	804
383.761	773
383.986	790
384.211	835
384.436	848
384.662	868
384.887	864
385.112	890
385.337	874
385.562	873
385.787	849
386.013	878
386.238	874
386.463	885
386.688	875
386.913	869
387.138	860
387.363	839
387.588	831
387.813	860
388.038	869
388.263	869
388.488	865
388.713	853
388.938	850
389.163	835
389.387	836
389.612	837
389.837	829
390.062	844
390.287	802
390.512	845
390.736	854
390.961	839
391.186	897
391.411	895
391.636	947
391.86	982
392.085	994
392.31	977
392.534	961
392.759	908
392.984	909
393.208	908
393.433	925
393.658	916
393.882	927
394.107	934
394.331	908
394.556	931
394.78	955
395.005	927
395.229	945
395.454	945
395.678	985
395.903	981
396.127	954
396.352	958
396.576	903
396.801	893
397.025	913
397.249	939
397.474	945
397.698	954
397.922	974
398.147	952
398.371	999
398.595	996
398.82	1076
399.044	1111
399.268	1287
399.492	1496
399.717	1723
399.941	1730
400.165	1555
400.389	1318
400.613	1227
400.837	1134
401.062	1118
401.286	1078
401.51	1100
401.734	1075
401.958	1109
402.182	1107
402.406	1114
402.63	1159
402.854	1191
403.078	1196
403.302	1250
403.526	1244
403.75	1292
403.974	1297
404.198	1306
404.422	1330
404.645	1274
404.869	1272
405.093	1273
405.317	1254
405.541	1240
405.765	1193
405.988	1214
406.212	1221
406.436	1168
406.66	1254
406.883	1252
407.107	1325
407.331	1395
407.555	1426
407.778	1445
408.002	1399
408.226	1375
408.449	1320
408.673	1246
408.896	1255
409.12	1222
409.344	1272
409.567	1230
409.791	1261
410.014	1277
410.238	1252
410.461	1249
410.685	1216
410.908	1206
411.132	1150
411.355	1146
411.578	1127
411.802	1146
412.025	1147
412.249	1155
412.472	1153
412.695	1113
412.919	1093
413.142	1086
413.365	1069
413.589	1094
413.812	1091
414.035	1102
414.258	1066
414.482	1102
414.705	1123
414.928	1105
415.151	1137
415.374	1097
415.597	1092
415.821	1104
416.044	1095
416.267	1079
416.49	1077
416.713	1073
416.936	1089
417.159	1083
417.382	1066
417.605	1076
417.828	1093
418.051	1114
418.274	1091
418.497	1082
418.72	1129
418.943	1121
419.166	1215
419.389	1325
419.611	1239
419.834	1187
420.057	1156
420.28	1127
420.503	1069
420.726	1075
420.948	1111
421.171	1078
421.394	1093
421.617	1075
421.839	1069
422.062	1073
422.285	1109
422.507	1130
422.73	1143
422.953	1112
423.175	1164
423.398	1171
423.621	1181
423.843	1187
424.066	1190
424.288	1173
424.511	1163
424.733	1155
424.956	1114
425.178	1146
425.401	1130
425.623	1102
425.846	1046
426.068	1059
426.291	1031
426.513	1033
426.735	1027
426.958	986
427.18	991
427.402	1000
427.625	1019
427.847	980
428.069	998
428.292	979
428.514	961
428.736	987
428.958	968
429.181	945
429.403	936
429.625	925
429.847	945
430.069	947
430.292	919
430.514	929
430.736	937
430.958	949
431.18	932
431.402	970
431.624	945
431.846	966
432.068	996
432.29	994
432.512	968
432.734	985
432.956	971
433.178	997
433.4	993
433.622	976
433.844	985
434.066	963
434.287	994
434.509	1007
434.731	1073
434.953	1091
435.175	1144
435.397	1093
435.618	1053
435.84	1026
436.062	986
436.284	968
436.505	953
436.727	978
436.949	992
437.17	961
437.392	959
437.614	952
437.835	910
438.057	949
438.278	929
438.5	924
438.721	914
438.943	954
439.165	942
439.386	978
439.608	989
439.829	954
440.05	989
440.272	1002
440.493	981
440.715	972
440.936	1027
441.158	1029
441.379	1034
441.6	1138
441.822	1139
442.043	1137
442.264	1085
442.486	1075
442.707	1104
442.928	1094
443.149	1093
443.371	1090
443.592	1091
443.813	1120
444.034	1139
444.255	1167
444.476	1238
444.698	1309
444.919	1368
445.14	1438
445.361	1294
445.582	1173
445.803	1077
446.024	1059
446.245	1034
446.466	1018
446.687	985
446.908	1002
447.129	979
447.35	958
447.571	945
447.792	941
448.013	937
448.234	924
448.455	910
448.675	914
448.896	911
449.117	893
449.338	893
449.559	902
449.779	907
450	888
450.221	913
450.442	927
450.662	930
450.883	936
451.104	959
451.324	938
451.545	949
451.766	943
451.986	938
452.207	928
452.428	925
452.648	923
452.869	875
453.089	879
453.31	901
453.53	877
453.751	876
453.971	933
454.192	882
454.412	869
454.633	853
454.853	858
455.073	855
455.294	846
455.514	855
455.734	853
455.955	827
456.175	835
456.395	834
456.616	835
456.836	836
457.056	838
457.276	836
457.497	833
457.717	827
457.937	839
458.157	839
458.377	887
458.598	892
458.818	887
459.038	915
459.258	955
459.478	978
459.698	1020
459.918	1067
460.138	1085
460.358	1150
460.578	1183
460.798	1195
461.018	1155
461.238	1180
461.458	1165
461.678	1179
461.898	1176
462.118	1187
462.338	1233
462.558	1294
462.777	1339
462.997	1469
463.217	1615
463.437	1661
463.657	1475
463.876	1397
464.096	1375
464.316	1399
464.536	1392
464.755	1332
464.975	1301
465.195	1225
465.414	1124
465.634	1062
465.854	1027
466.073	997
466.293	1003
466.512	972
466.732	957
466.951	969
467.171	943
467.391	967
467.61	935
467.829	940
468.049	945
468.268	903
468.488	917
468.707	912
468.927	898
469.146	900
469.365	900
469.585	933
469.804	949
470.023	975
470.243	964
470.462	985
470.681	989
470.901	979
471.12	958
471.339	939
471.558	907
471.777	891
471.997	908
472.216	890
472.435	894
472.654	868
472.873	884
473.092	875
473.311	870
473.53	862
473.749	870
473.968	883
474.187	895
474.406	882
474.625	883
474.844	901
475.063	865
475.282	835
475.501	878
475.72	927
475.939	879
476.158	896
476.377	883
476.596	931
476.814	941
477.033	941
477.252	936
477.471	947
477.69	979
477.908	1004
478.127	1057
478.346	1036
478.564	1067
478.783	1056
479.002	1095
479.22	1089
479.439	1094
479.658	1079
479.876	1069
480.095	1105
480.313	1116
480.532	1201
480.751	1183
480.969	1122
481.188	1118
481.406	1055
481.624	1027
481.843	975
482.061	991
482.28	1003
482.498	986
482.717	974
482.935	986
483.153	975
483.372	978
483.59	979
483.808	983
484.027	1020
484.245	995
484.463	981
484.681	1003
484.9	1005
485.118	1025
485.336	1027
485.554	1023
485.772	1043
485.99	1069
486.209	1077
486.427	1061
486.645	1066
486.863	1071
487.081	1045
487.299	1053
487.517	1035
487.735	1034
487.953	1050
488.171	1027
488.389	1042
488.607	1010
488.825	1037
489.043	990
489.261	1038
489.479	1051
489.696	1025
489.914	1039
490.132	1038
490.35	1042
490.568	1029
490.786	1053
491.003	1047
491.221	1062
491.439	1065
491.657	1023
491.874	1012
492.092	1049
492.31	1049
492.527	1058
492.745	1087
492.963	1085
493.18	1064
493.398	1061
493.615	1077
493.833	1083
494.05	1100
494.268	1082
494.485	1078
494.703	1099
494.92	1084
495.138	1101
495.355	1102
495.573	1055
495.79	1118
496.008	1142
496.225	1076
496.442	1160
496.66	1156
496.877	1149
497.094	1176
497.312	1233
497.529	1220
497.746	1205
497.963	1228
498.181	1307
498.398	1402
498.615	1483
498.832	1560
499.049	1667
499.267	1829
499.484	2043
499.701	2293
499.918	2526
500.135	2955
500.352	3388
500.569	3601
500.786	3561
501.003	3326
501.22	2958
501.437	2557
501.654	2206
501.871	1999
502.088	1813
502.305	1670
502.522	1591
502.739	1566
502.956	1442
503.172	1392
503.389	1321
503.606	1270
503.823	1258
504.04	1279
504.256	1289
504.473	1284
504.69	1352
504.907	1297
505.123	1229
505.34	1177
505.557	1098
505.773	1066
505.99	1066
506.207	1030
506.423	999
506.64	1007
506.856	983
507.073	985
507.289	977
507.506	969
507.722	959
507.939	955
508.155	955
508.372	952
508.588	946
508.805	940
509.021	931
509.238	918
509.454	917
509.67	909
509.887	913
510.103	922
510.319	884
510.536	905
510.752	924
510.968	922
511.184	897
511.401	887
511.617	901
511.833	891
512.049	900
512.265	895
512.481	901
512.698	876
512.914	903
513.13	902
513.346	905
513.562	883
513.778	916
513.994	891
514.21	893
514.426	877
514.642	904
514.858	896
515.074	919
515.29	899
515.506	924
515.721	929
515.937	949
516.153	970
516.369	995
516.585	1005
516.801	1058
517.016	1078
517.232	1174
517.448	1226
517.664	1248
517.879	1310
518.095	1301
518.311	1269
518.527	1199
518.742	1121
518.958	1095
519.173	1069
519.389	990
519.605	1001
519.82	963
520.036	950
520.251	913
520.467	908
520.682	901
520.898	910
521.113	892
521.329	883
521.544	850
521.76	860
521.975	838
522.19	837
522.406	828
522.621	833
522.836	855
523.052	822
523.267	853
523.482	839
523.698	834
523.913	827
524.128	841
524.343	834
524.559	825
524.774	815
524.989	825
525.204	827
525.419	801
525.634	810
525.849	805
526.064	791
526.28	797
526.495	814
526.71	813
526.925	805
527.14	820
527.355	778
527.57	793
527.785	806
527.999	812
528.214	821
528.429	809
528.644	827
528.859	823
529.074	806
529.289	823
529.503	807
529.718	852
529.933	808
530.148	803
530.363	833
530.577	810
530.792	817
531.007	798
531.221	788
531.436	789
531.651	829
531.865	807
532.08	813
532.295	822
532.509	808
532.724	835
532.938	802
533.153	795
533.367	789
533.582	795
533.796	791
534.011	802
534.225	814
534.44	793
534.654	775
534.868	770
535.083	787
535.297	786
535.511	765
535.726	795
535.94	778
536.154	755
536.369	767
536.583	761
536.797	767
537.011	755
537.225	729
537.44	740
537.654	754
537.868	734
538.082	725
538.296	739
538.51	725
538.724	746
538.938	723
539.153	724
539.367	719
539.581	719
539.795	731
540.009	734
540.222	710
540.436	721
540.65	732
540.864	727
541.078	720
541.292	751
541.506	726
541.72	738
541.934	711
542.147	732
542.361	730
542.575	699
542.789	683
543.002	717
543.216	716
543.43	712
543.644	718
543.857	712
544.071	701
544.285	724
544.498	709
544.712	725
544.925	712
545.139	731
545.352	747
545.566	754
545.779	714
545.993	749
546.206	739
546.42	753
546.633	743
546.847	755
547.06	731
547.274	730
547.487	744
547.7	737
547.914	738
548.127	758
548.34	745
548.554	725
548.767	737
548.98	749
549.193	740
549.407	757
549.62	744
549.833	784
550.046	773
550.259	751
550.473	737
550.686	741
550.899	715
551.112	726
551.325	700
551.538	720
551.751	712
551.964	734
552.177	743
552.39	746
552.603	765
552.816	777
553.029	778
553.242	813
553.455	826
553.667	844
553.88	837
554.093	796
554.306	777
554.519	750
554.732	743
554.944	710
555.157	709
555.37	702
555.583	689
555.795	683
556.008	684
556.221	641
556.433	673
556.646	658
556.859	641
557.071	649
557.284	647
557.496	631
557.709	639
557.921	617
