Data from NiCl2@0.25M.TitratingCurve.Agarose3%dH2O.NegLispCup.LampEnergy10.LIBS07252019_HRD10591_18-22-42-572.txt Node
Date: Thu Jul 25 18:22:42 EDT 2019
User: cochatt
Spectrometer: HR+D1059
Trigger mode: 1
Integration Time (sec): 1.000000E-1
Scans to average: 1
Electric dark correction enabled: true
Nonlinearity correction enabled: false
Boxcar width: 0
XAxis mode: Wavelengths
Number of Pixels in Spectrum: 2048
>>>>>Begin Spectral Data<<<<<
223.165	-7.19
223.4	-7.19
223.635	-7.19
223.869	-22.19
224.104	-19.19
224.338	-2.19
224.573	-9.19
224.808	-7.19
225.042	-7.19
225.277	-15.19
225.511	-11.19
225.746	10.81
225.98	0.81
226.215	8.81
226.449	15.81
226.683	19.81
226.918	18.81
227.152	25.81
227.387	38.81
227.621	39.81
227.856	44.81
228.09	37.81
228.324	49.81
228.559	64.81
228.793	88.81
229.027	144.81
229.262	152.81
229.496	121.81
229.73	149.81
229.964	158.81
230.199	186.81
230.433	185.81
230.667	177.81
230.901	198.81
231.136	170.81
231.37	173.81
231.604	177.81
231.838	189.81
232.072	208.81
232.306	197.81
232.541	174.81
232.775	176.81
233.009	181.81
233.243	178.81
233.477	197.81
233.711	176.81
233.945	188.81
234.179	192.81
234.413	209.81
234.647	207.81
234.881	192.81
235.115	201.81
235.349	177.81
235.583	185.81
235.817	194.81
236.051	192.81
236.285	196.81
236.519	197.81
236.753	196.81
236.987	209.81
237.221	216.81
237.455	204.81
237.689	208.81
237.922	202.81
238.156	215.81
238.39	205.81
238.624	194.81
238.858	218.81
239.091	223.81
239.325	210.81
239.559	213.81
239.793	228.81
240.027	234.81
240.26	240.81
240.494	246.81
240.728	235.81
240.961	228.81
241.195	229.81
241.429	250.81
241.662	236.81
241.896	241.81
242.13	254.81
242.363	249.81
242.597	253.81
242.83	253.81
243.064	267.81
243.298	267.81
243.531	248.81
243.765	264.81
243.998	292.81
244.232	269.81
244.465	282.81
244.699	271.81
244.932	285.81
245.166	281.81
245.399	288.81
245.633	269.81
245.866	293.81
246.099	276.81
246.333	290.81
246.566	280.81
246.8	291.81
247.033	300.81
247.266	298.81
247.5	286.81
247.733	297.81
247.966	323.81
248.2	310.81
248.433	310.81
248.666	322.81
248.899	305.81
249.133	324.81
249.366	294.81
249.599	321.81
249.832	332.81
250.066	321.81
250.299	343.81
250.532	333.81
250.765	351.81
250.998	358.81
251.231	346.81
251.465	355.81
251.698	354.81
251.931	349.81
252.164	349.81
252.397	349.81
252.63	350.81
252.863	378.81
253.096	368.81
253.329	362.81
253.562	357.81
253.795	362.81
254.028	369.81
254.261	384.81
254.494	378.81
254.727	376.81
254.96	366.81
255.193	386.81
255.426	380.81
255.659	372.81
255.892	374.81
256.124	393.81
256.357	372.81
256.59	390.81
256.823	397.81
257.056	395.81
257.289	398.81
257.521	399.81
257.754	415.81
257.987	400.81
258.22	414.81
258.452	402.81
258.685	399.81
258.918	405.81
259.151	414.81
259.383	415.81
259.616	431.81
259.849	410.81
260.081	432.81
260.314	440.81
260.547	428.81
260.779	433.81
261.012	427.81
261.244	418.81
261.477	436.81
261.71	440.81
261.942	454.81
262.175	433.81
262.407	440.81
262.64	428.81
262.872	438.81
263.105	450.81
263.337	456.81
263.57	452.81
263.802	460.81
264.035	441.81
264.267	462.81
264.499	457.81
264.732	453.81
264.964	449.81
265.197	453.81
265.429	464.81
265.661	481.81
265.894	455.81
266.126	478.81
266.358	477.81
266.591	488.81
266.823	485.81
267.055	490.81
267.287	490.81
267.52	491.81
267.752	487.81
267.984	489.81
268.216	497.81
268.448	505.81
268.681	495.81
268.913	504.81
269.145	509.81
269.377	502.81
269.609	496.81
269.841	504.81
270.073	522.81
270.306	515.81
270.538	501.81
270.77	501.81
271.002	499.81
271.234	522.81
271.466	520.81
271.698	510.81
271.93	540.81
272.162	522.81
272.394	543.81
272.626	546.81
272.858	537.81
273.09	538.81
273.322	534.81
273.553	544.81
273.785	559.81
274.017	554.81
274.249	556.81
274.481	549.81
274.713	556.81
274.945	545.81
275.176	561.81
275.408	566.81
275.64	550.81
275.872	546.81
276.104	576.81
276.335	582.81
276.567	572.81
276.799	566.81
277.031	604.81
277.262	593.81
277.494	561.81
277.726	580.81
277.957	581.81
278.189	589.81
278.421	592.81
278.652	582.81
278.884	607.81
279.115	614.81
279.347	603.81
279.579	593.81
279.81	603.81
280.042	628.81
280.273	629.81
280.505	614.81
280.736	622.81
280.968	613.81
281.199	620.81
281.431	629.81
281.662	621.81
281.894	621.81
282.125	646.81
282.356	657.81
282.588	653.81
282.819	661.81
283.051	657.81
283.282	646.81
283.513	650.81
283.745	648.81
283.976	662.81
284.207	653.81
284.439	673.81
284.67	664.81
284.901	652.81
285.132	685.81
285.364	671.81
285.595	681.81
285.826	669.81
286.057	678.81
286.288	682.81
286.52	689.81
286.751	688.81
286.982	698.81
287.213	687.81
287.444	703.81
287.675	709.81
287.906	709.81
288.138	704.81
288.369	708.81
288.6	725.81
288.831	735.81
289.062	713.81
289.293	703.81
289.524	716.81
289.755	710.81
289.986	701.81
290.217	741.81
290.448	712.81
290.679	697.81
290.91	718.81
291.141	730.81
291.371	721.81
291.602	736.81
291.833	722.81
292.064	731.81
292.295	742.81
292.526	708.81
292.757	713.81
292.987	742.81
293.218	724.81
293.449	734.81
293.68	732.81
293.91	717.81
294.141	750.81
294.372	732.81
294.603	752.81
294.833	741.81
295.064	704.81
295.295	734.81
295.525	708.81
295.756	730.81
295.987	736.81
296.217	764.81
296.448	749.81
296.679	750.81
296.909	737.81
297.14	748.81
297.37	791.81
297.601	765.81
297.831	756.81
298.062	798.81
298.292	754.81
298.523	792.81
298.753	786.81
298.984	797.81
299.214	807.81
299.445	786.81
299.675	760.81
299.905	809.81
300.136	805.81
300.366	813.81
300.597	798.81
300.827	829.81
301.057	844.81
301.288	838.81
301.518	862.81
301.748	854.81
301.979	824.81
302.209	836.81
302.439	838.81
302.669	832.81
302.9	828.81
303.13	818.81
303.36	812.81
303.59	826.81
303.82	828.81
304.051	834.81
304.281	829.81
304.511	857.81
304.741	821.81
304.971	840.81
305.201	840.81
305.431	856.81
305.661	835.81
305.891	829.81
306.121	828.81
306.352	829.81
306.582	781.81
306.812	806.81
307.042	828.81
307.272	780.81
307.502	817.81
307.731	812.81
307.961	836.81
308.191	823.81
308.421	802.81
308.651	812.81
308.881	814.81
309.111	823.81
309.341	827.81
309.571	814.81
309.8	812.81
310.03	827.81
310.26	852.81
310.49	854.81
310.72	834.81
310.949	836.81
311.179	833.81
311.409	824.81
311.639	845.81
311.868	836.81
312.098	838.81
312.328	845.81
312.557	845.81
312.787	843.81
313.017	870.81
313.246	874.81
313.476	856.81
313.706	899.81
313.935	898.81
314.165	872.81
314.394	897.81
314.624	902.81
314.853	890.81
315.083	888.81
315.312	863.81
315.542	892.81
315.771	892.81
316.001	862.81
316.23	874.81
316.46	868.81
316.689	886.81
316.919	861.81
317.148	858.81
317.377	857.81
317.607	860.81
317.836	848.81
318.065	872.81
318.295	845.81
318.524	867.81
318.753	845.81
318.983	861.81
319.212	862.81
319.441	905.81
319.67	863.81
319.9	846.81
320.129	852.81
320.358	859.81
320.587	870.81
320.816	896.81
321.046	874.81
321.275	860.81
321.504	885.81
321.733	888.81
321.962	881.81
322.191	876.81
322.42	888.81
322.649	863.81
322.878	896.81
323.108	902.81
323.337	900.81
323.566	898.81
323.795	881.81
324.024	896.81
324.253	914.81
324.482	876.81
324.71	895.81
324.939	902.81
325.168	918.81
325.397	927.81
325.626	932.81
325.855	934.81
326.084	933.81
326.313	945.81
326.542	951.81
326.77	966.81
326.999	935.81
327.228	921.81
327.457	921.81
327.686	938.81
327.914	937.81
328.143	964.81
328.372	919.81
328.6	963.81
328.829	981.81
329.058	950.81
329.287	944.81
329.515	971.81
329.744	938.81
329.972	975.81
330.201	958.81
330.43	978.81
330.658	980.81
330.887	985.81
331.115	1006.81
331.344	1018.81
331.572	1014.81
331.801	1029.81
332.03	1048.81
332.258	1069.81
332.486	1106.81
332.715	1106.81
332.943	1157.81
333.172	1208.81
333.4	1242.81
333.629	1248.81
333.857	1304.81
334.085	1252.81
334.314	1262.81
334.542	1238.81
334.771	1220.81
334.999	1209.81
335.227	1197.81
335.455	1208.81
335.684	1186.81
335.912	1178.81
336.14	1184.81
336.369	1176.81
336.597	1142.81
336.825	1147.81
337.053	1180.81
337.281	1153.81
337.51	1152.81
337.738	1121.81
337.966	1121.81
338.194	1108.81
338.422	1072.81
338.65	1050.81
338.878	1067.81
339.106	1067.81
339.334	1058.81
339.562	1052.81
339.79	1008.81
340.018	999.81
340.246	994.81
340.474	1008.81
340.702	1002.81
340.93	1012.81
341.158	1033.81
341.386	1060.81
341.614	1060.81
341.842	1027.81
342.07	992.81
342.298	988.81
342.526	1010.81
342.754	1029.81
342.981	1002.81
343.209	1017.81
343.437	1086.81
343.665	1135.81
343.893	1207.81
344.12	1229.81
344.348	1176.81
344.576	1140.81
344.804	1126.81
345.031	1056.81
345.259	1048.81
345.487	1036.81
345.714	1048.81
345.942	1029.81
346.17	1037.81
346.397	1026.81
346.625	989.81
346.853	922.81
347.08	946.81
347.308	963.81
347.535	998.81
347.763	980.81
347.99	956.81
348.218	950.81
348.445	964.81
348.673	958.81
348.9	965.81
349.128	965.81
349.355	953.81
349.583	974.81
349.81	940.81
350.037	938.81
350.265	904.81
350.492	951.81
350.72	931.81
350.947	912.81
351.174	967.81
351.402	984.81
351.629	965.81
351.856	990.81
352.083	927.81
352.311	928.81
352.538	976.81
352.765	1000.81
352.992	936.81
353.22	887.81
353.447	930.81
353.674	874.81
353.901	914.81
354.128	937.81
354.355	870.81
354.583	908.81
354.81	913.81
355.037	918.81
355.264	934.81
355.491	929.81
355.718	924.81
355.945	915.81
356.172	933.81
356.399	948.81
356.626	932.81
356.853	944.81
357.08	954.81
357.307	927.81
357.534	928.81
357.761	912.81
357.988	948.81
358.215	921.81
358.441	921.81
358.668	910.81
358.895	923.81
359.122	904.81
359.349	917.81
359.576	939.81
359.802	907.81
360.029	951.81
360.256	933.81
360.483	942.81
360.709	922.81
360.936	945.81
361.163	925.81
361.39	950.81
361.616	964.81
361.843	966.81
362.07	978.81
362.296	960.81
362.523	919.81
362.749	942.81
362.976	914.81
363.203	925.81
363.429	912.81
363.656	891.81
363.882	920.81
364.109	936.81
364.335	892.81
364.562	903.81
364.788	925.81
365.015	905.81
365.241	919.81
365.468	928.81
365.694	928.81
365.92	922.81
366.147	924.81
366.373	931.81
366.599	918.81
366.826	915.81
367.052	890.81
367.278	921.81
367.505	925.81
367.731	931.81
367.957	953.81
368.184	926.81
368.41	907.81
368.636	939.81
368.862	921.81
369.089	950.81
369.315	963.81
369.541	960.81
369.767	960.81
369.993	945.81
370.219	985.81
370.445	968.81
370.672	968.81
370.898	989.81
371.124	995.81
371.35	999.81
371.576	1016.81
371.802	1009.81
372.028	972.81
372.254	1004.81
372.48	1042.81
372.706	1034.81
372.932	1039.81
373.158	1041.81
373.384	1003.81
373.61	1001.81
373.835	1046.81
374.061	1001.81
374.287	1010.81
374.513	1019.81
374.739	1044.81
374.965	1089.81
375.191	1119.81
375.416	1135.81
375.642	1077.81
375.868	1056.81
376.094	1020.81
376.319	1051.81
376.545	1007.81
376.771	978.81
376.997	1006.81
377.222	998.81
377.448	994.81
377.674	998.81
377.899	1006.81
378.125	999.81
378.35	988.81
378.576	981.81
378.802	987.81
379.027	984.81
379.253	1007.81
379.478	978.81
379.704	978.81
379.929	978.81
380.155	994.81
380.38	987.81
380.606	1004.81
380.831	983.81
381.057	1018.81
381.282	980.81
381.507	1003.81
381.733	1001.81
381.958	1014.81
382.184	1005.81
382.409	1040.81
382.634	1008.81
382.86	1048.81
383.085	1083.81
383.31	1050.81
383.535	1116.81
383.761	1116.81
383.986	1146.81
384.211	1134.81
384.436	1180.81
384.662	1156.81
384.887	1182.81
385.112	1200.81
385.337	1253.81
385.562	1226.81
385.787	1252.81
386.013	1253.81
386.238	1227.81
386.463	1221.81
386.688	1223.81
386.913	1176.81
387.138	1201.81
387.363	1214.81
387.588	1184.81
387.813	1203.81
388.038	1185.81
388.263	1222.81
388.488	1239.81
388.713	1226.81
388.938	1212.81
389.163	1182.81
389.387	1152.81
389.612	1157.81
389.837	1231.81
390.062	1200.81
390.287	1155.81
390.512	1168.81
390.736	1198.81
390.961	1220.81
391.186	1261.81
391.411	1272.81
391.636	1289.81
391.86	1362.81
392.085	1346.81
392.31	1359.81
392.534	1329.81
392.759	1316.81
392.984	1315.81
393.208	1301.81
393.433	1289.81
393.658	1308.81
393.882	1306.81
394.107	1264.81
394.331	1279.81
394.556	1277.81
394.78	1303.81
395.005	1293.81
395.229	1325.81
395.454	1362.81
395.678	1364.81
395.903	1354.81
396.127	1353.81
396.352	1305.81
396.576	1270.81
396.801	1306.81
397.025	1320.81
397.249	1351.81
397.474	1392.81
397.698	1390.81
397.922	1376.81
398.147	1332.81
398.371	1409.81
398.595	1467.81
398.82	1529.81
399.044	1647.81
399.268	1785.81
399.492	2051.81
399.717	2239.81
399.941	2252.81
400.165	2102.81
400.389	1885.81
400.613	1717.81
400.837	1624.81
401.062	1578.81
401.286	1571.81
401.51	1538.81
401.734	1512.81
401.958	1547.81
402.182	1578.81
402.406	1552.81
402.63	1576.81
402.854	1598.81
403.078	1634.81
403.302	1670.81
403.526	1693.81
403.75	1700.81
403.974	1750.81
404.198	1736.81
404.422	1733.81
404.645	1726.81
404.869	1736.81
405.093	1728.81
405.317	1647.81
405.541	1692.81
405.765	1664.81
405.988	1685.81
406.212	1683.81
406.436	1668.81
406.66	1732.81
406.883	1730.81
407.107	1830.81
407.331	1927.81
407.555	1964.81
407.778	1961.81
408.002	1887.81
408.226	1838.81
408.449	1833.81
408.673	1752.81
408.896	1712.81
409.12	1697.81
409.344	1716.81
409.567	1678.81
409.791	1697.81
410.014	1690.81
410.238	1660.81
410.461	1669.81
410.685	1633.81
410.908	1626.81
411.132	1621.81
411.355	1548.81
411.578	1550.81
411.802	1582.81
412.025	1544.81
412.249	1601.81
412.472	1604.81
412.695	1530.81
412.919	1497.81
413.142	1527.81
413.365	1525.81
413.589	1538.81
413.812	1505.81
414.035	1501.81
414.258	1487.81
414.482	1558.81
414.705	1558.81
414.928	1534.81
415.151	1509.81
415.374	1457.81
415.597	1536.81
415.821	1454.81
416.044	1457.81
416.267	1481.81
416.49	1456.81
416.713	1474.81
416.936	1452.81
417.159	1457.81
417.382	1481.81
417.605	1470.81
417.828	1500.81
418.051	1493.81
418.274	1513.81
418.497	1466.81
418.72	1548.81
418.943	1530.81
419.166	1634.81
419.389	1726.81
419.611	1670.81
419.834	1616.81
420.057	1564.81
420.28	1511.81
420.503	1485.81
420.726	1465.81
420.948	1474.81
421.171	1471.81
421.394	1505.81
421.617	1482.81
421.839	1513.81
422.062	1487.81
422.285	1491.81
422.507	1504.81
422.73	1501.81
422.953	1502.81
423.175	1517.81
423.398	1573.81
423.621	1546.81
423.843	1572.81
424.066	1537.81
424.288	1538.81
424.511	1594.81
424.733	1488.81
424.956	1486.81
425.178	1511.81
425.401	1506.81
425.623	1449.81
425.846	1457.81
426.068	1446.81
426.291	1441.81
426.513	1413.81
426.735	1423.81
426.958	1390.81
427.18	1382.81
427.402	1349.81
427.625	1361.81
427.847	1337.81
428.069	1315.81
428.292	1368.81
428.514	1337.81
428.736	1289.81
428.958	1307.81
429.181	1303.81
429.403	1298.81
429.625	1271.81
429.847	1275.81
430.069	1284.81
430.292	1276.81
430.514	1289.81
430.736	1306.81
430.958	1324.81
431.18	1297.81
431.402	1328.81
431.624	1281.81
431.846	1326.81
432.068	1338.81
432.29	1357.81
432.512	1311.81
432.734	1318.81
432.956	1286.81
433.178	1342.81
433.4	1316.81
433.622	1352.81
433.844	1336.81
434.066	1352.81
434.287	1358.81
434.509	1410.81
434.731	1434.81
434.953	1471.81
435.175	1466.81
435.397	1480.81
435.618	1389.81
435.84	1372.81
436.062	1320.81
436.284	1312.81
436.505	1300.81
436.727	1339.81
436.949	1313.81
437.17	1311.81
437.392	1278.81
437.614	1300.81
437.835	1248.81
438.057	1268.81
438.278	1239.81
438.5	1248.81
438.721	1230.81
438.943	1250.81
439.165	1261.81
439.386	1268.81
439.608	1286.81
439.829	1305.81
440.05	1320.81
440.272	1323.81
440.493	1337.81
440.715	1357.81
440.936	1342.81
441.158	1350.81
441.379	1380.81
441.6	1460.81
441.822	1460.81
442.043	1473.81
442.264	1454.81
442.486	1431.81
442.707	1430.81
442.928	1426.81
443.149	1447.81
443.371	1470.81
443.592	1490.81
443.813	1478.81
444.034	1492.81
444.255	1511.81
444.476	1574.81
444.698	1665.81
444.919	1732.81
445.14	1883.81
445.361	1676.81
445.582	1570.81
445.803	1456.81
446.024	1382.81
446.245	1378.81
446.466	1381.81
446.687	1296.81
446.908	1312.81
447.129	1302.81
447.35	1268.81
447.571	1270.81
447.792	1248.81
448.013	1247.81
448.234	1222.81
448.455	1189.81
448.675	1182.81
448.896	1196.81
449.117	1166.81
449.338	1179.81
449.559	1178.81
449.779	1146.81
450	1191.81
450.221	1222.81
450.442	1180.81
450.662	1196.81
450.883	1168.81
451.104	1235.81
451.324	1196.81
451.545	1206.81
451.766	1204.81
451.986	1187.81
452.207	1142.81
452.428	1193.81
452.648	1205.81
452.869	1160.81
453.089	1146.81
453.31	1191.81
453.53	1154.81
453.751	1168.81
453.971	1176.81
454.192	1146.81
454.412	1136.81
454.633	1150.81
454.853	1142.81
455.073	1140.81
455.294	1146.81
455.514	1109.81
455.734	1129.81
455.955	1100.81
456.175	1115.81
456.395	1106.81
456.616	1105.81
456.836	1119.81
457.056	1114.81
457.276	1108.81
457.497	1153.81
457.717	1132.81
457.937	1156.81
458.157	1128.81
458.377	1162.81
458.598	1170.81
458.818	1218.81
459.038	1265.81
459.258	1259.81
459.478	1328.81
459.698	1378.81
459.918	1437.81
460.138	1503.81
460.358	1522.81
460.578	1533.81
460.798	1592.81
461.018	1599.81
461.238	1528.81
461.458	1550.81
461.678	1507.81
461.898	1552.81
462.118	1570.81
462.338	1634.81
462.558	1682.81
462.777	1760.81
462.997	1942.81
463.217	2026.81
463.437	2092.81
463.657	1915.81
463.876	1830.81
464.096	1847.81
464.316	1832.81
464.536	1809.81
464.755	1716.81
464.975	1718.81
465.195	1607.81
465.414	1493.81
465.634	1425.81
465.854	1362.81
466.073	1340.81
466.293	1322.81
466.512	1263.81
466.732	1261.81
466.951	1222.81
467.171	1238.81
467.391	1247.81
467.61	1212.81
467.829	1220.81
468.049	1212.81
468.268	1210.81
468.488	1210.81
468.707	1215.81
468.927	1193.81
469.146	1202.81
469.365	1216.81
469.585	1226.81
469.804	1246.81
470.023	1261.81
470.243	1278.81
470.462	1282.81
470.681	1294.81
470.901	1303.81
471.12	1286.81
471.339	1276.81
471.558	1237.81
471.777	1221.81
471.997	1200.81
472.216	1190.81
472.435	1195.81
472.654	1193.81
472.873	1147.81
473.092	1169.81
473.311	1170.81
473.53	1167.81
473.749	1170.81
473.968	1186.81
474.187	1173.81
474.406	1178.81
474.625	1162.81
474.844	1167.81
475.063	1176.81
475.282	1202.81
475.501	1156.81
475.72	1222.81
475.939	1205.81
476.158	1253.81
476.377	1219.81
476.596	1220.81
476.814	1263.81
477.033	1248.81
477.252	1297.81
477.471	1289.81
477.69	1335.81
477.908	1337.81
478.127	1435.81
478.346	1448.81
478.564	1451.81
478.783	1461.81
479.002	1490.81
479.22	1474.81
479.439	1468.81
479.658	1456.81
479.876	1510.81
480.095	1504.81
480.313	1560.81
480.532	1590.81
480.751	1568.81
480.969	1549.81
481.188	1509.81
481.406	1482.81
481.624	1404.81
481.843	1382.81
482.061	1371.81
482.28	1366.81
482.498	1379.81
482.717	1353.81
482.935	1366.81
483.153	1359.81
483.372	1371.81
483.59	1392.81
483.808	1403.81
484.027	1368.81
484.245	1371.81
484.463	1392.81
484.681	1377.81
484.9	1370.81
485.118	1400.81
485.336	1434.81
485.554	1425.81
485.772	1432.81
485.99	1414.81
486.209	1448.81
486.427	1460.81
486.645	1437.81
486.863	1464.81
487.081	1425.81
487.299	1437.81
487.517	1464.81
487.735	1427.81
487.953	1416.81
488.171	1436.81
488.389	1405.81
488.607	1408.81
488.825	1437.81
489.043	1392.81
489.261	1367.81
489.479	1414.81
489.696	1430.81
489.914	1400.81
490.132	1409.81
490.35	1410.81
490.568	1414.81
490.786	1442.81
491.003	1423.81
491.221	1424.81
491.439	1439.81
491.657	1454.81
491.874	1460.81
492.092	1440.81
492.31	1412.81
492.527	1426.81
492.745	1476.81
492.963	1480.81
493.18	1455.81
493.398	1479.81
