Data from NiCl2@0.125M.TitratingCurve.Agarose3%dH2O.NegLispCup.LampEnergy10.LIBS07252019_HRD10591_18-29-40-575.txt Node
Date: Thu Jul 25 18:29:40 EDT 2019
User: cochatt
Spectrometer: HR+D1059
Trigger mode: 1
Integration Time (sec): 1.000000E-1
Scans to average: 1
Electric dark correction enabled: true
Nonlinearity correction enabled: false
Boxcar width: 0
XAxis mode: Wavelengths
Number of Pixels in Spectrum: 2048
>>>>>Begin Spectral Data<<<<<
223.165	-27.94
223.4	-27.94
223.635	-27.94
223.869	-27.94
224.104	-23.94
224.338	-1.94
224.573	-21.94
224.808	-17.94
225.042	0.06
225.277	-1.94
225.511	2.06
225.746	10.06
225.98	4.06
226.215	19.06
226.449	9.06
226.683	29.06
226.918	20.06
227.152	30.06
227.387	36.06
227.621	42.06
227.856	46.06
228.09	23.06
228.324	45.06
228.559	43.06
228.793	58.06
229.027	99.06
229.262	121.06
229.496	140.06
229.73	109.06
229.964	132.06
230.199	134.06
230.433	144.06
230.667	124.06
230.901	155.06
231.136	119.06
231.37	132.06
231.604	138.06
231.838	141.06
232.072	152.06
232.306	155.06
232.541	164.06
232.775	162.06
233.009	154.06
233.243	171.06
233.477	146.06
233.711	146.06
233.945	146.06
234.179	160.06
234.413	151.06
234.647	164.06
234.881	151.06
235.115	156.06
235.349	143.06
235.583	156.06
235.817	161.06
236.051	138.06
236.285	159.06
236.519	162.06
236.753	163.06
236.987	171.06
237.221	172.06
237.455	168.06
237.689	189.06
237.922	179.06
238.156	182.06
238.39	151.06
238.624	162.06
238.858	181.06
239.091	178.06
239.325	165.06
239.559	176.06
239.793	188.06
240.027	188.06
240.26	190.06
240.494	194.06
240.728	193.06
240.961	198.06
241.195	206.06
241.429	210.06
241.662	209.06
241.896	200.06
242.13	186.06
242.363	212.06
242.597	223.06
242.83	205.06
243.064	200.06
243.298	211.06
243.531	220.06
243.765	209.06
243.998	235.06
244.232	224.06
244.465	252.06
244.699	240.06
244.932	250.06
245.166	239.06
245.399	249.06
245.633	229.06
245.866	238.06
246.099	226.06
246.333	236.06
246.566	226.06
246.8	248.06
247.033	242.06
247.266	254.06
247.5	257.06
247.733	255.06
247.966	259.06
248.2	260.06
248.433	252.06
248.666	229.06
248.899	241.06
249.133	246.06
249.366	254.06
249.599	260.06
249.832	257.06
250.066	275.06
250.299	263.06
250.532	277.06
250.765	275.06
250.998	276.06
251.231	281.06
251.465	283.06
251.698	278.06
251.931	319.06
252.164	276.06
252.397	295.06
252.63	307.06
252.863	302.06
253.096	310.06
253.329	307.06
253.562	304.06
253.795	298.06
254.028	293.06
254.261	297.06
254.494	305.06
254.727	295.06
254.96	311.06
255.193	319.06
255.426	321.06
255.659	334.06
255.892	302.06
256.124	299.06
256.357	323.06
256.59	324.06
256.823	311.06
257.056	320.06
257.289	324.06
257.521	314.06
257.754	318.06
257.987	329.06
258.22	340.06
258.452	349.06
258.685	315.06
258.918	328.06
259.151	334.06
259.383	346.06
259.616	338.06
259.849	332.06
260.081	337.06
260.314	336.06
260.547	336.06
260.779	348.06
261.012	354.06
261.244	357.06
261.477	366.06
261.71	348.06
261.942	338.06
262.175	364.06
262.407	360.06
262.64	353.06
262.872	374.06
263.105	366.06
263.337	370.06
263.57	373.06
263.802	369.06
264.035	368.06
264.267	368.06
264.499	360.06
264.732	380.06
264.964	388.06
265.197	392.06
265.429	381.06
265.661	389.06
265.894	405.06
266.126	396.06
266.358	380.06
266.591	387.06
266.823	392.06
267.055	406.06
267.287	411.06
267.52	394.06
267.752	393.06
267.984	379.06
268.216	415.06
268.448	403.06
268.681	405.06
268.913	395.06
269.145	432.06
269.377	407.06
269.609	393.06
269.841	382.06
270.073	409.06
270.306	410.06
270.538	423.06
270.77	404.06
271.002	441.06
271.234	412.06
271.466	431.06
271.698	431.06
271.93	407.06
272.162	422.06
272.394	410.06
272.626	433.06
272.858	438.06
273.09	453.06
273.322	416.06
273.553	434.06
273.785	446.06
274.017	438.06
274.249	465.06
274.481	435.06
274.713	433.06
274.945	428.06
275.176	445.06
275.408	477.06
275.64	434.06
275.872	470.06
276.104	444.06
276.335	449.06
276.567	462.06
276.799	444.06
277.031	460.06
277.262	462.06
277.494	451.06
277.726	487.06
277.957	472.06
278.189	495.06
278.421	461.06
278.652	474.06
278.884	487.06
279.115	482.06
279.347	484.06
279.579	504.06
279.81	466.06
280.042	487.06
280.273	499.06
280.505	509.06
280.736	492.06
280.968	505.06
281.199	496.06
281.431	497.06
281.662	512.06
281.894	504.06
282.125	489.06
282.356	532.06
282.588	536.06
282.819	496.06
283.051	520.06
283.282	491.06
283.513	536.06
283.745	536.06
283.976	530.06
284.207	517.06
284.439	534.06
284.67	532.06
284.901	510.06
285.132	536.06
285.364	546.06
285.595	523.06
285.826	548.06
286.057	526.06
286.288	554.06
286.52	551.06
286.751	558.06
286.982	562.06
287.213	567.06
287.444	568.06
287.675	567.06
287.906	552.06
288.138	562.06
288.369	554.06
288.6	592.06
288.831	571.06
289.062	560.06
289.293	554.06
289.524	572.06
289.755	593.06
289.986	567.06
290.217	592.06
290.448	577.06
290.679	589.06
290.91	595.06
291.141	575.06
291.371	595.06
291.602	581.06
291.833	582.06
292.064	589.06
292.295	570.06
292.526	590.06
292.757	595.06
292.987	591.06
293.218	580.06
293.449	592.06
293.68	588.06
293.91	594.06
294.141	600.06
294.372	582.06
294.603	595.06
294.833	590.06
295.064	594.06
295.295	581.06
295.525	593.06
295.756	626.06
295.987	599.06
296.217	618.06
296.448	592.06
296.679	618.06
296.909	619.06
297.14	598.06
297.37	630.06
297.601	615.06
297.831	644.06
298.062	612.06
298.292	655.06
298.523	665.06
298.753	634.06
298.984	677.06
299.214	625.06
299.445	644.06
299.675	632.06
299.905	619.06
300.136	631.06
300.366	658.06
300.597	630.06
300.827	662.06
301.057	664.06
301.288	638.06
301.518	671.06
301.748	671.06
301.979	671.06
302.209	662.06
302.439	662.06
302.669	671.06
302.9	671.06
303.13	627.06
303.36	644.06
303.59	673.06
303.82	639.06
304.051	658.06
304.281	661.06
304.511	644.06
304.741	675.06
304.971	647.06
305.201	672.06
305.431	633.06
305.661	662.06
305.891	639.06
306.121	621.06
306.352	636.06
306.582	647.06
306.812	638.06
307.042	659.06
307.272	628.06
307.502	625.06
307.731	647.06
307.961	640.06
308.191	640.06
308.421	644.06
308.651	652.06
308.881	628.06
309.111	626.06
309.341	647.06
309.571	640.06
309.8	622.06
310.03	654.06
310.26	640.06
310.49	649.06
310.72	644.06
310.949	650.06
311.179	650.06
311.409	627.06
311.639	667.06
311.868	641.06
312.098	653.06
312.328	678.06
312.557	671.06
312.787	664.06
313.017	677.06
313.246	660.06
313.476	684.06
313.706	694.06
313.935	686.06
314.165	711.06
314.394	702.06
314.624	690.06
314.853	664.06
315.083	700.06
315.312	698.06
315.542	680.06
315.771	652.06
316.001	658.06
316.23	658.06
316.46	636.06
316.689	677.06
316.919	688.06
317.148	691.06
317.377	656.06
317.607	680.06
317.836	649.06
318.065	648.06
318.295	656.06
318.524	679.06
318.753	631.06
318.983	655.06
319.212	676.06
319.441	683.06
319.67	670.06
319.9	647.06
320.129	678.06
320.358	678.06
320.587	646.06
320.816	667.06
321.046	668.06
321.275	703.06
321.504	688.06
321.733	665.06
321.962	650.06
322.191	705.06
322.42	701.06
322.649	672.06
322.878	676.06
323.108	676.06
323.337	700.06
323.566	691.06
323.795	682.06
324.024	693.06
324.253	708.06
324.482	706.06
324.71	696.06
324.939	688.06
325.168	689.06
325.397	708.06
325.626	717.06
325.855	721.06
326.084	747.06
326.313	722.06
326.542	758.06
326.77	738.06
326.999	740.06
327.228	716.06
327.457	721.06
327.686	728.06
327.914	735.06
328.143	722.06
328.372	738.06
328.6	741.06
328.829	734.06
329.058	755.06
329.287	732.06
329.515	755.06
329.744	751.06
329.972	739.06
330.201	749.06
330.43	769.06
330.658	744.06
330.887	753.06
331.115	752.06
331.344	775.06
331.572	767.06
331.801	791.06
332.03	819.06
332.258	828.06
332.486	844.06
332.715	882.06
332.943	928.06
333.172	969.06
333.4	989.06
333.629	1042.06
333.857	1028.06
334.085	1019.06
334.314	967.06
334.542	972.06
334.771	967.06
334.999	921.06
335.227	888.06
335.455	922.06
335.684	914.06
335.912	882.06
336.14	862.06
336.369	888.06
336.597	884.06
336.825	895.06
337.053	910.06
337.281	877.06
337.51	850.06
337.738	828.06
337.966	820.06
338.194	814.06
338.422	783.06
338.65	802.06
338.878	794.06
339.106	790.06
339.334	790.06
339.562	796.06
339.79	773.06
340.018	751.06
340.246	760.06
340.474	750.06
340.702	758.06
340.93	783.06
341.158	791.06
341.386	785.06
341.614	775.06
341.842	765.06
342.07	759.06
342.298	743.06
342.526	770.06
342.754	758.06
342.981	757.06
343.209	782.06
343.437	777.06
343.665	881.06
343.893	922.06
344.12	967.06
344.348	935.06
344.576	868.06
344.804	831.06
345.031	795.06
345.259	789.06
345.487	784.06
345.714	776.06
345.942	776.06
346.17	754.06
346.397	758.06
346.625	755.06
346.853	728.06
347.08	763.06
347.308	755.06
347.535	737.06
347.763	754.06
347.99	767.06
348.218	758.06
348.445	746.06
348.673	729.06
348.9	741.06
349.128	744.06
349.355	729.06
349.583	734.06
349.81	722.06
350.037	712.06
350.265	705.06
350.492	706.06
350.72	696.06
350.947	700.06
351.174	726.06
351.402	704.06
351.629	719.06
351.856	711.06
352.083	701.06
352.311	699.06
352.538	726.06
352.765	705.06
352.992	684.06
353.22	667.06
353.447	688.06
353.674	715.06
353.901	718.06
354.128	706.06
354.355	694.06
354.583	694.06
354.81	708.06
355.037	727.06
355.264	698.06
355.491	732.06
355.718	703.06
355.945	700.06
356.172	732.06
356.399	725.06
356.626	721.06
356.853	711.06
357.08	724.06
357.307	707.06
357.534	728.06
357.761	710.06
357.988	702.06
358.215	723.06
358.441	717.06
358.668	708.06
358.895	724.06
359.122	742.06
359.349	722.06
359.576	731.06
359.802	710.06
360.029	741.06
360.256	725.06
360.483	696.06
360.709	689.06
360.936	694.06
361.163	713.06
361.39	702.06
361.616	690.06
361.843	720.06
362.07	692.06
362.296	722.06
362.523	708.06
362.749	717.06
362.976	708.06
363.203	692.06
363.429	716.06
363.656	704.06
363.882	710.06
364.109	703.06
364.335	690.06
364.562	712.06
364.788	703.06
365.015	705.06
365.241	710.06
365.468	704.06
365.694	699.06
365.92	698.06
366.147	727.06
366.373	702.06
366.599	686.06
366.826	670.06
367.052	719.06
367.278	706.06
367.505	719.06
367.731	710.06
367.957	707.06
368.184	706.06
368.41	728.06
368.636	732.06
368.862	718.06
369.089	741.06
369.315	736.06
369.541	758.06
369.767	747.06
369.993	728.06
370.219	711.06
370.445	744.06
370.672	754.06
370.898	767.06
371.124	739.06
371.35	784.06
371.576	804.06
371.802	789.06
372.028	754.06
372.254	768.06
372.48	784.06
372.706	804.06
372.932	801.06
373.158	817.06
373.384	794.06
373.61	769.06
373.835	766.06
374.061	780.06
374.287	810.06
374.513	790.06
374.739	803.06
374.965	853.06
375.191	867.06
375.416	870.06
375.642	853.06
375.868	834.06
376.094	822.06
376.319	786.06
376.545	792.06
376.771	804.06
376.997	764.06
377.222	793.06
377.448	782.06
377.674	792.06
377.899	787.06
378.125	782.06
378.35	762.06
378.576	777.06
378.802	756.06
379.027	778.06
379.253	789.06
379.478	766.06
379.704	764.06
379.929	771.06
380.155	741.06
380.38	790.06
380.606	760.06
380.831	774.06
381.057	791.06
381.282	788.06
381.507	791.06
381.733	787.06
381.958	767.06
382.184	806.06
382.409	802.06
382.634	797.06
382.86	825.06
383.085	836.06
383.31	837.06
383.535	841.06
383.761	830.06
383.986	893.06
384.211	904.06
384.436	934.06
384.662	911.06
384.887	958.06
385.112	936.06
385.337	944.06
385.562	930.06
385.787	930.06
386.013	933.06
386.238	961.06
386.463	978.06
386.688	947.06
386.913	941.06
387.138	924.06
387.363	929.06
387.588	914.06
387.813	913.06
388.038	901.06
388.263	918.06
388.488	951.06
388.713	938.06
388.938	908.06
389.163	898.06
389.387	904.06
389.612	907.06
389.837	948.06
390.062	880.06
390.287	906.06
390.512	900.06
390.736	927.06
390.961	943.06
391.186	967.06
391.411	958.06
391.636	1016.06
391.86	1046.06
392.085	1062.06
392.31	1063.06
392.534	1056.06
392.759	1024.06
392.984	992.06
393.208	954.06
393.433	959.06
393.658	1019.06
393.882	1033.06
394.107	1011.06
394.331	1002.06
394.556	991.06
394.78	1025.06
395.005	1004.06
395.229	1006.06
395.454	1052.06
395.678	1053.06
395.903	1063.06
396.127	1063.06
396.352	1018.06
396.576	994.06
396.801	988.06
397.025	1021.06
397.249	1018.06
397.474	1037.06
397.698	1045.06
397.922	1035.06
398.147	1019.06
398.371	1076.06
398.595	1084.06
398.82	1157.06
399.044	1224.06
399.268	1355.06
399.492	1602.06
399.717	1888.06
399.941	1923.06
400.165	1646.06
400.389	1459.06
400.613	1344.06
400.837	1262.06
401.062	1185.06
401.286	1178.06
401.51	1183.06
401.734	1170.06
401.958	1205.06
402.182	1217.06
402.406	1206.06
402.63	1266.06
402.854	1274.06
403.078	1272.06
403.302	1328.06
403.526	1350.06
403.75	1418.06
403.974	1429.06
404.198	1399.06
404.422	1443.06
404.645	1421.06
404.869	1373.06
405.093	1401.06
405.317	1362.06
405.541	1365.06
405.765	1318.06
405.988	1295.06
406.212	1349.06
406.436	1290.06
406.66	1362.06
406.883	1349.06
407.107	1416.06
407.331	1534.06
407.555	1575.06
407.778	1577.06
408.002	1497.06
408.226	1453.06
408.449	1422.06
408.673	1365.06
408.896	1330.06
409.12	1364.06
409.344	1379.06
409.567	1372.06
409.791	1396.06
410.014	1348.06
410.238	1351.06
410.461	1329.06
410.685	1324.06
410.908	1301.06
411.132	1278.06
411.355	1270.06
411.578	1227.06
411.802	1218.06
412.025	1249.06
412.249	1266.06
412.472	1247.06
412.695	1219.06
412.919	1151.06
413.142	1181.06
413.365	1187.06
413.589	1208.06
413.812	1170.06
414.035	1195.06
414.258	1182.06
414.482	1135.06
414.705	1228.06
414.928	1202.06
415.151	1210.06
415.374	1180.06
415.597	1200.06
415.821	1158.06
416.044	1164.06
416.267	1152.06
416.49	1150.06
416.713	1146.06
416.936	1165.06
417.159	1148.06
417.382	1167.06
417.605	1143.06
417.828	1174.06
418.051	1171.06
418.274	1195.06
418.497	1154.06
418.72	1200.06
418.943	1205.06
419.166	1330.06
419.389	1380.06
419.611	1358.06
419.834	1294.06
420.057	1258.06
420.28	1234.06
420.503	1161.06
420.726	1174.06
420.948	1164.06
421.171	1199.06
421.394	1162.06
421.617	1160.06
421.839	1189.06
422.062	1189.06
422.285	1169.06
422.507	1231.06
422.73	1242.06
422.953	1210.06
423.175	1224.06
423.398	1258.06
423.621	1249.06
423.843	1294.06
424.066	1286.06
424.288	1268.06
424.511	1249.06
424.733	1276.06
424.956	1219.06
425.178	1232.06
425.401	1203.06
425.623	1200.06
425.846	1156.06
426.068	1138.06
426.291	1132.06
426.513	1104.06
426.735	1113.06
426.958	1101.06
427.18	1084.06
427.402	1098.06
427.625	1055.06
427.847	1068.06
428.069	1082.06
428.292	1063.06
428.514	1052.06
428.736	1032.06
428.958	1058.06
429.181	1031.06
429.403	1016.06
429.625	1045.06
429.847	1029.06
430.069	1006.06
430.292	1019.06
430.514	1008.06
430.736	1026.06
430.958	1004.06
431.18	1007.06
431.402	1038.06
431.624	1054.06
431.846	1054.06
432.068	1053.06
432.29	1096.06
432.512	1044.06
432.734	1056.06
432.956	1046.06
433.178	1092.06
433.4	1052.06
433.622	1059.06
433.844	1066.06
434.066	1053.06
434.287	1057.06
434.509	1075.06
434.731	1164.06
434.953	1190.06
435.175	1223.06
435.397	1218.06
435.618	1134.06
435.84	1098.06
436.062	1088.06
436.284	1084.06
436.505	1053.06
436.727	1072.06
436.949	1088.06
437.17	1054.06
437.392	1040.06
437.614	1029.06
437.835	1020.06
438.057	1009.06
438.278	1020.06
438.5	981.06
438.721	987.06
438.943	1006.06
439.165	1022.06
439.386	1018.06
439.608	1039.06
439.829	1063.06
440.05	1059.06
440.272	1031.06
440.493	1024.06
440.715	1082.06
440.936	1109.06
441.158	1124.06
441.379	1170.06
441.6	1206.06
441.822	1234.06
442.043	1200.06
442.264	1196.06
442.486	1183.06
442.707	1182.06
442.928	1173.06
443.149	1189.06
443.371	1138.06
443.592	1166.06
443.813	1189.06
444.034	1202.06
444.255	1263.06
444.476	1326.06
444.698	1397.06
444.919	1498.06
445.14	1569.06
445.361	1395.06
445.582	1238.06
445.803	1198.06
446.024	1128.06
446.245	1125.06
446.466	1108.06
446.687	1088.06
446.908	1088.06
447.129	1072.06
447.35	1050.06
447.571	1046.06
447.792	1016.06
448.013	996.06
448.234	981.06
448.455	998.06
448.675	966.06
448.896	955.06
449.117	940.06
449.338	957.06
449.559	943.06
449.779	950.06
450	959.06
450.221	942.06
450.442	944.06
450.662	959.06
450.883	972.06
451.104	1018.06
451.324	1014.06
451.545	999.06
451.766	982.06
451.986	990.06
452.207	977.06
452.428	981.06
452.648	954.06
452.869	951.06
453.089	953.06
453.31	972.06
453.53	935.06
453.751	926.06
453.971	934.06
454.192	926.06
454.412	930.06
454.633	919.06
454.853	933.06
455.073	933.06
455.294	914.06
455.514	889.06
455.734	936.06
455.955	888.06
456.175	906.06
456.395	891.06
456.616	890.06
456.836	952.06
457.056	918.06
457.276	832.06
457.497	880.06
457.717	882.06
457.937	918.06
458.157	919.06
458.377	931.06
458.598	946.06
458.818	951.06
459.038	979.06
459.258	1037.06
459.478	1062.06
459.698	1098.06
459.918	1110.06
460.138	1182.06
460.358	1265.06
460.578	1232.06
460.798	1264.06
461.018	1327.06
461.238	1282.06
461.458	1246.06
461.678	1262.06
461.898	1314.06
462.118	1252.06
462.338	1327.06
462.558	1391.06
462.777	1410.06
462.997	1564.06
463.217	1766.06
463.437	1757.06
463.657	1603.06
463.876	1520.06
464.096	1488.06
464.316	1526.06
464.536	1532.06
464.755	1445.06
464.975	1392.06
465.195	1316.06
465.414	1216.06
465.634	1170.06
465.854	1123.06
466.073	1094.06
466.293	1099.06
466.512	1083.06
466.732	1036.06
466.951	994.06
467.171	1025.06
467.391	1012.06
467.61	1018.06
467.829	1026.06
468.049	1016.06
468.268	1002.06
468.488	970.06
468.707	972.06
468.927	953.06
469.146	1005.06
469.365	966.06
469.585	999.06
469.804	1027.06
470.023	1010.06
470.243	1043.06
470.462	1087.06
470.681	1068.06
470.901	1066.06
471.12	1058.06
471.339	1042.06
471.558	1000.06
471.777	978.06
471.997	993.06
472.216	957.06
472.435	965.06
472.654	982.06
472.873	948.06
473.092	980.06
473.311	961.06
473.53	930.06
473.749	940.06
473.968	947.06
474.187	918.06
474.406	929.06
474.625	922.06
474.844	949.06
475.063	950.06
475.282	955.06
475.501	959.06
475.72	968.06
475.939	956.06
476.158	973.06
476.377	979.06
476.596	991.06
476.814	1008.06
477.033	1012.06
477.252	1021.06
477.471	1039.06
477.69	1071.06
477.908	1093.06
478.127	1131.06
478.346	1130.06
478.564	1141.06
478.783	1161.06
479.002	1206.06
479.22	1239.06
479.439	1191.06
479.658	1191.06
479.876	1211.06
480.095	1200.06
480.313	1280.06
480.532	1304.06
480.751	1309.06
480.969	1249.06
481.188	1164.06
481.406	1162.06
481.624	1131.06
481.843	1096.06
482.061	1092.06
482.28	1103.06
482.498	1071.06
482.717	1075.06
482.935	1088.06
483.153	1070.06
483.372	1062.06
483.59	1098.06
483.808	1088.06
484.027	1098.06
484.245	1096.06
484.463	1075.06
484.681	1112.06
484.9	1094.06
485.118	1117.06
485.336	1100.06
485.554	1156.06
485.772	1161.06
485.99	1170.06
486.209	1173.06
486.427	1168.06
486.645	1110.06
486.863	1137.06
487.081	1174.06
487.299	1139.06
487.517	1127.06
487.735	1090.06
487.953	1141.06
488.171	1175.06
488.389	1125.06
488.607	1116.06
488.825	1083.06
489.043	1087.06
489.261	1122.06
489.479	1160.06
489.696	1137.06
489.914	1139.06
490.132	1147.06
490.35	1163.06
490.568	1130.06
490.786	1138.06
491.003	1133.06
491.221	1141.06
491.439	1136.06
491.657	1141.06
491.874	1176.06
492.092	1183.06
492.31	1152.06
492.527	1173.06
492.745	1168.06
492.963	1168.06
493.18	1157.06
493.398	1192.06
493.615	1173.06
493.833	1160.06
494.05	1172.06
494.268	1182.06
494.485	1164.06
494.703	1233.06
494.92	1198.06
495.138	1198.06
495.355	1186.06
495.573	1174.06
495.79	1190.06
496.008	1209.06
496.225	1206.06
