Data from NiCl2@0.0625M.TitratingCurve.Agarose3%dH2O.NegLispCup.LampEnergy10.LIBS07252019_HRD10591_18-33-18-576.txt Node
Date: Thu Jul 25 18:33:18 EDT 2019
User: cochatt
Spectrometer: HR+D1059
Trigger mode: 1
Integration Time (sec): 1.000000E-1
Scans to average: 1
Electric dark correction enabled: true
Nonlinearity correction enabled: false
Boxcar width: 0
XAxis mode: Wavelengths
Number of Pixels in Spectrum: 2048
>>>>>Begin Spectral Data<<<<<
223.165	-29.81
223.4	-29.81
223.635	-29.81
223.869	-29.81
224.104	-29.81
224.338	-7.81
224.573	-18.81
224.808	-2.81
225.042	1.19
225.277	-6.81
225.511	-16.81
225.746	24.19
225.98	14.19
226.215	17.19
226.449	3.19
226.683	17.19
226.918	26.19
227.152	39.19
227.387	27.19
227.621	33.19
227.856	36.19
228.09	46.19
228.324	45.19
228.559	50.19
228.793	96.19
229.027	137.19
229.262	169.19
229.496	163.19
229.73	168.19
229.964	161.19
230.199	171.19
230.433	188.19
230.667	187.19
230.901	199.19
231.136	185.19
231.37	181.19
231.604	196.19
231.838	201.19
232.072	213.19
232.306	208.19
232.541	211.19
232.775	210.19
233.009	201.19
233.243	212.19
233.477	209.19
233.711	201.19
233.945	209.19
234.179	211.19
234.413	228.19
234.647	226.19
234.881	224.19
235.115	222.19
235.349	213.19
235.583	219.19
235.817	238.19
236.051	226.19
236.285	224.19
236.519	251.19
236.753	223.19
236.987	245.19
237.221	234.19
237.455	234.19
237.689	248.19
237.922	254.19
238.156	243.19
238.39	236.19
238.624	259.19
238.858	253.19
239.091	276.19
239.325	276.19
239.559	276.19
239.793	277.19
240.027	281.19
240.26	272.19
240.494	275.19
240.728	282.19
240.961	286.19
241.195	303.19
241.429	294.19
241.662	299.19
241.896	311.19
242.13	336.19
242.363	320.19
242.597	318.19
242.83	303.19
243.064	303.19
243.298	318.19
243.531	332.19
243.765	322.19
243.998	332.19
244.232	331.19
244.465	352.19
244.699	345.19
244.932	352.19
245.166	358.19
245.399	331.19
245.633	339.19
245.866	340.19
246.099	348.19
246.333	359.19
246.566	373.19
246.8	363.19
247.033	356.19
247.266	373.19
247.5	379.19
247.733	367.19
247.966	375.19
248.2	387.19
248.433	415.19
248.666	376.19
248.899	399.19
249.133	397.19
249.366	418.19
249.599	418.19
249.832	405.19
250.066	398.19
250.299	411.19
250.532	421.19
250.765	422.19
250.998	427.19
251.231	446.19
251.465	448.19
251.698	443.19
251.931	431.19
252.164	444.19
252.397	448.19
252.63	449.19
252.863	460.19
253.096	445.19
253.329	464.19
253.562	463.19
253.795	473.19
254.028	463.19
254.261	476.19
254.494	472.19
254.727	462.19
254.96	456.19
255.193	447.19
255.426	462.19
255.659	469.19
255.892	484.19
256.124	471.19
256.357	492.19
256.59	495.19
256.823	491.19
257.056	507.19
257.289	500.19
257.521	489.19
257.754	503.19
257.987	531.19
258.22	515.19
258.452	535.19
258.685	531.19
258.918	530.19
259.151	529.19
259.383	537.19
259.616	518.19
259.849	525.19
260.081	546.19
260.314	545.19
260.547	539.19
260.779	543.19
261.012	545.19
261.244	550.19
261.477	562.19
261.71	540.19
261.942	585.19
262.175	573.19
262.407	570.19
262.64	577.19
262.872	577.19
263.105	574.19
263.337	590.19
263.57	581.19
263.802	571.19
264.035	597.19
264.267	607.19
264.499	594.19
264.732	608.19
264.964	598.19
265.197	619.19
265.429	595.19
265.661	591.19
265.894	607.19
266.126	627.19
266.358	608.19
266.591	618.19
266.823	618.19
267.055	621.19
267.287	617.19
267.52	617.19
267.752	635.19
267.984	645.19
268.216	645.19
268.448	629.19
268.681	616.19
268.913	634.19
269.145	636.19
269.377	651.19
269.609	631.19
269.841	649.19
270.073	667.19
270.306	680.19
270.538	663.19
270.77	659.19
271.002	664.19
271.234	684.19
271.466	640.19
271.698	675.19
271.93	705.19
272.162	717.19
272.394	697.19
272.626	681.19
272.858	695.19
273.09	714.19
273.322	705.19
273.553	712.19
273.785	697.19
274.017	701.19
274.249	716.19
274.481	734.19
274.713	716.19
274.945	742.19
275.176	723.19
275.408	709.19
275.64	758.19
275.872	726.19
276.104	753.19
276.335	763.19
276.567	747.19
276.799	748.19
277.031	749.19
277.262	746.19
277.494	724.19
277.726	744.19
277.957	768.19
278.189	737.19
278.421	741.19
278.652	758.19
278.884	785.19
279.115	737.19
279.347	791.19
279.579	801.19
279.81	795.19
280.042	823.19
280.273	815.19
280.505	796.19
280.736	799.19
280.968	805.19
281.199	812.19
281.431	810.19
281.662	807.19
281.894	840.19
282.125	817.19
282.356	831.19
282.588	835.19
282.819	844.19
283.051	832.19
283.282	786.19
283.513	839.19
283.745	855.19
283.976	841.19
284.207	849.19
284.439	867.19
284.67	874.19
284.901	865.19
285.132	872.19
285.364	880.19
285.595	872.19
285.826	864.19
286.057	887.19
286.288	864.19
286.52	867.19
286.751	863.19
286.982	884.19
287.213	909.19
287.444	876.19
287.675	901.19
287.906	917.19
288.138	904.19
288.369	907.19
288.6	921.19
288.831	913.19
289.062	913.19
289.293	908.19
289.524	907.19
289.755	904.19
289.986	923.19
290.217	927.19
290.448	902.19
290.679	930.19
290.91	943.19
291.141	954.19
291.371	933.19
291.602	911.19
291.833	923.19
292.064	943.19
292.295	934.19
292.526	937.19
292.757	919.19
292.987	929.19
293.218	921.19
293.449	953.19
293.68	940.19
293.91	957.19
294.141	934.19
294.372	936.19
294.603	947.19
294.833	927.19
295.064	969.19
295.295	935.19
295.525	918.19
295.756	984.19
295.987	945.19
296.217	959.19
296.448	975.19
296.679	973.19
296.909	981.19
297.14	999.19
297.37	1005.19
297.601	976.19
297.831	971.19
298.062	1023.19
298.292	978.19
298.523	1004.19
298.753	1017.19
298.984	1013.19
299.214	1005.19
299.445	1025.19
299.675	1035.19
299.905	1019.19
300.136	1024.19
300.366	1037.19
300.597	1043.19
300.827	1061.19
301.057	1056.19
301.288	1029.19
301.518	1060.19
301.748	1059.19
301.979	1060.19
302.209	1069.19
302.439	1092.19
302.669	1053.19
302.9	1084.19
303.13	1065.19
303.36	1056.19
303.59	1081.19
303.82	1059.19
304.051	1095.19
304.281	1076.19
304.511	1089.19
304.741	1079.19
304.971	1059.19
305.201	1051.19
305.431	1055.19
305.661	1079.19
305.891	1059.19
306.121	1055.19
306.352	1087.19
306.582	1044.19
306.812	1054.19
307.042	1067.19
307.272	1079.19
307.502	1050.19
307.731	1057.19
307.961	1061.19
308.191	1083.19
308.421	1049.19
308.651	1075.19
308.881	1036.19
309.111	1055.19
309.341	1019.19
309.571	1095.19
309.8	1071.19
310.03	1093.19
310.26	1080.19
310.49	1066.19
310.72	1079.19
310.949	1095.19
311.179	1076.19
311.409	1086.19
311.639	1096.19
311.868	1079.19
312.098	1113.19
312.328	1111.19
312.557	1110.19
312.787	1086.19
313.017	1126.19
313.246	1123.19
313.476	1125.19
313.706	1142.19
313.935	1104.19
314.165	1168.19
314.394	1141.19
314.624	1151.19
314.853	1145.19
315.083	1138.19
315.312	1145.19
315.542	1112.19
315.771	1128.19
316.001	1143.19
316.23	1144.19
316.46	1147.19
316.689	1106.19
316.919	1146.19
317.148	1120.19
317.377	1111.19
317.607	1150.19
317.836	1150.19
318.065	1161.19
318.295	1163.19
318.524	1176.19
318.753	1143.19
318.983	1121.19
319.212	1126.19
319.441	1128.19
319.67	1131.19
319.9	1123.19
320.129	1110.19
320.358	1129.19
320.587	1123.19
320.816	1118.19
321.046	1140.19
321.275	1121.19
321.504	1148.19
321.733	1139.19
321.962	1155.19
322.191	1140.19
322.42	1149.19
322.649	1126.19
322.878	1130.19
323.108	1163.19
323.337	1140.19
323.566	1135.19
323.795	1196.19
324.024	1139.19
324.253	1187.19
324.482	1166.19
324.71	1221.19
324.939	1222.19
325.168	1193.19
325.397	1161.19
325.626	1224.19
325.855	1210.19
326.084	1232.19
326.313	1224.19
326.542	1224.19
326.77	1283.19
326.999	1231.19
327.228	1221.19
327.457	1220.19
327.686	1201.19
327.914	1230.19
328.143	1266.19
328.372	1247.19
328.6	1249.19
328.829	1228.19
329.058	1221.19
329.287	1276.19
329.515	1247.19
329.744	1239.19
329.972	1267.19
330.201	1263.19
330.43	1265.19
330.658	1286.19
330.887	1293.19
331.115	1316.19
331.344	1302.19
331.572	1260.19
331.801	1293.19
332.03	1327.19
332.258	1367.19
332.486	1442.19
332.715	1452.19
332.943	1470.19
333.172	1524.19
333.4	1568.19
333.629	1553.19
333.857	1575.19
334.085	1609.19
334.314	1553.19
334.542	1556.19
334.771	1571.19
334.999	1564.19
335.227	1515.19
335.455	1527.19
335.684	1535.19
335.912	1502.19
336.14	1491.19
336.369	1500.19
336.597	1477.19
336.825	1460.19
337.053	1462.19
337.281	1467.19
337.51	1431.19
337.738	1452.19
337.966	1404.19
338.194	1384.19
338.422	1413.19
338.65	1351.19
338.878	1340.19
339.106	1357.19
339.334	1360.19
339.562	1321.19
339.79	1313.19
340.018	1315.19
340.246	1272.19
340.474	1292.19
340.702	1305.19
340.93	1312.19
341.158	1301.19
341.386	1305.19
341.614	1292.19
341.842	1251.19
342.07	1285.19
342.298	1286.19
342.526	1303.19
342.754	1291.19
342.981	1284.19
343.209	1324.19
343.437	1368.19
343.665	1442.19
343.893	1484.19
344.12	1549.19
344.348	1530.19
344.576	1443.19
344.804	1386.19
345.031	1356.19
345.259	1317.19
345.487	1324.19
345.714	1303.19
345.942	1277.19
346.17	1297.19
346.397	1257.19
346.625	1278.19
346.853	1188.19
347.08	1236.19
347.308	1241.19
347.535	1265.19
347.763	1229.19
347.99	1287.19
348.218	1256.19
348.445	1239.19
348.673	1246.19
348.9	1237.19
349.128	1235.19
349.355	1250.19
349.583	1243.19
349.81	1225.19
350.037	1236.19
350.265	1207.19
350.492	1212.19
350.72	1207.19
350.947	1196.19
351.174	1184.19
351.402	1221.19
351.629	1187.19
351.856	1191.19
352.083	1193.19
352.311	1196.19
352.538	1185.19
352.765	1196.19
352.992	1210.19
353.22	1209.19
353.447	1186.19
353.674	1210.19
353.901	1226.19
354.128	1188.19
354.355	1183.19
354.583	1208.19
354.81	1196.19
355.037	1213.19
355.264	1209.19
355.491	1189.19
355.718	1196.19
355.945	1192.19
356.172	1240.19
356.399	1195.19
356.626	1184.19
356.853	1224.19
357.08	1179.19
357.307	1212.19
357.534	1212.19
357.761	1212.19
357.988	1229.19
358.215	1173.19
358.441	1192.19
358.668	1212.19
358.895	1177.19
359.122	1223.19
359.349	1240.19
359.576	1190.19
359.802	1225.19
360.029	1199.19
360.256	1214.19
360.483	1202.19
360.709	1226.19
360.936	1209.19
361.163	1175.19
361.39	1222.19
361.616	1201.19
361.843	1179.19
362.07	1203.19
362.296	1247.19
362.523	1204.19
362.749	1229.19
362.976	1230.19
363.203	1212.19
363.429	1192.19
363.656	1200.19
363.882	1231.19
364.109	1185.19
364.335	1175.19
364.562	1204.19
364.788	1206.19
365.015	1193.19
365.241	1210.19
365.468	1192.19
365.694	1189.19
365.92	1193.19
366.147	1204.19
366.373	1243.19
366.599	1195.19
366.826	1228.19
367.052	1191.19
367.278	1202.19
367.505	1194.19
367.731	1232.19
367.957	1217.19
368.184	1214.19
368.41	1250.19
368.636	1224.19
368.862	1233.19
369.089	1216.19
369.315	1238.19
369.541	1253.19
369.767	1258.19
369.993	1284.19
370.219	1257.19
370.445	1282.19
370.672	1267.19
370.898	1298.19
371.124	1283.19
371.35	1319.19
371.576	1307.19
371.802	1290.19
372.028	1307.19
372.254	1276.19
372.48	1312.19
372.706	1334.19
372.932	1339.19
373.158	1399.19
373.384	1357.19
373.61	1327.19
373.835	1344.19
374.061	1324.19
374.287	1312.19
374.513	1292.19
374.739	1364.19
374.965	1445.19
375.191	1466.19
375.416	1442.19
375.642	1411.19
375.868	1391.19
376.094	1354.19
376.319	1336.19
376.545	1306.19
376.771	1322.19
376.997	1339.19
377.222	1314.19
377.448	1295.19
377.674	1311.19
377.899	1263.19
378.125	1295.19
378.35	1267.19
378.576	1286.19
378.802	1292.19
379.027	1301.19
379.253	1284.19
379.478	1272.19
379.704	1283.19
379.929	1299.19
380.155	1305.19
380.38	1281.19
380.606	1308.19
380.831	1284.19
381.057	1305.19
381.282	1317.19
381.507	1321.19
381.733	1318.19
381.958	1305.19
382.184	1363.19
382.409	1374.19
382.634	1363.19
382.86	1378.19
383.085	1386.19
383.31	1417.19
383.535	1429.19
383.761	1417.19
383.986	1426.19
384.211	1485.19
384.436	1503.19
384.662	1487.19
384.887	1528.19
385.112	1539.19
385.337	1534.19
385.562	1528.19
385.787	1563.19
386.013	1551.19
386.238	1590.19
386.463	1571.19
386.688	1613.19
386.913	1581.19
387.138	1572.19
387.363	1577.19
387.588	1553.19
387.813	1560.19
388.038	1550.19
388.263	1566.19
388.488	1552.19
388.713	1566.19
388.938	1553.19
389.163	1525.19
389.387	1552.19
389.612	1553.19
389.837	1560.19
390.062	1552.19
390.287	1547.19
390.512	1561.19
390.736	1596.19
390.961	1583.19
391.186	1607.19
391.411	1671.19
391.636	1664.19
391.86	1691.19
392.085	1699.19
392.31	1744.19
392.534	1749.19
392.759	1717.19
392.984	1681.19
393.208	1738.19
393.433	1876.19
393.658	1983.19
393.882	1685.19
394.107	1661.19
394.331	1649.19
394.556	1652.19
394.78	1673.19
395.005	1684.19
395.229	1730.19
395.454	1719.19
395.678	1717.19
395.903	1733.19
396.127	1775.19
396.352	1697.19
396.576	1658.19
396.801	1751.19
397.025	1887.19
397.249	1818.19
397.474	1752.19
397.698	1733.19
397.922	1798.19
398.147	1775.19
398.371	1810.19
398.595	1895.19
398.82	1961.19
399.044	2041.19
399.268	2178.19
399.492	2489.19
399.717	2712.19
399.941	2678.19
400.165	2481.19
400.389	2310.19
400.613	2199.19
400.837	2043.19
401.062	1995.19
401.286	2010.19
401.51	1987.19
401.734	1929.19
401.958	1942.19
402.182	1967.19
402.406	1984.19
402.63	1992.19
402.854	1987.19
403.078	2016.19
403.302	2073.19
403.526	2081.19
403.75	2084.19
403.974	2108.19
404.198	2057.19
404.422	2111.19
404.645	2147.19
404.869	2105.19
405.093	2105.19
405.317	2109.19
405.541	2120.19
405.765	2073.19
405.988	2061.19
406.212	2125.19
406.436	2132.19
406.66	2163.19
406.883	2197.19
407.107	2274.19
407.331	2353.19
407.555	2428.19
407.778	2460.19
408.002	2410.19
408.226	2327.19
408.449	2309.19
408.673	2277.19
408.896	2171.19
409.12	2151.19
409.344	2201.19
409.567	2148.19
409.791	2173.19
410.014	2149.19
410.238	2125.19
410.461	2107.19
410.685	2073.19
410.908	2078.19
411.132	2065.19
411.355	2000.19
411.578	1985.19
411.802	2024.19
412.025	1996.19
412.249	2028.19
412.472	2032.19
412.695	1996.19
412.919	1939.19
413.142	1945.19
413.365	1943.19
413.589	1978.19
413.812	1924.19
414.035	1899.19
414.258	1907.19
414.482	1929.19
414.705	1981.19
414.928	1960.19
415.151	1984.19
415.374	1948.19
415.597	1922.19
415.821	1887.19
416.044	1859.19
416.267	1913.19
416.49	1864.19
416.713	1861.19
416.936	1887.19
417.159	1859.19
417.382	1826.19
417.605	1843.19
417.828	1859.19
418.051	1903.19
418.274	1903.19
418.497	1887.19
418.72	1906.19
418.943	1882.19
419.166	1985.19
419.389	2156.19
419.611	2095.19
419.834	1978.19
420.057	1952.19
420.28	1901.19
420.503	1847.19
420.726	1851.19
420.948	1850.19
421.171	1860.19
421.394	1867.19
421.617	1852.19
421.839	1865.19
422.062	1868.19
422.285	1840.19
422.507	1880.19
422.73	1887.19
422.953	1952.19
423.175	1967.19
423.398	1923.19
423.621	1889.19
423.843	1944.19
424.066	1922.19
424.288	1915.19
424.511	1947.19
424.733	1949.19
424.956	1856.19
425.178	1871.19
425.401	1877.19
425.623	1900.19
425.846	1816.19
426.068	1811.19
426.291	1833.19
426.513	1784.19
426.735	1812.19
426.958	1795.19
427.18	1753.19
427.402	1739.19
427.625	1721.19
427.847	1678.19
428.069	1738.19
428.292	1709.19
428.514	1698.19
428.736	1697.19
428.958	1740.19
429.181	1636.19
429.403	1671.19
429.625	1640.19
429.847	1656.19
430.069	1697.19
430.292	1650.19
430.514	1631.19
430.736	1668.19
430.958	1679.19
431.18	1700.19
431.402	1698.19
431.624	1698.19
431.846	1733.19
432.068	1729.19
432.29	1789.19
432.512	1707.19
432.734	1727.19
432.956	1694.19
433.178	1747.19
433.4	1716.19
433.622	1750.19
433.844	1745.19
434.066	1801.19
434.287	1767.19
434.509	1856.19
434.731	1843.19
434.953	1914.19
435.175	1923.19
435.397	1892.19
435.618	1811.19
435.84	1768.19
436.062	1745.19
436.284	1671.19
436.505	1675.19
436.727	1700.19
436.949	1720.19
437.17	1692.19
437.392	1688.19
437.614	1626.19
437.835	1604.19
438.057	1621.19
438.278	1614.19
438.5	1620.19
438.721	1611.19
438.943	1619.19
439.165	1607.19
439.386	1633.19
439.608	1693.19
439.829	1642.19
440.05	1645.19
440.272	1704.19
440.493	1699.19
440.715	1701.19
440.936	1699.19
441.158	1716.19
441.379	1756.19
441.6	1841.19
441.822	1843.19
442.043	1872.19
442.264	1866.19
442.486	1777.19
442.707	1800.19
442.928	1782.19
443.149	1803.19
443.371	1777.19
443.592	1866.19
443.813	1818.19
444.034	1848.19
444.255	1909.19
444.476	1938.19
444.698	2055.19
444.919	2105.19
445.14	2147.19
445.361	2011.19
445.582	1884.19
445.803	1835.19
446.024	1778.19
446.245	1763.19
446.466	1713.19
446.687	1715.19
446.908	1695.19
447.129	1599.19
447.35	1609.19
447.571	1619.19
447.792	1560.19
448.013	1572.19
448.234	1569.19
448.455	1543.19
448.675	1511.19
448.896	1543.19
449.117	1494.19
449.338	1539.19
449.559	1497.19
449.779	1518.19
450	1494.19
450.221	1498.19
450.442	1498.19
450.662	1514.19
450.883	1525.19
451.104	1545.19
451.324	1548.19
451.545	1526.19
451.766	1500.19
451.986	1475.19
452.207	1512.19
452.428	1499.19
452.648	1495.19
452.869	1465.19
453.089	1459.19
453.31	1521.19
453.53	1456.19
453.751	1416.19
453.971	1446.19
454.192	1430.19
454.412	1433.19
454.633	1448.19
454.853	1458.19
455.073	1449.19
455.294	1439.19
455.514	1425.19
455.734	1430.19
455.955	1403.19
456.175	1397.19
456.395	1408.19
456.616	1437.19
456.836	1411.19
457.056	1404.19
457.276	1377.19
457.497	1433.19
457.717	1446.19
457.937	1453.19
458.157	1480.19
458.377	1512.19
458.598	1529.19
458.818	1550.19
459.038	1600.19
459.258	1593.19
459.478	1687.19
459.698	1728.19
459.918	1761.19
460.138	1803.19
460.358	1863.19
460.578	1891.19
460.798	1906.19
461.018	1908.19
461.238	1927.19
461.458	1929.19
461.678	1883.19
461.898	1944.19
462.118	1928.19
462.338	2046.19
462.558	2078.19
462.777	2132.19
462.997	2319.19
463.217	2381.19
463.437	2452.19
463.657	2324.19
463.876	2214.19
464.096	2263.19
464.316	2187.19
464.536	2168.19
464.755	2115.19
464.975	2062.19
465.195	1971.19
465.414	1907.19
465.634	1795.19
465.854	1742.19
466.073	1699.19
466.293	1692.19
466.512	1665.19
466.732	1611.19
466.951	1596.19
467.171	1569.19
467.391	1601.19
467.61	1612.19
467.829	1581.19
468.049	1596.19
468.268	1531.19
468.488	1547.19
468.707	1528.19
468.927	1559.19
469.146	1544.19
469.365	1553.19
469.585	1565.19
469.804	1602.19
470.023	1617.19
470.243	1599.19
470.462	1638.19
470.681	1629.19
470.901	1656.19
471.12	1610.19
471.339	1591.19
471.558	1547.19
471.777	1579.19
471.997	1556.19
472.216	1550.19
472.435	1527.19
472.654	1514.19
472.873	1530.19
473.092	1505.19
473.311	1508.19
473.53	1525.19
473.749	1551.19
473.968	1498.19
474.187	1526.19
474.406	1499.19
474.625	1519.19
474.844	1559.19
475.063	1543.19
475.282	1532.19
475.501	1544.19
475.72	1562.19
475.939	1551.19
476.158	1596.19
476.377	1579.19
476.596	1594.19
476.814	1629.19
477.033	1613.19
477.252	1667.19
477.471	1686.19
477.69	1715.19
477.908	1755.19
478.127	1787.19
478.346	1795.19
478.564	1830.19
478.783	1877.19
479.002	1915.19
479.22	1913.19
479.439	1923.19
479.658	1941.19
479.876	1946.19
480.095	1935.19
480.313	1977.19
480.532	2028.19
480.751	2047.19
480.969	1985.19
481.188	1912.19
481.406	1872.19
481.624	1892.19
481.843	1870.19
482.061	1839.19
482.28	1838.19
482.498	1836.19
482.717	1811.19
482.935	1841.19
483.153	1872.19
483.372	1864.19
483.59	1876.19
483.808	1894.19
484.027	1912.19
484.245	1933.19
484.463	1911.19
484.681	1979.19
484.9	2022.19
485.118	2036.19
485.336	2004.19
485.554	2036.19
485.772	2023.19
485.99	2033.19
486.209	2021.19
486.427	1979.19
486.645	2007.19
486.863	1990.19
487.081	1985.19
487.299	1995.19
487.517	1970.19
487.735	1985.19
487.953	1980.19
488.171	1979.19
488.389	1972.19
488.607	1936.19
488.825	1954.19
489.043	1916.19
489.261	1937.19
489.479	1931.19
489.696	1865.19
489.914	1900.19
