Data from NiCl2@0.125M.TitratingCurve.Agarose3%dH2O.NegLispCup.LampEnergy10.LIBS07252019_HRD10591_18-29-39-575.txt Node
Date: Thu Jul 25 18:29:39 EDT 2019
User: cochatt
Spectrometer: HR+D1059
Trigger mode: 1
Integration Time (sec): 1.000000E-1
Scans to average: 1
Electric dark correction enabled: true
Nonlinearity correction enabled: false
Boxcar width: 0
XAxis mode: Wavelengths
Number of Pixels in Spectrum: 2048
>>>>>Begin Spectral Data<<<<<
223.165	-13.12
223.4	-13.12
223.635	-13.12
223.869	-13.12
224.104	-17.12
224.338	-5.12
224.573	-11.12
224.808	-16.12
225.042	-11.12
225.277	-10.12
225.511	2.88
225.746	6.88
225.98	13.88
226.215	-2.12
226.449	11.88
226.683	19.88
226.918	20.88
227.152	22.88
227.387	30.88
227.621	36.88
227.856	34.88
228.09	43.88
228.324	43.88
228.559	67.88
228.793	81.88
229.027	124.88
229.262	114.88
229.496	125.88
229.73	125.88
229.964	123.88
230.199	145.88
230.433	122.88
230.667	138.88
230.901	137.88
231.136	144.88
231.37	135.88
231.604	156.88
231.838	156.88
232.072	161.88
232.306	160.88
232.541	152.88
232.775	164.88
233.009	148.88
233.243	144.88
233.477	153.88
233.711	141.88
233.945	152.88
234.179	162.88
234.413	166.88
234.647	168.88
234.881	163.88
235.115	170.88
235.349	156.88
235.583	152.88
235.817	167.88
236.051	151.88
236.285	167.88
236.519	171.88
236.753	168.88
236.987	155.88
237.221	178.88
237.455	166.88
237.689	144.88
237.922	182.88
238.156	179.88
238.39	188.88
238.624	181.88
238.858	183.88
239.091	191.88
239.325	192.88
239.559	194.88
239.793	193.88
240.027	192.88
240.26	177.88
240.494	182.88
240.728	198.88
240.961	206.88
241.195	199.88
241.429	197.88
241.662	189.88
241.896	197.88
242.13	198.88
242.363	207.88
242.597	216.88
242.83	228.88
243.064	211.88
243.298	216.88
243.531	222.88
243.765	215.88
243.998	218.88
244.232	228.88
244.465	224.88
244.699	228.88
244.932	231.88
245.166	218.88
245.399	243.88
245.633	227.88
245.866	225.88
246.099	229.88
246.333	249.88
246.566	232.88
246.8	259.88
247.033	246.88
247.266	226.88
247.5	233.88
247.733	244.88
247.966	259.88
248.2	256.88
248.433	270.88
248.666	267.88
248.899	273.88
249.133	279.88
249.366	256.88
249.599	271.88
249.832	280.88
250.066	265.88
250.299	256.88
250.532	247.88
250.765	260.88
250.998	301.88
251.231	275.88
251.465	268.88
251.698	281.88
251.931	284.88
252.164	284.88
252.397	314.88
252.63	314.88
252.863	285.88
253.096	284.88
253.329	316.88
253.562	279.88
253.795	288.88
254.028	313.88
254.261	304.88
254.494	280.88
254.727	330.88
254.96	308.88
255.193	301.88
255.426	298.88
255.659	328.88
255.892	307.88
256.124	308.88
256.357	305.88
256.59	317.88
256.823	312.88
257.056	316.88
257.289	314.88
257.521	334.88
257.754	320.88
257.987	320.88
258.22	342.88
258.452	332.88
258.685	313.88
258.918	336.88
259.151	329.88
259.383	359.88
259.616	329.88
259.849	346.88
260.081	330.88
260.314	343.88
260.547	324.88
260.779	363.88
261.012	341.88
261.244	337.88
261.477	360.88
261.71	343.88
261.942	348.88
262.175	330.88
262.407	366.88
262.64	364.88
262.872	343.88
263.105	343.88
263.337	372.88
263.57	371.88
263.802	365.88
264.035	358.88
264.267	354.88
264.499	371.88
264.732	374.88
264.964	377.88
265.197	386.88
265.429	373.88
265.661	375.88
265.894	388.88
266.126	373.88
266.358	378.88
266.591	377.88
266.823	379.88
267.055	382.88
267.287	388.88
267.52	382.88
267.752	404.88
267.984	406.88
268.216	386.88
268.448	402.88
268.681	409.88
268.913	401.88
269.145	407.88
269.377	396.88
269.609	412.88
269.841	395.88
270.073	407.88
270.306	397.88
270.538	405.88
270.77	392.88
271.002	411.88
271.234	375.88
271.466	410.88
271.698	404.88
271.93	406.88
272.162	426.88
272.394	413.88
272.626	409.88
272.858	408.88
273.09	434.88
273.322	422.88
273.553	440.88
273.785	446.88
274.017	442.88
274.249	428.88
274.481	449.88
274.713	451.88
274.945	434.88
275.176	444.88
275.408	433.88
275.64	441.88
275.872	430.88
276.104	449.88
276.335	442.88
276.567	460.88
276.799	440.88
277.031	449.88
277.262	444.88
277.494	436.88
277.726	466.88
277.957	469.88
278.189	452.88
278.421	453.88
278.652	473.88
278.884	484.88
279.115	450.88
279.347	470.88
279.579	476.88
279.81	481.88
280.042	485.88
280.273	489.88
280.505	474.88
280.736	484.88
280.968	484.88
281.199	497.88
281.431	492.88
281.662	510.88
281.894	494.88
282.125	516.88
282.356	511.88
282.588	539.88
282.819	524.88
283.051	500.88
283.282	498.88
283.513	531.88
283.745	496.88
283.976	523.88
284.207	518.88
284.439	530.88
284.67	528.88
284.901	533.88
285.132	514.88
285.364	524.88
285.595	532.88
285.826	502.88
286.057	534.88
286.288	513.88
286.52	546.88
286.751	538.88
286.982	555.88
287.213	544.88
287.444	568.88
287.675	530.88
287.906	544.88
288.138	555.88
288.369	550.88
288.6	576.88
288.831	542.88
289.062	554.88
289.293	566.88
289.524	566.88
289.755	574.88
289.986	542.88
290.217	529.88
290.448	554.88
290.679	554.88
290.91	537.88
291.141	565.88
291.371	583.88
291.602	577.88
291.833	572.88
292.064	578.88
292.295	585.88
292.526	587.88
292.757	594.88
292.987	589.88
293.218	574.88
293.449	589.88
293.68	574.88
293.91	558.88
294.141	586.88
294.372	578.88
294.603	582.88
294.833	577.88
295.064	590.88
295.295	579.88
295.525	591.88
295.756	604.88
295.987	580.88
296.217	594.88
296.448	598.88
296.679	589.88
296.909	608.88
297.14	610.88
297.37	626.88
297.601	629.88
297.831	631.88
298.062	624.88
298.292	632.88
298.523	640.88
298.753	649.88
298.984	642.88
299.214	633.88
299.445	621.88
299.675	600.88
299.905	629.88
300.136	603.88
300.366	605.88
300.597	633.88
300.827	642.88
301.057	652.88
301.288	649.88
301.518	638.88
301.748	660.88
301.979	637.88
302.209	645.88
302.439	660.88
302.669	676.88
302.9	636.88
303.13	632.88
303.36	663.88
303.59	647.88
303.82	633.88
304.051	632.88
304.281	626.88
304.511	630.88
304.741	624.88
304.971	625.88
305.201	614.88
305.431	635.88
305.661	621.88
305.891	625.88
306.121	632.88
306.352	620.88
306.582	620.88
306.812	613.88
307.042	618.88
307.272	625.88
307.502	605.88
307.731	620.88
307.961	616.88
308.191	609.88
308.421	628.88
308.651	623.88
308.881	635.88
309.111	616.88
309.341	626.88
309.571	651.88
309.8	606.88
310.03	633.88
310.26	615.88
310.49	615.88
310.72	627.88
310.949	626.88
311.179	634.88
311.409	626.88
311.639	638.88
311.868	659.88
312.098	643.88
312.328	640.88
312.557	644.88
312.787	662.88
313.017	655.88
313.246	633.88
313.476	659.88
313.706	657.88
313.935	667.88
314.165	685.88
314.394	672.88
314.624	658.88
314.853	672.88
315.083	649.88
315.312	653.88
315.542	664.88
315.771	662.88
316.001	626.88
316.23	636.88
316.46	658.88
316.689	664.88
316.919	634.88
317.148	662.88
317.377	621.88
317.607	640.88
317.836	638.88
318.065	633.88
318.295	649.88
318.524	648.88
318.753	646.88
318.983	643.88
319.212	627.88
319.441	640.88
319.67	659.88
319.9	652.88
320.129	627.88
320.358	633.88
320.587	642.88
320.816	664.88
321.046	646.88
321.275	658.88
321.504	667.88
321.733	651.88
321.962	665.88
322.191	645.88
322.42	660.88
322.649	650.88
322.878	634.88
323.108	669.88
323.337	672.88
323.566	679.88
323.795	655.88
324.024	661.88
324.253	652.88
324.482	678.88
324.71	668.88
324.939	672.88
325.168	670.88
325.397	681.88
325.626	685.88
325.855	695.88
326.084	693.88
326.313	715.88
326.542	721.88
326.77	726.88
326.999	694.88
327.228	708.88
327.457	708.88
327.686	708.88
327.914	696.88
328.143	725.88
328.372	714.88
328.6	705.88
328.829	725.88
329.058	722.88
329.287	707.88
329.515	720.88
329.744	717.88
329.972	731.88
330.201	731.88
330.43	710.88
330.658	734.88
330.887	726.88
331.115	735.88
331.344	784.88
331.572	726.88
331.801	790.88
332.03	792.88
332.258	772.88
332.486	830.88
332.715	841.88
332.943	872.88
333.172	960.88
333.4	968.88
333.629	947.88
333.857	989.88
334.085	998.88
334.314	969.88
334.542	938.88
334.771	936.88
334.999	886.88
335.227	910.88
335.455	896.88
335.684	896.88
335.912	885.88
336.14	856.88
336.369	855.88
336.597	854.88
336.825	888.88
337.053	859.88
337.281	859.88
337.51	819.88
337.738	821.88
337.966	802.88
338.194	790.88
338.422	779.88
338.65	772.88
338.878	785.88
339.106	779.88
339.334	782.88
339.562	770.88
339.79	735.88
340.018	761.88
340.246	723.88
340.474	732.88
340.702	725.88
340.93	766.88
341.158	744.88
341.386	748.88
341.614	760.88
341.842	727.88
342.07	701.88
342.298	728.88
342.526	746.88
342.754	715.88
342.981	766.88
343.209	764.88
343.437	769.88
343.665	817.88
343.893	900.88
344.12	930.88
344.348	898.88
344.576	881.88
344.804	819.88
345.031	781.88
345.259	743.88
345.487	752.88
345.714	749.88
345.942	708.88
346.17	721.88
346.397	731.88
346.625	717.88
346.853	722.88
347.08	724.88
347.308	712.88
347.535	756.88
347.763	747.88
347.99	737.88
348.218	747.88
348.445	724.88
348.673	733.88
348.9	713.88
349.128	721.88
349.355	715.88
349.583	721.88
349.81	715.88
350.037	703.88
350.265	671.88
350.492	700.88
350.72	702.88
350.947	693.88
351.174	700.88
351.402	706.88
351.629	699.88
351.856	704.88
352.083	684.88
352.311	694.88
352.538	683.88
352.765	684.88
352.992	704.88
353.22	690.88
353.447	690.88
353.674	702.88
353.901	678.88
354.128	676.88
354.355	689.88
354.583	699.88
354.81	681.88
355.037	702.88
355.264	713.88
355.491	710.88
355.718	692.88
355.945	722.88
356.172	692.88
356.399	689.88
356.626	685.88
356.853	710.88
357.08	713.88
357.307	708.88
357.534	723.88
357.761	694.88
357.988	688.88
358.215	685.88
358.441	685.88
358.668	706.88
358.895	682.88
359.122	684.88
359.349	717.88
359.576	678.88
359.802	685.88
360.029	704.88
360.256	698.88
360.483	685.88
360.709	701.88
360.936	677.88
361.163	689.88
361.39	696.88
361.616	696.88
361.843	692.88
362.07	711.88
362.296	706.88
362.523	677.88
362.749	694.88
362.976	668.88
363.203	686.88
363.429	668.88
363.656	692.88
363.882	680.88
364.109	692.88
364.335	690.88
364.562	691.88
364.788	669.88
365.015	725.88
365.241	712.88
365.468	691.88
365.694	680.88
365.92	714.88
366.147	683.88
366.373	691.88
366.599	692.88
366.826	683.88
367.052	655.88
367.278	694.88
367.505	685.88
367.731	720.88
367.957	683.88
368.184	700.88
368.41	715.88
368.636	710.88
368.862	705.88
369.089	715.88
369.315	707.88
369.541	736.88
369.767	739.88
369.993	733.88
370.219	725.88
370.445	714.88
370.672	716.88
370.898	746.88
371.124	741.88
371.35	759.88
371.576	746.88
371.802	777.88
372.028	766.88
372.254	765.88
372.48	744.88
372.706	777.88
372.932	788.88
373.158	802.88
373.384	764.88
373.61	720.88
373.835	739.88
374.061	755.88
374.287	772.88
374.513	764.88
374.739	824.88
374.965	833.88
375.191	855.88
375.416	866.88
375.642	818.88
375.868	818.88
376.094	801.88
376.319	783.88
376.545	768.88
376.771	769.88
376.997	764.88
377.222	753.88
377.448	780.88
377.674	757.88
377.899	757.88
378.125	729.88
378.35	739.88
378.576	740.88
378.802	748.88
379.027	754.88
379.253	755.88
379.478	756.88
379.704	741.88
379.929	729.88
380.155	740.88
380.38	786.88
380.606	747.88
380.831	758.88
381.057	772.88
381.282	765.88
381.507	754.88
381.733	747.88
381.958	778.88
382.184	770.88
382.409	783.88
382.634	797.88
382.86	782.88
383.085	824.88
383.31	835.88
383.535	828.88
383.761	853.88
383.986	852.88
384.211	862.88
384.436	889.88
384.662	896.88
384.887	929.88
385.112	940.88
385.337	915.88
385.562	929.88
385.787	914.88
386.013	924.88
386.238	925.88
386.463	940.88
386.688	924.88
386.913	910.88
387.138	892.88
387.363	904.88
387.588	896.88
387.813	905.88
388.038	908.88
388.263	881.88
388.488	927.88
388.713	912.88
388.938	908.88
389.163	867.88
389.387	894.88
389.612	907.88
389.837	891.88
390.062	868.88
390.287	859.88
390.512	882.88
390.736	884.88
390.961	913.88
391.186	925.88
391.411	990.88
391.636	973.88
391.86	1003.88
392.085	1051.88
392.31	1057.88
392.534	992.88
392.759	978.88
392.984	963.88
393.208	965.88
393.433	966.88
393.658	992.88
393.882	973.88
394.107	979.88
394.331	995.88
394.556	973.88
394.78	1002.88
395.005	1002.88
395.229	987.88
395.454	1014.88
395.678	1060.88
395.903	1046.88
396.127	1016.88
396.352	977.88
396.576	950.88
396.801	933.88
397.025	966.88
397.249	989.88
397.474	1014.88
397.698	1011.88
397.922	1005.88
398.147	1037.88
398.371	1042.88
398.595	1064.88
398.82	1088.88
399.044	1207.88
399.268	1320.88
399.492	1576.88
399.717	1816.88
399.941	1825.88
400.165	1578.88
400.389	1405.88
400.613	1307.88
400.837	1206.88
401.062	1166.88
401.286	1143.88
401.51	1147.88
401.734	1122.88
401.958	1154.88
402.182	1180.88
402.406	1202.88
402.63	1224.88
402.854	1245.88
403.078	1259.88
403.302	1316.88
403.526	1329.88
403.75	1299.88
403.974	1340.88
404.198	1344.88
404.422	1392.88
404.645	1387.88
404.869	1276.88
405.093	1313.88
405.317	1306.88
405.541	1310.88
405.765	1310.88
405.988	1266.88
406.212	1278.88
406.436	1290.88
406.66	1286.88
406.883	1311.88
407.107	1440.88
407.331	1508.88
407.555	1529.88
407.778	1522.88
408.002	1451.88
408.226	1420.88
408.449	1387.88
408.673	1316.88
408.896	1310.88
409.12	1306.88
409.344	1345.88
409.567	1288.88
409.791	1384.88
410.014	1334.88
410.238	1284.88
410.461	1300.88
410.685	1289.88
410.908	1282.88
411.132	1233.88
411.355	1194.88
411.578	1191.88
411.802	1212.88
412.025	1212.88
412.249	1217.88
412.472	1234.88
412.695	1211.88
412.919	1163.88
413.142	1143.88
413.365	1158.88
413.589	1156.88
413.812	1114.88
414.035	1136.88
414.258	1114.88
414.482	1160.88
414.705	1194.88
414.928	1188.88
415.151	1161.88
415.374	1161.88
415.597	1119.88
415.821	1125.88
416.044	1156.88
416.267	1125.88
416.49	1106.88
416.713	1127.88
416.936	1146.88
417.159	1126.88
417.382	1124.88
417.605	1108.88
417.828	1130.88
418.051	1185.88
418.274	1140.88
418.497	1147.88
418.72	1202.88
418.943	1192.88
419.166	1256.88
419.389	1382.88
419.611	1337.88
419.834	1276.88
420.057	1228.88
420.28	1197.88
420.503	1137.88
420.726	1126.88
420.948	1120.88
421.171	1136.88
421.394	1136.88
421.617	1121.88
421.839	1150.88
422.062	1167.88
422.285	1137.88
422.507	1183.88
422.73	1174.88
422.953	1176.88
423.175	1218.88
423.398	1226.88
423.621	1176.88
423.843	1230.88
424.066	1244.88
424.288	1229.88
424.511	1222.88
424.733	1213.88
424.956	1188.88
425.178	1131.88
425.401	1200.88
425.623	1142.88
425.846	1120.88
426.068	1118.88
426.291	1113.88
426.513	1084.88
426.735	1088.88
426.958	1076.88
427.18	1070.88
427.402	1081.88
427.625	1031.88
427.847	1015.88
428.069	1050.88
428.292	1014.88
428.514	1035.88
428.736	1008.88
428.958	1062.88
429.181	996.88
429.403	996.88
429.625	1009.88
429.847	992.88
430.069	982.88
430.292	979.88
430.514	934.88
430.736	990.88
430.958	1010.88
431.18	994.88
431.402	986.88
431.624	1003.88
431.846	1018.88
432.068	1028.88
432.29	1047.88
432.512	1002.88
432.734	1014.88
432.956	996.88
433.178	1021.88
433.4	1053.88
433.622	1056.88
433.844	1036.88
434.066	1040.88
434.287	1056.88
434.509	1091.88
434.731	1127.88
434.953	1156.88
435.175	1177.88
435.397	1157.88
435.618	1105.88
435.84	1045.88
436.062	1043.88
436.284	1024.88
436.505	1045.88
436.727	1042.88
436.949	1019.88
437.17	1010.88
437.392	1000.88
437.614	1009.88
437.835	981.88
438.057	1006.88
438.278	944.88
438.5	974.88
438.721	979.88
438.943	1000.88
439.165	975.88
439.386	1004.88
439.608	1004.88
439.829	1040.88
440.05	1058.88
440.272	1052.88
440.493	1035.88
440.715	1058.88
440.936	1069.88
441.158	1059.88
441.379	1129.88
441.6	1167.88
441.822	1185.88
442.043	1188.88
442.264	1195.88
442.486	1121.88
442.707	1138.88
442.928	1136.88
443.149	1147.88
443.371	1121.88
443.592	1152.88
443.813	1153.88
444.034	1175.88
444.255	1203.88
444.476	1277.88
444.698	1393.88
444.919	1419.88
445.14	1492.88
445.361	1318.88
445.582	1247.88
445.803	1135.88
446.024	1126.88
446.245	1065.88
446.466	1058.88
446.687	1036.88
446.908	1067.88
447.129	1026.88
447.35	1018.88
447.571	1003.88
447.792	1011.88
448.013	971.88
448.234	970.88
448.455	973.88
448.675	982.88
448.896	946.88
449.117	960.88
449.338	940.88
449.559	936.88
449.779	946.88
450	931.88
450.221	934.88
450.442	947.88
450.662	980.88
450.883	974.88
451.104	987.88
451.324	968.88
451.545	993.88
451.766	978.88
451.986	972.88
452.207	975.88
452.428	955.88
452.648	960.88
452.869	930.88
453.089	923.88
453.31	936.88
453.53	956.88
453.751	952.88
453.971	925.88
454.192	929.88
454.412	903.88
454.633	925.88
454.853	902.88
455.073	896.88
455.294	906.88
455.514	905.88
455.734	910.88
455.955	876.88
456.175	880.88
456.395	882.88
456.616	868.88
456.836	896.88
457.056	891.88
457.276	876.88
457.497	874.88
457.717	903.88
457.937	906.88
458.157	914.88
458.377	929.88
458.598	953.88
458.818	972.88
459.038	992.88
459.258	1005.88
459.478	1062.88
459.698	1074.88
459.918	1068.88
460.138	1145.88
460.358	1212.88
460.578	1240.88
460.798	1232.88
461.018	1261.88
461.238	1236.88
461.458	1227.88
461.678	1220.88
461.898	1253.88
462.118	1227.88
462.338	1336.88
462.558	1355.88
462.777	1392.88
462.997	1556.88
463.217	1662.88
463.437	1724.88
463.657	1571.88
463.876	1452.88
464.096	1489.88
464.316	1468.88
464.536	1475.88
464.755	1413.88
464.975	1363.88
465.195	1284.88
465.414	1218.88
465.634	1133.88
465.854	1084.88
466.073	1064.88
466.293	1043.88
466.512	1005.88
466.732	974.88
466.951	1002.88
467.171	985.88
467.391	997.88
467.61	997.88
467.829	973.88
468.049	970.88
468.268	955.88
468.488	952.88
468.707	958.88
468.927	938.88
469.146	955.88
469.365	986.88
469.585	1000.88
469.804	995.88
470.023	1024.88
470.243	1026.88
470.462	1037.88
470.681	1057.88
470.901	1045.88
471.12	998.88
471.339	1006.88
471.558	979.88
471.777	973.88
471.997	938.88
472.216	942.88
472.435	963.88
472.654	946.88
472.873	914.88
473.092	930.88
473.311	929.88
473.53	935.88
473.749	913.88
473.968	916.88
474.187	924.88
474.406	926.88
474.625	925.88
474.844	952.88
475.063	950.88
475.282	952.88
475.501	943.88
475.72	944.88
475.939	939.88
476.158	977.88
476.377	970.88
476.596	968.88
476.814	979.88
477.033	975.88
477.252	984.88
477.471	1042.88
477.69	1049.88
477.908	1084.88
478.127	1084.88
478.346	1130.88
478.564	1136.88
478.783	1153.88
479.002	1164.88
479.22	1187.88
479.439	1137.88
479.658	1170.88
479.876	1162.88
480.095	1183.88
480.313	1212.88
480.532	1264.88
480.751	1249.88
480.969	1224.88
481.188	1151.88
481.406	1124.88
481.624	1092.88
481.843	1075.88
482.061	1077.88
482.28	1054.88
482.498	1051.88
482.717	1064.88
482.935	1096.88
483.153	1070.88
483.372	1055.88
483.59	1099.88
483.808	1079.88
484.027	1048.88
484.245	1062.88
484.463	1081.88
484.681	1104.88
484.9	1101.88
485.118	1106.88
485.336	1122.88
485.554	1100.88
485.772	1120.88
485.99	1122.88
486.209	1152.88
486.427	1145.88
486.645	1162.88
486.863	1143.88
487.081	1120.88
487.299	1132.88
487.517	1136.88
487.735	1108.88
487.953	1135.88
488.171	1122.88
488.389	1082.88
488.607	1085.88
488.825	1071.88
489.043	1068.88
489.261	1097.88
489.479	1121.88
489.696	1067.88
489.914	1120.88
490.132	1120.88
490.35	1119.88
490.568	1107.88
490.786	1113.88
491.003	1128.88
491.221	1111.88
491.439	1149.88
491.657	1146.88
491.874	1127.88
492.092	1125.88
492.31	1165.88
492.527	1129.88
492.745	1174.88
492.963	1156.88
493.18	1152.88
493.398	1148.88
493.615	1130.88
493.833	1166.88
494.05	1174.88
494.268	1158.88
494.485	1197.88
494.703	1165.88
494.92	1188.88
495.138	1182.88
495.355	1168.88
495.573	1194.88
495.79	1182.88
496.008	1193.88
496.225	1208.88
496.442	1215.88
496.66	1222.88
496.877	1214.88
