Data from NiCl2@0.25M.TitratingCurve.Agarose3%dH2O.NegLispCup.LampEnergy10.LIBS07252019_HRD10591_18-23-59-573.txt Node
Date: Thu Jul 25 18:23:59 EDT 2019
User: cochatt
Spectrometer: HR+D1059
Trigger mode: 1
Integration Time (sec): 1.000000E-1
Scans to average: 1
Electric dark correction enabled: true
Nonlinearity correction enabled: false
Boxcar width: 0
XAxis mode: Wavelengths
Number of Pixels in Spectrum: 2048
>>>>>Begin Spectral Data<<<<<
223.165	-21.81
223.4	-21.81
223.635	-21.81
223.869	-15.81
224.104	-20.81
224.338	-15.81
224.573	-18.81
224.808	-23.81
225.042	-11.81
225.277	-6.81
225.511	-8.81
225.746	7.19
225.98	14.19
226.215	34.19
226.449	27.19
226.683	16.19
226.918	17.19
227.152	28.19
227.387	33.19
227.621	30.19
227.856	34.19
228.09	36.19
228.324	66.19
228.559	55.19
228.793	71.19
229.027	110.19
229.262	130.19
229.496	112.19
229.73	134.19
229.964	136.19
230.199	145.19
230.433	132.19
230.667	151.19
230.901	148.19
231.136	156.19
231.37	148.19
231.604	148.19
231.838	155.19
232.072	163.19
232.306	167.19
232.541	168.19
232.775	165.19
233.009	153.19
233.243	169.19
233.477	171.19
233.711	162.19
233.945	178.19
234.179	172.19
234.413	167.19
234.647	175.19
234.881	164.19
235.115	187.19
235.349	164.19
235.583	164.19
235.817	165.19
236.051	176.19
236.285	185.19
236.519	168.19
236.753	182.19
236.987	178.19
237.221	207.19
237.455	176.19
237.689	178.19
237.922	187.19
238.156	179.19
238.39	196.19
238.624	182.19
238.858	181.19
239.091	214.19
239.325	211.19
239.559	196.19
239.793	200.19
240.027	184.19
240.26	186.19
240.494	197.19
240.728	199.19
240.961	220.19
241.195	213.19
241.429	212.19
241.662	222.19
241.896	226.19
242.13	204.19
242.363	225.19
242.597	231.19
242.83	226.19
243.064	227.19
243.298	238.19
243.531	236.19
243.765	231.19
243.998	232.19
244.232	240.19
244.465	240.19
244.699	238.19
244.932	247.19
245.166	258.19
245.399	244.19
245.633	258.19
245.866	270.19
246.099	260.19
246.333	272.19
246.566	262.19
246.8	255.19
247.033	257.19
247.266	262.19
247.5	286.19
247.733	269.19
247.966	274.19
248.2	266.19
248.433	270.19
248.666	279.19
248.899	289.19
249.133	286.19
249.366	261.19
249.599	283.19
249.832	302.19
250.066	285.19
250.299	278.19
250.532	282.19
250.765	305.19
250.998	307.19
251.231	311.19
251.465	332.19
251.698	296.19
251.931	296.19
252.164	309.19
252.397	331.19
252.63	309.19
252.863	320.19
253.096	320.19
253.329	332.19
253.562	329.19
253.795	330.19
254.028	346.19
254.261	343.19
254.494	338.19
254.727	334.19
254.96	337.19
255.193	340.19
255.426	350.19
255.659	332.19
255.892	346.19
256.124	330.19
256.357	353.19
256.59	346.19
256.823	350.19
257.056	354.19
257.289	353.19
257.521	370.19
257.754	367.19
257.987	359.19
258.22	358.19
258.452	343.19
258.685	345.19
258.918	372.19
259.151	342.19
259.383	343.19
259.616	360.19
259.849	369.19
260.081	374.19
260.314	369.19
260.547	376.19
260.779	389.19
261.012	386.19
261.244	376.19
261.477	378.19
261.71	385.19
261.942	390.19
262.175	377.19
262.407	369.19
262.64	376.19
262.872	400.19
263.105	386.19
263.337	410.19
263.57	386.19
263.802	406.19
264.035	414.19
264.267	408.19
264.499	414.19
264.732	430.19
264.964	416.19
265.197	421.19
265.429	415.19
265.661	419.19
265.894	447.19
266.126	416.19
266.358	409.19
266.591	406.19
266.823	413.19
267.055	427.19
267.287	439.19
267.52	436.19
267.752	432.19
267.984	443.19
268.216	448.19
268.448	464.19
268.681	437.19
268.913	444.19
269.145	450.19
269.377	456.19
269.609	454.19
269.841	452.19
270.073	437.19
270.306	454.19
270.538	461.19
270.77	453.19
271.002	447.19
271.234	460.19
271.466	452.19
271.698	442.19
271.93	464.19
272.162	477.19
272.394	468.19
272.626	455.19
272.858	453.19
273.09	476.19
273.322	485.19
273.553	471.19
273.785	486.19
274.017	504.19
274.249	496.19
274.481	489.19
274.713	488.19
274.945	476.19
275.176	472.19
275.408	499.19
275.64	489.19
275.872	506.19
276.104	516.19
276.335	512.19
276.567	486.19
276.799	510.19
277.031	521.19
277.262	504.19
277.494	514.19
277.726	497.19
277.957	520.19
278.189	510.19
278.421	492.19
278.652	530.19
278.884	527.19
279.115	531.19
279.347	537.19
279.579	552.19
279.81	558.19
280.042	543.19
280.273	566.19
280.505	534.19
280.736	525.19
280.968	552.19
281.199	528.19
281.431	552.19
281.662	566.19
281.894	572.19
282.125	570.19
282.356	551.19
282.588	570.19
282.819	571.19
283.051	571.19
283.282	582.19
283.513	592.19
283.745	578.19
283.976	594.19
284.207	567.19
284.439	601.19
284.67	587.19
284.901	593.19
285.132	584.19
285.364	581.19
285.595	583.19
285.826	622.19
286.057	590.19
286.288	615.19
286.52	631.19
286.751	598.19
286.982	632.19
287.213	623.19
287.444	614.19
287.675	609.19
287.906	607.19
288.138	620.19
288.369	634.19
288.6	630.19
288.831	642.19
289.062	639.19
289.293	625.19
289.524	648.19
289.755	600.19
289.986	629.19
290.217	632.19
290.448	637.19
290.679	645.19
290.91	640.19
291.141	651.19
291.371	656.19
291.602	630.19
291.833	650.19
292.064	654.19
292.295	620.19
292.526	631.19
292.757	629.19
292.987	637.19
293.218	619.19
293.449	640.19
293.68	640.19
293.91	641.19
294.141	643.19
294.372	664.19
294.603	656.19
294.833	652.19
295.064	673.19
295.295	661.19
295.525	658.19
295.756	650.19
295.987	642.19
296.217	627.19
296.448	678.19
296.679	672.19
296.909	670.19
297.14	671.19
297.37	686.19
297.601	685.19
297.831	665.19
298.062	674.19
298.292	695.19
298.523	719.19
298.753	713.19
298.984	710.19
299.214	679.19
299.445	708.19
299.675	696.19
299.905	686.19
300.136	711.19
300.366	724.19
300.597	709.19
300.827	726.19
301.057	711.19
301.288	760.19
301.518	740.19
301.748	734.19
301.979	716.19
302.209	740.19
302.439	722.19
302.669	743.19
302.9	712.19
303.13	726.19
303.36	727.19
303.59	716.19
303.82	713.19
304.051	738.19
304.281	737.19
304.511	718.19
304.741	718.19
304.971	721.19
305.201	735.19
305.431	737.19
305.661	747.19
305.891	738.19
306.121	726.19
306.352	717.19
306.582	724.19
306.812	695.19
307.042	711.19
307.272	723.19
307.502	698.19
307.731	727.19
307.961	691.19
308.191	708.19
308.421	709.19
308.651	704.19
308.881	702.19
309.111	720.19
309.341	720.19
309.571	720.19
309.8	716.19
310.03	717.19
310.26	712.19
310.49	707.19
310.72	713.19
310.949	739.19
311.179	736.19
311.409	732.19
311.639	735.19
311.868	731.19
312.098	750.19
312.328	734.19
312.557	770.19
312.787	737.19
313.017	742.19
313.246	783.19
313.476	780.19
313.706	760.19
313.935	769.19
314.165	755.19
314.394	774.19
314.624	784.19
314.853	762.19
315.083	766.19
315.312	767.19
315.542	762.19
315.771	781.19
316.001	767.19
316.23	776.19
316.46	742.19
316.689	757.19
316.919	760.19
317.148	754.19
317.377	745.19
317.607	732.19
317.836	743.19
318.065	747.19
318.295	768.19
318.524	746.19
318.753	768.19
318.983	756.19
319.212	741.19
319.441	747.19
319.67	767.19
319.9	739.19
320.129	747.19
320.358	720.19
320.587	724.19
320.816	767.19
321.046	780.19
321.275	758.19
321.504	793.19
321.733	742.19
321.962	743.19
322.191	759.19
322.42	759.19
322.649	798.19
322.878	756.19
323.108	780.19
323.337	764.19
323.566	786.19
323.795	770.19
324.024	779.19
324.253	779.19
324.482	764.19
324.71	788.19
324.939	797.19
325.168	804.19
325.397	776.19
325.626	795.19
325.855	802.19
326.084	838.19
326.313	850.19
326.542	834.19
326.77	837.19
326.999	834.19
327.228	806.19
327.457	824.19
327.686	786.19
327.914	816.19
328.143	870.19
328.372	841.19
328.6	825.19
328.829	822.19
329.058	814.19
329.287	838.19
329.515	871.19
329.744	847.19
329.972	855.19
330.201	837.19
330.43	827.19
330.658	841.19
330.887	856.19
331.115	864.19
331.344	888.19
331.572	873.19
331.801	908.19
332.03	904.19
332.258	963.19
332.486	969.19
332.715	974.19
332.943	1012.19
333.172	1038.19
333.4	1087.19
333.629	1126.19
333.857	1125.19
334.085	1138.19
334.314	1082.19
334.542	1102.19
334.771	1070.19
334.999	1057.19
335.227	1062.19
335.455	1045.19
335.684	1028.19
335.912	1032.19
336.14	1029.19
336.369	992.19
336.597	1013.19
336.825	993.19
337.053	991.19
337.281	1000.19
337.51	972.19
337.738	936.19
337.966	925.19
338.194	925.19
338.422	876.19
338.65	882.19
338.878	900.19
339.106	901.19
339.334	912.19
339.562	907.19
339.79	890.19
340.018	895.19
340.246	835.19
340.474	852.19
340.702	872.19
340.93	892.19
341.158	850.19
341.386	875.19
341.614	872.19
341.842	871.19
342.07	864.19
342.298	858.19
342.526	821.19
342.754	891.19
342.981	885.19
343.209	883.19
343.437	905.19
343.665	972.19
343.893	1036.19
344.12	1078.19
344.348	1036.19
344.576	1000.19
344.804	964.19
345.031	918.19
345.259	899.19
345.487	884.19
345.714	888.19
345.942	866.19
346.17	878.19
346.397	847.19
346.625	834.19
346.853	822.19
347.08	844.19
347.308	824.19
347.535	867.19
347.763	830.19
347.99	814.19
348.218	819.19
348.445	830.19
348.673	816.19
348.9	812.19
349.128	807.19
349.355	819.19
349.583	826.19
349.81	828.19
350.037	811.19
350.265	808.19
350.492	787.19
350.72	815.19
350.947	796.19
351.174	818.19
351.402	829.19
351.629	804.19
351.856	816.19
352.083	792.19
352.311	802.19
352.538	784.19
352.765	806.19
352.992	788.19
353.22	777.19
353.447	811.19
353.674	780.19
353.901	800.19
354.128	808.19
354.355	786.19
354.583	783.19
354.81	792.19
355.037	790.19
355.264	792.19
355.491	804.19
355.718	816.19
355.945	794.19
356.172	818.19
356.399	808.19
356.626	790.19
356.853	796.19
357.08	786.19
357.307	816.19
357.534	788.19
357.761	805.19
357.988	824.19
358.215	798.19
358.441	790.19
358.668	818.19
358.895	775.19
359.122	811.19
359.349	810.19
359.576	820.19
359.802	827.19
360.029	803.19
360.256	807.19
360.483	809.19
360.709	808.19
360.936	833.19
361.163	788.19
361.39	809.19
361.616	814.19
361.843	798.19
362.07	798.19
362.296	831.19
362.523	768.19
362.749	817.19
362.976	790.19
363.203	798.19
363.429	787.19
363.656	803.19
363.882	807.19
364.109	793.19
364.335	803.19
364.562	810.19
364.788	794.19
365.015	829.19
365.241	798.19
365.468	814.19
365.694	810.19
365.92	816.19
366.147	810.19
366.373	778.19
366.599	794.19
366.826	794.19
367.052	798.19
367.278	824.19
367.505	810.19
367.731	814.19
367.957	790.19
368.184	826.19
368.41	820.19
368.636	814.19
368.862	843.19
369.089	808.19
369.315	829.19
369.541	830.19
369.767	809.19
369.993	809.19
370.219	857.19
370.445	809.19
370.672	835.19
370.898	850.19
371.124	845.19
371.35	880.19
371.576	879.19
371.802	870.19
372.028	884.19
372.254	880.19
372.48	889.19
372.706	899.19
372.932	931.19
373.158	906.19
373.384	888.19
373.61	868.19
373.835	875.19
374.061	876.19
374.287	889.19
374.513	910.19
374.739	918.19
374.965	933.19
375.191	986.19
375.416	961.19
375.642	939.19
375.868	906.19
376.094	918.19
376.319	939.19
376.545	884.19
376.771	911.19
376.997	875.19
377.222	880.19
377.448	870.19
377.674	893.19
377.899	896.19
378.125	850.19
378.35	875.19
378.576	856.19
378.802	884.19
379.027	857.19
379.253	875.19
379.478	848.19
379.704	860.19
379.929	870.19
380.155	846.19
380.38	840.19
380.606	842.19
380.831	865.19
381.057	831.19
381.282	838.19
381.507	850.19
381.733	875.19
381.958	878.19
382.184	864.19
382.409	898.19
382.634	891.19
382.86	893.19
383.085	940.19
383.31	929.19
383.535	942.19
383.761	951.19
383.986	981.19
384.211	986.19
384.436	1038.19
384.662	1033.19
384.887	1038.19
385.112	1014.19
385.337	1061.19
385.562	1060.19
385.787	1043.19
386.013	1090.19
386.238	1076.19
386.463	1053.19
386.688	1063.19
386.913	1072.19
387.138	1071.19
387.363	1082.19
387.588	1044.19
387.813	1002.19
388.038	1065.19
388.263	1060.19
388.488	1032.19
388.713	1053.19
388.938	1041.19
389.163	1035.19
389.387	1034.19
389.612	1016.19
389.837	1013.19
390.062	1012.19
390.287	1026.19
390.512	1035.19
390.736	1042.19
390.961	1075.19
391.186	1078.19
391.411	1108.19
391.636	1098.19
391.86	1154.19
392.085	1199.19
392.31	1189.19
392.534	1168.19
392.759	1162.19
392.984	1118.19
393.208	1131.19
393.433	1139.19
393.658	1128.19
393.882	1119.19
394.107	1148.19
394.331	1136.19
394.556	1129.19
394.78	1156.19
395.005	1168.19
395.229	1125.19
395.454	1162.19
395.678	1192.19
395.903	1172.19
396.127	1180.19
396.352	1135.19
396.576	1138.19
396.801	1105.19
397.025	1110.19
397.249	1144.19
397.474	1168.19
397.698	1190.19
397.922	1209.19
398.147	1204.19
398.371	1230.19
398.595	1287.19
398.82	1323.19
399.044	1412.19
399.268	1588.19
399.492	1774.19
399.717	1975.19
399.941	2011.19
400.165	1828.19
400.389	1630.19
400.613	1499.19
400.837	1428.19
401.062	1401.19
401.286	1325.19
401.51	1374.19
401.734	1344.19
401.958	1332.19
402.182	1361.19
402.406	1394.19
402.63	1375.19
402.854	1426.19
403.078	1438.19
403.302	1447.19
403.526	1497.19
403.75	1554.19
403.974	1556.19
404.198	1543.19
404.422	1553.19
404.645	1512.19
404.869	1509.19
405.093	1539.19
405.317	1485.19
405.541	1448.19
405.765	1449.19
405.988	1476.19
406.212	1471.19
406.436	1513.19
406.66	1519.19
406.883	1552.19
407.107	1619.19
407.331	1686.19
407.555	1763.19
407.778	1710.19
408.002	1652.19
408.226	1612.19
408.449	1637.19
408.673	1512.19
408.896	1544.19
409.12	1459.19
409.344	1501.19
409.567	1488.19
409.791	1507.19
410.014	1476.19
410.238	1451.19
410.461	1479.19
410.685	1465.19
410.908	1418.19
411.132	1387.19
411.355	1385.19
411.578	1379.19
411.802	1396.19
412.025	1375.19
412.249	1395.19
412.472	1402.19
412.695	1370.19
412.919	1330.19
413.142	1320.19
413.365	1353.19
413.589	1342.19
413.812	1328.19
414.035	1284.19
414.258	1319.19
414.482	1336.19
414.705	1338.19
414.928	1361.19
415.151	1340.19
415.374	1305.19
415.597	1323.19
415.821	1315.19
416.044	1279.19
416.267	1300.19
416.49	1283.19
416.713	1277.19
416.936	1295.19
417.159	1273.19
417.382	1311.19
417.605	1278.19
417.828	1327.19
418.051	1326.19
418.274	1342.19
418.497	1359.19
418.72	1376.19
418.943	1335.19
419.166	1412.19
419.389	1540.19
419.611	1515.19
419.834	1430.19
420.057	1378.19
420.28	1338.19
420.503	1315.19
420.726	1312.19
420.948	1310.19
421.171	1328.19
421.394	1357.19
421.617	1316.19
421.839	1318.19
422.062	1293.19
422.285	1294.19
422.507	1348.19
422.73	1319.19
422.953	1362.19
423.175	1365.19
423.398	1391.19
423.621	1387.19
423.843	1426.19
424.066	1368.19
424.288	1372.19
424.511	1397.19
424.733	1360.19
424.956	1356.19
425.178	1320.19
425.401	1339.19
425.623	1298.19
425.846	1271.19
426.068	1304.19
426.291	1263.19
426.513	1248.19
426.735	1226.19
426.958	1223.19
427.18	1204.19
427.402	1209.19
427.625	1174.19
427.847	1159.19
428.069	1166.19
428.292	1180.19
428.514	1147.19
428.736	1154.19
428.958	1177.19
429.181	1126.19
429.403	1110.19
429.625	1109.19
429.847	1110.19
430.069	1115.19
430.292	1149.19
430.514	1122.19
430.736	1139.19
430.958	1138.19
431.18	1123.19
431.402	1128.19
431.624	1154.19
431.846	1180.19
432.068	1143.19
432.29	1148.19
432.512	1134.19
432.734	1141.19
432.956	1120.19
433.178	1171.19
433.4	1158.19
433.622	1145.19
433.844	1199.19
434.066	1168.19
434.287	1207.19
434.509	1215.19
434.731	1244.19
434.953	1312.19
435.175	1328.19
435.397	1290.19
435.618	1193.19
435.84	1166.19
436.062	1144.19
436.284	1150.19
436.505	1123.19
436.727	1162.19
436.949	1155.19
437.17	1163.19
437.392	1146.19
437.614	1087.19
437.835	1107.19
438.057	1119.19
438.278	1128.19
438.5	1098.19
438.721	1088.19
438.943	1125.19
439.165	1119.19
439.386	1130.19
439.608	1141.19
439.829	1158.19
440.05	1147.19
440.272	1142.19
440.493	1140.19
440.715	1179.19
440.936	1178.19
441.158	1208.19
441.379	1243.19
441.6	1283.19
441.822	1315.19
442.043	1308.19
442.264	1276.19
442.486	1246.19
442.707	1246.19
442.928	1228.19
443.149	1231.19
443.371	1262.19
443.592	1271.19
443.813	1292.19
444.034	1289.19
444.255	1343.19
444.476	1398.19
444.698	1488.19
444.919	1527.19
445.14	1608.19
445.361	1462.19
445.582	1346.19
445.803	1279.19
446.024	1237.19
446.245	1208.19
446.466	1186.19
446.687	1138.19
446.908	1191.19
447.129	1108.19
447.35	1109.19
447.571	1096.19
447.792	1068.19
448.013	1112.19
448.234	1060.19
448.455	1059.19
448.675	1059.19
448.896	1052.19
449.117	1058.19
449.338	1080.19
449.559	1032.19
449.779	1030.19
450	1042.19
450.221	1042.19
450.442	1057.19
450.662	1037.19
450.883	1048.19
451.104	1060.19
451.324	1032.19
451.545	1071.19
451.766	1056.19
451.986	1054.19
452.207	1041.19
452.428	1026.19
452.648	1031.19
452.869	1020.19
453.089	1033.19
453.31	1017.19
453.53	1020.19
453.751	1022.19
453.971	1019.19
454.192	986.19
454.412	991.19
454.633	984.19
454.853	986.19
455.073	983.19
455.294	988.19
455.514	988.19
455.734	942.19
455.955	970.19
456.175	940.19
456.395	975.19
456.616	930.19
456.836	971.19
457.056	981.19
457.276	970.19
457.497	995.19
457.717	981.19
457.937	999.19
458.157	959.19
458.377	1023.19
458.598	1043.19
458.818	1065.19
459.038	1083.19
459.258	1125.19
459.478	1199.19
459.698	1207.19
459.918	1217.19
460.138	1318.19
460.358	1361.19
460.578	1350.19
460.798	1350.19
461.018	1400.19
461.238	1333.19
461.458	1358.19
461.678	1351.19
461.898	1358.19
462.118	1371.19
462.338	1485.19
462.558	1522.19
462.777	1540.19
462.997	1703.19
463.217	1841.19
463.437	1830.19
463.657	1654.19
463.876	1635.19
464.096	1597.19
464.316	1585.19
464.536	1593.19
464.755	1543.19
464.975	1462.19
465.195	1391.19
465.414	1349.19
465.634	1232.19
465.854	1223.19
466.073	1195.19
466.293	1158.19
466.512	1131.19
466.732	1104.19
466.951	1104.19
467.171	1084.19
467.391	1100.19
467.61	1105.19
467.829	1078.19
468.049	1067.19
468.268	1051.19
468.488	1037.19
468.707	1048.19
468.927	1042.19
469.146	1046.19
469.365	1099.19
469.585	1071.19
469.804	1082.19
470.023	1102.19
470.243	1146.19
470.462	1135.19
470.681	1159.19
470.901	1139.19
471.12	1132.19
471.339	1086.19
471.558	1074.19
471.777	1085.19
471.997	1074.19
472.216	1081.19
472.435	1057.19
472.654	1008.19
472.873	1023.19
473.092	1031.19
473.311	1051.19
473.53	1026.19
473.749	1046.19
473.968	1032.19
474.187	1037.19
474.406	1011.19
474.625	1029.19
474.844	1012.19
475.063	1032.19
475.282	1047.19
475.501	1035.19
475.72	1048.19
475.939	1079.19
476.158	1041.19
476.377	1043.19
476.596	1081.19
476.814	1061.19
477.033	1110.19
477.252	1104.19
477.471	1136.19
477.69	1176.19
477.908	1208.19
478.127	1242.19
478.346	1242.19
478.564	1239.19
478.783	1298.19
479.002	1323.19
479.22	1310.19
479.439	1280.19
479.658	1295.19
479.876	1332.19
480.095	1304.19
480.313	1366.19
480.532	1384.19
480.751	1386.19
480.969	1319.19
481.188	1288.19
481.406	1262.19
481.624	1192.19
481.843	1171.19
482.061	1143.19
482.28	1151.19
482.498	1212.19
482.717	1148.19
482.935	1154.19
483.153	1170.19
483.372	1163.19
483.59	1182.19
483.808	1182.19
484.027	1185.19
484.245	1214.19
484.463	1232.19
484.681	1212.19
484.9	1216.19
485.118	1216.19
485.336	1198.19
485.554	1208.19
485.772	1234.19
485.99	1247.19
486.209	1240.19
486.427	1228.19
486.645	1240.19
486.863	1224.19
487.081	1191.19
487.299	1254.19
487.517	1219.19
487.735	1204.19
487.953	1238.19
488.171	1233.19
488.389	1215.19
488.607	1218.19
488.825	1226.19
489.043	1214.19
489.261	1214.19
489.479	1235.19
489.696	1244.19
489.914	1243.19
490.132	1220.19
490.35	1259.19
490.568	1229.19
490.786	1240.19
491.003	1254.19
491.221	1274.19
491.439	1251.19
491.657	1254.19
491.874	1291.19
492.092	1244.19
492.31	1281.19
492.527	1251.19
492.745	1257.19
492.963	1297.19
493.18	1286.19
493.398	1272.19
493.615	1270.19
493.833	1298.19
494.05	1316.19
494.268	1322.19
494.485	1305.19
494.703	1319.19
