Data from NiCl2@0.0625M.TitratingCurve.Agarose3%dH2O.NegLispCup.LampEnergy10.LIBS07252019_HRD10591_18-32-59-576.txt Node
Date: Thu Jul 25 18:32:59 EDT 2019
User: cochatt
Spectrometer: HR+D1059
Trigger mode: 1
Integration Time (sec): 1.000000E-1
Scans to average: 1
Electric dark correction enabled: true
Nonlinearity correction enabled: false
Boxcar width: 0
XAxis mode: Wavelengths
Number of Pixels in Spectrum: 2048
>>>>>Begin Spectral Data<<<<<
223.165	-19.75
223.4	-19.75
223.635	-19.75
223.869	-16.75
224.104	-29.75
224.338	-7.75
224.573	-18.75
224.808	-1.75
225.042	-6.75
225.277	-4.75
225.511	8.25
225.746	5.25
225.98	11.25
226.215	11.25
226.449	-4.75
226.683	24.25
226.918	32.25
227.152	18.25
227.387	30.25
227.621	24.25
227.856	30.25
228.09	59.25
228.324	49.25
228.559	68.25
228.793	88.25
229.027	146.25
229.262	168.25
229.496	164.25
229.73	188.25
229.964	189.25
230.199	191.25
230.433	206.25
230.667	205.25
230.901	196.25
231.136	199.25
231.37	196.25
231.604	203.25
231.838	217.25
232.072	215.25
232.306	233.25
232.541	223.25
232.775	218.25
233.009	213.25
233.243	221.25
233.477	211.25
233.711	223.25
233.945	224.25
234.179	226.25
234.413	224.25
234.647	211.25
234.881	222.25
235.115	244.25
235.349	232.25
235.583	228.25
235.817	225.25
236.051	236.25
236.285	242.25
236.519	248.25
236.753	268.25
236.987	259.25
237.221	252.25
237.455	235.25
237.689	261.25
237.922	274.25
238.156	263.25
238.39	260.25
238.624	269.25
238.858	280.25
239.091	272.25
239.325	289.25
239.559	267.25
239.793	295.25
240.027	286.25
240.26	297.25
240.494	293.25
240.728	295.25
240.961	309.25
241.195	307.25
241.429	316.25
241.662	318.25
241.896	329.25
242.13	328.25
242.363	332.25
242.597	329.25
242.83	328.25
243.064	330.25
243.298	331.25
243.531	330.25
243.765	355.25
243.998	350.25
244.232	368.25
244.465	363.25
244.699	354.25
244.932	387.25
245.166	382.25
245.399	364.25
245.633	369.25
245.866	376.25
246.099	399.25
246.333	391.25
246.566	368.25
246.8	381.25
247.033	379.25
247.266	375.25
247.5	384.25
247.733	393.25
247.966	407.25
248.2	428.25
248.433	426.25
248.666	412.25
248.899	426.25
249.133	411.25
249.366	411.25
249.599	444.25
249.832	452.25
250.066	420.25
250.299	433.25
250.532	438.25
250.765	437.25
250.998	456.25
251.231	435.25
251.465	450.25
251.698	471.25
251.931	463.25
252.164	467.25
252.397	465.25
252.63	470.25
252.863	489.25
253.096	477.25
253.329	476.25
253.562	461.25
253.795	486.25
254.028	483.25
254.261	494.25
254.494	485.25
254.727	481.25
254.96	465.25
255.193	488.25
255.426	513.25
255.659	507.25
255.892	529.25
256.124	522.25
256.357	505.25
256.59	526.25
256.823	509.25
257.056	499.25
257.289	520.25
257.521	537.25
257.754	544.25
257.987	548.25
258.22	548.25
258.452	550.25
258.685	540.25
258.918	551.25
259.151	577.25
259.383	566.25
259.616	555.25
259.849	561.25
260.081	571.25
260.314	571.25
260.547	569.25
260.779	551.25
261.012	601.25
261.244	589.25
261.477	601.25
261.71	584.25
261.942	593.25
262.175	606.25
262.407	591.25
262.64	610.25
262.872	604.25
263.105	591.25
263.337	592.25
263.57	608.25
263.802	607.25
264.035	630.25
264.267	609.25
264.499	614.25
264.732	615.25
264.964	612.25
265.197	619.25
265.429	617.25
265.661	638.25
265.894	620.25
266.126	641.25
266.358	633.25
266.591	651.25
266.823	667.25
267.055	657.25
267.287	638.25
267.52	655.25
267.752	639.25
267.984	675.25
268.216	684.25
268.448	673.25
268.681	676.25
268.913	662.25
269.145	678.25
269.377	673.25
269.609	706.25
269.841	668.25
270.073	689.25
270.306	697.25
270.538	684.25
270.77	689.25
271.002	704.25
271.234	708.25
271.466	723.25
271.698	698.25
271.93	714.25
272.162	709.25
272.394	705.25
272.626	718.25
272.858	716.25
273.09	740.25
273.322	731.25
273.553	757.25
273.785	728.25
274.017	744.25
274.249	764.25
274.481	769.25
274.713	756.25
274.945	774.25
275.176	789.25
275.408	760.25
275.64	794.25
275.872	780.25
276.104	773.25
276.335	796.25
276.567	807.25
276.799	789.25
277.031	803.25
277.262	774.25
277.494	752.25
277.726	792.25
277.957	796.25
278.189	790.25
278.421	783.25
278.652	783.25
278.884	809.25
279.115	833.25
279.347	820.25
279.579	842.25
279.81	832.25
280.042	832.25
280.273	830.25
280.505	863.25
280.736	852.25
280.968	859.25
281.199	836.25
281.431	868.25
281.662	874.25
281.894	843.25
282.125	877.25
282.356	880.25
282.588	868.25
282.819	892.25
283.051	905.25
283.282	847.25
283.513	872.25
283.745	894.25
283.976	889.25
284.207	899.25
284.439	905.25
284.67	912.25
284.901	898.25
285.132	912.25
285.364	911.25
285.595	894.25
285.826	930.25
286.057	907.25
286.288	920.25
286.52	920.25
286.751	896.25
286.982	948.25
287.213	955.25
287.444	938.25
287.675	949.25
287.906	940.25
288.138	973.25
288.369	971.25
288.6	967.25
288.831	948.25
289.062	922.25
289.293	944.25
289.524	937.25
289.755	966.25
289.986	979.25
290.217	981.25
290.448	967.25
290.679	971.25
290.91	984.25
291.141	999.25
291.371	978.25
291.602	967.25
291.833	973.25
292.064	968.25
292.295	986.25
292.526	970.25
292.757	999.25
292.987	984.25
293.218	968.25
293.449	992.25
293.68	985.25
293.91	977.25
294.141	1005.25
294.372	980.25
294.603	981.25
294.833	997.25
295.064	1016.25
295.295	988.25
295.525	1017.25
295.756	998.25
295.987	982.25
296.217	1012.25
296.448	998.25
296.679	993.25
296.909	1027.25
297.14	1008.25
297.37	1030.25
297.601	1047.25
297.831	1033.25
298.062	1032.25
298.292	1046.25
298.523	1056.25
298.753	1088.25
298.984	1073.25
299.214	1058.25
299.445	1033.25
299.675	1038.25
299.905	1068.25
300.136	1072.25
300.366	1066.25
300.597	1081.25
300.827	1055.25
301.057	1106.25
301.288	1128.25
301.518	1092.25
301.748	1116.25
301.979	1099.25
302.209	1144.25
302.439	1117.25
302.669	1121.25
302.9	1122.25
303.13	1074.25
303.36	1124.25
303.59	1104.25
303.82	1092.25
304.051	1151.25
304.281	1155.25
304.511	1115.25
304.741	1135.25
304.971	1118.25
305.201	1134.25
305.431	1116.25
305.661	1100.25
305.891	1104.25
306.121	1113.25
306.352	1105.25
306.582	1099.25
306.812	1079.25
307.042	1104.25
307.272	1103.25
307.502	1108.25
307.731	1089.25
307.961	1100.25
308.191	1105.25
308.421	1123.25
308.651	1118.25
308.881	1095.25
309.111	1105.25
309.341	1090.25
309.571	1101.25
309.8	1103.25
310.03	1146.25
310.26	1115.25
310.49	1120.25
310.72	1103.25
310.949	1111.25
311.179	1124.25
311.409	1148.25
311.639	1124.25
311.868	1118.25
312.098	1127.25
312.328	1112.25
312.557	1157.25
312.787	1177.25
313.017	1179.25
313.246	1190.25
313.476	1173.25
313.706	1215.25
313.935	1184.25
314.165	1190.25
314.394	1200.25
314.624	1234.25
314.853	1189.25
315.083	1196.25
315.312	1195.25
315.542	1177.25
315.771	1172.25
316.001	1177.25
316.23	1190.25
316.46	1161.25
316.689	1191.25
316.919	1175.25
317.148	1199.25
317.377	1192.25
317.607	1193.25
317.836	1196.25
318.065	1174.25
318.295	1225.25
318.524	1197.25
318.753	1167.25
318.983	1188.25
319.212	1203.25
319.441	1173.25
319.67	1157.25
319.9	1159.25
320.129	1199.25
320.358	1188.25
320.587	1208.25
320.816	1165.25
321.046	1220.25
321.275	1173.25
321.504	1195.25
321.733	1187.25
321.962	1200.25
322.191	1206.25
322.42	1226.25
322.649	1216.25
322.878	1211.25
323.108	1212.25
323.337	1198.25
323.566	1221.25
323.795	1230.25
324.024	1247.25
324.253	1202.25
324.482	1224.25
324.71	1232.25
324.939	1227.25
325.168	1281.25
325.397	1238.25
325.626	1237.25
325.855	1240.25
326.084	1287.25
326.313	1260.25
326.542	1290.25
326.77	1313.25
326.999	1276.25
327.228	1310.25
327.457	1251.25
327.686	1292.25
327.914	1292.25
328.143	1318.25
328.372	1269.25
328.6	1319.25
328.829	1278.25
329.058	1291.25
329.287	1282.25
329.515	1320.25
329.744	1306.25
329.972	1323.25
330.201	1311.25
330.43	1324.25
330.658	1355.25
330.887	1327.25
331.115	1316.25
331.344	1340.25
331.572	1363.25
331.801	1405.25
332.03	1407.25
332.258	1432.25
332.486	1489.25
332.715	1483.25
332.943	1502.25
333.172	1511.25
333.4	1595.25
333.629	1658.25
333.857	1635.25
334.085	1690.25
334.314	1624.25
334.542	1615.25
334.771	1659.25
334.999	1644.25
335.227	1611.25
335.455	1565.25
335.684	1568.25
335.912	1563.25
336.14	1563.25
336.369	1550.25
336.597	1583.25
336.825	1554.25
337.053	1559.25
337.281	1510.25
337.51	1495.25
337.738	1506.25
337.966	1445.25
338.194	1466.25
338.422	1448.25
338.65	1425.25
338.878	1392.25
339.106	1413.25
339.334	1429.25
339.562	1432.25
339.79	1389.25
340.018	1371.25
340.246	1343.25
340.474	1349.25
340.702	1353.25
340.93	1341.25
341.158	1385.25
341.386	1397.25
341.614	1382.25
341.842	1399.25
342.07	1350.25
342.298	1358.25
342.526	1365.25
342.754	1381.25
342.981	1347.25
343.209	1374.25
343.437	1445.25
343.665	1509.25
343.893	1562.25
344.12	1593.25
344.348	1581.25
344.576	1534.25
344.804	1487.25
345.031	1426.25
345.259	1384.25
345.487	1360.25
345.714	1374.25
345.942	1322.25
346.17	1349.25
346.397	1327.25
346.625	1333.25
346.853	1282.25
347.08	1301.25
347.308	1309.25
347.535	1337.25
347.763	1318.25
347.99	1311.25
348.218	1287.25
348.445	1317.25
348.673	1284.25
348.9	1313.25
349.128	1316.25
349.355	1297.25
349.583	1296.25
349.81	1297.25
350.037	1288.25
350.265	1297.25
350.492	1270.25
350.72	1256.25
350.947	1255.25
351.174	1280.25
351.402	1281.25
351.629	1280.25
351.856	1274.25
352.083	1250.25
352.311	1265.25
352.538	1248.25
352.765	1288.25
352.992	1217.25
353.22	1215.25
353.447	1232.25
353.674	1234.25
353.901	1274.25
354.128	1255.25
354.355	1219.25
354.583	1228.25
354.81	1223.25
355.037	1301.25
355.264	1259.25
355.491	1254.25
355.718	1256.25
355.945	1239.25
356.172	1217.25
356.399	1250.25
356.626	1247.25
356.853	1266.25
357.08	1283.25
357.307	1278.25
357.534	1253.25
357.761	1285.25
357.988	1290.25
358.215	1235.25
358.441	1268.25
358.668	1243.25
358.895	1269.25
359.122	1241.25
359.349	1261.25
359.576	1248.25
359.802	1254.25
360.029	1270.25
360.256	1249.25
360.483	1279.25
360.709	1250.25
360.936	1268.25
361.163	1269.25
361.39	1246.25
361.616	1264.25
361.843	1270.25
362.07	1256.25
362.296	1282.25
362.523	1270.25
362.749	1273.25
362.976	1290.25
363.203	1234.25
363.429	1264.25
363.656	1239.25
363.882	1259.25
364.109	1283.25
364.335	1239.25
364.562	1241.25
364.788	1253.25
365.015	1263.25
365.241	1262.25
365.468	1281.25
365.694	1275.25
365.92	1253.25
366.147	1293.25
366.373	1240.25
366.599	1256.25
366.826	1255.25
367.052	1246.25
367.278	1238.25
367.505	1287.25
367.731	1264.25
367.957	1280.25
368.184	1271.25
368.41	1266.25
368.636	1295.25
368.862	1301.25
369.089	1347.25
369.315	1301.25
369.541	1315.25
369.767	1321.25
369.993	1318.25
370.219	1302.25
370.445	1323.25
370.672	1343.25
370.898	1333.25
371.124	1300.25
371.35	1382.25
371.576	1356.25
371.802	1384.25
372.028	1369.25
372.254	1394.25
372.48	1377.25
372.706	1411.25
372.932	1399.25
373.158	1406.25
373.384	1389.25
373.61	1388.25
373.835	1363.25
374.061	1380.25
374.287	1405.25
374.513	1447.25
374.739	1411.25
374.965	1461.25
375.191	1514.25
375.416	1492.25
375.642	1436.25
375.868	1430.25
376.094	1405.25
376.319	1398.25
376.545	1376.25
376.771	1370.25
376.997	1375.25
377.222	1355.25
377.448	1346.25
377.674	1355.25
377.899	1371.25
378.125	1332.25
378.35	1351.25
378.576	1336.25
378.802	1343.25
379.027	1353.25
379.253	1344.25
379.478	1321.25
379.704	1341.25
379.929	1379.25
380.155	1352.25
380.38	1337.25
380.606	1333.25
380.831	1359.25
381.057	1377.25
381.282	1396.25
381.507	1371.25
381.733	1389.25
381.958	1395.25
382.184	1413.25
382.409	1393.25
382.634	1383.25
382.86	1433.25
383.085	1444.25
383.31	1419.25
383.535	1464.25
383.761	1485.25
383.986	1484.25
384.211	1507.25
384.436	1555.25
384.662	1536.25
384.887	1584.25
385.112	1578.25
385.337	1587.25
385.562	1616.25
385.787	1631.25
386.013	1619.25
386.238	1664.25
386.463	1665.25
386.688	1666.25
386.913	1618.25
387.138	1636.25
387.363	1615.25
387.588	1635.25
387.813	1634.25
388.038	1613.25
388.263	1642.25
388.488	1603.25
388.713	1596.25
388.938	1632.25
389.163	1584.25
389.387	1621.25
389.612	1615.25
389.837	1610.25
390.062	1588.25
390.287	1614.25
390.512	1613.25
390.736	1641.25
390.961	1648.25
391.186	1696.25
391.411	1705.25
391.636	1744.25
391.86	1779.25
392.085	1829.25
392.31	1824.25
392.534	1799.25
392.759	1763.25
392.984	1752.25
393.208	1726.25
393.433	1737.25
393.658	1805.25
393.882	1737.25
394.107	1729.25
394.331	1722.25
394.556	1754.25
394.78	1735.25
395.005	1783.25
395.229	1766.25
395.454	1752.25
395.678	1797.25
395.903	1809.25
396.127	1796.25
396.352	1779.25
396.576	1776.25
396.801	1758.25
397.025	1774.25
397.249	1835.25
397.474	1825.25
397.698	1851.25
397.922	1837.25
398.147	1843.25
398.371	1904.25
398.595	1935.25
398.82	1999.25
399.044	2132.25
399.268	2280.25
399.492	2480.25
399.717	2767.25
399.941	2806.25
400.165	2575.25
400.389	2415.25
400.613	2287.25
400.837	2164.25
401.062	2111.25
401.286	2103.25
401.51	2004.25
401.734	1999.25
401.958	2031.25
402.182	2009.25
402.406	2066.25
402.63	2072.25
402.854	2055.25
403.078	2161.25
403.302	2149.25
403.526	2176.25
403.75	2185.25
403.974	2215.25
404.198	2239.25
404.422	2199.25
404.645	2186.25
404.869	2193.25
405.093	2241.25
405.317	2167.25
405.541	2188.25
405.765	2169.25
405.988	2156.25
406.212	2190.25
406.436	2189.25
406.66	2238.25
406.883	2250.25
407.107	2365.25
407.331	2436.25
407.555	2541.25
407.778	2543.25
408.002	2471.25
408.226	2446.25
408.449	2424.25
408.673	2341.25
408.896	2295.25
409.12	2260.25
409.344	2297.25
409.567	2255.25
409.791	2256.25
410.014	2204.25
410.238	2163.25
410.461	2181.25
410.685	2216.25
410.908	2162.25
411.132	2152.25
411.355	2082.25
411.578	2132.25
411.802	2109.25
412.025	2140.25
412.249	2160.25
412.472	2110.25
412.695	2088.25
412.919	2030.25
413.142	2054.25
413.365	2049.25
413.589	2031.25
413.812	2021.25
414.035	1991.25
414.258	2018.25
414.482	1984.25
414.705	2018.25
414.928	2015.25
415.151	2017.25
415.374	2020.25
415.597	1953.25
415.821	1941.25
416.044	2003.25
416.267	1968.25
416.49	1957.25
416.713	1897.25
416.936	1985.25
417.159	1920.25
417.382	1925.25
417.605	1922.25
417.828	1924.25
418.051	1936.25
418.274	1980.25
418.497	1933.25
418.72	2015.25
418.943	1979.25
419.166	2145.25
419.389	2229.25
419.611	2216.25
419.834	2125.25
420.057	2079.25
420.28	1990.25
420.503	1925.25
420.726	1900.25
420.948	1883.25
421.171	1937.25
421.394	1971.25
421.617	1889.25
421.839	1910.25
422.062	1927.25
422.285	1928.25
422.507	1991.25
422.73	1974.25
422.953	1965.25
423.175	2006.25
423.398	1966.25
423.621	1980.25
423.843	2001.25
424.066	1961.25
424.288	1980.25
424.511	1991.25
424.733	1973.25
424.956	1941.25
425.178	1971.25
425.401	1941.25
425.623	1972.25
425.846	1917.25
426.068	1900.25
426.291	1868.25
426.513	1890.25
426.735	1887.25
426.958	1884.25
427.18	1830.25
427.402	1813.25
427.625	1840.25
427.847	1772.25
428.069	1796.25
428.292	1767.25
428.514	1688.25
428.736	1749.25
428.958	1801.25
429.181	1731.25
429.403	1733.25
429.625	1735.25
429.847	1761.25
430.069	1715.25
430.292	1728.25
430.514	1716.25
430.736	1747.25
430.958	1732.25
431.18	1775.25
431.402	1738.25
431.624	1768.25
431.846	1799.25
432.068	1825.25
432.29	1822.25
432.512	1748.25
432.734	1782.25
432.956	1800.25
433.178	1781.25
433.4	1809.25
433.622	1806.25
433.844	1838.25
434.066	1795.25
434.287	1836.25
434.509	1877.25
434.731	1930.25
434.953	1957.25
435.175	1975.25
435.397	1939.25
435.618	1885.25
435.84	1861.25
436.062	1820.25
436.284	1760.25
436.505	1764.25
436.727	1767.25
436.949	1774.25
437.17	1764.25
437.392	1742.25
437.614	1726.25
437.835	1738.25
438.057	1688.25
438.278	1669.25
438.5	1712.25
438.721	1703.25
438.943	1727.25
439.165	1703.25
439.386	1671.25
439.608	1738.25
439.829	1752.25
440.05	1742.25
440.272	1725.25
440.493	1740.25
440.715	1758.25
440.936	1780.25
441.158	1811.25
441.379	1853.25
441.6	1891.25
441.822	1888.25
442.043	1892.25
442.264	1876.25
442.486	1868.25
442.707	1872.25
442.928	1862.25
443.149	1895.25
443.371	1856.25
443.592	1930.25
443.813	1892.25
444.034	1919.25
444.255	1968.25
444.476	2091.25
444.698	2129.25
444.919	2168.25
445.14	2235.25
445.361	2085.25
445.582	2000.25
445.803	1899.25
446.024	1861.25
446.245	1855.25
446.466	1781.25
446.687	1742.25
446.908	1776.25
447.129	1694.25
447.35	1678.25
447.571	1667.25
447.792	1638.25
448.013	1649.25
448.234	1651.25
448.455	1631.25
448.675	1587.25
448.896	1589.25
449.117	1546.25
449.338	1534.25
449.559	1573.25
449.779	1542.25
450	1569.25
450.221	1580.25
450.442	1541.25
450.662	1577.25
450.883	1576.25
451.104	1590.25
451.324	1563.25
451.545	1577.25
451.766	1572.25
451.986	1553.25
452.207	1536.25
452.428	1563.25
452.648	1572.25
452.869	1519.25
453.089	1513.25
453.31	1560.25
453.53	1491.25
453.751	1550.25
453.971	1505.25
454.192	1540.25
454.412	1447.25
454.633	1467.25
454.853	1494.25
455.073	1504.25
455.294	1480.25
455.514	1491.25
455.734	1519.25
455.955	1484.25
456.175	1451.25
456.395	1481.25
456.616	1434.25
456.836	1487.25
457.056	1482.25
457.276	1471.25
457.497	1531.25
457.717	1488.25
457.937	1530.25
458.157	1529.25
458.377	1566.25
458.598	1583.25
458.818	1608.25
459.038	1705.25
459.258	1701.25
459.478	1750.25
459.698	1782.25
459.918	1810.25
460.138	1864.25
460.358	1936.25
460.578	1945.25
460.798	2014.25
461.018	1996.25
461.238	1988.25
461.458	1980.25
461.678	1975.25
461.898	2029.25
462.118	2040.25
462.338	2135.25
462.558	2230.25
462.777	2269.25
462.997	2351.25
463.217	2515.25
463.437	2499.25
463.657	2365.25
463.876	2299.25
464.096	2288.25
464.316	2258.25
464.536	2301.25
464.755	2187.25
464.975	2136.25
465.195	2091.25
465.414	1965.25
465.634	1859.25
465.854	1806.25
466.073	1776.25
466.293	1766.25
466.512	1740.25
466.732	1672.25
466.951	1715.25
467.171	1676.25
467.391	1683.25
467.61	1651.25
467.829	1621.25
468.049	1615.25
468.268	1621.25
468.488	1578.25
468.707	1569.25
468.927	1601.25
469.146	1571.25
469.365	1597.25
469.585	1623.25
469.804	1682.25
470.023	1665.25
470.243	1681.25
470.462	1687.25
470.681	1701.25
470.901	1691.25
471.12	1716.25
471.339	1663.25
471.558	1655.25
471.777	1620.25
471.997	1630.25
472.216	1614.25
472.435	1607.25
472.654	1600.25
472.873	1581.25
473.092	1593.25
473.311	1592.25
473.53	1562.25
473.749	1581.25
473.968	1587.25
474.187	1589.25
474.406	1608.25
474.625	1569.25
474.844	1587.25
475.063	1566.25
475.282	1598.25
475.501	1616.25
475.72	1669.25
475.939	1673.25
476.158	1635.25
476.377	1652.25
476.596	1674.25
476.814	1699.25
477.033	1673.25
477.252	1750.25
477.471	1795.25
477.69	1808.25
477.908	1807.25
478.127	1878.25
478.346	1873.25
478.564	1887.25
478.783	1956.25
479.002	2011.25
479.22	1998.25
479.439	1982.25
479.658	1978.25
479.876	2013.25
480.095	2025.25
480.313	2086.25
480.532	2126.25
480.751	2119.25
480.969	2083.25
481.188	2032.25
481.406	1980.25
481.624	1972.25
481.843	1948.25
482.061	1908.25
482.28	1935.25
482.498	1947.25
482.717	1965.25
482.935	1908.25
483.153	1932.25
483.372	1936.25
483.59	1936.25
483.808	1936.25
484.027	1963.25
484.245	1983.25
484.463	1994.25
484.681	2031.25
484.9	2014.25
485.118	2068.25
485.336	2064.25
485.554	2083.25
485.772	2069.25
485.99	2036.25
486.209	2068.25
486.427	2066.25
486.645	2028.25
486.863	2043.25
487.081	2075.25
487.299	2014.25
487.517	2047.25
487.735	2049.25
487.953	2068.25
488.171	2069.25
488.389	2047.25
488.607	1997.25
488.825	1947.25
489.043	1987.25
489.261	1999.25
489.479	1986.25
489.696	1964.25
