Data from NiCl2@0.125M.TitratingCurve.Agarose3%dH2O.NegLispCup.LampEnergy10.LIBS07252019_HRD10591_18-28-49-574.txt Node
Date: Thu Jul 25 18:28:49 EDT 2019
User: cochatt
Spectrometer: HR+D1059
Trigger mode: 1
Integration Time (sec): 1.000000E-1
Scans to average: 1
Electric dark correction enabled: true
Nonlinearity correction enabled: false
Boxcar width: 0
XAxis mode: Wavelengths
Number of Pixels in Spectrum: 2048
>>>>>Begin Spectral Data<<<<<
223.165	-20.12
223.4	-20.12
223.635	-20.12
223.869	-11.12
224.104	-11.12
224.338	-27.12
224.573	-7.12
224.808	-13.12
225.042	-2.12
225.277	-12.12
225.511	4.88
225.746	-2.12
225.98	1.88
226.215	-0.12
226.449	11.88
226.683	21.88
226.918	24.88
227.152	40.88
227.387	33.88
227.621	42.88
227.856	42.88
228.09	38.88
228.324	37.88
228.559	45.88
228.793	68.88
229.027	112.88
229.262	130.88
229.496	115.88
229.73	115.88
229.964	126.88
230.199	124.88
230.433	133.88
230.667	147.88
230.901	135.88
231.136	151.88
231.37	145.88
231.604	152.88
231.838	151.88
232.072	120.88
232.306	147.88
232.541	156.88
232.775	147.88
233.009	150.88
233.243	158.88
233.477	138.88
233.711	156.88
233.945	153.88
234.179	151.88
234.413	167.88
234.647	152.88
234.881	146.88
235.115	162.88
235.349	163.88
235.583	157.88
235.817	142.88
236.051	160.88
236.285	161.88
236.519	159.88
236.753	160.88
236.987	157.88
237.221	147.88
237.455	157.88
237.689	166.88
237.922	168.88
238.156	161.88
238.39	175.88
238.624	167.88
238.858	177.88
239.091	172.88
239.325	177.88
239.559	195.88
239.793	204.88
240.027	176.88
240.26	184.88
240.494	193.88
240.728	191.88
240.961	188.88
241.195	208.88
241.429	195.88
241.662	185.88
241.896	194.88
242.13	188.88
242.363	212.88
242.597	192.88
242.83	204.88
243.064	196.88
243.298	208.88
243.531	198.88
243.765	225.88
243.998	216.88
244.232	211.88
244.465	204.88
244.699	207.88
244.932	222.88
245.166	237.88
245.399	227.88
245.633	232.88
245.866	213.88
246.099	223.88
246.333	237.88
246.566	247.88
246.8	232.88
247.033	239.88
247.266	231.88
247.5	241.88
247.733	234.88
247.966	251.88
248.2	258.88
248.433	234.88
248.666	259.88
248.899	250.88
249.133	245.88
249.366	250.88
249.599	253.88
249.832	249.88
250.066	242.88
250.299	265.88
250.532	249.88
250.765	255.88
250.998	265.88
251.231	263.88
251.465	242.88
251.698	271.88
251.931	273.88
252.164	286.88
252.397	274.88
252.63	270.88
252.863	294.88
253.096	304.88
253.329	296.88
253.562	261.88
253.795	268.88
254.028	298.88
254.261	288.88
254.494	287.88
254.727	280.88
254.96	284.88
255.193	297.88
255.426	313.88
255.659	293.88
255.892	299.88
256.124	285.88
256.357	289.88
256.59	310.88
256.823	288.88
257.056	298.88
257.289	310.88
257.521	299.88
257.754	322.88
257.987	307.88
258.22	329.88
258.452	325.88
258.685	327.88
258.918	317.88
259.151	319.88
259.383	334.88
259.616	327.88
259.849	324.88
260.081	319.88
260.314	318.88
260.547	326.88
260.779	348.88
261.012	339.88
261.244	329.88
261.477	321.88
261.71	306.88
261.942	331.88
262.175	335.88
262.407	347.88
262.64	343.88
262.872	326.88
263.105	312.88
263.337	346.88
263.57	352.88
263.802	367.88
264.035	361.88
264.267	360.88
264.499	344.88
264.732	369.88
264.964	361.88
265.197	372.88
265.429	358.88
265.661	354.88
265.894	344.88
266.126	364.88
266.358	357.88
266.591	349.88
266.823	371.88
267.055	367.88
267.287	375.88
267.52	368.88
267.752	375.88
267.984	373.88
268.216	380.88
268.448	390.88
268.681	377.88
268.913	380.88
269.145	394.88
269.377	372.88
269.609	390.88
269.841	381.88
270.073	401.88
270.306	392.88
270.538	387.88
270.77	401.88
271.002	394.88
271.234	402.88
271.466	395.88
271.698	419.88
271.93	414.88
272.162	404.88
272.394	418.88
272.626	400.88
272.858	412.88
273.09	415.88
273.322	416.88
273.553	423.88
273.785	421.88
274.017	406.88
274.249	426.88
274.481	435.88
274.713	447.88
274.945	453.88
275.176	420.88
275.408	439.88
275.64	437.88
275.872	416.88
276.104	404.88
276.335	451.88
276.567	433.88
276.799	441.88
277.031	450.88
277.262	436.88
277.494	437.88
277.726	467.88
277.957	462.88
278.189	455.88
278.421	453.88
278.652	457.88
278.884	460.88
279.115	451.88
279.347	473.88
279.579	462.88
279.81	466.88
280.042	466.88
280.273	480.88
280.505	472.88
280.736	472.88
280.968	485.88
281.199	461.88
281.431	471.88
281.662	471.88
281.894	480.88
282.125	474.88
282.356	486.88
282.588	496.88
282.819	501.88
283.051	487.88
283.282	490.88
283.513	480.88
283.745	523.88
283.976	506.88
284.207	484.88
284.439	491.88
284.67	495.88
284.901	510.88
285.132	533.88
285.364	495.88
285.595	505.88
285.826	500.88
286.057	511.88
286.288	536.88
286.52	539.88
286.751	515.88
286.982	544.88
287.213	519.88
287.444	517.88
287.675	525.88
287.906	523.88
288.138	529.88
288.369	533.88
288.6	549.88
288.831	554.88
289.062	533.88
289.293	568.88
289.524	548.88
289.755	558.88
289.986	541.88
290.217	559.88
290.448	533.88
290.679	549.88
290.91	533.88
291.141	516.88
291.371	544.88
291.602	574.88
291.833	552.88
292.064	546.88
292.295	556.88
292.526	566.88
292.757	550.88
292.987	558.88
293.218	548.88
293.449	559.88
293.68	565.88
293.91	560.88
294.141	557.88
294.372	549.88
294.603	548.88
294.833	570.88
295.064	564.88
295.295	571.88
295.525	548.88
295.756	551.88
295.987	554.88
296.217	571.88
296.448	564.88
296.679	555.88
296.909	569.88
297.14	580.88
297.37	616.88
297.601	601.88
297.831	601.88
298.062	604.88
298.292	594.88
298.523	613.88
298.753	597.88
298.984	598.88
299.214	584.88
299.445	594.88
299.675	594.88
299.905	603.88
300.136	602.88
300.366	620.88
300.597	612.88
300.827	625.88
301.057	634.88
301.288	645.88
301.518	639.88
301.748	648.88
301.979	644.88
302.209	639.88
302.439	623.88
302.669	609.88
302.9	623.88
303.13	614.88
303.36	640.88
303.59	626.88
303.82	611.88
304.051	609.88
304.281	626.88
304.511	602.88
304.741	611.88
304.971	635.88
305.201	613.88
305.431	642.88
305.661	621.88
305.891	631.88
306.121	605.88
306.352	602.88
306.582	629.88
306.812	591.88
307.042	597.88
307.272	633.88
307.502	604.88
307.731	590.88
307.961	604.88
308.191	617.88
308.421	628.88
308.651	605.88
308.881	609.88
309.111	593.88
309.341	603.88
309.571	623.88
309.8	616.88
310.03	597.88
310.26	607.88
310.49	608.88
310.72	646.88
310.949	626.88
311.179	620.88
311.409	614.88
311.639	603.88
311.868	639.88
312.098	618.88
312.328	666.88
312.557	639.88
312.787	653.88
313.017	637.88
313.246	655.88
313.476	649.88
313.706	649.88
313.935	668.88
314.165	665.88
314.394	666.88
314.624	660.88
314.853	681.88
315.083	647.88
315.312	661.88
315.542	650.88
315.771	664.88
316.001	695.88
316.23	652.88
316.46	628.88
316.689	639.88
316.919	641.88
317.148	666.88
317.377	649.88
317.607	633.88
317.836	638.88
318.065	651.88
318.295	641.88
318.524	625.88
318.753	649.88
318.983	624.88
319.212	625.88
319.441	646.88
319.67	645.88
319.9	627.88
320.129	651.88
320.358	644.88
320.587	646.88
320.816	661.88
321.046	643.88
321.275	632.88
321.504	612.88
321.733	634.88
321.962	663.88
322.191	667.88
322.42	666.88
322.649	649.88
322.878	664.88
323.108	669.88
323.337	686.88
323.566	663.88
323.795	674.88
324.024	681.88
324.253	667.88
324.482	653.88
324.71	665.88
324.939	673.88
325.168	672.88
325.397	688.88
325.626	681.88
325.855	698.88
326.084	703.88
326.313	737.88
326.542	714.88
326.77	715.88
326.999	703.88
327.228	724.88
327.457	701.88
327.686	707.88
327.914	733.88
328.143	703.88
328.372	739.88
328.6	703.88
328.829	708.88
329.058	710.88
329.287	744.88
329.515	732.88
329.744	711.88
329.972	700.88
330.201	746.88
330.43	711.88
330.658	725.88
330.887	716.88
331.115	714.88
331.344	757.88
331.572	759.88
331.801	775.88
332.03	758.88
332.258	823.88
332.486	844.88
332.715	845.88
332.943	864.88
333.172	931.88
333.4	977.88
333.629	992.88
333.857	994.88
334.085	952.88
334.314	949.88
334.542	932.88
334.771	901.88
334.999	883.88
335.227	870.88
335.455	885.88
335.684	899.88
335.912	866.88
336.14	857.88
336.369	863.88
336.597	881.88
336.825	849.88
337.053	873.88
337.281	869.88
337.51	818.88
337.738	826.88
337.966	785.88
338.194	780.88
338.422	777.88
338.65	786.88
338.878	767.88
339.106	773.88
339.334	792.88
339.562	775.88
339.79	731.88
340.018	767.88
340.246	746.88
340.474	733.88
340.702	703.88
340.93	731.88
341.158	746.88
341.386	708.88
341.614	725.88
341.842	732.88
342.07	731.88
342.298	708.88
342.526	730.88
342.754	722.88
342.981	733.88
343.209	747.88
343.437	762.88
343.665	835.88
343.893	901.88
344.12	961.88
344.348	890.88
344.576	821.88
344.804	785.88
345.031	775.88
345.259	767.88
345.487	748.88
345.714	736.88
345.942	728.88
346.17	714.88
346.397	744.88
346.625	695.88
346.853	703.88
347.08	713.88
347.308	720.88
347.535	742.88
347.763	716.88
347.99	719.88
348.218	730.88
348.445	701.88
348.673	699.88
348.9	715.88
349.128	722.88
349.355	676.88
349.583	722.88
349.81	693.88
350.037	702.88
350.265	702.88
350.492	692.88
350.72	694.88
350.947	700.88
351.174	708.88
351.402	701.88
351.629	688.88
351.856	690.88
352.083	697.88
352.311	682.88
352.538	680.88
352.765	674.88
352.992	683.88
353.22	659.88
353.447	663.88
353.674	684.88
353.901	693.88
354.128	682.88
354.355	693.88
354.583	689.88
354.81	703.88
355.037	674.88
355.264	685.88
355.491	698.88
355.718	673.88
355.945	719.88
356.172	669.88
356.399	687.88
356.626	678.88
356.853	678.88
357.08	707.88
357.307	713.88
357.534	695.88
357.761	714.88
357.988	706.88
358.215	713.88
358.441	672.88
358.668	702.88
358.895	677.88
359.122	667.88
359.349	699.88
359.576	689.88
359.802	661.88
360.029	698.88
360.256	693.88
360.483	685.88
360.709	708.88
360.936	695.88
361.163	685.88
361.39	689.88
361.616	681.88
361.843	679.88
362.07	688.88
362.296	684.88
362.523	699.88
362.749	691.88
362.976	693.88
363.203	687.88
363.429	680.88
363.656	687.88
363.882	714.88
364.109	691.88
364.335	679.88
364.562	667.88
364.788	643.88
365.015	685.88
365.241	687.88
365.468	689.88
365.694	669.88
365.92	679.88
366.147	677.88
366.373	707.88
366.599	673.88
366.826	669.88
367.052	692.88
367.278	677.88
367.505	695.88
367.731	681.88
367.957	695.88
368.184	700.88
368.41	680.88
368.636	687.88
368.862	695.88
369.089	691.88
369.315	700.88
369.541	722.88
369.767	720.88
369.993	709.88
370.219	706.88
370.445	722.88
370.672	726.88
370.898	727.88
371.124	741.88
371.35	747.88
371.576	767.88
371.802	753.88
372.028	737.88
372.254	743.88
372.48	742.88
372.706	775.88
372.932	771.88
373.158	791.88
373.384	755.88
373.61	748.88
373.835	742.88
374.061	776.88
374.287	760.88
374.513	789.88
374.739	807.88
374.965	829.88
375.191	828.88
375.416	836.88
375.642	791.88
375.868	791.88
376.094	789.88
376.319	795.88
376.545	758.88
376.771	777.88
376.997	745.88
377.222	758.88
377.448	736.88
377.674	728.88
377.899	725.88
378.125	729.88
378.35	738.88
378.576	745.88
378.802	734.88
379.027	731.88
379.253	739.88
379.478	731.88
379.704	752.88
379.929	748.88
380.155	734.88
380.38	780.88
380.606	757.88
380.831	731.88
381.057	750.88
381.282	753.88
381.507	760.88
381.733	786.88
381.958	769.88
382.184	751.88
382.409	756.88
382.634	796.88
382.86	780.88
383.085	792.88
383.31	795.88
383.535	852.88
383.761	859.88
383.986	874.88
384.211	887.88
384.436	857.88
384.662	887.88
384.887	915.88
385.112	874.88
385.337	929.88
385.562	908.88
385.787	927.88
386.013	911.88
386.238	918.88
386.463	927.88
386.688	921.88
386.913	908.88
387.138	892.88
387.363	890.88
387.588	890.88
387.813	864.88
388.038	883.88
388.263	905.88
388.488	903.88
388.713	881.88
388.938	901.88
389.163	874.88
389.387	888.88
389.612	893.88
389.837	896.88
390.062	876.88
390.287	877.88
390.512	844.88
390.736	890.88
390.961	909.88
391.186	921.88
391.411	948.88
391.636	980.88
391.86	1032.88
392.085	1023.88
392.31	1058.88
392.534	1020.88
392.759	977.88
392.984	993.88
393.208	959.88
393.433	954.88
393.658	958.88
393.882	977.88
394.107	968.88
394.331	925.88
394.556	989.88
394.78	990.88
395.005	997.88
395.229	990.88
395.454	1016.88
395.678	1036.88
395.903	1020.88
396.127	1009.88
396.352	996.88
396.576	977.88
396.801	935.88
397.025	952.88
397.249	972.88
397.474	1023.88
397.698	1007.88
397.922	1021.88
398.147	1000.88
398.371	1050.88
398.595	1099.88
398.82	1132.88
399.044	1178.88
399.268	1372.88
399.492	1579.88
399.717	1801.88
399.941	1785.88
400.165	1555.88
400.389	1407.88
400.613	1247.88
400.837	1199.88
401.062	1187.88
401.286	1131.88
401.51	1138.88
401.734	1146.88
401.958	1156.88
402.182	1149.88
402.406	1180.88
402.63	1174.88
402.854	1192.88
403.078	1229.88
403.302	1282.88
403.526	1321.88
403.75	1320.88
403.974	1380.88
404.198	1367.88
404.422	1388.88
404.645	1323.88
404.869	1344.88
405.093	1347.88
405.317	1305.88
405.541	1267.88
405.765	1268.88
405.988	1271.88
406.212	1228.88
406.436	1265.88
406.66	1260.88
406.883	1351.88
407.107	1386.88
407.331	1473.88
407.555	1479.88
407.778	1524.88
408.002	1440.88
408.226	1396.88
408.449	1384.88
408.673	1327.88
408.896	1273.88
409.12	1291.88
409.344	1320.88
409.567	1290.88
409.791	1281.88
410.014	1287.88
410.238	1285.88
410.461	1307.88
410.685	1271.88
410.908	1209.88
411.132	1230.88
411.355	1178.88
411.578	1203.88
411.802	1184.88
412.025	1211.88
412.249	1218.88
412.472	1188.88
412.695	1173.88
412.919	1142.88
413.142	1121.88
413.365	1155.88
413.589	1106.88
413.812	1140.88
414.035	1112.88
414.258	1137.88
414.482	1148.88
414.705	1157.88
414.928	1173.88
415.151	1155.88
415.374	1121.88
415.597	1122.88
415.821	1112.88
416.044	1108.88
416.267	1112.88
416.49	1084.88
416.713	1150.88
416.936	1135.88
417.159	1122.88
417.382	1137.88
417.605	1089.88
417.828	1143.88
418.051	1146.88
418.274	1147.88
418.497	1140.88
418.72	1152.88
418.943	1157.88
419.166	1234.88
419.389	1324.88
419.611	1285.88
419.834	1210.88
420.057	1167.88
420.28	1158.88
420.503	1125.88
420.726	1159.88
420.948	1142.88
421.171	1131.88
421.394	1164.88
421.617	1128.88
421.839	1115.88
422.062	1153.88
422.285	1127.88
422.507	1149.88
422.73	1173.88
422.953	1191.88
423.175	1194.88
423.398	1196.88
423.621	1200.88
423.843	1210.88
424.066	1223.88
424.288	1215.88
424.511	1205.88
424.733	1154.88
424.956	1162.88
425.178	1173.88
425.401	1144.88
425.623	1161.88
425.846	1080.88
426.068	1104.88
426.291	1091.88
426.513	1065.88
426.735	1040.88
426.958	1034.88
427.18	1010.88
427.402	1028.88
427.625	1046.88
427.847	996.88
428.069	1037.88
428.292	1045.88
428.514	983.88
428.736	998.88
428.958	1010.88
429.181	961.88
429.403	953.88
429.625	983.88
429.847	960.88
430.069	959.88
430.292	979.88
430.514	962.88
430.736	985.88
430.958	979.88
431.18	965.88
431.402	985.88
431.624	975.88
431.846	991.88
432.068	1017.88
432.29	1035.88
432.512	1008.88
432.734	1002.88
432.956	1007.88
433.178	1022.88
433.4	1009.88
433.622	1002.88
433.844	1036.88
434.066	1025.88
434.287	1052.88
434.509	1048.88
434.731	1085.88
434.953	1153.88
435.175	1114.88
435.397	1119.88
435.618	1071.88
435.84	1056.88
436.062	1034.88
436.284	1000.88
436.505	1004.88
436.727	1001.88
436.949	1004.88
437.17	1026.88
437.392	996.88
437.614	985.88
437.835	967.88
438.057	971.88
438.278	958.88
438.5	972.88
438.721	961.88
438.943	999.88
439.165	956.88
439.386	973.88
439.608	1009.88
439.829	1026.88
440.05	991.88
440.272	1011.88
440.493	1018.88
440.715	1047.88
440.936	1046.88
441.158	1098.88
441.379	1073.88
441.6	1147.88
441.822	1161.88
442.043	1153.88
442.264	1128.88
442.486	1081.88
442.707	1109.88
442.928	1074.88
443.149	1122.88
443.371	1099.88
443.592	1119.88
443.813	1099.88
444.034	1127.88
444.255	1208.88
444.476	1279.88
444.698	1345.88
444.919	1422.88
445.14	1417.88
445.361	1313.88
445.582	1179.88
445.803	1091.88
446.024	1061.88
446.245	1056.88
446.466	1048.88
446.687	1034.88
446.908	1015.88
447.129	993.88
447.35	1026.88
447.571	960.88
447.792	972.88
448.013	955.88
448.234	909.88
448.455	937.88
448.675	905.88
448.896	939.88
449.117	897.88
449.338	926.88
449.559	903.88
449.779	880.88
450	875.88
450.221	911.88
450.442	913.88
450.662	934.88
450.883	932.88
451.104	967.88
451.324	942.88
451.545	938.88
451.766	943.88
451.986	909.88
452.207	923.88
452.428	923.88
452.648	921.88
452.869	904.88
453.089	906.88
453.31	921.88
453.53	899.88
453.751	886.88
453.971	887.88
454.192	882.88
454.412	863.88
454.633	868.88
454.853	858.88
455.073	888.88
455.294	871.88
455.514	866.88
455.734	863.88
455.955	864.88
456.175	859.88
456.395	876.88
456.616	861.88
456.836	842.88
457.056	836.88
457.276	846.88
457.497	881.88
457.717	853.88
457.937	890.88
458.157	868.88
458.377	875.88
458.598	894.88
458.818	923.88
459.038	951.88
459.258	969.88
459.478	977.88
459.698	1019.88
459.918	1043.88
460.138	1113.88
460.358	1141.88
460.578	1196.88
460.798	1202.88
461.018	1241.88
461.238	1177.88
461.458	1184.88
461.678	1193.88
461.898	1182.88
462.118	1190.88
462.338	1265.88
462.558	1294.88
462.777	1344.88
462.997	1444.88
463.217	1631.88
463.437	1617.88
463.657	1462.88
463.876	1388.88
464.096	1411.88
464.316	1407.88
464.536	1460.88
464.755	1374.88
464.975	1306.88
465.195	1231.88
465.414	1149.88
465.634	1084.88
465.854	1090.88
466.073	1033.88
466.293	1004.88
466.512	987.88
466.732	973.88
466.951	970.88
467.171	957.88
467.391	934.88
467.61	918.88
467.829	954.88
468.049	948.88
468.268	937.88
468.488	901.88
468.707	909.88
468.927	897.88
469.146	890.88
469.365	938.88
469.585	941.88
469.804	968.88
470.023	955.88
470.243	980.88
470.462	1008.88
470.681	1031.88
470.901	1009.88
471.12	977.88
471.339	956.88
471.558	970.88
471.777	931.88
471.997	930.88
472.216	916.88
472.435	909.88
472.654	898.88
472.873	888.88
473.092	895.88
473.311	858.88
473.53	887.88
473.749	881.88
473.968	890.88
474.187	870.88
474.406	871.88
474.625	889.88
474.844	893.88
475.063	887.88
475.282	863.88
475.501	887.88
475.72	900.88
475.939	897.88
476.158	910.88
476.377	948.88
476.596	925.88
476.814	952.88
477.033	928.88
477.252	938.88
477.471	981.88
477.69	989.88
477.908	1031.88
478.127	1067.88
478.346	1090.88
478.564	1072.88
478.783	1065.88
479.002	1130.88
479.22	1147.88
479.439	1131.88
479.658	1131.88
479.876	1068.88
480.095	1140.88
480.313	1179.88
480.532	1218.88
480.751	1243.88
480.969	1177.88
481.188	1088.88
481.406	1069.88
481.624	1023.88
481.843	1037.88
482.061	1005.88
482.28	983.88
482.498	983.88
482.717	1010.88
482.935	1019.88
483.153	987.88
483.372	1029.88
483.59	1025.88
483.808	994.88
484.027	988.88
484.245	1007.88
484.463	1031.88
484.681	1036.88
484.9	1050.88
485.118	1041.88
485.336	1063.88
485.554	1027.88
485.772	1094.88
485.99	1061.88
486.209	1057.88
486.427	1081.88
486.645	1069.88
486.863	1053.88
487.081	1078.88
487.299	1028.88
487.517	1050.88
487.735	1066.88
487.953	1056.88
488.171	1029.88
488.389	1057.88
488.607	1023.88
488.825	1011.88
489.043	1030.88
489.261	1037.88
489.479	1009.88
489.696	1036.88
489.914	1035.88
490.132	1048.88
490.35	1035.88
490.568	1064.88
490.786	1070.88
491.003	1073.88
491.221	1068.88
491.439	1054.88
491.657	1042.88
491.874	1054.88
492.092	1066.88
492.31	1047.88
492.527	1104.88
492.745	1075.88
492.963	1104.88
493.18	1096.88
493.398	1085.88
493.615	1106.88
493.833	1062.88
494.05	1119.88
494.268	1109.88
494.485	1089.88
494.703	1112.88
494.92	1096.88
495.138	1105.88
495.355	1138.88
495.573	1119.88
495.79	1100.88
496.008	1109.88
496.225	1126.88
496.442	1148.88
496.66	1148.88
496.877	1147.88
497.094	1192.88
