Data from NiCl2@0.25M.TitratingCurve.Agarose3%dH2O.NegLispCup.LampEnergy10.LIBS07252019_HRD10591_18-24-35-573.txt Node
Date: Thu Jul 25 18:24:35 EDT 2019
User: cochatt
Spectrometer: HR+D1059
Trigger mode: 1
Integration Time (sec): 1.000000E-1
Scans to average: 1
Electric dark correction enabled: true
Nonlinearity correction enabled: false
Boxcar width: 0
XAxis mode: Wavelengths
Number of Pixels in Spectrum: 2048
>>>>>Begin Spectral Data<<<<<
223.165	-19.31
223.4	-19.31
223.635	-19.31
223.869	-21.31
224.104	-26.31
224.338	-23.31
224.573	-13.31
224.808	-21.31
225.042	-11.31
225.277	-12.31
225.511	9.69
225.746	23.69
225.98	9.69
226.215	12.69
226.449	20.69
226.683	23.69
226.918	15.69
227.152	32.69
227.387	29.69
227.621	47.69
227.856	38.69
228.09	54.69
228.324	57.69
228.559	69.69
228.793	60.69
229.027	107.69
229.262	128.69
229.496	130.69
229.73	133.69
229.964	133.69
230.199	141.69
230.433	137.69
230.667	144.69
230.901	143.69
231.136	144.69
231.37	158.69
231.604	161.69
231.838	165.69
232.072	157.69
232.306	159.69
232.541	162.69
232.775	154.69
233.009	161.69
233.243	148.69
233.477	152.69
233.711	156.69
233.945	162.69
234.179	156.69
234.413	165.69
234.647	160.69
234.881	164.69
235.115	156.69
235.349	139.69
235.583	177.69
235.817	166.69
236.051	150.69
236.285	174.69
236.519	171.69
236.753	169.69
236.987	177.69
237.221	164.69
237.455	193.69
237.689	178.69
237.922	183.69
238.156	170.69
238.39	181.69
238.624	196.69
238.858	190.69
239.091	188.69
239.325	177.69
239.559	186.69
239.793	197.69
240.027	180.69
240.26	195.69
240.494	210.69
240.728	196.69
240.961	189.69
241.195	202.69
241.429	197.69
241.662	201.69
241.896	215.69
242.13	218.69
242.363	212.69
242.597	218.69
242.83	210.69
243.064	201.69
243.298	228.69
243.531	221.69
243.765	233.69
243.998	217.69
244.232	222.69
244.465	236.69
244.699	248.69
244.932	233.69
245.166	233.69
245.399	245.69
245.633	246.69
245.866	266.69
246.099	244.69
246.333	240.69
246.566	247.69
246.8	258.69
247.033	248.69
247.266	255.69
247.5	246.69
247.733	264.69
247.966	246.69
248.2	259.69
248.433	269.69
248.666	259.69
248.899	265.69
249.133	264.69
249.366	269.69
249.599	285.69
249.832	273.69
250.066	274.69
250.299	284.69
250.532	298.69
250.765	280.69
250.998	279.69
251.231	306.69
251.465	297.69
251.698	290.69
251.931	297.69
252.164	299.69
252.397	291.69
252.63	287.69
252.863	316.69
253.096	282.69
253.329	301.69
253.562	315.69
253.795	298.69
254.028	317.69
254.261	313.69
254.494	301.69
254.727	316.69
254.96	309.69
255.193	334.69
255.426	320.69
255.659	298.69
255.892	310.69
256.124	329.69
256.357	330.69
256.59	328.69
256.823	321.69
257.056	350.69
257.289	333.69
257.521	324.69
257.754	334.69
257.987	339.69
258.22	334.69
258.452	346.69
258.685	350.69
258.918	348.69
259.151	331.69
259.383	345.69
259.616	362.69
259.849	345.69
260.081	359.69
260.314	348.69
260.547	344.69
260.779	349.69
261.012	365.69
261.244	359.69
261.477	366.69
261.71	365.69
261.942	344.69
262.175	369.69
262.407	378.69
262.64	357.69
262.872	368.69
263.105	380.69
263.337	347.69
263.57	376.69
263.802	382.69
264.035	380.69
264.267	372.69
264.499	381.69
264.732	376.69
264.964	389.69
265.197	386.69
265.429	413.69
265.661	407.69
265.894	397.69
266.126	395.69
266.358	413.69
266.591	403.69
266.823	413.69
267.055	400.69
267.287	415.69
267.52	411.69
267.752	421.69
267.984	413.69
268.216	392.69
268.448	432.69
268.681	426.69
268.913	426.69
269.145	424.69
269.377	428.69
269.609	432.69
269.841	433.69
270.073	423.69
270.306	426.69
270.538	422.69
270.77	394.69
271.002	425.69
271.234	430.69
271.466	459.69
271.698	407.69
271.93	427.69
272.162	425.69
272.394	435.69
272.626	437.69
272.858	438.69
273.09	438.69
273.322	436.69
273.553	462.69
273.785	452.69
274.017	449.69
274.249	441.69
274.481	451.69
274.713	450.69
274.945	466.69
275.176	465.69
275.408	457.69
275.64	469.69
275.872	479.69
276.104	493.69
276.335	473.69
276.567	478.69
276.799	474.69
277.031	483.69
277.262	496.69
277.494	485.69
277.726	492.69
277.957	491.69
278.189	490.69
278.421	482.69
278.652	483.69
278.884	477.69
279.115	492.69
279.347	496.69
279.579	507.69
279.81	493.69
280.042	514.69
280.273	487.69
280.505	496.69
280.736	498.69
280.968	513.69
281.199	545.69
281.431	523.69
281.662	499.69
281.894	502.69
282.125	528.69
282.356	518.69
282.588	549.69
282.819	554.69
283.051	556.69
283.282	548.69
283.513	539.69
283.745	540.69
283.976	546.69
284.207	542.69
284.439	541.69
284.67	560.69
284.901	553.69
285.132	551.69
285.364	555.69
285.595	564.69
285.826	566.69
286.057	537.69
286.288	545.69
286.52	563.69
286.751	571.69
286.982	586.69
287.213	566.69
287.444	580.69
287.675	569.69
287.906	562.69
288.138	592.69
288.369	564.69
288.6	599.69
288.831	593.69
289.062	594.69
289.293	596.69
289.524	600.69
289.755	587.69
289.986	571.69
290.217	600.69
290.448	606.69
290.679	611.69
290.91	593.69
291.141	600.69
291.371	615.69
291.602	605.69
291.833	612.69
292.064	627.69
292.295	590.69
292.526	614.69
292.757	629.69
292.987	588.69
293.218	586.69
293.449	618.69
293.68	601.69
293.91	619.69
294.141	608.69
294.372	597.69
294.603	602.69
294.833	614.69
295.064	621.69
295.295	641.69
295.525	605.69
295.756	598.69
295.987	595.69
296.217	647.69
296.448	614.69
296.679	636.69
296.909	636.69
297.14	628.69
297.37	647.69
297.601	633.69
297.831	625.69
298.062	672.69
298.292	663.69
298.523	662.69
298.753	668.69
298.984	669.69
299.214	634.69
299.445	652.69
299.675	639.69
299.905	673.69
300.136	662.69
300.366	676.69
300.597	662.69
300.827	664.69
301.057	673.69
301.288	708.69
301.518	694.69
301.748	673.69
301.979	683.69
302.209	674.69
302.439	715.69
302.669	697.69
302.9	670.69
303.13	652.69
303.36	685.69
303.59	669.69
303.82	671.69
304.051	705.69
304.281	692.69
304.511	673.69
304.741	676.69
304.971	686.69
305.201	670.69
305.431	669.69
305.661	689.69
305.891	671.69
306.121	673.69
306.352	662.69
306.582	695.69
306.812	656.69
307.042	668.69
307.272	665.69
307.502	674.69
307.731	677.69
307.961	672.69
308.191	641.69
308.421	655.69
308.651	641.69
308.881	658.69
309.111	688.69
309.341	670.69
309.571	668.69
309.8	672.69
310.03	693.69
310.26	672.69
310.49	683.69
310.72	678.69
310.949	665.69
311.179	674.69
311.409	676.69
311.639	682.69
311.868	684.69
312.098	685.69
312.328	716.69
312.557	706.69
312.787	700.69
313.017	688.69
313.246	683.69
313.476	718.69
313.706	724.69
313.935	719.69
314.165	725.69
314.394	731.69
314.624	707.69
314.853	713.69
315.083	699.69
315.312	718.69
315.542	727.69
315.771	706.69
316.001	698.69
316.23	717.69
316.46	717.69
316.689	724.69
316.919	694.69
317.148	704.69
317.377	691.69
317.607	693.69
317.836	677.69
318.065	710.69
318.295	709.69
318.524	726.69
318.753	725.69
318.983	699.69
319.212	710.69
319.441	696.69
319.67	698.69
319.9	722.69
320.129	709.69
320.358	735.69
320.587	686.69
320.816	699.69
321.046	698.69
321.275	701.69
321.504	711.69
321.733	700.69
321.962	733.69
322.191	716.69
322.42	698.69
322.649	737.69
322.878	691.69
323.108	723.69
323.337	727.69
323.566	736.69
323.795	703.69
324.024	715.69
324.253	717.69
324.482	717.69
324.71	729.69
324.939	732.69
325.168	720.69
325.397	723.69
325.626	758.69
325.855	740.69
326.084	776.69
326.313	782.69
326.542	775.69
326.77	778.69
326.999	748.69
327.228	749.69
327.457	750.69
327.686	747.69
327.914	757.69
328.143	794.69
328.372	767.69
328.6	775.69
328.829	782.69
329.058	775.69
329.287	749.69
329.515	776.69
329.744	772.69
329.972	775.69
330.201	796.69
330.43	797.69
330.658	785.69
330.887	808.69
331.115	808.69
331.344	803.69
331.572	838.69
331.801	833.69
332.03	884.69
332.258	882.69
332.486	877.69
332.715	933.69
332.943	974.69
333.172	992.69
333.4	1022.69
333.629	1060.69
333.857	1041.69
334.085	1035.69
334.314	1034.69
334.542	1012.69
334.771	1042.69
334.999	979.69
335.227	939.69
335.455	983.69
335.684	998.69
335.912	956.69
336.14	951.69
336.369	921.69
336.597	952.69
336.825	939.69
337.053	930.69
337.281	928.69
337.51	912.69
337.738	894.69
337.966	869.69
338.194	840.69
338.422	850.69
338.65	847.69
338.878	844.69
339.106	835.69
339.334	849.69
339.562	825.69
339.79	811.69
340.018	784.69
340.246	783.69
340.474	817.69
340.702	801.69
340.93	816.69
341.158	790.69
341.386	809.69
341.614	793.69
341.842	833.69
342.07	809.69
342.298	789.69
342.526	831.69
342.754	840.69
342.981	820.69
343.209	848.69
343.437	856.69
343.665	910.69
343.893	970.69
344.12	1009.69
344.348	973.69
344.576	902.69
344.804	873.69
345.031	862.69
345.259	845.69
345.487	818.69
345.714	809.69
345.942	794.69
346.17	810.69
346.397	788.69
346.625	782.69
346.853	777.69
347.08	765.69
347.308	758.69
347.535	772.69
347.763	762.69
347.99	765.69
348.218	744.69
348.445	775.69
348.673	768.69
348.9	769.69
349.128	774.69
349.355	801.69
349.583	769.69
349.81	762.69
350.037	743.69
350.265	786.69
350.492	762.69
350.72	739.69
350.947	744.69
351.174	740.69
351.402	739.69
351.629	771.69
351.856	747.69
352.083	758.69
352.311	739.69
352.538	752.69
352.765	747.69
352.992	719.69
353.22	712.69
353.447	739.69
353.674	718.69
353.901	730.69
354.128	750.69
354.355	728.69
354.583	714.69
354.81	744.69
355.037	738.69
355.264	739.69
355.491	752.69
355.718	760.69
355.945	741.69
356.172	762.69
356.399	756.69
356.626	731.69
356.853	764.69
357.08	756.69
357.307	739.69
357.534	733.69
357.761	757.69
357.988	768.69
358.215	768.69
358.441	742.69
358.668	772.69
358.895	749.69
359.122	755.69
359.349	738.69
359.576	750.69
359.802	738.69
360.029	736.69
360.256	752.69
360.483	788.69
360.709	770.69
360.936	754.69
361.163	753.69
361.39	731.69
361.616	757.69
361.843	774.69
362.07	749.69
362.296	755.69
362.523	753.69
362.749	753.69
362.976	748.69
363.203	742.69
363.429	725.69
363.656	756.69
363.882	739.69
364.109	755.69
364.335	724.69
364.562	750.69
364.788	737.69
365.015	751.69
365.241	758.69
365.468	723.69
365.694	741.69
365.92	740.69
366.147	738.69
366.373	754.69
366.599	746.69
366.826	754.69
367.052	749.69
367.278	738.69
367.505	742.69
367.731	785.69
367.957	739.69
368.184	734.69
368.41	746.69
368.636	768.69
368.862	774.69
369.089	769.69
369.315	778.69
369.541	780.69
369.767	773.69
369.993	771.69
370.219	774.69
370.445	776.69
370.672	803.69
370.898	807.69
371.124	819.69
371.35	805.69
371.576	816.69
371.802	800.69
372.028	811.69
372.254	813.69
372.48	806.69
372.706	836.69
372.932	839.69
373.158	835.69
373.384	842.69
373.61	824.69
373.835	813.69
374.061	803.69
374.287	818.69
374.513	847.69
374.739	877.69
374.965	880.69
375.191	903.69
375.416	877.69
375.642	893.69
375.868	870.69
376.094	844.69
376.319	825.69
376.545	844.69
376.771	838.69
376.997	829.69
377.222	812.69
377.448	820.69
377.674	831.69
377.899	807.69
378.125	806.69
378.35	808.69
378.576	787.69
378.802	821.69
379.027	811.69
379.253	811.69
379.478	828.69
379.704	818.69
379.929	799.69
380.155	805.69
380.38	794.69
380.606	810.69
380.831	806.69
381.057	810.69
381.282	795.69
381.507	788.69
381.733	835.69
381.958	858.69
382.184	841.69
382.409	834.69
382.634	855.69
382.86	854.69
383.085	854.69
383.31	860.69
383.535	875.69
383.761	890.69
383.986	899.69
384.211	928.69
384.436	916.69
384.662	951.69
384.887	974.69
385.112	1002.69
385.337	959.69
385.562	989.69
385.787	1012.69
386.013	1009.69
386.238	1017.69
386.463	1024.69
386.688	986.69
386.913	984.69
387.138	988.69
387.363	1005.69
387.588	981.69
387.813	986.69
388.038	993.69
388.263	978.69
388.488	989.69
388.713	977.69
388.938	976.69
389.163	946.69
389.387	964.69
389.612	944.69
389.837	978.69
390.062	954.69
390.287	954.69
390.512	962.69
390.736	987.69
390.961	1020.69
391.186	988.69
391.411	1056.69
391.636	1074.69
391.86	1108.69
392.085	1121.69
392.31	1138.69
392.534	1123.69
392.759	1080.69
392.984	1043.69
393.208	1069.69
393.433	1064.69
393.658	1058.69
393.882	1059.69
394.107	1062.69
394.331	1046.69
394.556	1064.69
394.78	1105.69
395.005	1082.69
395.229	1078.69
395.454	1081.69
395.678	1126.69
395.903	1098.69
396.127	1127.69
396.352	1089.69
396.576	1058.69
396.801	1066.69
397.025	1070.69
397.249	1098.69
397.474	1104.69
397.698	1099.69
397.922	1128.69
398.147	1145.69
398.371	1147.69
398.595	1208.69
398.82	1290.69
399.044	1343.69
399.268	1454.69
399.492	1680.69
399.717	1878.69
399.941	1940.69
400.165	1740.69
400.389	1568.69
400.613	1442.69
400.837	1340.69
401.062	1297.69
401.286	1303.69
401.51	1264.69
401.734	1267.69
401.958	1294.69
402.182	1285.69
402.406	1278.69
402.63	1303.69
402.854	1329.69
403.078	1336.69
403.302	1401.69
403.526	1404.69
403.75	1423.69
403.974	1467.69
404.198	1443.69
404.422	1441.69
404.645	1438.69
404.869	1438.69
405.093	1435.69
405.317	1375.69
405.541	1365.69
405.765	1393.69
405.988	1401.69
406.212	1405.69
406.436	1379.69
406.66	1406.69
406.883	1444.69
407.107	1536.69
407.331	1622.69
407.555	1652.69
407.778	1632.69
408.002	1592.69
408.226	1550.69
408.449	1530.69
408.673	1460.69
408.896	1428.69
409.12	1404.69
409.344	1451.69
409.567	1419.69
409.791	1428.69
410.014	1378.69
410.238	1396.69
410.461	1384.69
410.685	1346.69
410.908	1356.69
411.132	1321.69
411.355	1303.69
411.578	1328.69
411.802	1313.69
412.025	1306.69
412.249	1323.69
412.472	1303.69
412.695	1307.69
412.919	1252.69
413.142	1246.69
413.365	1280.69
413.589	1268.69
413.812	1261.69
414.035	1220.69
414.258	1240.69
414.482	1256.69
414.705	1257.69
414.928	1245.69
415.151	1287.69
415.374	1244.69
415.597	1258.69
415.821	1186.69
416.044	1224.69
416.267	1213.69
416.49	1222.69
416.713	1195.69
416.936	1232.69
417.159	1213.69
417.382	1209.69
417.605	1209.69
417.828	1205.69
418.051	1238.69
418.274	1238.69
418.497	1252.69
418.72	1277.69
418.943	1286.69
419.166	1314.69
419.389	1462.69
419.611	1404.69
419.834	1350.69
420.057	1311.69
420.28	1253.69
420.503	1221.69
420.726	1247.69
420.948	1196.69
421.171	1231.69
421.394	1232.69
421.617	1208.69
421.839	1216.69
422.062	1251.69
422.285	1223.69
422.507	1257.69
422.73	1256.69
422.953	1278.69
423.175	1294.69
423.398	1300.69
423.621	1277.69
423.843	1324.69
424.066	1296.69
424.288	1289.69
424.511	1292.69
424.733	1304.69
424.956	1297.69
425.178	1256.69
425.401	1269.69
425.623	1268.69
425.846	1194.69
426.068	1199.69
426.291	1186.69
426.513	1180.69
426.735	1165.69
426.958	1189.69
427.18	1129.69
427.402	1152.69
427.625	1154.69
427.847	1119.69
428.069	1132.69
428.292	1126.69
428.514	1107.69
428.736	1094.69
428.958	1111.69
429.181	1079.69
429.403	1058.69
429.625	1091.69
429.847	1065.69
430.069	1067.69
430.292	1076.69
430.514	1062.69
430.736	1074.69
430.958	1060.69
431.18	1089.69
431.402	1053.69
431.624	1067.69
431.846	1100.69
432.068	1122.69
432.29	1139.69
432.512	1080.69
432.734	1104.69
432.956	1086.69
433.178	1075.69
433.4	1101.69
433.622	1108.69
433.844	1122.69
434.066	1109.69
434.287	1115.69
434.509	1150.69
434.731	1192.69
434.953	1198.69
435.175	1259.69
435.397	1236.69
435.618	1176.69
435.84	1106.69
436.062	1090.69
436.284	1080.69
436.505	1070.69
436.727	1090.69
436.949	1099.69
437.17	1091.69
437.392	1096.69
437.614	1073.69
437.835	1048.69
438.057	1060.69
438.278	1008.69
438.5	1021.69
438.721	1008.69
438.943	1039.69
439.165	1065.69
439.386	1050.69
439.608	1063.69
439.829	1084.69
440.05	1097.69
440.272	1078.69
440.493	1100.69
440.715	1128.69
440.936	1099.69
441.158	1161.69
441.379	1154.69
441.6	1220.69
441.822	1250.69
442.043	1239.69
442.264	1212.69
442.486	1208.69
442.707	1212.69
442.928	1180.69
443.149	1200.69
443.371	1187.69
443.592	1199.69
443.813	1218.69
444.034	1212.69
444.255	1286.69
444.476	1316.69
444.698	1404.69
444.919	1458.69
445.14	1561.69
445.361	1382.69
445.582	1280.69
445.803	1209.69
446.024	1183.69
446.245	1138.69
446.466	1156.69
446.687	1101.69
446.908	1113.69
447.129	1097.69
447.35	1058.69
447.571	1054.69
447.792	1046.69
448.013	1017.69
448.234	1012.69
448.455	1010.69
448.675	1017.69
448.896	999.69
449.117	987.69
449.338	991.69
449.559	964.69
449.779	994.69
450	996.69
450.221	988.69
450.442	988.69
450.662	989.69
450.883	973.69
451.104	1019.69
451.324	1020.69
451.545	1000.69
451.766	1032.69
451.986	975.69
452.207	986.69
452.428	978.69
452.648	990.69
452.869	956.69
453.089	959.69
453.31	934.69
453.53	941.69
453.751	967.69
453.971	984.69
454.192	954.69
454.412	939.69
454.633	944.69
454.853	948.69
455.073	923.69
455.294	944.69
455.514	909.69
455.734	927.69
455.955	941.69
456.175	925.69
456.395	918.69
456.616	946.69
456.836	917.69
457.056	914.69
457.276	926.69
457.497	948.69
457.717	918.69
457.937	964.69
458.157	971.69
458.377	967.69
458.598	983.69
458.818	997.69
459.038	1053.69
459.258	1080.69
459.478	1124.69
459.698	1136.69
459.918	1175.69
460.138	1205.69
460.358	1284.69
460.578	1291.69
460.798	1285.69
461.018	1305.69
461.238	1276.69
461.458	1288.69
461.678	1258.69
461.898	1306.69
462.118	1320.69
462.338	1386.69
462.558	1461.69
462.777	1529.69
462.997	1608.69
463.217	1684.69
463.437	1702.69
463.657	1645.69
463.876	1584.69
464.096	1544.69
464.316	1534.69
464.536	1515.69
464.755	1484.69
464.975	1418.69
465.195	1330.69
465.414	1280.69
465.634	1196.69
465.854	1153.69
466.073	1129.69
466.293	1117.69
466.512	1088.69
466.732	1038.69
466.951	1058.69
467.171	1033.69
467.391	1036.69
467.61	1036.69
467.829	1033.69
468.049	1049.69
468.268	1008.69
468.488	992.69
468.707	997.69
468.927	1041.69
469.146	1004.69
469.365	1007.69
469.585	1014.69
469.804	1048.69
470.023	1083.69
470.243	1065.69
470.462	1078.69
470.681	1121.69
470.901	1096.69
471.12	1086.69
471.339	1048.69
471.558	1012.69
471.777	1026.69
471.997	1017.69
472.216	1013.69
472.435	1016.69
472.654	966.69
472.873	981.69
473.092	962.69
473.311	976.69
473.53	966.69
473.749	953.69
473.968	972.69
474.187	962.69
474.406	981.69
474.625	969.69
474.844	956.69
475.063	967.69
475.282	977.69
475.501	992.69
475.72	984.69
475.939	958.69
476.158	1004.69
476.377	1008.69
476.596	1035.69
476.814	1026.69
477.033	1036.69
477.252	1056.69
477.471	1077.69
477.69	1100.69
477.908	1108.69
478.127	1159.69
478.346	1151.69
478.564	1191.69
478.783	1205.69
479.002	1254.69
479.22	1220.69
479.439	1218.69
479.658	1220.69
479.876	1244.69
480.095	1233.69
480.313	1286.69
480.532	1317.69
480.751	1306.69
480.969	1253.69
481.188	1206.69
481.406	1179.69
481.624	1152.69
481.843	1113.69
482.061	1117.69
482.28	1140.69
482.498	1098.69
482.717	1102.69
482.935	1114.69
483.153	1118.69
483.372	1114.69
483.59	1107.69
483.808	1104.69
484.027	1125.69
484.245	1121.69
484.463	1128.69
484.681	1136.69
484.9	1152.69
485.118	1143.69
485.336	1160.69
485.554	1168.69
485.772	1132.69
485.99	1164.69
486.209	1161.69
486.427	1181.69
486.645	1192.69
486.863	1163.69
487.081	1172.69
487.299	1173.69
487.517	1156.69
487.735	1132.69
487.953	1170.69
488.171	1162.69
488.389	1180.69
488.607	1102.69
488.825	1112.69
489.043	1141.69
489.261	1142.69
489.479	1150.69
489.696	1162.69
489.914	1193.69
490.132	1150.69
490.35	1188.69
490.568	1163.69
490.786	1164.69
491.003	1205.69
491.221	1188.69
491.439	1195.69
491.657	1149.69
491.874	1221.69
492.092	1202.69
492.31	1201.69
492.527	1200.69
492.745	1178.69
492.963	1207.69
493.18	1205.69
493.398	1227.69
493.615	1207.69
493.833	1243.69
494.05	1255.69
494.268	1238.69
494.485	1240.69
494.703	1256.69
494.92	1246.69
495.138	1237.69
495.355	1251.69
495.573	1248.69
495.79	1231.69
