Data from NiCl2@0.25M.TitratingCurve.Agarose3%dH2O.NegLispCup.LampEnergy10.LIBS07252019_HRD10591_18-25-21-573.txt Node
Date: Thu Jul 25 18:25:21 EDT 2019
User: cochatt
Spectrometer: HR+D1059
Trigger mode: 1
Integration Time (sec): 1.000000E-1
Scans to average: 1
Electric dark correction enabled: true
Nonlinearity correction enabled: false
Boxcar width: 0
XAxis mode: Wavelengths
Number of Pixels in Spectrum: 2048
>>>>>Begin Spectral Data<<<<<
223.165	-18.81
223.4	-18.81
223.635	-18.81
223.869	-23.81
224.104	-21.81
224.338	-18.81
224.573	-23.81
224.808	-1.81
225.042	-11.81
225.277	-10.81
225.511	-6.81
225.746	9.19
225.98	9.19
226.215	6.19
226.449	14.19
226.683	31.19
226.918	38.19
227.152	30.19
227.387	45.19
227.621	44.19
227.856	41.19
228.09	45.19
228.324	50.19
228.559	39.19
228.793	78.19
229.027	105.19
229.262	121.19
229.496	118.19
229.73	131.19
229.964	132.19
230.199	126.19
230.433	148.19
230.667	143.19
230.901	132.19
231.136	143.19
231.37	134.19
231.604	158.19
231.838	158.19
232.072	153.19
232.306	163.19
232.541	170.19
232.775	158.19
233.009	160.19
233.243	164.19
233.477	163.19
233.711	148.19
233.945	151.19
234.179	149.19
234.413	174.19
234.647	154.19
234.881	161.19
235.115	161.19
235.349	161.19
235.583	180.19
235.817	177.19
236.051	164.19
236.285	172.19
236.519	172.19
236.753	170.19
236.987	166.19
237.221	177.19
237.455	175.19
237.689	162.19
237.922	184.19
238.156	189.19
238.39	181.19
238.624	193.19
238.858	189.19
239.091	182.19
239.325	175.19
239.559	185.19
239.793	193.19
240.027	193.19
240.26	195.19
240.494	190.19
240.728	202.19
240.961	217.19
241.195	212.19
241.429	202.19
241.662	199.19
241.896	218.19
242.13	217.19
242.363	202.19
242.597	210.19
242.83	218.19
243.064	214.19
243.298	231.19
243.531	233.19
243.765	219.19
243.998	221.19
244.232	234.19
244.465	228.19
244.699	227.19
244.932	234.19
245.166	229.19
245.399	241.19
245.633	245.19
245.866	235.19
246.099	226.19
246.333	236.19
246.566	234.19
246.8	251.19
247.033	252.19
247.266	250.19
247.5	266.19
247.733	262.19
247.966	254.19
248.2	259.19
248.433	278.19
248.666	257.19
248.899	262.19
249.133	269.19
249.366	277.19
249.599	291.19
249.832	272.19
250.066	272.19
250.299	284.19
250.532	282.19
250.765	263.19
250.998	285.19
251.231	286.19
251.465	289.19
251.698	285.19
251.931	296.19
252.164	284.19
252.397	286.19
252.63	305.19
252.863	300.19
253.096	309.19
253.329	301.19
253.562	290.19
253.795	307.19
254.028	325.19
254.261	303.19
254.494	314.19
254.727	316.19
254.96	302.19
255.193	296.19
255.426	303.19
255.659	315.19
255.892	331.19
256.124	338.19
256.357	318.19
256.59	323.19
256.823	329.19
257.056	324.19
257.289	309.19
257.521	349.19
257.754	347.19
257.987	335.19
258.22	333.19
258.452	328.19
258.685	355.19
258.918	330.19
259.151	343.19
259.383	350.19
259.616	325.19
259.849	354.19
260.081	335.19
260.314	364.19
260.547	354.19
260.779	353.19
261.012	359.19
261.244	354.19
261.477	363.19
261.71	350.19
261.942	365.19
262.175	357.19
262.407	360.19
262.64	377.19
262.872	354.19
263.105	364.19
263.337	373.19
263.57	339.19
263.802	397.19
264.035	379.19
264.267	399.19
264.499	361.19
264.732	393.19
264.964	391.19
265.197	380.19
265.429	382.19
265.661	373.19
265.894	392.19
266.126	393.19
266.358	395.19
266.591	407.19
266.823	410.19
267.055	399.19
267.287	393.19
267.52	403.19
267.752	394.19
267.984	403.19
268.216	413.19
268.448	395.19
268.681	417.19
268.913	406.19
269.145	406.19
269.377	409.19
269.609	399.19
269.841	416.19
270.073	422.19
270.306	436.19
270.538	428.19
270.77	410.19
271.002	423.19
271.234	406.19
271.466	412.19
271.698	433.19
271.93	441.19
272.162	427.19
272.394	454.19
272.626	414.19
272.858	414.19
273.09	453.19
273.322	447.19
273.553	450.19
273.785	451.19
274.017	450.19
274.249	483.19
274.481	454.19
274.713	450.19
274.945	457.19
275.176	461.19
275.408	456.19
275.64	484.19
275.872	460.19
276.104	436.19
276.335	437.19
276.567	475.19
276.799	455.19
277.031	456.19
277.262	477.19
277.494	479.19
277.726	484.19
277.957	498.19
278.189	453.19
278.421	487.19
278.652	470.19
278.884	487.19
279.115	492.19
279.347	495.19
279.579	491.19
279.81	518.19
280.042	521.19
280.273	519.19
280.505	504.19
280.736	498.19
280.968	493.19
281.199	509.19
281.431	508.19
281.662	521.19
281.894	521.19
282.125	496.19
282.356	525.19
282.588	519.19
282.819	513.19
283.051	525.19
283.282	532.19
283.513	525.19
283.745	532.19
283.976	553.19
284.207	542.19
284.439	536.19
284.67	551.19
284.901	546.19
285.132	539.19
285.364	552.19
285.595	546.19
285.826	545.19
286.057	543.19
286.288	548.19
286.52	548.19
286.751	552.19
286.982	569.19
287.213	558.19
287.444	568.19
287.675	567.19
287.906	547.19
288.138	557.19
288.369	593.19
288.6	571.19
288.831	587.19
289.062	572.19
289.293	579.19
289.524	561.19
289.755	588.19
289.986	580.19
290.217	586.19
290.448	578.19
290.679	599.19
290.91	588.19
291.141	598.19
291.371	581.19
291.602	602.19
291.833	594.19
292.064	590.19
292.295	588.19
292.526	582.19
292.757	581.19
292.987	573.19
293.218	596.19
293.449	583.19
293.68	591.19
293.91	595.19
294.141	577.19
294.372	587.19
294.603	594.19
294.833	609.19
295.064	610.19
295.295	612.19
295.525	584.19
295.756	616.19
295.987	618.19
296.217	603.19
296.448	608.19
296.679	592.19
296.909	621.19
297.14	620.19
297.37	619.19
297.601	637.19
297.831	617.19
298.062	636.19
298.292	635.19
298.523	645.19
298.753	645.19
298.984	638.19
299.214	633.19
299.445	618.19
299.675	638.19
299.905	642.19
300.136	639.19
300.366	637.19
300.597	656.19
300.827	671.19
301.057	694.19
301.288	691.19
301.518	665.19
301.748	654.19
301.979	673.19
302.209	665.19
302.439	688.19
302.669	667.19
302.9	665.19
303.13	659.19
303.36	652.19
303.59	664.19
303.82	661.19
304.051	654.19
304.281	668.19
304.511	664.19
304.741	661.19
304.971	675.19
305.201	666.19
305.431	666.19
305.661	667.19
305.891	654.19
306.121	648.19
306.352	631.19
306.582	662.19
306.812	651.19
307.042	649.19
307.272	640.19
307.502	624.19
307.731	634.19
307.961	654.19
308.191	664.19
308.421	640.19
308.651	641.19
308.881	628.19
309.111	651.19
309.341	665.19
309.571	625.19
309.8	643.19
310.03	643.19
310.26	678.19
310.49	656.19
310.72	653.19
310.949	675.19
311.179	667.19
311.409	685.19
311.639	687.19
311.868	678.19
312.098	689.19
312.328	683.19
312.557	674.19
312.787	681.19
313.017	687.19
313.246	707.19
313.476	689.19
313.706	701.19
313.935	711.19
314.165	713.19
314.394	721.19
314.624	692.19
314.853	693.19
315.083	698.19
315.312	715.19
315.542	708.19
315.771	698.19
316.001	719.19
316.23	705.19
316.46	712.19
316.689	671.19
316.919	703.19
317.148	700.19
317.377	705.19
317.607	685.19
317.836	692.19
318.065	674.19
318.295	662.19
318.524	698.19
318.753	669.19
318.983	652.19
319.212	677.19
319.441	686.19
319.67	687.19
319.9	711.19
320.129	698.19
320.358	709.19
320.587	693.19
320.816	698.19
321.046	689.19
321.275	702.19
321.504	700.19
321.733	684.19
321.962	700.19
322.191	704.19
322.42	689.19
322.649	690.19
322.878	694.19
323.108	682.19
323.337	703.19
323.566	713.19
323.795	715.19
324.024	730.19
324.253	702.19
324.482	719.19
324.71	724.19
324.939	705.19
325.168	713.19
325.397	714.19
325.626	730.19
325.855	750.19
326.084	759.19
326.313	762.19
326.542	751.19
326.77	737.19
326.999	757.19
327.228	734.19
327.457	758.19
327.686	754.19
327.914	758.19
328.143	769.19
328.372	755.19
328.6	716.19
328.829	737.19
329.058	750.19
329.287	772.19
329.515	754.19
329.744	757.19
329.972	748.19
330.201	763.19
330.43	757.19
330.658	784.19
330.887	783.19
331.115	772.19
331.344	789.19
331.572	805.19
331.801	823.19
332.03	825.19
332.258	855.19
332.486	868.19
332.715	883.19
332.943	915.19
333.172	962.19
333.4	1009.19
333.629	1001.19
333.857	1031.19
334.085	1030.19
334.314	1004.19
334.542	1027.19
334.771	989.19
334.999	973.19
335.227	962.19
335.455	942.19
335.684	954.19
335.912	936.19
336.14	922.19
336.369	930.19
336.597	905.19
336.825	934.19
337.053	911.19
337.281	886.19
337.51	861.19
337.738	861.19
337.966	849.19
338.194	842.19
338.422	842.19
338.65	828.19
338.878	799.19
339.106	819.19
339.334	837.19
339.562	812.19
339.79	779.19
340.018	804.19
340.246	783.19
340.474	785.19
340.702	789.19
340.93	806.19
341.158	801.19
341.386	779.19
341.614	791.19
341.842	788.19
342.07	760.19
342.298	786.19
342.526	776.19
342.754	797.19
342.981	775.19
343.209	781.19
343.437	847.19
343.665	883.19
343.893	950.19
344.12	1005.19
344.348	960.19
344.576	887.19
344.804	879.19
345.031	835.19
345.259	834.19
345.487	818.19
345.714	780.19
345.942	763.19
346.17	791.19
346.397	765.19
346.625	748.19
346.853	750.19
347.08	763.19
347.308	776.19
347.535	756.19
347.763	757.19
347.99	780.19
348.218	774.19
348.445	754.19
348.673	762.19
348.9	763.19
349.128	767.19
349.355	753.19
349.583	765.19
349.81	784.19
350.037	734.19
350.265	730.19
350.492	725.19
350.72	732.19
350.947	729.19
351.174	749.19
351.402	746.19
351.629	720.19
351.856	728.19
352.083	732.19
352.311	729.19
352.538	723.19
352.765	716.19
352.992	726.19
353.22	701.19
353.447	705.19
353.674	700.19
353.901	725.19
354.128	735.19
354.355	744.19
354.583	699.19
354.81	732.19
355.037	726.19
355.264	727.19
355.491	745.19
355.718	725.19
355.945	732.19
356.172	750.19
356.399	756.19
356.626	744.19
356.853	733.19
357.08	717.19
357.307	721.19
357.534	757.19
357.761	762.19
357.988	737.19
358.215	723.19
358.441	734.19
358.668	684.19
358.895	703.19
359.122	710.19
359.349	729.19
359.576	742.19
359.802	738.19
360.029	733.19
360.256	748.19
360.483	724.19
360.709	749.19
360.936	721.19
361.163	725.19
361.39	754.19
361.616	716.19
361.843	748.19
362.07	744.19
362.296	740.19
362.523	714.19
362.749	738.19
362.976	722.19
363.203	731.19
363.429	742.19
363.656	729.19
363.882	728.19
364.109	723.19
364.335	743.19
364.562	702.19
364.788	698.19
365.015	727.19
365.241	700.19
365.468	713.19
365.694	723.19
365.92	741.19
366.147	726.19
366.373	709.19
366.599	722.19
366.826	713.19
367.052	738.19
367.278	737.19
367.505	740.19
367.731	735.19
367.957	749.19
368.184	728.19
368.41	753.19
368.636	739.19
368.862	746.19
369.089	751.19
369.315	749.19
369.541	746.19
369.767	764.19
369.993	756.19
370.219	740.19
370.445	770.19
370.672	796.19
370.898	765.19
371.124	797.19
371.35	799.19
371.576	803.19
371.802	798.19
372.028	773.19
372.254	793.19
372.48	788.19
372.706	822.19
372.932	833.19
373.158	817.19
373.384	814.19
373.61	809.19
373.835	794.19
374.061	807.19
374.287	818.19
374.513	817.19
374.739	825.19
374.965	871.19
375.191	885.19
375.416	893.19
375.642	862.19
375.868	848.19
376.094	825.19
376.319	805.19
376.545	814.19
376.771	784.19
376.997	790.19
377.222	802.19
377.448	803.19
377.674	801.19
377.899	775.19
378.125	774.19
378.35	800.19
378.576	769.19
378.802	795.19
379.027	790.19
379.253	799.19
379.478	776.19
379.704	806.19
379.929	815.19
380.155	786.19
380.38	779.19
380.606	793.19
380.831	783.19
381.057	794.19
381.282	792.19
381.507	818.19
381.733	809.19
381.958	813.19
382.184	801.19
382.409	810.19
382.634	811.19
382.86	822.19
383.085	846.19
383.31	862.19
383.535	870.19
383.761	875.19
383.986	887.19
384.211	907.19
384.436	922.19
384.662	935.19
384.887	950.19
385.112	919.19
385.337	983.19
385.562	964.19
385.787	966.19
386.013	972.19
386.238	970.19
386.463	998.19
386.688	973.19
386.913	955.19
387.138	967.19
387.363	947.19
387.588	947.19
387.813	975.19
388.038	909.19
388.263	960.19
388.488	931.19
388.713	927.19
388.938	941.19
389.163	918.19
389.387	915.19
389.612	933.19
389.837	949.19
390.062	942.19
390.287	952.19
390.512	938.19
390.736	968.19
390.961	974.19
391.186	984.19
391.411	1015.19
391.636	1036.19
391.86	1063.19
392.085	1114.19
392.31	1103.19
392.534	1061.19
392.759	1049.19
392.984	1033.19
393.208	1013.19
393.433	1034.19
393.658	1029.19
393.882	1018.19
394.107	1025.19
394.331	1025.19
394.556	1026.19
394.78	1017.19
395.005	1021.19
395.229	1051.19
395.454	1083.19
395.678	1098.19
395.903	1091.19
396.127	1048.19
396.352	1030.19
396.576	1001.19
396.801	1025.19
397.025	990.19
397.249	1049.19
397.474	1070.19
397.698	1045.19
397.922	1115.19
398.147	1082.19
398.371	1097.19
398.595	1141.19
398.82	1179.19
399.044	1274.19
399.268	1393.19
399.492	1637.19
399.717	1846.19
399.941	1880.19
400.165	1592.19
400.389	1471.19
400.613	1329.19
400.837	1263.19
401.062	1240.19
401.286	1209.19
401.51	1193.19
401.734	1202.19
401.958	1245.19
402.182	1224.19
402.406	1218.19
402.63	1252.19
402.854	1275.19
403.078	1315.19
403.302	1304.19
403.526	1351.19
403.75	1401.19
403.974	1415.19
404.198	1416.19
404.422	1402.19
404.645	1367.19
404.869	1372.19
405.093	1388.19
405.317	1351.19
405.541	1345.19
405.765	1305.19
405.988	1340.19
406.212	1342.19
406.436	1317.19
406.66	1350.19
406.883	1381.19
407.107	1456.19
407.331	1499.19
407.555	1602.19
407.778	1568.19
408.002	1533.19
408.226	1515.19
408.449	1450.19
408.673	1375.19
408.896	1400.19
409.12	1359.19
409.344	1377.19
409.567	1352.19
409.791	1371.19
410.014	1348.19
410.238	1315.19
410.461	1320.19
410.685	1314.19
410.908	1295.19
411.132	1267.19
411.355	1222.19
411.578	1260.19
411.802	1260.19
412.025	1300.19
412.249	1267.19
412.472	1285.19
412.695	1229.19
412.919	1193.19
413.142	1206.19
413.365	1187.19
413.589	1205.19
413.812	1212.19
414.035	1199.19
414.258	1190.19
414.482	1186.19
414.705	1217.19
414.928	1258.19
415.151	1241.19
415.374	1204.19
415.597	1174.19
415.821	1188.19
416.044	1177.19
416.267	1165.19
416.49	1162.19
416.713	1176.19
416.936	1189.19
417.159	1173.19
417.382	1180.19
417.605	1157.19
417.828	1194.19
418.051	1179.19
418.274	1174.19
418.497	1182.19
418.72	1217.19
418.943	1229.19
419.166	1318.19
419.389	1393.19
419.611	1317.19
419.834	1282.19
420.057	1233.19
420.28	1205.19
420.503	1161.19
420.726	1179.19
420.948	1206.19
421.171	1168.19
421.394	1204.19
421.617	1198.19
421.839	1162.19
422.062	1217.19
422.285	1173.19
422.507	1217.19
422.73	1234.19
422.953	1223.19
423.175	1231.19
423.398	1266.19
423.621	1235.19
423.843	1285.19
424.066	1273.19
424.288	1236.19
424.511	1205.19
424.733	1249.19
424.956	1223.19
425.178	1233.19
425.401	1218.19
425.623	1177.19
425.846	1135.19
426.068	1166.19
426.291	1149.19
426.513	1123.19
426.735	1146.19
426.958	1084.19
427.18	1092.19
427.402	1084.19
427.625	1083.19
427.847	1050.19
428.069	1062.19
428.292	1077.19
428.514	1027.19
428.736	1014.19
428.958	1058.19
429.181	1015.19
429.403	998.19
429.625	1011.19
429.847	1025.19
430.069	1001.19
430.292	1054.19
430.514	994.19
430.736	1022.19
430.958	1051.19
431.18	1037.19
431.402	1018.19
431.624	1035.19
431.846	1058.19
432.068	1053.19
432.29	1097.19
432.512	1043.19
432.734	1044.19
432.956	1048.19
433.178	1054.19
433.4	1037.19
433.622	1074.19
433.844	1091.19
434.066	1050.19
434.287	1095.19
434.509	1109.19
434.731	1160.19
434.953	1174.19
435.175	1185.19
435.397	1157.19
435.618	1086.19
435.84	1076.19
436.062	1067.19
436.284	1068.19
436.505	1070.19
436.727	1055.19
436.949	1031.19
437.17	1031.19
437.392	1018.19
437.614	1013.19
437.835	994.19
438.057	993.19
438.278	1006.19
438.5	1002.19
438.721	997.19
438.943	1020.19
439.165	1012.19
439.386	1017.19
439.608	1033.19
439.829	1044.19
440.05	1029.19
440.272	1029.19
440.493	1075.19
440.715	1075.19
440.936	1115.19
441.158	1097.19
441.379	1111.19
441.6	1152.19
441.822	1165.19
442.043	1170.19
442.264	1159.19
442.486	1144.19
442.707	1136.19
442.928	1149.19
443.149	1174.19
443.371	1151.19
443.592	1158.19
443.813	1163.19
444.034	1202.19
444.255	1211.19
444.476	1273.19
444.698	1378.19
444.919	1397.19
445.14	1464.19
445.361	1337.19
445.582	1233.19
445.803	1147.19
446.024	1093.19
446.245	1103.19
446.466	1092.19
446.687	1070.19
446.908	1079.19
447.129	1060.19
447.35	1035.19
447.571	1001.19
447.792	995.19
448.013	996.19
448.234	960.19
448.455	953.19
448.675	953.19
448.896	985.19
449.117	938.19
449.338	917.19
449.559	914.19
449.779	922.19
450	932.19
450.221	927.19
450.442	952.19
450.662	967.19
450.883	970.19
451.104	1002.19
451.324	953.19
451.545	952.19
451.766	966.19
451.986	985.19
452.207	958.19
452.428	938.19
452.648	958.19
452.869	936.19
453.089	956.19
453.31	948.19
453.53	957.19
453.751	912.19
453.971	933.19
454.192	920.19
454.412	933.19
454.633	929.19
454.853	932.19
455.073	888.19
455.294	917.19
455.514	902.19
455.734	897.19
455.955	878.19
456.175	875.19
456.395	896.19
456.616	883.19
456.836	894.19
457.056	889.19
457.276	894.19
457.497	911.19
457.717	881.19
457.937	885.19
458.157	901.19
458.377	921.19
458.598	945.19
458.818	963.19
459.038	985.19
459.258	1014.19
459.478	1030.19
459.698	1077.19
459.918	1108.19
460.138	1155.19
460.358	1203.19
460.578	1277.19
460.798	1258.19
461.018	1244.19
461.238	1238.19
461.458	1241.19
461.678	1261.19
461.898	1245.19
462.118	1249.19
462.338	1346.19
462.558	1335.19
462.777	1407.19
462.997	1541.19
463.217	1694.19
463.437	1676.19
463.657	1546.19
463.876	1483.19
464.096	1450.19
464.316	1461.19
464.536	1465.19
464.755	1405.19
464.975	1384.19
465.195	1295.19
465.414	1240.19
465.634	1128.19
465.854	1097.19
466.073	1058.19
466.293	1053.19
466.512	1035.19
466.732	995.19
466.951	996.19
467.171	1009.19
467.391	993.19
467.61	1007.19
467.829	982.19
468.049	993.19
468.268	945.19
468.488	949.19
468.707	961.19
468.927	982.19
469.146	963.19
469.365	975.19
469.585	977.19
469.804	1030.19
470.023	1005.19
470.243	1043.19
470.462	1043.19
470.681	1055.19
470.901	1055.19
471.12	1037.19
471.339	1037.19
471.558	971.19
471.777	983.19
471.997	969.19
472.216	979.19
472.435	963.19
472.654	940.19
472.873	919.19
473.092	955.19
473.311	945.19
473.53	957.19
473.749	941.19
473.968	919.19
474.187	897.19
474.406	938.19
474.625	939.19
474.844	923.19
475.063	919.19
475.282	965.19
475.501	973.19
475.72	956.19
475.939	962.19
476.158	957.19
476.377	970.19
476.596	985.19
476.814	970.19
477.033	974.19
477.252	997.19
477.471	1054.19
477.69	1032.19
477.908	1101.19
478.127	1139.19
478.346	1132.19
478.564	1158.19
478.783	1177.19
479.002	1183.19
479.22	1194.19
479.439	1182.19
479.658	1172.19
479.876	1167.19
480.095	1185.19
480.313	1243.19
480.532	1309.19
480.751	1272.19
480.969	1210.19
481.188	1157.19
481.406	1131.19
481.624	1093.19
481.843	1088.19
482.061	1091.19
482.28	1085.19
482.498	1065.19
482.717	1065.19
482.935	1074.19
483.153	1093.19
483.372	1062.19
483.59	1075.19
483.808	1103.19
484.027	1078.19
484.245	1091.19
484.463	1095.19
484.681	1082.19
484.9	1123.19
485.118	1119.19
485.336	1114.19
485.554	1152.19
485.772	1166.19
485.99	1126.19
486.209	1149.19
486.427	1156.19
486.645	1153.19
486.863	1179.19
487.081	1110.19
487.299	1129.19
487.517	1127.19
487.735	1090.19
487.953	1147.19
488.171	1141.19
488.389	1106.19
488.607	1125.19
488.825	1120.19
489.043	1115.19
489.261	1110.19
489.479	1102.19
489.696	1141.19
489.914	1123.19
490.132	1133.19
490.35	1114.19
490.568	1152.19
490.786	1180.19
491.003	1126.19
491.221	1143.19
491.439	1144.19
491.657	1145.19
491.874	1137.19
492.092	1152.19
492.31	1178.19
492.527	1162.19
492.745	1137.19
492.963	1197.19
493.18	1147.19
493.398	1157.19
493.615	1168.19
493.833	1179.19
494.05	1168.19
494.268	1191.19
494.485	1195.19
494.703	1215.19
494.92	1194.19
495.138	1202.19
495.355	1192.19
495.573	1199.19
495.79	1204.19
496.008	1229.19
496.225	1234.19
