Data from NiCl2@0.125M.TitratingCurve.Agarose3%dH2O.NegLispCup.LampEnergy10.LIBS07252019_HRD10591_18-27-11-574.txt Node
Date: Thu Jul 25 18:27:11 EDT 2019
User: cochatt
Spectrometer: HR+D1059
Trigger mode: 1
Integration Time (sec): 1.000000E-1
Scans to average: 1
Electric dark correction enabled: true
Nonlinearity correction enabled: false
Boxcar width: 0
XAxis mode: Wavelengths
Number of Pixels in Spectrum: 2048
>>>>>Begin Spectral Data<<<<<
223.165	-5.25
223.4	-5.25
223.635	-5.25
223.869	-15.25
224.104	-31.25
224.338	-20.25
224.573	-17.25
224.808	-14.25
225.042	-2.25
225.277	-1.25
225.511	-4.25
225.746	10.75
225.98	-5.25
226.215	19.75
226.449	16.75
226.683	15.75
226.918	26.75
227.152	26.75
227.387	34.75
227.621	30.75
227.856	34.75
228.09	34.75
228.324	56.75
228.559	51.75
228.793	61.75
229.027	106.75
229.262	115.75
229.496	117.75
229.73	130.75
229.964	138.75
230.199	162.75
230.433	130.75
230.667	149.75
230.901	142.75
231.136	153.75
231.37	148.75
231.604	159.75
231.838	152.75
232.072	151.75
232.306	157.75
232.541	159.75
232.775	153.75
233.009	147.75
233.243	154.75
233.477	169.75
233.711	161.75
233.945	156.75
234.179	168.75
234.413	169.75
234.647	165.75
234.881	157.75
235.115	158.75
235.349	172.75
235.583	165.75
235.817	168.75
236.051	164.75
236.285	164.75
236.519	179.75
236.753	177.75
236.987	176.75
237.221	153.75
237.455	177.75
237.689	172.75
237.922	167.75
238.156	178.75
238.39	180.75
238.624	175.75
238.858	184.75
239.091	187.75
239.325	204.75
239.559	200.75
239.793	191.75
240.027	200.75
240.26	195.75
240.494	192.75
240.728	193.75
240.961	192.75
241.195	179.75
241.429	208.75
241.662	208.75
241.896	209.75
242.13	198.75
242.363	211.75
242.597	213.75
242.83	216.75
243.064	211.75
243.298	219.75
243.531	214.75
243.765	230.75
243.998	223.75
244.232	228.75
244.465	231.75
244.699	224.75
244.932	231.75
245.166	247.75
245.399	251.75
245.633	259.75
245.866	242.75
246.099	250.75
246.333	247.75
246.566	243.75
246.8	243.75
247.033	224.75
247.266	254.75
247.5	242.75
247.733	240.75
247.966	274.75
248.2	266.75
248.433	272.75
248.666	259.75
248.899	266.75
249.133	271.75
249.366	274.75
249.599	271.75
249.832	260.75
250.066	281.75
250.299	284.75
250.532	281.75
250.765	274.75
250.998	292.75
251.231	285.75
251.465	300.75
251.698	296.75
251.931	295.75
252.164	307.75
252.397	310.75
252.63	304.75
252.863	307.75
253.096	291.75
253.329	299.75
253.562	299.75
253.795	309.75
254.028	296.75
254.261	326.75
254.494	305.75
254.727	296.75
254.96	290.75
255.193	320.75
255.426	323.75
255.659	315.75
255.892	325.75
256.124	315.75
256.357	312.75
256.59	319.75
256.823	315.75
257.056	336.75
257.289	347.75
257.521	354.75
257.754	335.75
257.987	335.75
258.22	339.75
258.452	335.75
258.685	337.75
258.918	350.75
259.151	335.75
259.383	342.75
259.616	367.75
259.849	353.75
260.081	355.75
260.314	357.75
260.547	361.75
260.779	353.75
261.012	370.75
261.244	355.75
261.477	357.75
261.71	353.75
261.942	356.75
262.175	382.75
262.407	388.75
262.64	377.75
262.872	376.75
263.105	372.75
263.337	373.75
263.57	379.75
263.802	397.75
264.035	386.75
264.267	374.75
264.499	397.75
264.732	390.75
264.964	399.75
265.197	397.75
265.429	396.75
265.661	379.75
265.894	379.75
266.126	391.75
266.358	405.75
266.591	403.75
266.823	417.75
267.055	388.75
267.287	419.75
267.52	405.75
267.752	395.75
267.984	410.75
268.216	423.75
268.448	408.75
268.681	425.75
268.913	400.75
269.145	414.75
269.377	414.75
269.609	431.75
269.841	423.75
270.073	416.75
270.306	420.75
270.538	433.75
270.77	428.75
271.002	416.75
271.234	423.75
271.466	439.75
271.698	454.75
271.93	447.75
272.162	444.75
272.394	459.75
272.626	450.75
272.858	460.75
273.09	447.75
273.322	463.75
273.553	442.75
273.785	468.75
274.017	457.75
274.249	460.75
274.481	454.75
274.713	469.75
274.945	450.75
275.176	451.75
275.408	464.75
275.64	486.75
275.872	471.75
276.104	492.75
276.335	499.75
276.567	484.75
276.799	477.75
277.031	471.75
277.262	468.75
277.494	481.75
277.726	479.75
277.957	491.75
278.189	505.75
278.421	496.75
278.652	499.75
278.884	508.75
279.115	495.75
279.347	496.75
279.579	504.75
279.81	507.75
280.042	520.75
280.273	514.75
280.505	541.75
280.736	524.75
280.968	524.75
281.199	524.75
281.431	506.75
281.662	530.75
281.894	522.75
282.125	529.75
282.356	522.75
282.588	543.75
282.819	539.75
283.051	536.75
283.282	518.75
283.513	546.75
283.745	548.75
283.976	544.75
284.207	531.75
284.439	554.75
284.67	544.75
284.901	555.75
285.132	570.75
285.364	561.75
285.595	569.75
285.826	552.75
286.057	543.75
286.288	539.75
286.52	583.75
286.751	571.75
286.982	578.75
287.213	585.75
287.444	580.75
287.675	584.75
287.906	546.75
288.138	594.75
288.369	577.75
288.6	567.75
288.831	593.75
289.062	579.75
289.293	576.75
289.524	598.75
289.755	586.75
289.986	571.75
290.217	570.75
290.448	569.75
290.679	592.75
290.91	592.75
291.141	590.75
291.371	600.75
291.602	603.75
291.833	595.75
292.064	578.75
292.295	579.75
292.526	606.75
292.757	578.75
292.987	592.75
293.218	592.75
293.449	606.75
293.68	571.75
293.91	615.75
294.141	594.75
294.372	618.75
294.603	606.75
294.833	607.75
295.064	602.75
295.295	599.75
295.525	604.75
295.756	614.75
295.987	627.75
296.217	595.75
296.448	617.75
296.679	639.75
296.909	616.75
297.14	640.75
297.37	622.75
297.601	642.75
297.831	647.75
298.062	645.75
298.292	644.75
298.523	670.75
298.753	658.75
298.984	643.75
299.214	641.75
299.445	645.75
299.675	639.75
299.905	642.75
300.136	647.75
300.366	658.75
300.597	658.75
300.827	666.75
301.057	696.75
301.288	670.75
301.518	686.75
301.748	671.75
301.979	680.75
302.209	669.75
302.439	665.75
302.669	666.75
302.9	682.75
303.13	654.75
303.36	679.75
303.59	702.75
303.82	674.75
304.051	676.75
304.281	673.75
304.511	684.75
304.741	660.75
304.971	664.75
305.201	706.75
305.431	680.75
305.661	691.75
305.891	652.75
306.121	663.75
306.352	667.75
306.582	683.75
306.812	649.75
307.042	655.75
307.272	677.75
307.502	665.75
307.731	678.75
307.961	653.75
308.191	649.75
308.421	681.75
308.651	669.75
308.881	673.75
309.111	667.75
309.341	652.75
309.571	662.75
309.8	673.75
310.03	678.75
310.26	674.75
310.49	680.75
310.72	681.75
310.949	679.75
311.179	690.75
311.409	694.75
311.639	702.75
311.868	704.75
312.098	694.75
312.328	720.75
312.557	697.75
312.787	668.75
313.017	686.75
313.246	710.75
313.476	725.75
313.706	741.75
313.935	705.75
314.165	718.75
314.394	710.75
314.624	728.75
314.853	698.75
315.083	715.75
315.312	704.75
315.542	738.75
315.771	716.75
316.001	711.75
316.23	710.75
316.46	709.75
316.689	731.75
316.919	694.75
317.148	734.75
317.377	689.75
317.607	722.75
317.836	727.75
318.065	706.75
318.295	712.75
318.524	690.75
318.753	710.75
318.983	710.75
319.212	707.75
319.441	705.75
319.67	712.75
319.9	706.75
320.129	694.75
320.358	716.75
320.587	689.75
320.816	723.75
321.046	723.75
321.275	703.75
321.504	700.75
321.733	727.75
321.962	735.75
322.191	734.75
322.42	714.75
322.649	717.75
322.878	711.75
323.108	713.75
323.337	742.75
323.566	768.75
323.795	730.75
324.024	727.75
324.253	739.75
324.482	773.75
324.71	743.75
324.939	751.75
325.168	745.75
325.397	735.75
325.626	786.75
325.855	741.75
326.084	788.75
326.313	779.75
326.542	802.75
326.77	791.75
326.999	776.75
327.228	787.75
327.457	778.75
327.686	790.75
327.914	779.75
328.143	791.75
328.372	807.75
328.6	803.75
328.829	793.75
329.058	779.75
329.287	809.75
329.515	801.75
329.744	814.75
329.972	807.75
330.201	796.75
330.43	825.75
330.658	814.75
330.887	816.75
331.115	837.75
331.344	826.75
331.572	841.75
331.801	849.75
332.03	850.75
332.258	891.75
332.486	880.75
332.715	907.75
332.943	944.75
333.172	957.75
333.4	987.75
333.629	1001.75
333.857	1024.75
334.085	1024.75
334.314	993.75
334.542	992.75
334.771	966.75
334.999	946.75
335.227	1004.75
335.455	951.75
335.684	959.75
335.912	940.75
336.14	971.75
336.369	933.75
336.597	947.75
336.825	929.75
337.053	947.75
337.281	915.75
337.51	919.75
337.738	928.75
337.966	907.75
338.194	892.75
338.422	885.75
338.65	878.75
338.878	868.75
339.106	857.75
339.334	858.75
339.562	846.75
339.79	832.75
340.018	830.75
340.246	846.75
340.474	801.75
340.702	831.75
340.93	851.75
341.158	826.75
341.386	846.75
341.614	853.75
341.842	857.75
342.07	815.75
342.298	823.75
342.526	844.75
342.754	809.75
342.981	848.75
343.209	855.75
343.437	876.75
343.665	913.75
343.893	966.75
344.12	993.75
344.348	960.75
344.576	924.75
344.804	888.75
345.031	882.75
345.259	840.75
345.487	856.75
345.714	824.75
345.942	824.75
346.17	819.75
346.397	821.75
346.625	810.75
346.853	810.75
347.08	821.75
347.308	815.75
347.535	804.75
347.763	803.75
347.99	808.75
348.218	787.75
348.445	776.75
348.673	770.75
348.9	802.75
349.128	768.75
349.355	782.75
349.583	796.75
349.81	783.75
350.037	768.75
350.265	774.75
350.492	812.75
350.72	795.75
350.947	807.75
351.174	785.75
351.402	775.75
351.629	792.75
351.856	786.75
352.083	784.75
352.311	784.75
352.538	762.75
352.765	759.75
352.992	784.75
353.22	780.75
353.447	752.75
353.674	738.75
353.901	762.75
354.128	751.75
354.355	752.75
354.583	788.75
354.81	769.75
355.037	764.75
355.264	764.75
355.491	751.75
355.718	735.75
355.945	778.75
356.172	770.75
356.399	764.75
356.626	783.75
356.853	774.75
357.08	760.75
357.307	773.75
357.534	774.75
357.761	776.75
357.988	786.75
358.215	786.75
358.441	763.75
358.668	747.75
358.895	778.75
359.122	778.75
359.349	772.75
359.576	776.75
359.802	766.75
360.029	785.75
360.256	779.75
360.483	775.75
360.709	750.75
360.936	783.75
361.163	776.75
361.39	760.75
361.616	790.75
361.843	778.75
362.07	777.75
362.296	802.75
362.523	782.75
362.749	788.75
362.976	775.75
363.203	777.75
363.429	769.75
363.656	758.75
363.882	766.75
364.109	768.75
364.335	780.75
364.562	778.75
364.788	770.75
365.015	792.75
365.241	730.75
365.468	776.75
365.694	792.75
365.92	770.75
366.147	772.75
366.373	786.75
366.599	767.75
366.826	792.75
367.052	777.75
367.278	786.75
367.505	752.75
367.731	795.75
367.957	796.75
368.184	776.75
368.41	786.75
368.636	759.75
368.862	791.75
369.089	802.75
369.315	793.75
369.541	782.75
369.767	815.75
369.993	810.75
370.219	808.75
370.445	825.75
370.672	804.75
370.898	832.75
371.124	847.75
371.35	854.75
371.576	839.75
371.802	822.75
372.028	822.75
372.254	854.75
372.48	865.75
372.706	858.75
372.932	875.75
373.158	854.75
373.384	843.75
373.61	826.75
373.835	853.75
374.061	867.75
374.287	858.75
374.513	866.75
374.739	888.75
374.965	913.75
375.191	910.75
375.416	905.75
375.642	893.75
375.868	869.75
376.094	864.75
376.319	880.75
376.545	831.75
376.771	859.75
376.997	831.75
377.222	823.75
377.448	820.75
377.674	853.75
377.899	827.75
378.125	851.75
378.35	842.75
378.576	842.75
378.802	834.75
379.027	832.75
379.253	844.75
379.478	840.75
379.704	839.75
379.929	839.75
380.155	842.75
380.38	824.75
380.606	837.75
380.831	836.75
381.057	821.75
381.282	835.75
381.507	820.75
381.733	867.75
381.958	864.75
382.184	888.75
382.409	883.75
382.634	858.75
382.86	845.75
383.085	864.75
383.31	868.75
383.535	876.75
383.761	902.75
383.986	916.75
384.211	918.75
384.436	933.75
384.662	918.75
384.887	957.75
385.112	947.75
385.337	985.75
385.562	978.75
385.787	972.75
386.013	994.75
386.238	992.75
386.463	986.75
386.688	998.75
386.913	965.75
387.138	986.75
387.363	996.75
387.588	980.75
387.813	991.75
388.038	981.75
388.263	962.75
388.488	1010.75
388.713	1001.75
388.938	954.75
389.163	981.75
389.387	977.75
389.612	959.75
389.837	980.75
390.062	970.75
390.287	970.75
390.512	991.75
390.736	984.75
390.961	1000.75
391.186	1013.75
391.411	1038.75
391.636	1044.75
391.86	1075.75
392.085	1118.75
392.31	1077.75
392.534	1102.75
392.759	1066.75
392.984	1065.75
393.208	1064.75
393.433	1060.75
393.658	1068.75
393.882	1036.75
394.107	1041.75
394.331	1043.75
394.556	1062.75
394.78	1078.75
395.005	1064.75
395.229	1063.75
395.454	1072.75
395.678	1105.75
395.903	1121.75
396.127	1114.75
396.352	1060.75
396.576	1056.75
396.801	1046.75
397.025	1088.75
397.249	1089.75
397.474	1129.75
397.698	1093.75
397.922	1090.75
398.147	1113.75
398.371	1148.75
398.595	1169.75
398.82	1223.75
399.044	1304.75
399.268	1360.75
399.492	1524.75
399.717	1696.75
399.941	1676.75
400.165	1557.75
400.389	1433.75
400.613	1377.75
400.837	1288.75
401.062	1283.75
401.286	1262.75
401.51	1217.75
401.734	1222.75
401.958	1227.75
402.182	1226.75
402.406	1251.75
402.63	1266.75
402.854	1271.75
403.078	1327.75
403.302	1311.75
403.526	1328.75
403.75	1366.75
403.974	1359.75
404.198	1354.75
404.422	1367.75
404.645	1398.75
404.869	1333.75
405.093	1292.75
405.317	1331.75
405.541	1334.75
405.765	1312.75
405.988	1307.75
406.212	1346.75
406.436	1349.75
406.66	1360.75
406.883	1356.75
407.107	1450.75
407.331	1500.75
407.555	1557.75
407.778	1553.75
408.002	1519.75
408.226	1500.75
408.449	1451.75
408.673	1415.75
408.896	1364.75
409.12	1382.75
409.344	1385.75
409.567	1367.75
409.791	1372.75
410.014	1338.75
410.238	1346.75
410.461	1338.75
410.685	1334.75
410.908	1308.75
411.132	1322.75
411.355	1299.75
411.578	1276.75
411.802	1270.75
412.025	1267.75
412.249	1262.75
412.472	1301.75
412.695	1286.75
412.919	1252.75
413.142	1264.75
413.365	1217.75
413.589	1267.75
413.812	1219.75
414.035	1249.75
414.258	1225.75
414.482	1224.75
414.705	1246.75
414.928	1208.75
415.151	1254.75
415.374	1261.75
415.597	1238.75
415.821	1179.75
416.044	1186.75
416.267	1214.75
416.49	1188.75
416.713	1215.75
416.936	1188.75
417.159	1188.75
417.382	1192.75
417.605	1159.75
417.828	1212.75
418.051	1190.75
418.274	1216.75
418.497	1194.75
418.72	1213.75
418.943	1232.75
419.166	1291.75
419.389	1374.75
419.611	1349.75
419.834	1302.75
420.057	1267.75
420.28	1212.75
420.503	1178.75
420.726	1193.75
420.948	1178.75
421.171	1219.75
421.394	1196.75
421.617	1203.75
421.839	1195.75
422.062	1206.75
422.285	1168.75
422.507	1241.75
422.73	1198.75
422.953	1170.75
423.175	1236.75
423.398	1235.75
423.621	1218.75
423.843	1245.75
424.066	1246.75
424.288	1239.75
424.511	1240.75
424.733	1204.75
424.956	1200.75
425.178	1190.75
425.401	1185.75
425.623	1211.75
425.846	1135.75
426.068	1152.75
426.291	1163.75
426.513	1139.75
426.735	1124.75
426.958	1140.75
427.18	1107.75
427.402	1131.75
427.625	1140.75
427.847	1107.75
428.069	1100.75
428.292	1103.75
428.514	1097.75
428.736	1096.75
428.958	1102.75
429.181	1078.75
429.403	1065.75
429.625	1101.75
429.847	1065.75
430.069	1093.75
430.292	1095.75
430.514	1078.75
430.736	1078.75
430.958	1081.75
431.18	1064.75
431.402	1084.75
431.624	1073.75
431.846	1098.75
432.068	1120.75
432.29	1140.75
432.512	1093.75
432.734	1067.75
432.956	1072.75
433.178	1107.75
433.4	1127.75
433.622	1082.75
433.844	1106.75
434.066	1139.75
434.287	1117.75
434.509	1136.75
434.731	1167.75
434.953	1219.75
435.175	1199.75
435.397	1172.75
435.618	1152.75
435.84	1140.75
436.062	1077.75
436.284	1106.75
436.505	1065.75
436.727	1076.75
436.949	1090.75
437.17	1088.75
437.392	1079.75
437.614	1044.75
437.835	1026.75
438.057	1042.75
438.278	1002.75
438.5	1025.75
438.721	1036.75
438.943	1040.75
439.165	1072.75
439.386	1066.75
439.608	1058.75
439.829	1078.75
440.05	1089.75
440.272	1104.75
440.493	1108.75
440.715	1090.75
440.936	1129.75
441.158	1133.75
441.379	1164.75
441.6	1193.75
441.822	1205.75
442.043	1201.75
442.264	1213.75
442.486	1142.75
442.707	1198.75
442.928	1175.75
443.149	1186.75
443.371	1188.75
443.592	1206.75
443.813	1191.75
444.034	1182.75
444.255	1214.75
444.476	1251.75
444.698	1362.75
444.919	1338.75
445.14	1432.75
445.361	1330.75
445.582	1213.75
445.803	1190.75
446.024	1179.75
446.245	1129.75
446.466	1120.75
446.687	1082.75
446.908	1112.75
447.129	1092.75
447.35	1060.75
447.571	1018.75
447.792	1001.75
448.013	1040.75
448.234	1017.75
448.455	1032.75
448.675	1004.75
448.896	1014.75
449.117	976.75
449.338	999.75
449.559	979.75
449.779	970.75
450	963.75
450.221	984.75
450.442	1007.75
450.662	1010.75
450.883	1004.75
451.104	1013.75
451.324	1007.75
451.545	1007.75
451.766	989.75
451.986	960.75
452.207	970.75
452.428	963.75
452.648	972.75
452.869	949.75
453.089	935.75
453.31	988.75
453.53	986.75
453.751	943.75
453.971	951.75
454.192	958.75
454.412	959.75
454.633	949.75
454.853	955.75
455.073	936.75
455.294	939.75
455.514	951.75
455.734	928.75
455.955	940.75
456.175	912.75
456.395	958.75
456.616	940.75
456.836	957.75
457.056	940.75
457.276	917.75
457.497	920.75
457.717	897.75
457.937	930.75
458.157	954.75
458.377	942.75
458.598	974.75
458.818	993.75
459.038	987.75
459.258	1029.75
459.478	1115.75
459.698	1084.75
459.918	1125.75
460.138	1160.75
460.358	1208.75
460.578	1210.75
460.798	1219.75
461.018	1214.75
461.238	1216.75
461.458	1240.75
461.678	1219.75
461.898	1241.75
462.118	1239.75
462.338	1315.75
462.558	1307.75
462.777	1346.75
462.997	1446.75
463.217	1548.75
463.437	1548.75
463.657	1455.75
463.876	1424.75
464.096	1410.75
464.316	1379.75
464.536	1378.75
464.755	1344.75
464.975	1327.75
465.195	1244.75
465.414	1195.75
465.634	1147.75
465.854	1104.75
466.073	1107.75
466.293	1070.75
466.512	1059.75
466.732	1055.75
466.951	1048.75
467.171	1034.75
467.391	1037.75
467.61	1041.75
467.829	1036.75
468.049	1006.75
468.268	981.75
468.488	999.75
468.707	998.75
468.927	993.75
469.146	974.75
469.365	1016.75
469.585	1032.75
469.804	1033.75
470.023	1059.75
470.243	1050.75
470.462	1039.75
470.681	1070.75
470.901	1110.75
471.12	1077.75
471.339	1065.75
471.558	1011.75
471.777	1017.75
471.997	1018.75
472.216	1030.75
472.435	981.75
472.654	1007.75
472.873	976.75
473.092	947.75
473.311	981.75
473.53	998.75
473.749	995.75
473.968	994.75
474.187	995.75
474.406	999.75
474.625	996.75
474.844	992.75
475.063	977.75
475.282	1025.75
475.501	1022.75
475.72	978.75
475.939	1067.75
476.158	1022.75
476.377	1061.75
476.596	1040.75
476.814	1047.75
477.033	1063.75
477.252	1084.75
477.471	1093.75
477.69	1116.75
477.908	1130.75
478.127	1162.75
478.346	1162.75
478.564	1200.75
478.783	1198.75
479.002	1248.75
479.22	1200.75
479.439	1180.75
479.658	1207.75
479.876	1231.75
480.095	1234.75
480.313	1270.75
480.532	1270.75
480.751	1289.75
480.969	1244.75
481.188	1224.75
481.406	1198.75
481.624	1187.75
481.843	1160.75
482.061	1152.75
482.28	1171.75
482.498	1159.75
482.717	1146.75
482.935	1162.75
483.153	1164.75
483.372	1171.75
483.59	1154.75
483.808	1154.75
484.027	1165.75
484.245	1148.75
484.463	1189.75
484.681	1193.75
484.9	1192.75
485.118	1172.75
485.336	1177.75
485.554	1214.75
485.772	1193.75
485.99	1204.75
486.209	1194.75
486.427	1219.75
486.645	1200.75
486.863	1223.75
487.081	1204.75
487.299	1195.75
487.517	1169.75
487.735	1218.75
487.953	1258.75
488.171	1210.75
488.389	1225.75
488.607	1203.75
488.825	1175.75
489.043	1185.75
489.261	1192.75
489.479	1223.75
489.696	1201.75
489.914	1151.75
490.132	1194.75
490.35	1202.75
490.568	1179.75
490.786	1229.75
491.003	1239.75
491.221	1233.75
491.439	1223.75
491.657	1200.75
491.874	1223.75
492.092	1235.75
492.31	1247.75
492.527	1262.75
492.745	1222.75
492.963	1265.75
493.18	1236.75
493.398	1241.75
493.615	1249.75
493.833	1251.75
494.05	1244.75
494.268	1245.75
494.485	1256.75
494.703	1281.75
494.92	1267.75
495.138	1247.75
495.355	1270.75
495.573	1272.75
495.79	1294.75
