Data from NiCl2@0.25M.TitratingCurve.Agarose3%dH2O.NegLispCup.LampEnergy10.LIBS07252019_HRD10591_18-23-34-572.txt Node
Date: Thu Jul 25 18:23:34 EDT 2019
User: cochatt
Spectrometer: HR+D1059
Trigger mode: 1
Integration Time (sec): 1.000000E-1
Scans to average: 1
Electric dark correction enabled: true
Nonlinearity correction enabled: false
Boxcar width: 0
XAxis mode: Wavelengths
Number of Pixels in Spectrum: 2048
>>>>>Begin Spectral Data<<<<<
223.165	-12.94
223.4	-12.94
223.635	-12.94
223.869	-24.94
224.104	-4.94
224.338	-9.94
224.573	-37.94
224.808	-29.94
225.042	-14.94
225.277	4.06
225.511	0.06
225.746	6.06
225.98	5.06
226.215	6.06
226.449	11.06
226.683	33.06
226.918	29.06
227.152	41.06
227.387	16.06
227.621	32.06
227.856	36.06
228.09	56.06
228.324	46.06
228.559	49.06
228.793	69.06
229.027	137.06
229.262	130.06
229.496	128.06
229.73	120.06
229.964	133.06
230.199	143.06
230.433	158.06
230.667	164.06
230.901	145.06
231.136	155.06
231.37	154.06
231.604	168.06
231.838	149.06
232.072	169.06
232.306	184.06
232.541	172.06
232.775	178.06
233.009	164.06
233.243	181.06
233.477	169.06
233.711	185.06
233.945	179.06
234.179	181.06
234.413	180.06
234.647	154.06
234.881	173.06
235.115	174.06
235.349	191.06
235.583	188.06
235.817	167.06
236.051	182.06
236.285	178.06
236.519	178.06
236.753	185.06
236.987	188.06
237.221	193.06
237.455	195.06
237.689	192.06
237.922	181.06
238.156	180.06
238.39	201.06
238.624	204.06
238.858	189.06
239.091	193.06
239.325	202.06
239.559	192.06
239.793	200.06
240.027	220.06
240.26	210.06
240.494	216.06
240.728	226.06
240.961	208.06
241.195	221.06
241.429	224.06
241.662	240.06
241.896	229.06
242.13	243.06
242.363	202.06
242.597	242.06
242.83	246.06
243.064	256.06
243.298	264.06
243.531	249.06
243.765	266.06
243.998	257.06
244.232	242.06
244.465	241.06
244.699	259.06
244.932	251.06
245.166	270.06
245.399	258.06
245.633	266.06
245.866	276.06
246.099	267.06
246.333	286.06
246.566	276.06
246.8	281.06
247.033	277.06
247.266	279.06
247.5	274.06
247.733	269.06
247.966	282.06
248.2	305.06
248.433	294.06
248.666	308.06
248.899	288.06
249.133	294.06
249.366	289.06
249.599	314.06
249.832	317.06
250.066	310.06
250.299	322.06
250.532	322.06
250.765	309.06
250.998	320.06
251.231	304.06
251.465	327.06
251.698	338.06
251.931	336.06
252.164	330.06
252.397	343.06
252.63	324.06
252.863	332.06
253.096	335.06
253.329	318.06
253.562	340.06
253.795	350.06
254.028	341.06
254.261	342.06
254.494	353.06
254.727	373.06
254.96	349.06
255.193	342.06
255.426	358.06
255.659	350.06
255.892	338.06
256.124	342.06
256.357	368.06
256.59	369.06
256.823	359.06
257.056	354.06
257.289	360.06
257.521	375.06
257.754	374.06
257.987	398.06
258.22	394.06
258.452	371.06
258.685	379.06
258.918	384.06
259.151	379.06
259.383	376.06
259.616	362.06
259.849	370.06
260.081	398.06
260.314	391.06
260.547	402.06
260.779	397.06
261.012	394.06
261.244	386.06
261.477	412.06
261.71	400.06
261.942	387.06
262.175	403.06
262.407	429.06
262.64	384.06
262.872	408.06
263.105	441.06
263.337	418.06
263.57	418.06
263.802	424.06
264.035	430.06
264.267	442.06
264.499	421.06
264.732	435.06
264.964	440.06
265.197	429.06
265.429	422.06
265.661	440.06
265.894	442.06
266.126	460.06
266.358	454.06
266.591	426.06
266.823	450.06
267.055	429.06
267.287	459.06
267.52	448.06
267.752	464.06
267.984	453.06
268.216	462.06
268.448	458.06
268.681	450.06
268.913	475.06
269.145	477.06
269.377	482.06
269.609	467.06
269.841	480.06
270.073	466.06
270.306	481.06
270.538	476.06
270.77	464.06
271.002	457.06
271.234	474.06
271.466	476.06
271.698	491.06
271.93	487.06
272.162	491.06
272.394	503.06
272.626	498.06
272.858	489.06
273.09	499.06
273.322	505.06
273.553	495.06
273.785	486.06
274.017	493.06
274.249	520.06
274.481	536.06
274.713	509.06
274.945	526.06
275.176	514.06
275.408	539.06
275.64	536.06
275.872	537.06
276.104	518.06
276.335	522.06
276.567	520.06
276.799	520.06
277.031	551.06
277.262	529.06
277.494	554.06
277.726	548.06
277.957	546.06
278.189	550.06
278.421	548.06
278.652	551.06
278.884	545.06
279.115	560.06
279.347	558.06
279.579	545.06
279.81	557.06
280.042	562.06
280.273	553.06
280.505	573.06
280.736	563.06
280.968	581.06
281.199	589.06
281.431	614.06
281.662	590.06
281.894	578.06
282.125	596.06
282.356	589.06
282.588	596.06
282.819	610.06
283.051	594.06
283.282	590.06
283.513	614.06
283.745	613.06
283.976	614.06
284.207	600.06
284.439	626.06
284.67	606.06
284.901	618.06
285.132	617.06
285.364	625.06
285.595	610.06
285.826	629.06
286.057	621.06
286.288	620.06
286.52	635.06
286.751	624.06
286.982	641.06
287.213	615.06
287.444	636.06
287.675	658.06
287.906	649.06
288.138	648.06
288.369	664.06
288.6	655.06
288.831	657.06
289.062	628.06
289.293	654.06
289.524	671.06
289.755	648.06
289.986	645.06
290.217	660.06
290.448	667.06
290.679	677.06
290.91	656.06
291.141	675.06
291.371	674.06
291.602	673.06
291.833	686.06
292.064	679.06
292.295	666.06
292.526	683.06
292.757	672.06
292.987	684.06
293.218	670.06
293.449	688.06
293.68	660.06
293.91	664.06
294.141	656.06
294.372	685.06
294.603	690.06
294.833	677.06
295.064	655.06
295.295	685.06
295.525	680.06
295.756	674.06
295.987	712.06
296.217	702.06
296.448	714.06
296.679	694.06
296.909	696.06
297.14	689.06
297.37	722.06
297.601	699.06
297.831	726.06
298.062	708.06
298.292	725.06
298.523	756.06
298.753	753.06
298.984	729.06
299.214	733.06
299.445	732.06
299.675	755.06
299.905	758.06
300.136	745.06
300.366	732.06
300.597	737.06
300.827	765.06
301.057	753.06
301.288	782.06
301.518	762.06
301.748	759.06
301.979	775.06
302.209	782.06
302.439	774.06
302.669	770.06
302.9	746.06
303.13	735.06
303.36	760.06
303.59	722.06
303.82	768.06
304.051	747.06
304.281	761.06
304.511	730.06
304.741	754.06
304.971	758.06
305.201	762.06
305.431	768.06
305.661	750.06
305.891	792.06
306.121	738.06
306.352	770.06
306.582	758.06
306.812	744.06
307.042	753.06
307.272	759.06
307.502	770.06
307.731	773.06
307.961	733.06
308.191	717.06
308.421	771.06
308.651	736.06
308.881	732.06
309.111	754.06
309.341	725.06
309.571	743.06
309.8	742.06
310.03	733.06
310.26	752.06
310.49	756.06
310.72	766.06
310.949	743.06
311.179	741.06
311.409	741.06
311.639	776.06
311.868	784.06
312.098	776.06
312.328	773.06
312.557	777.06
312.787	786.06
313.017	796.06
313.246	830.06
313.476	802.06
313.706	816.06
313.935	816.06
314.165	800.06
314.394	812.06
314.624	806.06
314.853	794.06
315.083	830.06
315.312	804.06
315.542	804.06
315.771	803.06
316.001	814.06
316.23	795.06
316.46	805.06
316.689	808.06
316.919	790.06
317.148	817.06
317.377	782.06
317.607	778.06
317.836	786.06
318.065	796.06
318.295	782.06
318.524	803.06
318.753	792.06
318.983	778.06
319.212	792.06
319.441	777.06
319.67	802.06
319.9	786.06
320.129	796.06
320.358	793.06
320.587	808.06
320.816	805.06
321.046	792.06
321.275	797.06
321.504	793.06
321.733	794.06
321.962	812.06
322.191	803.06
322.42	792.06
322.649	835.06
322.878	812.06
323.108	809.06
323.337	826.06
323.566	836.06
323.795	830.06
324.024	828.06
324.253	844.06
324.482	841.06
324.71	845.06
324.939	841.06
325.168	814.06
325.397	830.06
325.626	861.06
325.855	821.06
326.084	864.06
326.313	902.06
326.542	918.06
326.77	902.06
326.999	890.06
327.228	836.06
327.457	841.06
327.686	862.06
327.914	849.06
328.143	891.06
328.372	879.06
328.6	898.06
328.829	882.06
329.058	867.06
329.287	865.06
329.515	874.06
329.744	896.06
329.972	902.06
330.201	881.06
330.43	922.06
330.658	873.06
330.887	935.06
331.115	917.06
331.344	919.06
331.572	908.06
331.801	929.06
332.03	987.06
332.258	968.06
332.486	1027.06
332.715	1022.06
332.943	1090.06
333.172	1117.06
333.4	1153.06
333.629	1182.06
333.857	1179.06
334.085	1208.06
334.314	1157.06
334.542	1191.06
334.771	1142.06
334.999	1125.06
335.227	1109.06
335.455	1111.06
335.684	1070.06
335.912	1085.06
336.14	1062.06
336.369	1056.06
336.597	1059.06
336.825	1043.06
337.053	1046.06
337.281	1056.06
337.51	1030.06
337.738	1000.06
337.966	994.06
338.194	1006.06
338.422	958.06
338.65	920.06
338.878	949.06
339.106	976.06
339.334	958.06
339.562	957.06
339.79	946.06
340.018	914.06
340.246	889.06
340.474	890.06
340.702	932.06
340.93	932.06
341.158	947.06
341.386	949.06
341.614	941.06
341.842	938.06
342.07	915.06
342.298	896.06
342.526	902.06
342.754	907.06
342.981	920.06
343.209	936.06
343.437	976.06
343.665	1043.06
343.893	1089.06
344.12	1152.06
344.348	1091.06
344.576	1056.06
344.804	997.06
345.031	964.06
345.259	942.06
345.487	958.06
345.714	914.06
345.942	935.06
346.17	936.06
346.397	898.06
346.625	884.06
346.853	888.06
347.08	871.06
347.308	880.06
347.535	873.06
347.763	865.06
347.99	881.06
348.218	888.06
348.445	877.06
348.673	886.06
348.9	866.06
349.128	873.06
349.355	853.06
349.583	872.06
349.81	885.06
350.037	856.06
350.265	845.06
350.492	858.06
350.72	841.06
350.947	867.06
351.174	872.06
351.402	838.06
351.629	848.06
351.856	840.06
352.083	846.06
352.311	857.06
352.538	879.06
352.765	854.06
352.992	828.06
353.22	837.06
353.447	843.06
353.674	837.06
353.901	841.06
354.128	828.06
354.355	825.06
354.583	842.06
354.81	824.06
355.037	825.06
355.264	828.06
355.491	840.06
355.718	818.06
355.945	857.06
356.172	824.06
356.399	849.06
356.626	852.06
356.853	872.06
357.08	837.06
357.307	865.06
357.534	835.06
357.761	868.06
357.988	830.06
358.215	828.06
358.441	819.06
358.668	834.06
358.895	830.06
359.122	842.06
359.349	849.06
359.576	856.06
359.802	843.06
360.029	838.06
360.256	859.06
360.483	861.06
360.709	836.06
360.936	857.06
361.163	851.06
361.39	829.06
361.616	831.06
361.843	860.06
362.07	861.06
362.296	869.06
362.523	861.06
362.749	852.06
362.976	830.06
363.203	811.06
363.429	795.06
363.656	838.06
363.882	852.06
364.109	820.06
364.335	820.06
364.562	828.06
364.788	810.06
365.015	832.06
365.241	836.06
365.468	841.06
365.694	848.06
365.92	843.06
366.147	826.06
366.373	840.06
366.599	863.06
366.826	832.06
367.052	855.06
367.278	850.06
367.505	844.06
367.731	866.06
367.957	846.06
368.184	859.06
368.41	850.06
368.636	836.06
368.862	884.06
369.089	873.06
369.315	858.06
369.541	849.06
369.767	858.06
369.993	886.06
370.219	884.06
370.445	895.06
370.672	882.06
370.898	905.06
371.124	889.06
371.35	915.06
371.576	900.06
371.802	916.06
372.028	893.06
372.254	924.06
372.48	910.06
372.706	952.06
372.932	950.06
373.158	968.06
373.384	930.06
373.61	934.06
373.835	905.06
374.061	886.06
374.287	914.06
374.513	949.06
374.739	955.06
374.965	980.06
375.191	1030.06
375.416	1006.06
375.642	982.06
375.868	961.06
376.094	952.06
376.319	948.06
376.545	951.06
376.771	938.06
376.997	909.06
377.222	930.06
377.448	925.06
377.674	928.06
377.899	893.06
378.125	918.06
378.35	921.06
378.576	922.06
378.802	920.06
379.027	883.06
379.253	896.06
379.478	896.06
379.704	875.06
379.929	884.06
380.155	906.06
380.38	875.06
380.606	906.06
380.831	914.06
381.057	942.06
381.282	897.06
381.507	933.06
381.733	906.06
381.958	925.06
382.184	958.06
382.409	919.06
382.634	920.06
382.86	955.06
383.085	954.06
383.31	974.06
383.535	972.06
383.761	989.06
383.986	1002.06
384.211	1042.06
384.436	1052.06
384.662	1081.06
384.887	1090.06
385.112	1080.06
385.337	1107.06
385.562	1109.06
385.787	1077.06
386.013	1111.06
386.238	1127.06
386.463	1146.06
386.688	1141.06
386.913	1100.06
387.138	1089.06
387.363	1124.06
387.588	1082.06
387.813	1101.06
388.038	1104.06
388.263	1088.06
388.488	1104.06
388.713	1099.06
388.938	1097.06
389.163	1069.06
389.387	1051.06
389.612	1090.06
389.837	1032.06
390.062	1067.06
390.287	1083.06
390.512	1045.06
390.736	1099.06
390.961	1104.06
391.186	1163.06
391.411	1160.06
391.636	1196.06
391.86	1240.06
392.085	1266.06
392.31	1275.06
392.534	1207.06
392.759	1217.06
392.984	1208.06
393.208	1152.06
393.433	1175.06
393.658	1177.06
393.882	1162.06
394.107	1173.06
394.331	1177.06
394.556	1178.06
394.78	1186.06
395.005	1192.06
395.229	1166.06
395.454	1203.06
395.678	1232.06
395.903	1266.06
396.127	1243.06
396.352	1206.06
396.576	1146.06
396.801	1143.06
397.025	1219.06
397.249	1225.06
397.474	1203.06
397.698	1228.06
397.922	1239.06
398.147	1274.06
398.371	1290.06
398.595	1300.06
398.82	1369.06
399.044	1478.06
399.268	1618.06
399.492	1845.06
399.717	2036.06
399.941	2055.06
400.165	1900.06
400.389	1669.06
400.613	1556.06
400.837	1488.06
401.062	1434.06
401.286	1414.06
401.51	1392.06
401.734	1426.06
401.958	1418.06
402.182	1428.06
402.406	1433.06
402.63	1430.06
402.854	1450.06
403.078	1467.06
403.302	1509.06
403.526	1564.06
403.75	1576.06
403.974	1618.06
404.198	1590.06
404.422	1627.06
404.645	1622.06
404.869	1556.06
405.093	1596.06
405.317	1560.06
405.541	1562.06
405.765	1521.06
405.988	1557.06
406.212	1532.06
406.436	1522.06
406.66	1559.06
406.883	1570.06
407.107	1688.06
407.331	1768.06
407.555	1836.06
407.778	1798.06
408.002	1795.06
408.226	1723.06
408.449	1694.06
408.673	1613.06
408.896	1534.06
409.12	1570.06
409.344	1589.06
409.567	1584.06
409.791	1577.06
410.014	1582.06
410.238	1515.06
410.461	1527.06
410.685	1518.06
410.908	1484.06
411.132	1489.06
411.355	1422.06
411.578	1402.06
411.802	1437.06
412.025	1481.06
412.249	1492.06
412.472	1461.06
412.695	1412.06
412.919	1404.06
413.142	1381.06
413.365	1371.06
413.589	1420.06
413.812	1356.06
414.035	1350.06
414.258	1376.06
414.482	1368.06
414.705	1438.06
414.928	1400.06
415.151	1411.06
415.374	1386.06
415.597	1357.06
415.821	1328.06
416.044	1335.06
416.267	1332.06
416.49	1354.06
416.713	1335.06
416.936	1348.06
417.159	1319.06
417.382	1321.06
417.605	1351.06
417.828	1329.06
418.051	1355.06
418.274	1384.06
418.497	1390.06
418.72	1407.06
418.943	1408.06
419.166	1498.06
419.389	1582.06
419.611	1565.06
419.834	1497.06
420.057	1451.06
420.28	1395.06
420.503	1370.06
420.726	1364.06
420.948	1367.06
421.171	1365.06
421.394	1365.06
421.617	1333.06
421.839	1368.06
422.062	1377.06
422.285	1316.06
422.507	1410.06
422.73	1411.06
422.953	1456.06
423.175	1426.06
423.398	1431.06
423.621	1442.06
423.843	1460.06
424.066	1473.06
424.288	1417.06
424.511	1420.06
424.733	1417.06
424.956	1362.06
425.178	1366.06
425.401	1369.06
425.623	1375.06
425.846	1289.06
426.068	1298.06
426.291	1325.06
426.513	1286.06
426.735	1293.06
426.958	1282.06
427.18	1244.06
427.402	1242.06
427.625	1245.06
427.847	1234.06
428.069	1228.06
428.292	1233.06
428.514	1182.06
428.736	1193.06
428.958	1211.06
429.181	1213.06
429.403	1179.06
429.625	1160.06
429.847	1191.06
430.069	1165.06
430.292	1162.06
430.514	1170.06
430.736	1178.06
430.958	1181.06
431.18	1197.06
431.402	1183.06
431.624	1175.06
431.846	1230.06
432.068	1194.06
432.29	1245.06
432.512	1216.06
432.734	1214.06
432.956	1216.06
433.178	1200.06
433.4	1202.06
433.622	1234.06
433.844	1241.06
434.066	1244.06
434.287	1259.06
434.509	1301.06
434.731	1307.06
434.953	1346.06
435.175	1335.06
435.397	1332.06
435.618	1259.06
435.84	1246.06
436.062	1221.06
436.284	1213.06
436.505	1184.06
436.727	1187.06
436.949	1206.06
437.17	1235.06
437.392	1169.06
437.614	1177.06
437.835	1157.06
438.057	1146.06
438.278	1143.06
438.5	1170.06
438.721	1143.06
438.943	1154.06
439.165	1154.06
439.386	1169.06
439.608	1186.06
439.829	1194.06
440.05	1184.06
440.272	1207.06
440.493	1225.06
440.715	1266.06
440.936	1274.06
441.158	1246.06
441.379	1284.06
441.6	1315.06
441.822	1364.06
442.043	1364.06
442.264	1340.06
442.486	1306.06
442.707	1315.06
442.928	1288.06
443.149	1305.06
443.371	1328.06
443.592	1356.06
443.813	1350.06
444.034	1356.06
444.255	1438.06
444.476	1464.06
444.698	1555.06
444.919	1593.06
445.14	1685.06
445.361	1538.06
445.582	1372.06
445.803	1289.06
446.024	1247.06
446.245	1243.06
446.466	1233.06
446.687	1190.06
446.908	1218.06
447.129	1186.06
447.35	1172.06
447.571	1127.06
447.792	1117.06
448.013	1119.06
448.234	1099.06
448.455	1102.06
448.675	1078.06
448.896	1094.06
449.117	1048.06
449.338	1095.06
449.559	1075.06
449.779	1080.06
450	1078.06
450.221	1077.06
450.442	1086.06
450.662	1080.06
450.883	1120.06
451.104	1139.06
451.324	1142.06
451.545	1090.06
451.766	1110.06
451.986	1084.06
452.207	1064.06
452.428	1081.06
452.648	1110.06
452.869	1050.06
453.089	1054.06
453.31	1079.06
453.53	1079.06
453.751	1048.06
453.971	1068.06
454.192	1054.06
454.412	1048.06
454.633	1044.06
454.853	1032.06
455.073	1048.06
455.294	1025.06
455.514	1016.06
455.734	1017.06
455.955	1013.06
456.175	1030.06
456.395	997.06
456.616	1029.06
456.836	1036.06
457.056	1022.06
457.276	997.06
457.497	1021.06
457.717	1038.06
457.937	1038.06
458.157	1024.06
458.377	1044.06
458.598	1058.06
458.818	1131.06
459.038	1134.06
459.258	1147.06
459.478	1207.06
459.698	1249.06
459.918	1248.06
460.138	1345.06
460.358	1414.06
460.578	1439.06
460.798	1432.06
461.018	1406.06
461.238	1399.06
461.458	1432.06
461.678	1401.06
461.898	1413.06
462.118	1444.06
462.338	1489.06
462.558	1568.06
462.777	1652.06
462.997	1782.06
463.217	1897.06
463.437	1920.06
463.657	1753.06
463.876	1668.06
464.096	1670.06
464.316	1669.06
464.536	1643.06
464.755	1614.06
464.975	1532.06
465.195	1480.06
465.414	1397.06
465.634	1300.06
465.854	1246.06
466.073	1215.06
466.293	1196.06
466.512	1160.06
466.732	1164.06
466.951	1126.06
467.171	1145.06
467.391	1148.06
467.61	1143.06
467.829	1166.06
468.049	1146.06
468.268	1115.06
468.488	1078.06
468.707	1084.06
468.927	1093.06
469.146	1075.06
469.365	1118.06
469.585	1121.06
469.804	1163.06
470.023	1180.06
470.243	1177.06
470.462	1185.06
470.681	1174.06
470.901	1156.06
471.12	1171.06
471.339	1145.06
471.558	1144.06
471.777	1146.06
471.997	1115.06
472.216	1102.06
472.435	1100.06
472.654	1090.06
472.873	1081.06
473.092	1095.06
473.311	1085.06
473.53	1081.06
473.749	1051.06
473.968	1062.06
474.187	1042.06
474.406	1051.06
474.625	1046.06
474.844	1073.06
475.063	1055.06
475.282	1056.06
475.501	1063.06
475.72	1118.06
475.939	1090.06
476.158	1108.06
476.377	1118.06
476.596	1119.06
476.814	1147.06
477.033	1162.06
477.252	1152.06
477.471	1186.06
477.69	1205.06
477.908	1232.06
478.127	1269.06
478.346	1292.06
478.564	1347.06
478.783	1312.06
479.002	1383.06
479.22	1357.06
479.439	1371.06
479.658	1398.06
479.876	1336.06
480.095	1365.06
480.313	1429.06
480.532	1423.06
480.751	1429.06
480.969	1414.06
481.188	1371.06
481.406	1280.06
481.624	1288.06
481.843	1251.06
482.061	1225.06
482.28	1213.06
482.498	1220.06
482.717	1209.06
482.935	1206.06
483.153	1225.06
483.372	1255.06
483.59	1251.06
483.808	1213.06
484.027	1237.06
484.245	1244.06
484.463	1241.06
484.681	1279.06
484.9	1257.06
485.118	1270.06
485.336	1269.06
485.554	1251.06
485.772	1284.06
485.99	1283.06
486.209	1277.06
486.427	1272.06
486.645	1308.06
486.863	1298.06
487.081	1282.06
487.299	1248.06
487.517	1268.06
487.735	1298.06
487.953	1325.06
488.171	1292.06
488.389	1278.06
488.607	1271.06
488.825	1262.06
489.043	1272.06
489.261	1278.06
489.479	1270.06
489.696	1280.06
489.914	1265.06
490.132	1260.06
490.35	1270.06
490.568	1294.06
490.786	1320.06
491.003	1320.06
491.221	1339.06
491.439	1300.06
491.657	1314.06
491.874	1308.06
492.092	1309.06
492.31	1329.06
492.527	1355.06
492.745	1313.06
492.963	1350.06
493.18	1342.06
493.398	1317.06
493.615	1339.06
493.833	1362.06
494.05	1330.06
494.268	1353.06
494.485	1378.06
