Data from NiCl2@0.5M.TitratingCurve.Agarose3%dH2O.NegLispCup.LampEnergy10.LIBS07252019_HRD10591_18-19-02-571.txt Node
Date: Thu Jul 25 18:19:02 EDT 2019
User: cochatt
Spectrometer: HR+D1059
Trigger mode: 1
Integration Time (sec): 1.000000E-1
Scans to average: 1
Electric dark correction enabled: true
Nonlinearity correction enabled: false
Boxcar width: 0
XAxis mode: Wavelengths
Number of Pixels in Spectrum: 2048
>>>>>Begin Spectral Data<<<<<
223.165	-24.19
223.4	-24.19
223.635	-24.19
223.869	-13.19
224.104	-10.19
224.338	-5.19
224.573	-2.19
224.808	-19.19
225.042	-3.19
225.277	-5.19
225.511	-0.19
225.746	-8.19
225.98	-9.19
226.215	6.81
226.449	12.81
226.683	26.81
226.918	28.81
227.152	24.81
227.387	43.81
227.621	38.81
227.856	41.81
228.09	24.81
228.324	56.81
228.559	58.81
228.793	64.81
229.027	109.81
229.262	116.81
229.496	124.81
229.73	138.81
229.964	132.81
230.199	147.81
230.433	145.81
230.667	143.81
230.901	159.81
231.136	151.81
231.37	143.81
231.604	149.81
231.838	146.81
232.072	163.81
232.306	162.81
232.541	155.81
232.775	150.81
233.009	155.81
233.243	148.81
233.477	162.81
233.711	165.81
233.945	171.81
234.179	155.81
234.413	160.81
234.647	169.81
234.881	173.81
235.115	167.81
235.349	157.81
235.583	150.81
235.817	147.81
236.051	179.81
236.285	159.81
236.519	163.81
236.753	176.81
236.987	167.81
237.221	159.81
237.455	170.81
237.689	176.81
237.922	182.81
238.156	181.81
238.39	165.81
238.624	174.81
238.858	190.81
239.091	168.81
239.325	184.81
239.559	188.81
239.793	195.81
240.027	187.81
240.26	181.81
240.494	196.81
240.728	200.81
240.961	189.81
241.195	194.81
241.429	199.81
241.662	213.81
241.896	202.81
242.13	192.81
242.363	196.81
242.597	203.81
242.83	215.81
243.064	214.81
243.298	212.81
243.531	203.81
243.765	227.81
243.998	223.81
244.232	216.81
244.465	197.81
244.699	218.81
244.932	210.81
245.166	220.81
245.399	202.81
245.633	206.81
245.866	231.81
246.099	236.81
246.333	228.81
246.566	240.81
246.8	255.81
247.033	228.81
247.266	233.81
247.5	236.81
247.733	240.81
247.966	246.81
248.2	256.81
248.433	252.81
248.666	239.81
248.899	266.81
249.133	246.81
249.366	250.81
249.599	262.81
249.832	275.81
250.066	249.81
250.299	266.81
250.532	254.81
250.765	277.81
250.998	265.81
251.231	273.81
251.465	271.81
251.698	279.81
251.931	280.81
252.164	287.81
252.397	288.81
252.63	275.81
252.863	279.81
253.096	288.81
253.329	297.81
253.562	276.81
253.795	295.81
254.028	292.81
254.261	308.81
254.494	302.81
254.727	298.81
254.96	293.81
255.193	295.81
255.426	286.81
255.659	297.81
255.892	326.81
256.124	312.81
256.357	316.81
256.59	313.81
256.823	329.81
257.056	328.81
257.289	323.81
257.521	308.81
257.754	313.81
257.987	311.81
258.22	316.81
258.452	316.81
258.685	328.81
258.918	316.81
259.151	338.81
259.383	319.81
259.616	343.81
259.849	335.81
260.081	336.81
260.314	340.81
260.547	335.81
260.779	361.81
261.012	341.81
261.244	327.81
261.477	349.81
261.71	344.81
261.942	351.81
262.175	350.81
262.407	328.81
262.64	351.81
262.872	361.81
263.105	335.81
263.337	354.81
263.57	354.81
263.802	376.81
264.035	358.81
264.267	380.81
264.499	368.81
264.732	376.81
264.964	383.81
265.197	362.81
265.429	378.81
265.661	389.81
265.894	376.81
266.126	387.81
266.358	365.81
266.591	360.81
266.823	392.81
267.055	392.81
267.287	387.81
267.52	371.81
267.752	393.81
267.984	370.81
268.216	379.81
268.448	396.81
268.681	392.81
268.913	394.81
269.145	408.81
269.377	392.81
269.609	408.81
269.841	398.81
270.073	394.81
270.306	386.81
270.538	406.81
270.77	426.81
271.002	394.81
271.234	411.81
271.466	408.81
271.698	416.81
271.93	421.81
272.162	416.81
272.394	435.81
272.626	426.81
272.858	404.81
273.09	407.81
273.322	427.81
273.553	407.81
273.785	454.81
274.017	429.81
274.249	454.81
274.481	448.81
274.713	448.81
274.945	468.81
275.176	442.81
275.408	444.81
275.64	445.81
275.872	462.81
276.104	441.81
276.335	456.81
276.567	454.81
276.799	479.81
277.031	445.81
277.262	469.81
277.494	462.81
277.726	468.81
277.957	469.81
278.189	486.81
278.421	472.81
278.652	454.81
278.884	483.81
279.115	467.81
279.347	475.81
279.579	471.81
279.81	480.81
280.042	466.81
280.273	484.81
280.505	502.81
280.736	506.81
280.968	475.81
281.199	490.81
281.431	505.81
281.662	478.81
281.894	492.81
282.125	513.81
282.356	498.81
282.588	499.81
282.819	488.81
283.051	495.81
283.282	516.81
283.513	528.81
283.745	508.81
283.976	509.81
284.207	514.81
284.439	549.81
284.67	534.81
284.901	530.81
285.132	539.81
285.364	530.81
285.595	552.81
285.826	523.81
286.057	523.81
286.288	539.81
286.52	536.81
286.751	546.81
286.982	530.81
287.213	556.81
287.444	551.81
287.675	541.81
287.906	569.81
288.138	554.81
288.369	560.81
288.6	559.81
288.831	557.81
289.062	581.81
289.293	567.81
289.524	559.81
289.755	543.81
289.986	548.81
290.217	558.81
290.448	559.81
290.679	557.81
290.91	561.81
291.141	559.81
291.371	549.81
291.602	556.81
291.833	572.81
292.064	553.81
292.295	581.81
292.526	570.81
292.757	580.81
292.987	562.81
293.218	553.81
293.449	595.81
293.68	577.81
293.91	560.81
294.141	559.81
294.372	567.81
294.603	580.81
294.833	592.81
295.064	580.81
295.295	594.81
295.525	566.81
295.756	578.81
295.987	592.81
296.217	586.81
296.448	580.81
296.679	618.81
296.909	569.81
297.14	612.81
297.37	626.81
297.601	614.81
297.831	618.81
298.062	611.81
298.292	599.81
298.523	615.81
298.753	621.81
298.984	624.81
299.214	622.81
299.445	635.81
299.675	638.81
299.905	637.81
300.136	613.81
300.366	637.81
300.597	638.81
300.827	669.81
301.057	662.81
301.288	663.81
301.518	680.81
301.748	671.81
301.979	666.81
302.209	655.81
302.439	658.81
302.669	632.81
302.9	642.81
303.13	616.81
303.36	656.81
303.59	638.81
303.82	648.81
304.051	674.81
304.281	658.81
304.511	672.81
304.741	662.81
304.971	682.81
305.201	676.81
305.431	671.81
305.661	685.81
305.891	676.81
306.121	684.81
306.352	648.81
306.582	631.81
306.812	655.81
307.042	656.81
307.272	662.81
307.502	656.81
307.731	651.81
307.961	638.81
308.191	680.81
308.421	676.81
308.651	646.81
308.881	667.81
309.111	650.81
309.341	648.81
309.571	663.81
309.8	681.81
310.03	674.81
310.26	696.81
310.49	683.81
310.72	685.81
310.949	661.81
311.179	652.81
311.409	669.81
311.639	685.81
311.868	668.81
312.098	692.81
312.328	697.81
312.557	702.81
312.787	703.81
313.017	717.81
313.246	696.81
313.476	698.81
313.706	741.81
313.935	683.81
314.165	687.81
314.394	695.81
314.624	717.81
314.853	688.81
315.083	702.81
315.312	722.81
315.542	712.81
315.771	712.81
316.001	721.81
316.23	706.81
316.46	695.81
316.689	697.81
316.919	710.81
317.148	706.81
317.377	718.81
317.607	695.81
317.836	696.81
318.065	711.81
318.295	728.81
318.524	693.81
318.753	703.81
318.983	714.81
319.212	714.81
319.441	690.81
319.67	726.81
319.9	721.81
320.129	733.81
320.358	668.81
320.587	690.81
320.816	720.81
321.046	729.81
321.275	708.81
321.504	727.81
321.733	704.81
321.962	722.81
322.191	742.81
322.42	714.81
322.649	715.81
322.878	733.81
323.108	691.81
323.337	752.81
323.566	714.81
323.795	707.81
324.024	747.81
324.253	740.81
324.482	741.81
324.71	719.81
324.939	755.81
325.168	727.81
325.397	728.81
325.626	731.81
325.855	752.81
326.084	747.81
326.313	767.81
326.542	773.81
326.77	781.81
326.999	766.81
327.228	791.81
327.457	747.81
327.686	777.81
327.914	774.81
328.143	791.81
328.372	786.81
328.6	758.81
328.829	762.81
329.058	764.81
329.287	791.81
329.515	782.81
329.744	798.81
329.972	791.81
330.201	797.81
330.43	799.81
330.658	781.81
330.887	820.81
331.115	803.81
331.344	806.81
331.572	799.81
331.801	832.81
332.03	842.81
332.258	862.81
332.486	867.81
332.715	887.81
332.943	911.81
333.172	937.81
333.4	960.81
333.629	972.81
333.857	985.81
334.085	952.81
334.314	967.81
334.542	931.81
334.771	946.81
334.999	926.81
335.227	920.81
335.455	955.81
335.684	929.81
335.912	928.81
336.14	928.81
336.369	928.81
336.597	939.81
336.825	925.81
337.053	899.81
337.281	934.81
337.51	877.81
337.738	889.81
337.966	892.81
338.194	857.81
338.422	869.81
338.65	841.81
338.878	842.81
339.106	855.81
339.334	865.81
339.562	850.81
339.79	831.81
340.018	820.81
340.246	821.81
340.474	818.81
340.702	804.81
340.93	813.81
341.158	812.81
341.386	851.81
341.614	864.81
341.842	883.81
342.07	814.81
342.298	818.81
342.526	819.81
342.754	833.81
342.981	802.81
343.209	842.81
343.437	875.81
343.665	954.81
343.893	920.81
344.12	961.81
344.348	920.81
344.576	862.81
344.804	901.81
345.031	848.81
345.259	800.81
345.487	830.81
345.714	832.81
345.942	835.81
346.17	866.81
346.397	802.81
346.625	804.81
346.853	802.81
347.08	779.81
347.308	798.81
347.535	782.81
347.763	767.81
347.99	760.81
348.218	756.81
348.445	782.81
348.673	765.81
348.9	791.81
349.128	775.81
349.355	810.81
349.583	805.81
349.81	791.81
350.037	782.81
350.265	792.81
350.492	777.81
350.72	736.81
350.947	755.81
351.174	777.81
351.402	767.81
351.629	782.81
351.856	762.81
352.083	759.81
352.311	766.81
352.538	800.81
352.765	795.81
352.992	744.81
353.22	756.81
353.447	728.81
353.674	752.81
353.901	736.81
354.128	743.81
354.355	726.81
354.583	733.81
354.81	728.81
355.037	726.81
355.264	726.81
355.491	734.81
355.718	722.81
355.945	757.81
356.172	780.81
356.399	730.81
356.626	770.81
356.853	780.81
357.08	750.81
357.307	747.81
357.534	731.81
357.761	776.81
357.988	746.81
358.215	749.81
358.441	755.81
358.668	754.81
358.895	725.81
359.122	741.81
359.349	760.81
359.576	724.81
359.802	748.81
360.029	762.81
360.256	763.81
360.483	758.81
360.709	742.81
360.936	762.81
361.163	747.81
361.39	747.81
361.616	743.81
361.843	770.81
362.07	813.81
362.296	795.81
362.523	750.81
362.749	756.81
362.976	750.81
363.203	727.81
363.429	729.81
363.656	728.81
363.882	750.81
364.109	743.81
364.335	732.81
364.562	767.81
364.788	727.81
365.015	744.81
365.241	729.81
365.468	719.81
365.694	699.81
365.92	732.81
366.147	742.81
366.373	719.81
366.599	746.81
366.826	760.81
367.052	734.81
367.278	709.81
367.505	728.81
367.731	745.81
367.957	713.81
368.184	743.81
368.41	730.81
368.636	703.81
368.862	739.81
369.089	749.81
369.315	740.81
369.541	754.81
369.767	760.81
369.993	764.81
370.219	773.81
370.445	735.81
370.672	756.81
370.898	778.81
371.124	779.81
371.35	765.81
371.576	781.81
371.802	773.81
372.028	774.81
372.254	802.81
372.48	792.81
372.706	802.81
372.932	814.81
373.158	790.81
373.384	832.81
373.61	783.81
373.835	775.81
374.061	769.81
374.287	790.81
374.513	779.81
374.739	812.81
374.965	824.81
375.191	840.81
375.416	841.81
375.642	830.81
375.868	821.81
376.094	770.81
376.319	798.81
376.545	793.81
376.771	755.81
376.997	762.81
377.222	759.81
377.448	772.81
377.674	770.81
377.899	761.81
378.125	777.81
378.35	779.81
378.576	757.81
378.802	772.81
379.027	783.81
379.253	760.81
379.478	762.81
379.704	756.81
379.929	755.81
380.155	774.81
380.38	782.81
380.606	773.81
380.831	759.81
381.057	782.81
381.282	784.81
381.507	799.81
381.733	790.81
381.958	800.81
382.184	806.81
382.409	788.81
382.634	803.81
382.86	820.81
383.085	802.81
383.31	823.81
383.535	833.81
383.761	830.81
383.986	841.81
384.211	840.81
384.436	855.81
384.662	886.81
384.887	884.81
385.112	859.81
385.337	897.81
385.562	892.81
385.787	894.81
386.013	909.81
386.238	897.81
386.463	935.81
386.688	918.81
386.913	874.81
387.138	880.81
387.363	897.81
387.588	886.81
387.813	907.81
388.038	880.81
388.263	900.81
388.488	882.81
388.713	878.81
388.938	888.81
389.163	862.81
389.387	869.81
389.612	852.81
389.837	890.81
390.062	870.81
390.287	882.81
390.512	875.81
390.736	898.81
390.961	884.81
391.186	905.81
391.411	944.81
391.636	975.81
391.86	986.81
392.085	979.81
392.31	962.81
392.534	960.81
392.759	947.81
392.984	959.81
393.208	909.81
393.433	943.81
393.658	926.81
393.882	939.81
394.107	953.81
394.331	966.81
394.556	966.81
394.78	953.81
395.005	955.81
395.229	962.81
395.454	988.81
395.678	976.81
395.903	970.81
396.127	1007.81
396.352	976.81
396.576	964.81
396.801	962.81
397.025	949.81
397.249	995.81
397.474	984.81
397.698	997.81
397.922	1010.81
398.147	1034.81
398.371	1010.81
398.595	1056.81
398.82	1110.81
399.044	1167.81
399.268	1246.81
399.492	1422.81
399.717	1497.81
399.941	1526.81
400.165	1372.81
400.389	1266.81
400.613	1186.81
400.837	1139.81
401.062	1131.81
401.286	1083.81
401.51	1078.81
401.734	1134.81
401.958	1129.81
402.182	1112.81
402.406	1123.81
402.63	1160.81
402.854	1170.81
403.078	1183.81
403.302	1193.81
403.526	1217.81
403.75	1208.81
403.974	1212.81
404.198	1246.81
404.422	1255.81
404.645	1182.81
404.869	1227.81
405.093	1200.81
405.317	1172.81
405.541	1176.81
405.765	1187.81
405.988	1172.81
406.212	1191.81
406.436	1175.81
406.66	1188.81
406.883	1251.81
407.107	1326.81
407.331	1342.81
407.555	1403.81
407.778	1398.81
408.002	1356.81
408.226	1325.81
408.449	1279.81
408.673	1259.81
408.896	1254.81
409.12	1245.81
409.344	1259.81
409.567	1250.81
409.791	1230.81
410.014	1245.81
410.238	1213.81
410.461	1214.81
410.685	1188.81
410.908	1168.81
411.132	1168.81
411.355	1163.81
411.578	1149.81
411.802	1142.81
412.025	1151.81
412.249	1177.81
412.472	1142.81
412.695	1101.81
412.919	1092.81
413.142	1117.81
413.365	1086.81
413.589	1159.81
413.812	1120.81
414.035	1114.81
414.258	1115.81
414.482	1102.81
414.705	1156.81
414.928	1129.81
415.151	1143.81
415.374	1111.81
415.597	1112.81
415.821	1109.81
416.044	1090.81
416.267	1098.81
416.49	1081.81
416.713	1078.81
416.936	1090.81
417.159	1116.81
417.382	1113.81
417.605	1084.81
417.828	1115.81
418.051	1097.81
418.274	1112.81
418.497	1109.81
418.72	1110.81
418.943	1161.81
419.166	1196.81
419.389	1256.81
419.611	1210.81
419.834	1172.81
420.057	1149.81
420.28	1138.81
420.503	1081.81
420.726	1083.81
420.948	1081.81
421.171	1070.81
421.394	1103.81
421.617	1121.81
421.839	1101.81
422.062	1102.81
422.285	1075.81
422.507	1114.81
422.73	1119.81
422.953	1122.81
423.175	1147.81
423.398	1142.81
423.621	1147.81
423.843	1145.81
424.066	1134.81
424.288	1135.81
424.511	1136.81
424.733	1112.81
424.956	1111.81
425.178	1122.81
425.401	1110.81
425.623	1096.81
425.846	1074.81
426.068	1098.81
426.291	1062.81
426.513	1071.81
426.735	1067.81
426.958	1045.81
427.18	1035.81
427.402	1021.81
427.625	1037.81
427.847	1018.81
428.069	1037.81
428.292	1006.81
428.514	973.81
428.736	1026.81
428.958	1008.81
429.181	975.81
429.403	976.81
429.625	992.81
429.847	991.81
430.069	1039.81
430.292	1011.81
430.514	999.81
430.736	1002.81
430.958	999.81
431.18	1039.81
431.402	1013.81
431.624	1019.81
431.846	994.81
432.068	1030.81
432.29	1049.81
432.512	1017.81
432.734	1031.81
432.956	1038.81
433.178	1037.81
433.4	1000.81
433.622	1038.81
433.844	1056.81
434.066	1027.81
434.287	1048.81
434.509	1066.81
434.731	1125.81
434.953	1115.81
435.175	1134.81
435.397	1116.81
435.618	1083.81
435.84	1036.81
436.062	1020.81
436.284	1033.81
436.505	1032.81
436.727	1031.81
436.949	995.81
437.17	1016.81
437.392	1015.81
437.614	1014.81
437.835	991.81
438.057	1008.81
438.278	984.81
438.5	994.81
438.721	965.81
438.943	996.81
439.165	980.81
439.386	1016.81
439.608	1053.81
439.829	1032.81
440.05	1018.81
440.272	1042.81
440.493	1040.81
440.715	1050.81
440.936	1063.81
441.158	1074.81
441.379	1070.81
441.6	1136.81
441.822	1174.81
442.043	1146.81
442.264	1104.81
442.486	1107.81
442.707	1148.81
442.928	1149.81
443.149	1120.81
443.371	1108.81
443.592	1167.81
443.813	1164.81
444.034	1161.81
444.255	1172.81
444.476	1233.81
444.698	1295.81
444.919	1290.81
445.14	1372.81
445.361	1234.81
445.582	1162.81
445.803	1108.81
446.024	1088.81
446.245	1074.81
446.466	1081.81
446.687	1038.81
446.908	1035.81
447.129	1006.81
447.35	1034.81
447.571	1003.81
447.792	958.81
448.013	964.81
448.234	975.81
448.455	969.81
448.675	983.81
448.896	976.81
449.117	936.81
449.338	931.81
449.559	972.81
449.779	957.81
450	940.81
450.221	973.81
450.442	955.81
450.662	966.81
450.883	967.81
451.104	982.81
451.324	943.81
451.545	939.81
451.766	959.81
451.986	953.81
452.207	955.81
452.428	954.81
452.648	924.81
452.869	925.81
453.089	911.81
453.31	947.81
453.53	935.81
453.751	921.81
453.971	928.81
454.192	939.81
454.412	916.81
454.633	924.81
454.853	923.81
455.073	878.81
455.294	894.81
455.514	901.81
455.734	898.81
455.955	874.81
456.175	902.81
456.395	904.81
456.616	891.81
456.836	893.81
457.056	893.81
457.276	885.81
457.497	895.81
457.717	925.81
457.937	920.81
458.157	916.81
458.377	935.81
458.598	964.81
458.818	981.81
459.038	959.81
459.258	987.81
459.478	1037.81
459.698	1088.81
459.918	1130.81
460.138	1122.81
460.358	1182.81
460.578	1208.81
460.798	1182.81
461.018	1225.81
461.238	1186.81
461.458	1196.81
461.678	1180.81
461.898	1229.81
462.118	1190.81
462.338	1268.81
462.558	1311.81
462.777	1300.81
462.997	1433.81
463.217	1498.81
463.437	1524.81
463.657	1415.81
463.876	1349.81
464.096	1367.81
464.316	1357.81
464.536	1345.81
464.755	1286.81
464.975	1270.81
465.195	1214.81
465.414	1182.81
465.634	1115.81
465.854	1117.81
466.073	1079.81
466.293	1050.81
466.512	1052.81
466.732	1014.81
466.951	1035.81
467.171	1004.81
467.391	1027.81
467.61	1005.81
467.829	1007.81
468.049	996.81
468.268	951.81
468.488	993.81
468.707	987.81
468.927	996.81
469.146	972.81
469.365	1000.81
469.585	1005.81
469.804	1016.81
470.023	1046.81
470.243	1015.81
470.462	1031.81
470.681	1042.81
470.901	1067.81
471.12	1003.81
471.339	1013.81
471.558	1006.81
471.777	997.81
471.997	984.81
472.216	962.81
472.435	972.81
472.654	987.81
472.873	982.81
473.092	978.81
473.311	976.81
473.53	966.81
473.749	994.81
473.968	974.81
474.187	966.81
474.406	967.81
474.625	998.81
474.844	959.81
475.063	954.81
475.282	966.81
475.501	987.81
475.72	974.81
475.939	994.81
476.158	983.81
476.377	1010.81
476.596	1025.81
476.814	1051.81
477.033	992.81
477.252	1056.81
477.471	1048.81
477.69	1077.81
477.908	1121.81
478.127	1133.81
478.346	1154.81
478.564	1167.81
478.783	1155.81
479.002	1210.81
479.22	1239.81
479.439	1204.81
479.658	1206.81
479.876	1189.81
480.095	1222.81
480.313	1235.81
480.532	1253.81
480.751	1261.81
480.969	1189.81
481.188	1176.81
481.406	1166.81
481.624	1132.81
481.843	1119.81
482.061	1123.81
482.28	1148.81
482.498	1108.81
482.717	1093.81
482.935	1120.81
483.153	1151.81
483.372	1109.81
483.59	1158.81
483.808	1151.81
484.027	1124.81
484.245	1144.81
484.463	1160.81
484.681	1153.81
484.9	1197.81
485.118	1181.81
485.336	1182.81
485.554	1149.81
485.772	1168.81
485.99	1150.81
486.209	1180.81
486.427	1168.81
486.645	1156.81
486.863	1162.81
487.081	1149.81
487.299	1186.81
487.517	1170.81
487.735	1172.81
487.953	1169.81
488.171	1203.81
488.389	1175.81
488.607	1181.81
488.825	1158.81
489.043	1172.81
489.261	1141.81
489.479	1126.81
489.696	1180.81
489.914	1164.81
490.132	1174.81
490.35	1168.81
490.568	1186.81
490.786	1174.81
491.003	1194.81
491.221	1209.81
491.439	1230.81
491.657	1209.81
491.874	1178.81
492.092	1257.81
492.31	1208.81
492.527	1218.81
492.745	1240.81
492.963	1232.81
493.18	1228.81
493.398	1244.81
493.615	1235.81
493.833	1244.81
494.05	1275.81
494.268	1268.81
494.485	1266.81
494.703	1267.81
494.92	1279.81
495.138	1278.81
495.355	1223.81
495.573	1250.81
495.79	1250.81
496.008	1279.81
496.225	1277.81
496.442	1299.81
496.66	1334.81
496.877	1362.81
