Data from NiCl2@0.5M.TitratingCurve.Agarose3%dH2O.NegLispCup.LampEnergy10.LIBS07252019_HRD10591_18-19-52-571.txt Node
Date: Thu Jul 25 18:19:52 EDT 2019
User: cochatt
Spectrometer: HR+D1059
Trigger mode: 1
Integration Time (sec): 1.000000E-1
Scans to average: 1
Electric dark correction enabled: true
Nonlinearity correction enabled: false
Boxcar width: 0
XAxis mode: Wavelengths
Number of Pixels in Spectrum: 2048
>>>>>Begin Spectral Data<<<<<
223.165	-21.06
223.4	-21.06
223.635	-21.06
223.869	-4.06
224.104	-17.06
224.338	-21.06
224.573	-1.06
224.808	-9.06
225.042	-9.06
225.277	-10.06
225.511	-19.06
225.746	2.94
225.98	13.94
226.215	13.94
226.449	18.94
226.683	24.94
226.918	7.94
227.152	28.94
227.387	32.94
227.621	48.94
227.856	47.94
228.09	41.94
228.324	47.94
228.559	66.94
228.793	56.94
229.027	96.94
229.262	96.94
229.496	96.94
229.73	106.94
229.964	118.94
230.199	112.94
230.433	109.94
230.667	107.94
230.901	134.94
231.136	132.94
231.37	137.94
231.604	131.94
231.838	123.94
232.072	133.94
232.306	143.94
232.541	135.94
232.775	132.94
233.009	126.94
233.243	149.94
233.477	123.94
233.711	130.94
233.945	139.94
234.179	119.94
234.413	148.94
234.647	142.94
234.881	154.94
235.115	128.94
235.349	116.94
235.583	140.94
235.817	142.94
236.051	146.94
236.285	132.94
236.519	146.94
236.753	149.94
236.987	136.94
237.221	139.94
237.455	141.94
237.689	146.94
237.922	144.94
238.156	153.94
238.39	146.94
238.624	148.94
238.858	136.94
239.091	142.94
239.325	152.94
239.559	146.94
239.793	133.94
240.027	160.94
240.26	163.94
240.494	158.94
240.728	161.94
240.961	145.94
241.195	165.94
241.429	168.94
241.662	180.94
241.896	172.94
242.13	170.94
242.363	178.94
242.597	169.94
242.83	180.94
243.064	182.94
243.298	190.94
243.531	184.94
243.765	180.94
243.998	183.94
244.232	195.94
244.465	173.94
244.699	179.94
244.932	191.94
245.166	204.94
245.399	195.94
245.633	195.94
245.866	190.94
246.099	180.94
246.333	174.94
246.566	181.94
246.8	199.94
247.033	200.94
247.266	186.94
247.5	185.94
247.733	190.94
247.966	205.94
248.2	216.94
248.433	210.94
248.666	185.94
248.899	216.94
249.133	210.94
249.366	187.94
249.599	198.94
249.832	212.94
250.066	213.94
250.299	219.94
250.532	210.94
250.765	219.94
250.998	222.94
251.231	223.94
251.465	219.94
251.698	230.94
251.931	218.94
252.164	226.94
252.397	235.94
252.63	232.94
252.863	221.94
253.096	235.94
253.329	226.94
253.562	234.94
253.795	227.94
254.028	229.94
254.261	249.94
254.494	237.94
254.727	223.94
254.96	250.94
255.193	243.94
255.426	228.94
255.659	253.94
255.892	244.94
256.124	246.94
256.357	246.94
256.59	241.94
256.823	237.94
257.056	249.94
257.289	259.94
257.521	253.94
257.754	278.94
257.987	257.94
258.22	249.94
258.452	268.94
258.685	274.94
258.918	254.94
259.151	242.94
259.383	271.94
259.616	260.94
259.849	252.94
260.081	273.94
260.314	274.94
260.547	253.94
260.779	274.94
261.012	274.94
261.244	285.94
261.477	268.94
261.71	269.94
261.942	270.94
262.175	266.94
262.407	288.94
262.64	293.94
262.872	292.94
263.105	289.94
263.337	312.94
263.57	263.94
263.802	286.94
264.035	304.94
264.267	298.94
264.499	290.94
264.732	313.94
264.964	324.94
265.197	325.94
265.429	293.94
265.661	314.94
265.894	298.94
266.126	289.94
266.358	311.94
266.591	299.94
266.823	306.94
267.055	312.94
267.287	311.94
267.52	322.94
267.752	298.94
267.984	308.94
268.216	333.94
268.448	317.94
268.681	331.94
268.913	328.94
269.145	325.94
269.377	317.94
269.609	318.94
269.841	320.94
270.073	317.94
270.306	324.94
270.538	323.94
270.77	320.94
271.002	328.94
271.234	336.94
271.466	315.94
271.698	313.94
271.93	340.94
272.162	322.94
272.394	330.94
272.626	340.94
272.858	329.94
273.09	329.94
273.322	335.94
273.553	328.94
273.785	351.94
274.017	339.94
274.249	365.94
274.481	369.94
274.713	343.94
274.945	361.94
275.176	370.94
275.408	335.94
275.64	369.94
275.872	361.94
276.104	380.94
276.335	360.94
276.567	363.94
276.799	367.94
277.031	370.94
277.262	381.94
277.494	366.94
277.726	362.94
277.957	376.94
278.189	380.94
278.421	390.94
278.652	387.94
278.884	379.94
279.115	379.94
279.347	377.94
279.579	364.94
279.81	390.94
280.042	362.94
280.273	378.94
280.505	394.94
280.736	405.94
280.968	380.94
281.199	392.94
281.431	403.94
281.662	396.94
281.894	396.94
282.125	396.94
282.356	397.94
282.588	414.94
282.819	437.94
283.051	420.94
283.282	394.94
283.513	399.94
283.745	409.94
283.976	412.94
284.207	420.94
284.439	432.94
284.67	427.94
284.901	428.94
285.132	416.94
285.364	404.94
285.595	424.94
285.826	411.94
286.057	434.94
286.288	424.94
286.52	419.94
286.751	424.94
286.982	414.94
287.213	414.94
287.444	427.94
287.675	425.94
287.906	441.94
288.138	438.94
288.369	438.94
288.6	433.94
288.831	462.94
289.062	448.94
289.293	440.94
289.524	439.94
289.755	432.94
289.986	447.94
290.217	453.94
290.448	443.94
290.679	438.94
290.91	458.94
291.141	442.94
291.371	443.94
291.602	446.94
291.833	460.94
292.064	430.94
292.295	444.94
292.526	463.94
292.757	461.94
292.987	468.94
293.218	467.94
293.449	481.94
293.68	462.94
293.91	459.94
294.141	439.94
294.372	457.94
294.603	466.94
294.833	457.94
295.064	463.94
295.295	456.94
295.525	445.94
295.756	472.94
295.987	459.94
296.217	475.94
296.448	460.94
296.679	467.94
296.909	480.94
297.14	476.94
297.37	509.94
297.601	516.94
297.831	515.94
298.062	506.94
298.292	484.94
298.523	520.94
298.753	522.94
298.984	513.94
299.214	493.94
299.445	476.94
299.675	495.94
299.905	520.94
300.136	499.94
300.366	510.94
300.597	518.94
300.827	516.94
301.057	509.94
301.288	520.94
301.518	533.94
301.748	544.94
301.979	531.94
302.209	528.94
302.439	536.94
302.669	522.94
302.9	530.94
303.13	504.94
303.36	524.94
303.59	532.94
303.82	504.94
304.051	509.94
304.281	519.94
304.511	522.94
304.741	512.94
304.971	517.94
305.201	534.94
305.431	535.94
305.661	540.94
305.891	522.94
306.121	530.94
306.352	528.94
306.582	525.94
306.812	514.94
307.042	504.94
307.272	508.94
307.502	512.94
307.731	514.94
307.961	500.94
308.191	527.94
308.421	523.94
308.651	539.94
308.881	532.94
309.111	530.94
309.341	508.94
309.571	531.94
309.8	542.94
310.03	529.94
310.26	541.94
310.49	554.94
310.72	524.94
310.949	533.94
311.179	554.94
311.409	524.94
311.639	561.94
311.868	543.94
312.098	532.94
312.328	556.94
312.557	547.94
312.787	547.94
313.017	567.94
313.246	577.94
313.476	563.94
313.706	552.94
313.935	572.94
314.165	556.94
314.394	569.94
314.624	562.94
314.853	549.94
315.083	569.94
315.312	571.94
315.542	573.94
315.771	554.94
316.001	568.94
316.23	553.94
316.46	552.94
316.689	559.94
316.919	554.94
317.148	572.94
317.377	552.94
317.607	562.94
317.836	560.94
318.065	554.94
318.295	567.94
318.524	555.94
318.753	557.94
318.983	537.94
319.212	533.94
319.441	542.94
319.67	544.94
319.9	573.94
320.129	558.94
320.358	569.94
320.587	554.94
320.816	576.94
321.046	549.94
321.275	581.94
321.504	576.94
321.733	584.94
321.962	570.94
322.191	583.94
322.42	553.94
322.649	570.94
322.878	584.94
323.108	559.94
323.337	579.94
323.566	595.94
323.795	571.94
324.024	572.94
324.253	581.94
324.482	590.94
324.71	591.94
324.939	595.94
325.168	597.94
325.397	582.94
325.626	595.94
325.855	613.94
326.084	598.94
326.313	593.94
326.542	605.94
326.77	637.94
326.999	598.94
327.228	633.94
327.457	607.94
327.686	600.94
327.914	605.94
328.143	598.94
328.372	636.94
328.6	630.94
328.829	626.94
329.058	617.94
329.287	631.94
329.515	606.94
329.744	596.94
329.972	617.94
330.201	615.94
330.43	626.94
330.658	630.94
330.887	627.94
331.115	641.94
331.344	645.94
331.572	636.94
331.801	634.94
332.03	661.94
332.258	689.94
332.486	690.94
332.715	671.94
332.943	727.94
333.172	752.94
333.4	772.94
333.629	800.94
333.857	782.94
334.085	791.94
334.314	800.94
334.542	739.94
334.771	757.94
334.999	742.94
335.227	740.94
335.455	780.94
335.684	781.94
335.912	748.94
336.14	726.94
336.369	727.94
336.597	728.94
336.825	742.94
337.053	760.94
337.281	728.94
337.51	701.94
337.738	709.94
337.966	688.94
338.194	676.94
338.422	690.94
338.65	671.94
338.878	682.94
339.106	678.94
339.334	697.94
339.562	677.94
339.79	634.94
340.018	646.94
340.246	647.94
340.474	635.94
340.702	662.94
340.93	644.94
341.158	629.94
341.386	657.94
341.614	671.94
341.842	648.94
342.07	632.94
342.298	662.94
342.526	654.94
342.754	652.94
342.981	636.94
343.209	680.94
343.437	700.94
343.665	724.94
343.893	740.94
344.12	750.94
344.348	750.94
344.576	724.94
344.804	704.94
345.031	669.94
345.259	674.94
345.487	641.94
345.714	650.94
345.942	668.94
346.17	668.94
346.397	649.94
346.625	636.94
346.853	615.94
347.08	612.94
347.308	630.94
347.535	628.94
347.763	655.94
347.99	611.94
348.218	599.94
348.445	645.94
348.673	608.94
348.9	631.94
349.128	626.94
349.355	632.94
349.583	636.94
349.81	609.94
350.037	582.94
350.265	628.94
350.492	603.94
350.72	580.94
350.947	596.94
351.174	614.94
351.402	621.94
351.629	601.94
351.856	617.94
352.083	598.94
352.311	600.94
352.538	612.94
352.765	611.94
352.992	572.94
353.22	571.94
353.447	596.94
353.674	609.94
353.901	602.94
354.128	580.94
354.355	571.94
354.583	594.94
354.81	596.94
355.037	600.94
355.264	621.94
355.491	594.94
355.718	598.94
355.945	589.94
356.172	608.94
356.399	590.94
356.626	607.94
356.853	635.94
357.08	608.94
357.307	602.94
357.534	599.94
357.761	595.94
357.988	589.94
358.215	593.94
358.441	585.94
358.668	573.94
358.895	592.94
359.122	595.94
359.349	595.94
359.576	593.94
359.802	601.94
360.029	601.94
360.256	612.94
360.483	593.94
360.709	577.94
360.936	590.94
361.163	607.94
361.39	582.94
361.616	581.94
361.843	612.94
362.07	601.94
362.296	603.94
362.523	597.94
362.749	602.94
362.976	614.94
363.203	572.94
363.429	579.94
363.656	574.94
363.882	598.94
364.109	580.94
364.335	590.94
364.562	586.94
364.788	590.94
365.015	596.94
365.241	584.94
365.468	571.94
365.694	589.94
365.92	571.94
366.147	580.94
366.373	597.94
366.599	590.94
366.826	575.94
367.052	596.94
367.278	557.94
367.505	578.94
367.731	604.94
367.957	601.94
368.184	609.94
368.41	597.94
368.636	587.94
368.862	588.94
369.089	583.94
369.315	602.94
369.541	601.94
369.767	593.94
369.993	605.94
370.219	608.94
370.445	610.94
370.672	608.94
370.898	633.94
371.124	620.94
371.35	634.94
371.576	626.94
371.802	619.94
372.028	612.94
372.254	644.94
372.48	626.94
372.706	635.94
372.932	665.94
373.158	668.94
373.384	648.94
373.61	630.94
373.835	649.94
374.061	625.94
374.287	633.94
374.513	645.94
374.739	647.94
374.965	682.94
375.191	645.94
375.416	680.94
375.642	667.94
375.868	668.94
376.094	650.94
376.319	641.94
376.545	625.94
376.771	639.94
376.997	617.94
377.222	626.94
377.448	638.94
377.674	605.94
377.899	620.94
378.125	617.94
378.35	596.94
378.576	630.94
378.802	614.94
379.027	605.94
379.253	604.94
379.478	614.94
379.704	631.94
379.929	627.94
380.155	625.94
380.38	602.94
380.606	605.94
380.831	594.94
381.057	632.94
381.282	624.94
381.507	609.94
381.733	611.94
381.958	634.94
382.184	640.94
382.409	648.94
382.634	631.94
382.86	628.94
383.085	664.94
383.31	646.94
383.535	676.94
383.761	650.94
383.986	665.94
384.211	679.94
384.436	699.94
384.662	669.94
384.887	708.94
385.112	709.94
385.337	698.94
385.562	736.94
385.787	731.94
386.013	732.94
386.238	754.94
386.463	721.94
386.688	719.94
386.913	714.94
387.138	716.94
387.363	721.94
387.588	733.94
387.813	745.94
388.038	729.94
388.263	726.94
388.488	746.94
388.713	722.94
388.938	713.94
389.163	714.94
389.387	726.94
389.612	715.94
389.837	724.94
390.062	713.94
390.287	736.94
390.512	725.94
390.736	729.94
390.961	738.94
391.186	766.94
391.411	768.94
391.636	805.94
391.86	805.94
392.085	821.94
392.31	811.94
392.534	775.94
392.759	789.94
392.984	769.94
393.208	779.94
393.433	778.94
393.658	779.94
393.882	746.94
394.107	775.94
394.331	775.94
394.556	780.94
394.78	787.94
395.005	788.94
395.229	792.94
395.454	789.94
395.678	837.94
395.903	811.94
396.127	794.94
396.352	792.94
396.576	793.94
396.801	758.94
397.025	805.94
397.249	821.94
397.474	853.94
397.698	856.94
397.922	822.94
398.147	820.94
398.371	868.94
398.595	869.94
398.82	906.94
399.044	946.94
399.268	1074.94
399.492	1169.94
399.717	1296.94
399.941	1234.94
400.165	1137.94
400.389	1050.94
400.613	1002.94
400.837	934.94
401.062	949.94
401.286	944.94
401.51	931.94
401.734	923.94
401.958	952.94
402.182	940.94
402.406	941.94
402.63	930.94
402.854	950.94
403.078	961.94
403.302	979.94
403.526	979.94
403.75	1002.94
403.974	993.94
404.198	1021.94
404.422	1010.94
404.645	1007.94
404.869	977.94
405.093	1016.94
405.317	978.94
405.541	1002.94
405.765	989.94
405.988	992.94
406.212	987.94
406.436	1020.94
406.66	981.94
406.883	1004.94
407.107	1080.94
407.331	1147.94
407.555	1127.94
407.778	1122.94
408.002	1132.94
408.226	1073.94
408.449	1093.94
408.673	1024.94
408.896	1047.94
409.12	1010.94
409.344	1051.94
409.567	1054.94
409.791	1045.94
410.014	1012.94
410.238	974.94
410.461	1001.94
410.685	1005.94
410.908	972.94
411.132	1018.94
411.355	957.94
411.578	981.94
411.802	911.94
412.025	955.94
412.249	969.94
412.472	966.94
412.695	924.94
412.919	936.94
413.142	956.94
413.365	956.94
413.589	906.94
413.812	937.94
414.035	896.94
414.258	923.94
414.482	930.94
414.705	925.94
414.928	908.94
415.151	946.94
415.374	940.94
415.597	910.94
415.821	906.94
416.044	911.94
416.267	907.94
416.49	898.94
416.713	890.94
416.936	904.94
417.159	921.94
417.382	900.94
417.605	900.94
417.828	916.94
418.051	897.94
418.274	938.94
418.497	927.94
418.72	939.94
418.943	920.94
419.166	965.94
419.389	1047.94
419.611	1016.94
419.834	978.94
420.057	954.94
420.28	931.94
420.503	909.94
420.726	910.94
420.948	922.94
421.171	890.94
421.394	927.94
421.617	923.94
421.839	929.94
422.062	911.94
422.285	902.94
422.507	922.94
422.73	940.94
422.953	913.94
423.175	920.94
423.398	969.94
423.621	967.94
423.843	939.94
424.066	969.94
424.288	972.94
424.511	982.94
424.733	961.94
424.956	926.94
425.178	932.94
425.401	899.94
425.623	920.94
425.846	902.94
426.068	889.94
426.291	887.94
426.513	893.94
426.735	899.94
426.958	871.94
427.18	857.94
427.402	866.94
427.625	825.94
427.847	819.94
428.069	851.94
428.292	869.94
428.514	840.94
428.736	831.94
428.958	836.94
429.181	792.94
429.403	812.94
429.625	853.94
429.847	827.94
430.069	810.94
430.292	863.94
430.514	832.94
430.736	840.94
430.958	836.94
431.18	835.94
431.402	792.94
431.624	829.94
431.846	841.94
432.068	863.94
432.29	881.94
432.512	820.94
432.734	865.94
432.956	851.94
433.178	846.94
433.4	876.94
433.622	873.94
433.844	845.94
434.066	843.94
434.287	852.94
434.509	888.94
434.731	891.94
434.953	930.94
435.175	959.94
435.397	925.94
435.618	905.94
435.84	857.94
436.062	862.94
436.284	849.94
436.505	838.94
436.727	845.94
436.949	848.94
437.17	860.94
437.392	820.94
437.614	817.94
437.835	781.94
438.057	832.94
438.278	799.94
438.5	813.94
438.721	836.94
438.943	827.94
439.165	850.94
439.386	821.94
439.608	870.94
439.829	853.94
440.05	863.94
440.272	845.94
440.493	837.94
440.715	873.94
440.936	884.94
441.158	906.94
441.379	890.94
441.6	934.94
441.822	941.94
442.043	940.94
442.264	923.94
442.486	939.94
442.707	943.94
442.928	909.94
443.149	938.94
443.371	935.94
443.592	950.94
443.813	948.94
444.034	944.94
444.255	958.94
444.476	997.94
444.698	1085.94
444.919	1087.94
445.14	1169.94
445.361	1082.94
445.582	972.94
445.803	942.94
446.024	885.94
446.245	906.94
446.466	907.94
446.687	881.94
446.908	895.94
447.129	840.94
447.35	829.94
447.571	833.94
447.792	834.94
448.013	824.94
448.234	800.94
448.455	825.94
448.675	808.94
448.896	794.94
449.117	804.94
449.338	785.94
449.559	766.94
449.779	785.94
450	779.94
450.221	755.94
450.442	807.94
450.662	800.94
450.883	832.94
451.104	825.94
451.324	804.94
451.545	809.94
451.766	780.94
451.986	785.94
452.207	783.94
452.428	790.94
452.648	787.94
452.869	783.94
453.089	766.94
453.31	749.94
453.53	738.94
453.751	776.94
453.971	752.94
454.192	773.94
454.412	794.94
454.633	738.94
454.853	740.94
455.073	729.94
455.294	748.94
455.514	740.94
455.734	741.94
455.955	739.94
456.175	747.94
456.395	728.94
456.616	768.94
456.836	738.94
457.056	731.94
457.276	738.94
457.497	774.94
457.717	745.94
457.937	775.94
458.157	757.94
458.377	757.94
458.598	791.94
458.818	812.94
459.038	838.94
459.258	839.94
459.478	870.94
459.698	891.94
459.918	930.94
460.138	940.94
460.358	950.94
460.578	991.94
460.798	1018.94
461.018	1006.94
461.238	996.94
461.458	1006.94
461.678	1001.94
461.898	982.94
462.118	1019.94
462.338	1088.94
462.558	1071.94
462.777	1134.94
462.997	1157.94
463.217	1233.94
463.437	1239.94
463.657	1196.94
463.876	1141.94
464.096	1125.94
464.316	1133.94
464.536	1158.94
464.755	1096.94
464.975	1094.94
465.195	1015.94
465.414	982.94
465.634	921.94
465.854	953.94
466.073	875.94
466.293	906.94
466.512	871.94
466.732	838.94
466.951	852.94
467.171	834.94
467.391	854.94
467.61	832.94
467.829	846.94
468.049	834.94
468.268	788.94
468.488	799.94
468.707	809.94
468.927	822.94
469.146	843.94
469.365	817.94
469.585	806.94
469.804	820.94
470.023	859.94
470.243	845.94
470.462	864.94
470.681	859.94
470.901	885.94
471.12	870.94
471.339	846.94
471.558	835.94
471.777	842.94
471.997	828.94
472.216	797.94
472.435	791.94
472.654	777.94
472.873	765.94
473.092	784.94
473.311	778.94
473.53	791.94
473.749	779.94
473.968	797.94
474.187	773.94
474.406	812.94
474.625	790.94
474.844	780.94
475.063	809.94
475.282	804.94
475.501	829.94
475.72	836.94
475.939	823.94
476.158	833.94
476.377	868.94
476.596	825.94
476.814	806.94
477.033	851.94
477.252	865.94
477.471	889.94
477.69	900.94
477.908	910.94
478.127	948.94
478.346	962.94
478.564	949.94
478.783	962.94
479.002	981.94
479.22	982.94
479.439	974.94
479.658	988.94
479.876	960.94
480.095	995.94
480.313	1000.94
480.532	1036.94
480.751	1032.94
480.969	981.94
481.188	952.94
481.406	930.94
481.624	946.94
481.843	916.94
482.061	946.94
482.28	920.94
482.498	919.94
482.717	910.94
482.935	944.94
483.153	911.94
483.372	915.94
483.59	928.94
483.808	931.94
484.027	934.94
484.245	939.94
484.463	937.94
484.681	966.94
484.9	970.94
485.118	932.94
485.336	969.94
485.554	955.94
485.772	942.94
485.99	953.94
486.209	952.94
486.427	953.94
486.645	954.94
486.863	961.94
487.081	960.94
487.299	972.94
487.517	981.94
487.735	956.94
487.953	981.94
488.171	962.94
488.389	976.94
488.607	922.94
488.825	941.94
489.043	960.94
489.261	947.94
489.479	973.94
489.696	931.94
489.914	963.94
490.132	997.94
490.35	980.94
490.568	971.94
490.786	969.94
491.003	952.94
491.221	970.94
491.439	1004.94
491.657	988.94
491.874	991.94
492.092	1013.94
492.31	1028.94
492.527	1018.94
492.745	1006.94
492.963	1012.94
493.18	1008.94
493.398	1025.94
493.615	1020.94
493.833	1000.94
494.05	1036.94
494.268	1029.94
494.485	1020.94
494.703	1048.94
494.92	1065.94
495.138	1040.94
495.355	1043.94
495.573	1032.94
495.79	1055.94
496.008	1038.94
496.225	1061.94
496.442	1093.94
496.66	1088.94
496.877	1104.94
497.094	1123.94
497.312	1150.94
497.529	1145.94
497.746	1144.94
497.963	1177.94
498.181	1253.94
498.398	1302.94
498.615	1373.94
498.832	1438.94
499.049	1509.94
499.267	1631.94
499.484	1750.94
499.701	1869.94
499.918	2080.94
500.135	2285.94
500.352	2492.94
