Data from NiCl2@0.5M.TitratingCurve.Agarose3%dH2O.NegLispCup.LampEnergy10.LIBS07252019_HRD10591_18-19-42-571.txt Node
Date: Thu Jul 25 18:19:42 EDT 2019
User: cochatt
Spectrometer: HR+D1059
Trigger mode: 1
Integration Time (sec): 1.000000E-1
Scans to average: 1
Electric dark correction enabled: true
Nonlinearity correction enabled: false
Boxcar width: 0
XAxis mode: Wavelengths
Number of Pixels in Spectrum: 2048
>>>>>Begin Spectral Data<<<<<
223.165	-8.88
223.4	-8.88
223.635	-8.88
223.869	-12.88
224.104	-25.88
224.338	-22.88
224.573	-13.88
224.808	-11.88
225.042	8.12
225.277	-14.88
225.511	1.12
225.746	8.12
225.98	8.12
226.215	15.12
226.449	12.12
226.683	11.12
226.918	23.12
227.152	24.12
227.387	38.12
227.621	48.12
227.856	44.12
228.09	37.12
228.324	54.12
228.559	65.12
228.793	67.12
229.027	109.12
229.262	106.12
229.496	94.12
229.73	116.12
229.964	122.12
230.199	134.12
230.433	126.12
230.667	126.12
230.901	126.12
231.136	116.12
231.37	136.12
231.604	138.12
231.838	135.12
232.072	138.12
232.306	148.12
232.541	129.12
232.775	123.12
233.009	146.12
233.243	144.12
233.477	140.12
233.711	146.12
233.945	150.12
234.179	154.12
234.413	149.12
234.647	138.12
234.881	139.12
235.115	150.12
235.349	158.12
235.583	142.12
235.817	151.12
236.051	146.12
236.285	151.12
236.519	153.12
236.753	137.12
236.987	142.12
237.221	144.12
237.455	156.12
237.689	153.12
237.922	153.12
238.156	170.12
238.39	153.12
238.624	160.12
238.858	162.12
239.091	155.12
239.325	169.12
239.559	163.12
239.793	164.12
240.027	181.12
240.26	168.12
240.494	142.12
240.728	176.12
240.961	171.12
241.195	174.12
241.429	173.12
241.662	172.12
241.896	187.12
242.13	193.12
242.363	180.12
242.597	186.12
242.83	177.12
243.064	183.12
243.298	178.12
243.531	202.12
243.765	193.12
243.998	198.12
244.232	186.12
244.465	198.12
244.699	185.12
244.932	202.12
245.166	213.12
245.399	201.12
245.633	210.12
245.866	209.12
246.099	201.12
246.333	206.12
246.566	198.12
246.8	193.12
247.033	180.12
247.266	215.12
247.5	214.12
247.733	197.12
247.966	212.12
248.2	229.12
248.433	216.12
248.666	213.12
248.899	232.12
249.133	216.12
249.366	224.12
249.599	218.12
249.832	220.12
250.066	224.12
250.299	232.12
250.532	235.12
250.765	230.12
250.998	236.12
251.231	231.12
251.465	254.12
251.698	251.12
251.931	245.12
252.164	233.12
252.397	240.12
252.63	256.12
252.863	256.12
253.096	257.12
253.329	244.12
253.562	247.12
253.795	254.12
254.028	261.12
254.261	269.12
254.494	269.12
254.727	267.12
254.96	255.12
255.193	267.12
255.426	260.12
255.659	266.12
255.892	280.12
256.124	259.12
256.357	272.12
256.59	262.12
256.823	275.12
257.056	262.12
257.289	266.12
257.521	291.12
257.754	269.12
257.987	282.12
258.22	270.12
258.452	284.12
258.685	284.12
258.918	276.12
259.151	276.12
259.383	286.12
259.616	291.12
259.849	306.12
260.081	304.12
260.314	286.12
260.547	288.12
260.779	285.12
261.012	304.12
261.244	305.12
261.477	333.12
261.71	284.12
261.942	318.12
262.175	316.12
262.407	313.12
262.64	308.12
262.872	312.12
263.105	295.12
263.337	317.12
263.57	290.12
263.802	312.12
264.035	317.12
264.267	301.12
264.499	306.12
264.732	318.12
264.964	304.12
265.197	308.12
265.429	324.12
265.661	318.12
265.894	330.12
266.126	321.12
266.358	317.12
266.591	326.12
266.823	350.12
267.055	337.12
267.287	343.12
267.52	339.12
267.752	344.12
267.984	339.12
268.216	325.12
268.448	320.12
268.681	344.12
268.913	350.12
269.145	349.12
269.377	371.12
269.609	335.12
269.841	339.12
270.073	342.12
270.306	358.12
270.538	349.12
270.77	324.12
271.002	356.12
271.234	343.12
271.466	359.12
271.698	361.12
271.93	356.12
272.162	364.12
272.394	364.12
272.626	360.12
272.858	369.12
273.09	369.12
273.322	371.12
273.553	372.12
273.785	379.12
274.017	360.12
274.249	362.12
274.481	361.12
274.713	364.12
274.945	380.12
275.176	378.12
275.408	381.12
275.64	386.12
275.872	376.12
276.104	384.12
276.335	377.12
276.567	397.12
276.799	378.12
277.031	391.12
277.262	383.12
277.494	412.12
277.726	417.12
277.957	408.12
278.189	404.12
278.421	403.12
278.652	390.12
278.884	412.12
279.115	398.12
279.347	393.12
279.579	425.12
279.81	417.12
280.042	402.12
280.273	419.12
280.505	430.12
280.736	419.12
280.968	428.12
281.199	413.12
281.431	428.12
281.662	411.12
281.894	413.12
282.125	425.12
282.356	413.12
282.588	419.12
282.819	419.12
283.051	439.12
283.282	442.12
283.513	452.12
283.745	445.12
283.976	451.12
284.207	431.12
284.439	443.12
284.67	446.12
284.901	442.12
285.132	448.12
285.364	430.12
285.595	430.12
285.826	448.12
286.057	469.12
286.288	457.12
286.52	482.12
286.751	478.12
286.982	446.12
287.213	473.12
287.444	453.12
287.675	465.12
287.906	487.12
288.138	459.12
288.369	480.12
288.6	466.12
288.831	457.12
289.062	469.12
289.293	456.12
289.524	458.12
289.755	468.12
289.986	482.12
290.217	502.12
290.448	485.12
290.679	488.12
290.91	487.12
291.141	485.12
291.371	488.12
291.602	502.12
291.833	486.12
292.064	488.12
292.295	468.12
292.526	499.12
292.757	509.12
292.987	483.12
293.218	487.12
293.449	504.12
293.68	497.12
293.91	495.12
294.141	473.12
294.372	493.12
294.603	507.12
294.833	500.12
295.064	519.12
295.295	490.12
295.525	497.12
295.756	530.12
295.987	491.12
296.217	494.12
296.448	514.12
296.679	483.12
296.909	495.12
297.14	519.12
297.37	514.12
297.601	508.12
297.831	519.12
298.062	522.12
298.292	515.12
298.523	548.12
298.753	519.12
298.984	536.12
299.214	526.12
299.445	534.12
299.675	519.12
299.905	552.12
300.136	544.12
300.366	554.12
300.597	553.12
300.827	557.12
301.057	574.12
301.288	556.12
301.518	554.12
301.748	562.12
301.979	560.12
302.209	563.12
302.439	548.12
302.669	570.12
302.9	581.12
303.13	560.12
303.36	560.12
303.59	560.12
303.82	565.12
304.051	571.12
304.281	569.12
304.511	570.12
304.741	562.12
304.971	579.12
305.201	571.12
305.431	572.12
305.661	593.12
305.891	578.12
306.121	573.12
306.352	568.12
306.582	554.12
306.812	567.12
307.042	541.12
307.272	553.12
307.502	555.12
307.731	570.12
307.961	558.12
308.191	573.12
308.421	576.12
308.651	561.12
308.881	542.12
309.111	540.12
309.341	538.12
309.571	556.12
309.8	566.12
310.03	594.12
310.26	595.12
310.49	584.12
310.72	556.12
310.949	575.12
311.179	563.12
311.409	543.12
311.639	558.12
311.868	572.12
312.098	584.12
312.328	585.12
312.557	593.12
312.787	591.12
313.017	589.12
313.246	593.12
313.476	621.12
313.706	592.12
313.935	571.12
314.165	601.12
314.394	613.12
314.624	597.12
314.853	593.12
315.083	583.12
315.312	618.12
315.542	579.12
315.771	586.12
316.001	603.12
316.23	609.12
316.46	582.12
316.689	589.12
316.919	575.12
317.148	590.12
317.377	586.12
317.607	580.12
317.836	586.12
318.065	578.12
318.295	587.12
318.524	596.12
318.753	594.12
318.983	609.12
319.212	566.12
319.441	599.12
319.67	594.12
319.9	609.12
320.129	597.12
320.358	600.12
320.587	587.12
320.816	595.12
321.046	582.12
321.275	627.12
321.504	601.12
321.733	567.12
321.962	620.12
322.191	619.12
322.42	614.12
322.649	637.12
322.878	587.12
323.108	597.12
323.337	617.12
323.566	616.12
323.795	630.12
324.024	636.12
324.253	655.12
324.482	634.12
324.71	624.12
324.939	616.12
325.168	630.12
325.397	640.12
325.626	650.12
325.855	665.12
326.084	645.12
326.313	654.12
326.542	651.12
326.77	657.12
326.999	633.12
327.228	634.12
327.457	615.12
327.686	648.12
327.914	636.12
328.143	654.12
328.372	643.12
328.6	652.12
328.829	647.12
329.058	645.12
329.287	639.12
329.515	654.12
329.744	658.12
329.972	690.12
330.201	652.12
330.43	685.12
330.658	678.12
330.887	653.12
331.115	682.12
331.344	690.12
331.572	670.12
331.801	705.12
332.03	716.12
332.258	719.12
332.486	709.12
332.715	749.12
332.943	773.12
333.172	781.12
333.4	805.12
333.629	820.12
333.857	828.12
334.085	822.12
334.314	806.12
334.542	814.12
334.771	816.12
334.999	780.12
335.227	790.12
335.455	802.12
335.684	785.12
335.912	776.12
336.14	805.12
336.369	773.12
336.597	802.12
336.825	786.12
337.053	819.12
337.281	788.12
337.51	742.12
337.738	781.12
337.966	741.12
338.194	731.12
338.422	728.12
338.65	691.12
338.878	727.12
339.106	724.12
339.334	710.12
339.562	720.12
339.79	692.12
340.018	666.12
340.246	658.12
340.474	668.12
340.702	654.12
340.93	712.12
341.158	707.12
341.386	710.12
341.614	728.12
341.842	725.12
342.07	677.12
342.298	676.12
342.526	685.12
342.754	677.12
342.981	678.12
343.209	694.12
343.437	717.12
343.665	763.12
343.893	778.12
344.12	782.12
344.348	771.12
344.576	757.12
344.804	742.12
345.031	713.12
345.259	685.12
345.487	712.12
345.714	698.12
345.942	694.12
346.17	695.12
346.397	716.12
346.625	678.12
346.853	654.12
347.08	666.12
347.308	676.12
347.535	679.12
347.763	656.12
347.99	641.12
348.218	651.12
348.445	655.12
348.673	667.12
348.9	667.12
349.128	653.12
349.355	678.12
349.583	684.12
349.81	660.12
350.037	625.12
350.265	638.12
350.492	638.12
350.72	631.12
350.947	638.12
351.174	650.12
351.402	656.12
351.629	645.12
351.856	663.12
352.083	628.12
352.311	634.12
352.538	637.12
352.765	660.12
352.992	642.12
353.22	627.12
353.447	633.12
353.674	621.12
353.901	624.12
354.128	647.12
354.355	607.12
354.583	642.12
354.81	626.12
355.037	631.12
355.264	619.12
355.491	632.12
355.718	605.12
355.945	642.12
356.172	626.12
356.399	638.12
356.626	617.12
356.853	642.12
357.08	648.12
357.307	637.12
357.534	628.12
357.761	636.12
357.988	609.12
358.215	606.12
358.441	604.12
358.668	614.12
358.895	610.12
359.122	613.12
359.349	627.12
359.576	603.12
359.802	627.12
360.029	616.12
360.256	617.12
360.483	612.12
360.709	602.12
360.936	634.12
361.163	629.12
361.39	637.12
361.616	643.12
361.843	636.12
362.07	672.12
362.296	655.12
362.523	641.12
362.749	636.12
362.976	638.12
363.203	641.12
363.429	597.12
363.656	612.12
363.882	616.12
364.109	610.12
364.335	621.12
364.562	614.12
364.788	626.12
365.015	617.12
365.241	628.12
365.468	637.12
365.694	636.12
365.92	605.12
366.147	616.12
366.373	612.12
366.599	595.12
366.826	620.12
367.052	617.12
367.278	633.12
367.505	618.12
367.731	627.12
367.957	612.12
368.184	620.12
368.41	629.12
368.636	627.12
368.862	634.12
369.089	645.12
369.315	629.12
369.541	621.12
369.767	627.12
369.993	619.12
370.219	631.12
370.445	646.12
370.672	636.12
370.898	654.12
371.124	658.12
371.35	655.12
371.576	649.12
371.802	647.12
372.028	650.12
372.254	642.12
372.48	659.12
372.706	690.12
372.932	674.12
373.158	668.12
373.384	662.12
373.61	638.12
373.835	669.12
374.061	678.12
374.287	650.12
374.513	676.12
374.739	679.12
374.965	701.12
375.191	727.12
375.416	699.12
375.642	707.12
375.868	696.12
376.094	673.12
376.319	667.12
376.545	657.12
376.771	662.12
376.997	647.12
377.222	654.12
377.448	651.12
377.674	653.12
377.899	658.12
378.125	647.12
378.35	625.12
378.576	631.12
378.802	636.12
379.027	659.12
379.253	651.12
379.478	648.12
379.704	628.12
379.929	636.12
380.155	632.12
380.38	657.12
380.606	649.12
380.831	645.12
381.057	651.12
381.282	651.12
381.507	647.12
381.733	614.12
381.958	652.12
382.184	648.12
382.409	663.12
382.634	658.12
382.86	653.12
383.085	652.12
383.31	653.12
383.535	684.12
383.761	662.12
383.986	689.12
384.211	718.12
384.436	732.12
384.662	733.12
384.887	748.12
385.112	744.12
385.337	747.12
385.562	750.12
385.787	749.12
386.013	771.12
386.238	787.12
386.463	763.12
386.688	764.12
386.913	724.12
387.138	752.12
387.363	750.12
387.588	753.12
387.813	758.12
388.038	738.12
388.263	732.12
388.488	732.12
388.713	739.12
388.938	725.12
389.163	748.12
389.387	733.12
389.612	734.12
389.837	745.12
390.062	744.12
390.287	738.12
390.512	741.12
390.736	754.12
390.961	756.12
391.186	805.12
391.411	791.12
391.636	788.12
391.86	805.12
392.085	853.12
392.31	843.12
392.534	804.12
392.759	802.12
392.984	808.12
393.208	768.12
393.433	787.12
393.658	793.12
393.882	794.12
394.107	788.12
394.331	786.12
394.556	813.12
394.78	789.12
395.005	819.12
395.229	820.12
395.454	834.12
395.678	832.12
395.903	811.12
396.127	810.12
396.352	826.12
396.576	814.12
396.801	802.12
397.025	819.12
397.249	824.12
397.474	855.12
397.698	844.12
397.922	886.12
398.147	862.12
398.371	880.12
398.595	884.12
398.82	906.12
399.044	977.12
399.268	1069.12
399.492	1185.12
399.717	1237.12
399.941	1264.12
400.165	1162.12
400.389	1118.12
400.613	1046.12
400.837	972.12
401.062	946.12
401.286	947.12
401.51	961.12
401.734	939.12
401.958	952.12
402.182	942.12
402.406	951.12
402.63	950.12
402.854	998.12
403.078	998.12
403.302	1019.12
403.526	1000.12
403.75	1038.12
403.974	1030.12
404.198	1003.12
404.422	1032.12
404.645	1040.12
404.869	1033.12
405.093	1030.12
405.317	1007.12
405.541	1030.12
405.765	1022.12
405.988	1003.12
406.212	1031.12
406.436	1000.12
406.66	1053.12
406.883	1067.12
407.107	1113.12
407.331	1148.12
407.555	1139.12
407.778	1161.12
408.002	1155.12
408.226	1098.12
408.449	1084.12
408.673	1046.12
408.896	1046.12
409.12	1043.12
409.344	1065.12
409.567	1032.12
409.791	1026.12
410.014	1033.12
410.238	1085.12
410.461	1029.12
410.685	1016.12
410.908	1016.12
411.132	1001.12
411.355	989.12
411.578	996.12
411.802	959.12
412.025	978.12
412.249	981.12
412.472	988.12
412.695	963.12
412.919	960.12
413.142	961.12
413.365	954.12
413.589	967.12
413.812	939.12
414.035	924.12
414.258	931.12
414.482	950.12
414.705	1009.12
414.928	1002.12
415.151	970.12
415.374	956.12
415.597	952.12
415.821	899.12
416.044	914.12
416.267	909.12
416.49	917.12
416.713	888.12
416.936	948.12
417.159	929.12
417.382	926.12
417.605	918.12
417.828	917.12
418.051	945.12
418.274	946.12
418.497	921.12
418.72	934.12
418.943	946.12
419.166	1001.12
419.389	1057.12
419.611	1050.12
419.834	1025.12
420.057	991.12
420.28	956.12
420.503	943.12
420.726	941.12
420.948	944.12
421.171	934.12
421.394	945.12
421.617	918.12
421.839	939.12
422.062	941.12
422.285	953.12
422.507	962.12
422.73	976.12
422.953	939.12
423.175	985.12
423.398	977.12
423.621	977.12
423.843	1001.12
424.066	996.12
424.288	980.12
424.511	985.12
424.733	940.12
424.956	934.12
425.178	963.12
425.401	961.12
425.623	948.12
425.846	925.12
426.068	927.12
426.291	928.12
426.513	932.12
426.735	893.12
426.958	920.12
427.18	871.12
427.402	878.12
427.625	892.12
427.847	865.12
428.069	878.12
428.292	896.12
428.514	858.12
428.736	876.12
428.958	891.12
429.181	850.12
429.403	863.12
429.625	862.12
429.847	856.12
430.069	900.12
430.292	868.12
430.514	864.12
430.736	876.12
430.958	889.12
431.18	863.12
431.402	882.12
431.624	872.12
431.846	864.12
432.068	885.12
432.29	890.12
432.512	898.12
432.734	891.12
432.956	888.12
433.178	885.12
433.4	879.12
433.622	891.12
433.844	897.12
434.066	910.12
434.287	897.12
434.509	949.12
434.731	928.12
434.953	956.12
435.175	963.12
435.397	948.12
435.618	938.12
435.84	950.12
436.062	883.12
436.284	890.12
436.505	875.12
436.727	904.12
436.949	892.12
437.17	886.12
437.392	872.12
437.614	874.12
437.835	842.12
438.057	847.12
438.278	869.12
438.5	861.12
438.721	870.12
438.943	880.12
439.165	896.12
439.386	846.12
439.608	867.12
439.829	886.12
440.05	875.12
440.272	904.12
440.493	892.12
440.715	929.12
440.936	920.12
441.158	910.12
441.379	954.12
441.6	977.12
441.822	940.12
442.043	986.12
442.264	970.12
442.486	980.12
442.707	976.12
442.928	937.12
443.149	964.12
443.371	971.12
443.592	974.12
443.813	996.12
444.034	1008.12
444.255	1033.12
444.476	1059.12
444.698	1097.12
444.919	1103.12
445.14	1197.12
445.361	1104.12
445.582	1039.12
445.803	1003.12
446.024	942.12
446.245	946.12
446.466	943.12
446.687	919.12
446.908	945.12
447.129	860.12
447.35	880.12
447.571	866.12
447.792	871.12
448.013	855.12
448.234	827.12
448.455	880.12
448.675	836.12
448.896	840.12
449.117	841.12
449.338	832.12
449.559	843.12
449.779	851.12
450	840.12
450.221	855.12
450.442	857.12
450.662	824.12
450.883	867.12
451.104	849.12
451.324	849.12
451.545	854.12
451.766	882.12
451.986	819.12
452.207	825.12
452.428	827.12
452.648	837.12
452.869	811.12
453.089	828.12
453.31	794.12
453.53	830.12
453.751	810.12
453.971	796.12
454.192	825.12
454.412	794.12
454.633	797.12
454.853	779.12
455.073	801.12
455.294	789.12
455.514	803.12
455.734	771.12
455.955	796.12
456.175	796.12
456.395	765.12
456.616	815.12
456.836	787.12
457.056	778.12
457.276	781.12
457.497	827.12
457.717	787.12
457.937	805.12
458.157	795.12
458.377	782.12
458.598	820.12
458.818	830.12
459.038	859.12
459.258	891.12
459.478	903.12
459.698	932.12
459.918	964.12
460.138	984.12
460.358	1008.12
460.578	1025.12
460.798	1050.12
461.018	1044.12
461.238	1027.12
461.458	1028.12
461.678	1023.12
461.898	1069.12
462.118	1043.12
462.338	1130.12
462.558	1137.12
462.777	1180.12
462.997	1241.12
463.217	1303.12
463.437	1292.12
463.657	1230.12
463.876	1206.12
464.096	1211.12
464.316	1160.12
464.536	1166.12
464.755	1126.12
464.975	1082.12
465.195	1070.12
465.414	1015.12
465.634	1002.12
465.854	946.12
466.073	923.12
466.293	906.12
466.512	909.12
466.732	893.12
466.951	911.12
467.171	878.12
467.391	894.12
467.61	881.12
467.829	863.12
468.049	874.12
468.268	848.12
468.488	844.12
468.707	859.12
468.927	861.12
469.146	841.12
469.365	870.12
469.585	862.12
469.804	883.12
470.023	909.12
470.243	890.12
470.462	924.12
470.681	889.12
470.901	921.12
471.12	908.12
471.339	873.12
471.558	884.12
471.777	880.12
471.997	854.12
472.216	850.12
472.435	859.12
472.654	833.12
472.873	816.12
473.092	845.12
473.311	842.12
473.53	833.12
473.749	822.12
473.968	839.12
474.187	832.12
474.406	812.12
474.625	842.12
474.844	846.12
475.063	875.12
475.282	853.12
475.501	875.12
475.72	864.12
475.939	880.12
476.158	862.12
476.377	892.12
476.596	880.12
476.814	911.12
477.033	864.12
477.252	902.12
477.471	918.12
477.69	925.12
477.908	974.12
478.127	983.12
478.346	997.12
478.564	989.12
478.783	1024.12
479.002	1046.12
479.22	1035.12
479.439	1022.12
479.658	1026.12
479.876	1022.12
480.095	1053.12
480.313	1060.12
480.532	1062.12
480.751	1069.12
480.969	1091.12
481.188	997.12
481.406	1007.12
481.624	973.12
481.843	959.12
482.061	961.12
482.28	999.12
482.498	944.12
482.717	965.12
482.935	957.12
483.153	973.12
483.372	998.12
483.59	964.12
483.808	991.12
484.027	977.12
484.245	989.12
484.463	966.12
484.681	1026.12
484.9	1045.12
485.118	992.12
485.336	987.12
485.554	1013.12
485.772	1009.12
485.99	1005.12
486.209	1026.12
486.427	1010.12
486.645	1010.12
486.863	1029.12
487.081	992.12
487.299	1029.12
487.517	1026.12
487.735	1034.12
487.953	1040.12
488.171	1029.12
488.389	1010.12
488.607	1020.12
488.825	1001.12
489.043	993.12
489.261	1004.12
489.479	1008.12
489.696	1021.12
489.914	987.12
490.132	1033.12
490.35	1032.12
490.568	1017.12
490.786	1029.12
491.003	1057.12
491.221	1069.12
491.439	1060.12
491.657	1077.12
491.874	1053.12
492.092	1084.12
492.31	1065.12
492.527	1057.12
492.745	1060.12
492.963	1080.12
493.18	1068.12
493.398	1073.12
493.615	1082.12
493.833	1085.12
494.05	1079.12
494.268	1082.12
494.485	1102.12
494.703	1087.12
494.92	1106.12
495.138	1080.12
495.355	1098.12
495.573	1099.12
495.79	1102.12
496.008	1092.12
496.225	1116.12
496.442	1140.12
496.66	1165.12
496.877	1130.12
497.094	1170.12
497.312	1187.12
497.529	1208.12
497.746	1224.12
497.963	1297.12
498.181	1308.12
498.398	1354.12
498.615	1430.12
498.832	1486.12
499.049	1602.12
499.267	1679.12
499.484	1824.12
