Data from NiCl2@0.25M.TitratingCurve.Agarose3%dH2O.NegLispCup.LampEnergy10.LIBS07252019_HRD10591_18-23-52-573.txt Node
Date: Thu Jul 25 18:23:52 EDT 2019
User: cochatt
Spectrometer: HR+D1059
Trigger mode: 1
Integration Time (sec): 1.000000E-1
Scans to average: 1
Electric dark correction enabled: true
Nonlinearity correction enabled: false
Boxcar width: 0
XAxis mode: Wavelengths
Number of Pixels in Spectrum: 2048
>>>>>Begin Spectral Data<<<<<
223.165	-20.81
223.4	-20.81
223.635	-20.81
223.869	-31.81
224.104	-4.81
224.338	-15.81
224.573	-12.81
224.808	-3.81
225.042	-12.81
225.277	-1.81
225.511	4.19
225.746	17.19
225.98	5.19
226.215	8.19
226.449	11.19
226.683	23.19
226.918	10.19
227.152	25.19
227.387	34.19
227.621	43.19
227.856	50.19
228.09	41.19
228.324	55.19
228.559	57.19
228.793	61.19
229.027	102.19
229.262	112.19
229.496	122.19
229.73	114.19
229.964	133.19
230.199	108.19
230.433	116.19
230.667	118.19
230.901	126.19
231.136	130.19
231.37	122.19
231.604	125.19
231.838	132.19
232.072	137.19
232.306	152.19
232.541	133.19
232.775	130.19
233.009	132.19
233.243	136.19
233.477	128.19
233.711	128.19
233.945	147.19
234.179	149.19
234.413	129.19
234.647	130.19
234.881	131.19
235.115	137.19
235.349	146.19
235.583	140.19
235.817	135.19
236.051	155.19
236.285	148.19
236.519	140.19
236.753	148.19
236.987	142.19
237.221	153.19
237.455	144.19
237.689	161.19
237.922	167.19
238.156	160.19
238.39	153.19
238.624	155.19
238.858	157.19
239.091	159.19
239.325	160.19
239.559	162.19
239.793	176.19
240.027	163.19
240.26	164.19
240.494	155.19
240.728	160.19
240.961	168.19
241.195	176.19
241.429	170.19
241.662	181.19
241.896	180.19
242.13	175.19
242.363	178.19
242.597	183.19
242.83	184.19
243.064	175.19
243.298	168.19
243.531	190.19
243.765	179.19
243.998	212.19
244.232	192.19
244.465	190.19
244.699	188.19
244.932	203.19
245.166	185.19
245.399	211.19
245.633	197.19
245.866	192.19
246.099	210.19
246.333	216.19
246.566	212.19
246.8	184.19
247.033	203.19
247.266	188.19
247.5	217.19
247.733	205.19
247.966	195.19
248.2	207.19
248.433	206.19
248.666	223.19
248.899	209.19
249.133	217.19
249.366	227.19
249.599	231.19
249.832	228.19
250.066	225.19
250.299	218.19
250.532	227.19
250.765	227.19
250.998	236.19
251.231	227.19
251.465	242.19
251.698	244.19
251.931	240.19
252.164	247.19
252.397	247.19
252.63	229.19
252.863	246.19
253.096	244.19
253.329	242.19
253.562	250.19
253.795	251.19
254.028	251.19
254.261	246.19
254.494	256.19
254.727	250.19
254.96	258.19
255.193	262.19
255.426	250.19
255.659	248.19
255.892	251.19
256.124	260.19
256.357	264.19
256.59	302.19
256.823	266.19
257.056	258.19
257.289	269.19
257.521	281.19
257.754	272.19
257.987	271.19
258.22	267.19
258.452	289.19
258.685	279.19
258.918	273.19
259.151	279.19
259.383	278.19
259.616	296.19
259.849	276.19
260.081	280.19
260.314	287.19
260.547	292.19
260.779	271.19
261.012	282.19
261.244	274.19
261.477	277.19
261.71	279.19
261.942	292.19
262.175	294.19
262.407	286.19
262.64	299.19
262.872	288.19
263.105	284.19
263.337	301.19
263.57	301.19
263.802	328.19
264.035	292.19
264.267	303.19
264.499	320.19
264.732	320.19
264.964	310.19
265.197	311.19
265.429	305.19
265.661	324.19
265.894	320.19
266.126	314.19
266.358	310.19
266.591	317.19
266.823	314.19
267.055	310.19
267.287	321.19
267.52	308.19
267.752	336.19
267.984	327.19
268.216	317.19
268.448	336.19
268.681	344.19
268.913	346.19
269.145	309.19
269.377	333.19
269.609	333.19
269.841	354.19
270.073	346.19
270.306	328.19
270.538	329.19
270.77	362.19
271.002	370.19
271.234	334.19
271.466	353.19
271.698	331.19
271.93	347.19
272.162	349.19
272.394	346.19
272.626	350.19
272.858	385.19
273.09	370.19
273.322	356.19
273.553	357.19
273.785	374.19
274.017	348.19
274.249	370.19
274.481	348.19
274.713	367.19
274.945	372.19
275.176	356.19
275.408	376.19
275.64	368.19
275.872	370.19
276.104	373.19
276.335	363.19
276.567	372.19
276.799	377.19
277.031	384.19
277.262	373.19
277.494	359.19
277.726	366.19
277.957	382.19
278.189	408.19
278.421	384.19
278.652	384.19
278.884	385.19
279.115	373.19
279.347	375.19
279.579	408.19
279.81	390.19
280.042	395.19
280.273	403.19
280.505	383.19
280.736	388.19
280.968	381.19
281.199	411.19
281.431	420.19
281.662	434.19
281.894	402.19
282.125	425.19
282.356	414.19
282.588	418.19
282.819	442.19
283.051	402.19
283.282	438.19
283.513	408.19
283.745	418.19
283.976	419.19
284.207	446.19
284.439	435.19
284.67	448.19
284.901	447.19
285.132	445.19
285.364	447.19
285.595	426.19
285.826	450.19
286.057	448.19
286.288	431.19
286.52	453.19
286.751	433.19
286.982	440.19
287.213	443.19
287.444	468.19
287.675	433.19
287.906	467.19
288.138	435.19
288.369	450.19
288.6	465.19
288.831	463.19
289.062	453.19
289.293	460.19
289.524	462.19
289.755	456.19
289.986	459.19
290.217	459.19
290.448	474.19
290.679	481.19
290.91	461.19
291.141	458.19
291.371	467.19
291.602	487.19
291.833	460.19
292.064	443.19
292.295	455.19
292.526	454.19
292.757	464.19
292.987	499.19
293.218	444.19
293.449	460.19
293.68	477.19
293.91	480.19
294.141	475.19
294.372	482.19
294.603	460.19
294.833	465.19
295.064	476.19
295.295	480.19
295.525	466.19
295.756	490.19
295.987	472.19
296.217	495.19
296.448	491.19
296.679	487.19
296.909	510.19
297.14	497.19
297.37	522.19
297.601	501.19
297.831	507.19
298.062	510.19
298.292	523.19
298.523	538.19
298.753	528.19
298.984	524.19
299.214	501.19
299.445	510.19
299.675	503.19
299.905	521.19
300.136	515.19
300.366	518.19
300.597	530.19
300.827	520.19
301.057	524.19
301.288	571.19
301.518	551.19
301.748	527.19
301.979	541.19
302.209	548.19
302.439	552.19
302.669	544.19
302.9	528.19
303.13	538.19
303.36	559.19
303.59	528.19
303.82	520.19
304.051	524.19
304.281	530.19
304.511	514.19
304.741	521.19
304.971	524.19
305.201	542.19
305.431	545.19
305.661	514.19
305.891	517.19
306.121	504.19
306.352	537.19
306.582	514.19
306.812	514.19
307.042	539.19
307.272	520.19
307.502	532.19
307.731	534.19
307.961	533.19
308.191	519.19
308.421	509.19
308.651	498.19
308.881	502.19
309.111	519.19
309.341	529.19
309.571	522.19
309.8	528.19
310.03	510.19
310.26	539.19
310.49	525.19
310.72	520.19
310.949	539.19
311.179	528.19
311.409	548.19
311.639	524.19
311.868	533.19
312.098	548.19
312.328	533.19
312.557	566.19
312.787	549.19
313.017	549.19
313.246	550.19
313.476	557.19
313.706	560.19
313.935	562.19
314.165	587.19
314.394	575.19
314.624	574.19
314.853	578.19
315.083	586.19
315.312	574.19
315.542	564.19
315.771	561.19
316.001	540.19
316.23	541.19
316.46	534.19
316.689	554.19
316.919	558.19
317.148	534.19
317.377	553.19
317.607	556.19
317.836	526.19
318.065	536.19
318.295	540.19
318.524	549.19
318.753	529.19
318.983	550.19
319.212	545.19
319.441	551.19
319.67	551.19
319.9	556.19
320.129	554.19
320.358	541.19
320.587	545.19
320.816	562.19
321.046	551.19
321.275	568.19
321.504	554.19
321.733	575.19
321.962	558.19
322.191	578.19
322.42	558.19
322.649	555.19
322.878	548.19
323.108	544.19
323.337	572.19
323.566	566.19
323.795	587.19
324.024	587.19
324.253	580.19
324.482	576.19
324.71	586.19
324.939	569.19
325.168	596.19
325.397	588.19
325.626	589.19
325.855	608.19
326.084	618.19
326.313	630.19
326.542	588.19
326.77	619.19
326.999	583.19
327.228	616.19
327.457	584.19
327.686	605.19
327.914	615.19
328.143	624.19
328.372	602.19
328.6	635.19
328.829	592.19
329.058	596.19
329.287	603.19
329.515	609.19
329.744	630.19
329.972	643.19
330.201	624.19
330.43	622.19
330.658	631.19
330.887	600.19
331.115	608.19
331.344	632.19
331.572	644.19
331.801	682.19
332.03	682.19
332.258	705.19
332.486	725.19
332.715	747.19
332.943	763.19
333.172	772.19
333.4	809.19
333.629	826.19
333.857	824.19
334.085	824.19
334.314	832.19
334.542	796.19
334.771	798.19
334.999	774.19
335.227	769.19
335.455	762.19
335.684	746.19
335.912	763.19
336.14	733.19
336.369	730.19
336.597	766.19
336.825	721.19
337.053	732.19
337.281	721.19
337.51	707.19
337.738	704.19
337.966	714.19
338.194	691.19
338.422	678.19
338.65	679.19
338.878	660.19
339.106	651.19
339.334	655.19
339.562	666.19
339.79	672.19
340.018	659.19
340.246	632.19
340.474	622.19
340.702	642.19
340.93	630.19
341.158	646.19
341.386	641.19
341.614	629.19
341.842	644.19
342.07	674.19
342.298	643.19
342.526	630.19
342.754	632.19
342.981	639.19
343.209	638.19
343.437	673.19
343.665	696.19
343.893	761.19
344.12	814.19
344.348	797.19
344.576	721.19
344.804	710.19
345.031	686.19
345.259	660.19
345.487	650.19
345.714	635.19
345.942	636.19
346.17	627.19
346.397	613.19
346.625	626.19
346.853	609.19
347.08	599.19
347.308	612.19
347.535	597.19
347.763	616.19
347.99	654.19
348.218	616.19
348.445	590.19
348.673	609.19
348.9	618.19
349.128	608.19
349.355	612.19
349.583	594.19
349.81	616.19
350.037	595.19
350.265	590.19
350.492	597.19
350.72	599.19
350.947	598.19
351.174	593.19
351.402	585.19
351.629	603.19
351.856	629.19
352.083	581.19
352.311	581.19
352.538	597.19
352.765	584.19
352.992	573.19
353.22	583.19
353.447	587.19
353.674	598.19
353.901	595.19
354.128	590.19
354.355	594.19
354.583	573.19
354.81	601.19
355.037	614.19
355.264	584.19
355.491	569.19
355.718	593.19
355.945	603.19
356.172	593.19
356.399	610.19
356.626	598.19
356.853	595.19
357.08	590.19
357.307	597.19
357.534	576.19
357.761	622.19
357.988	610.19
358.215	573.19
358.441	582.19
358.668	581.19
358.895	598.19
359.122	604.19
359.349	593.19
359.576	597.19
359.802	608.19
360.029	591.19
360.256	608.19
360.483	596.19
360.709	589.19
360.936	596.19
361.163	591.19
361.39	614.19
361.616	586.19
361.843	589.19
362.07	628.19
362.296	600.19
362.523	602.19
362.749	608.19
362.976	607.19
363.203	571.19
363.429	587.19
363.656	590.19
363.882	592.19
364.109	590.19
364.335	580.19
364.562	592.19
364.788	579.19
365.015	597.19
365.241	572.19
365.468	570.19
365.694	589.19
365.92	589.19
366.147	614.19
366.373	596.19
366.599	589.19
366.826	590.19
367.052	603.19
367.278	584.19
367.505	585.19
367.731	611.19
367.957	591.19
368.184	600.19
368.41	590.19
368.636	598.19
368.862	592.19
369.089	624.19
369.315	614.19
369.541	613.19
369.767	628.19
369.993	606.19
370.219	643.19
370.445	618.19
370.672	626.19
370.898	636.19
371.124	630.19
371.35	629.19
371.576	613.19
371.802	650.19
372.028	646.19
372.254	640.19
372.48	643.19
372.706	675.19
372.932	688.19
373.158	677.19
373.384	654.19
373.61	638.19
373.835	651.19
374.061	641.19
374.287	676.19
374.513	666.19
374.739	692.19
374.965	714.19
375.191	725.19
375.416	731.19
375.642	700.19
375.868	686.19
376.094	695.19
376.319	650.19
376.545	670.19
376.771	654.19
376.997	662.19
377.222	660.19
377.448	654.19
377.674	647.19
377.899	665.19
378.125	647.19
378.35	641.19
378.576	610.19
378.802	638.19
379.027	611.19
379.253	638.19
379.478	635.19
379.704	625.19
379.929	628.19
380.155	635.19
380.38	644.19
380.606	630.19
380.831	626.19
381.057	639.19
381.282	629.19
381.507	626.19
381.733	640.19
381.958	662.19
382.184	676.19
382.409	662.19
382.634	694.19
382.86	672.19
383.085	668.19
383.31	673.19
383.535	702.19
383.761	715.19
383.986	724.19
384.211	738.19
384.436	733.19
384.662	763.19
384.887	772.19
385.112	742.19
385.337	800.19
385.562	785.19
385.787	767.19
386.013	769.19
386.238	782.19
386.463	774.19
386.688	793.19
386.913	758.19
387.138	775.19
387.363	757.19
387.588	766.19
387.813	802.19
388.038	758.19
388.263	771.19
388.488	791.19
388.713	777.19
388.938	783.19
389.163	757.19
389.387	750.19
389.612	750.19
389.837	756.19
390.062	746.19
390.287	764.19
390.512	761.19
390.736	774.19
390.961	769.19
391.186	782.19
391.411	807.19
391.636	825.19
391.86	882.19
392.085	889.19
392.31	889.19
392.534	870.19
392.759	824.19
392.984	845.19
393.208	829.19
393.433	795.19
393.658	803.19
393.882	822.19
394.107	832.19
394.331	843.19
394.556	811.19
394.78	842.19
395.005	868.19
395.229	818.19
395.454	870.19
395.678	884.19
395.903	899.19
396.127	851.19
396.352	874.19
396.576	834.19
396.801	821.19
397.025	840.19
397.249	849.19
397.474	888.19
397.698	892.19
397.922	883.19
398.147	867.19
398.371	894.19
398.595	919.19
398.82	984.19
399.044	1033.19
399.268	1167.19
399.492	1325.19
399.717	1507.19
399.941	1495.19
400.165	1297.19
400.389	1191.19
400.613	1107.19
400.837	1052.19
401.062	1019.19
401.286	984.19
401.51	995.19
401.734	1017.19
401.958	1012.19
402.182	988.19
402.406	1006.19
402.63	1022.19
402.854	1038.19
403.078	1063.19
403.302	1101.19
403.526	1113.19
403.75	1145.19
403.974	1162.19
404.198	1158.19
404.422	1165.19
404.645	1134.19
404.869	1132.19
405.093	1118.19
405.317	1099.19
405.541	1082.19
405.765	1109.19
405.988	1096.19
406.212	1065.19
406.436	1077.19
406.66	1109.19
406.883	1101.19
407.107	1188.19
407.331	1245.19
407.555	1310.19
407.778	1298.19
408.002	1294.19
408.226	1201.19
408.449	1197.19
408.673	1134.19
408.896	1132.19
409.12	1106.19
409.344	1114.19
409.567	1098.19
409.791	1137.19
410.014	1099.19
410.238	1111.19
410.461	1084.19
410.685	1084.19
410.908	1053.19
411.132	1034.19
411.355	993.19
411.578	1013.19
411.802	1003.19
412.025	1015.19
412.249	1056.19
412.472	1064.19
412.695	1028.19
412.919	975.19
413.142	963.19
413.365	983.19
413.589	967.19
413.812	980.19
414.035	994.19
414.258	968.19
414.482	1012.19
414.705	1001.19
414.928	981.19
415.151	984.19
415.374	948.19
415.597	959.19
415.821	938.19
416.044	956.19
416.267	950.19
416.49	929.19
416.713	955.19
416.936	975.19
417.159	987.19
417.382	952.19
417.605	957.19
417.828	953.19
418.051	958.19
418.274	977.19
418.497	965.19
418.72	1021.19
418.943	1013.19
419.166	1053.19
419.389	1112.19
419.611	1094.19
419.834	1055.19
420.057	1040.19
420.28	1008.19
420.503	952.19
420.726	975.19
420.948	953.19
421.171	973.19
421.394	956.19
421.617	952.19
421.839	954.19
422.062	927.19
422.285	969.19
422.507	1008.19
422.73	994.19
422.953	995.19
423.175	994.19
423.398	1046.19
423.621	1005.19
423.843	1045.19
424.066	1046.19
424.288	1031.19
424.511	995.19
424.733	1031.19
424.956	993.19
425.178	964.19
425.401	968.19
425.623	975.19
425.846	928.19
426.068	913.19
426.291	910.19
426.513	923.19
426.735	912.19
426.958	891.19
427.18	890.19
427.402	889.19
427.625	895.19
427.847	829.19
428.069	850.19
428.292	867.19
428.514	846.19
428.736	838.19
428.958	858.19
429.181	828.19
429.403	824.19
429.625	842.19
429.847	818.19
430.069	836.19
430.292	836.19
430.514	822.19
430.736	828.19
430.958	853.19
431.18	867.19
431.402	822.19
431.624	846.19
431.846	850.19
432.068	851.19
432.29	892.19
432.512	848.19
432.734	869.19
432.956	825.19
433.178	827.19
433.4	840.19
433.622	874.19
433.844	867.19
434.066	886.19
434.287	843.19
434.509	918.19
434.731	938.19
434.953	966.19
435.175	969.19
435.397	954.19
435.618	909.19
435.84	893.19
436.062	840.19
436.284	879.19
436.505	871.19
436.727	891.19
436.949	856.19
437.17	833.19
437.392	818.19
437.614	845.19
437.835	835.19
438.057	830.19
438.278	826.19
438.5	826.19
438.721	829.19
438.943	812.19
439.165	793.19
439.386	831.19
439.608	840.19
439.829	867.19
440.05	861.19
440.272	865.19
440.493	865.19
440.715	890.19
440.936	892.19
441.158	895.19
441.379	928.19
441.6	960.19
441.822	986.19
442.043	985.19
442.264	948.19
442.486	942.19
442.707	937.19
442.928	948.19
443.149	959.19
443.371	938.19
443.592	962.19
443.813	955.19
444.034	993.19
444.255	1046.19
444.476	1040.19
444.698	1110.19
444.919	1163.19
445.14	1229.19
445.361	1093.19
445.582	985.19
445.803	950.19
446.024	947.19
446.245	890.19
446.466	870.19
446.687	870.19
446.908	851.19
447.129	830.19
447.35	831.19
447.571	830.19
447.792	794.19
448.013	811.19
448.234	810.19
448.455	799.19
448.675	755.19
448.896	776.19
449.117	754.19
449.338	758.19
449.559	768.19
449.779	748.19
450	767.19
450.221	770.19
450.442	794.19
450.662	804.19
450.883	814.19
451.104	782.19
451.324	812.19
451.545	794.19
451.766	784.19
451.986	779.19
452.207	788.19
452.428	780.19
452.648	778.19
452.869	765.19
453.089	772.19
453.31	751.19
453.53	733.19
453.751	774.19
453.971	756.19
454.192	762.19
454.412	747.19
454.633	725.19
454.853	718.19
455.073	728.19
455.294	732.19
455.514	721.19
455.734	711.19
455.955	723.19
456.175	725.19
456.395	729.19
456.616	717.19
456.836	725.19
457.056	723.19
457.276	731.19
457.497	748.19
457.717	741.19
457.937	754.19
458.157	747.19
458.377	752.19
458.598	742.19
458.818	796.19
459.038	811.19
459.258	857.19
459.478	875.19
459.698	916.19
459.918	893.19
460.138	948.19
460.358	988.19
460.578	1014.19
460.798	1022.19
461.018	1021.19
461.238	988.19
461.458	1021.19
461.678	1002.19
461.898	1016.19
462.118	1020.19
462.338	1054.19
462.558	1124.19
462.777	1181.19
462.997	1274.19
463.217	1397.19
463.437	1373.19
463.657	1244.19
463.876	1206.19
464.096	1184.19
464.316	1182.19
464.536	1165.19
464.755	1144.19
464.975	1107.19
465.195	1047.19
465.414	985.19
465.634	929.19
465.854	906.19
466.073	890.19
466.293	860.19
466.512	823.19
466.732	822.19
466.951	829.19
467.171	840.19
467.391	851.19
467.61	809.19
467.829	825.19
468.049	835.19
468.268	828.19
468.488	810.19
468.707	769.19
468.927	785.19
469.146	778.19
469.365	823.19
469.585	814.19
469.804	825.19
470.023	840.19
470.243	843.19
470.462	831.19
470.681	845.19
470.901	861.19
471.12	852.19
471.339	845.19
471.558	795.19
471.777	802.19
471.997	794.19
472.216	796.19
472.435	796.19
472.654	766.19
472.873	765.19
473.092	777.19
473.311	762.19
473.53	755.19
473.749	771.19
473.968	747.19
474.187	773.19
474.406	774.19
474.625	773.19
474.844	788.19
475.063	776.19
475.282	754.19
475.501	772.19
475.72	782.19
475.939	785.19
476.158	788.19
476.377	782.19
476.596	802.19
476.814	812.19
477.033	805.19
477.252	810.19
477.471	842.19
477.69	886.19
477.908	902.19
478.127	922.19
478.346	909.19
478.564	941.19
478.783	938.19
479.002	991.19
479.22	944.19
479.439	954.19
479.658	928.19
479.876	924.19
480.095	945.19
480.313	1014.19
480.532	1025.19
480.751	1030.19
480.969	983.19
481.188	944.19
481.406	894.19
481.624	888.19
481.843	880.19
482.061	886.19
482.28	858.19
482.498	887.19
482.717	861.19
482.935	850.19
483.153	855.19
483.372	865.19
483.59	883.19
483.808	848.19
484.027	879.19
484.245	868.19
484.463	886.19
484.681	904.19
484.9	889.19
485.118	907.19
485.336	910.19
485.554	879.19
485.772	904.19
485.99	913.19
486.209	941.19
486.427	931.19
486.645	910.19
486.863	916.19
487.081	938.19
487.299	903.19
487.517	909.19
487.735	885.19
487.953	905.19
488.171	929.19
488.389	889.19
488.607	893.19
488.825	909.19
489.043	883.19
489.261	882.19
489.479	919.19
489.696	906.19
489.914	883.19
490.132	934.19
490.35	907.19
490.568	932.19
490.786	941.19
491.003	911.19
491.221	922.19
491.439	941.19
491.657	932.19
491.874	920.19
492.092	923.19
492.31	974.19
492.527	953.19
492.745	945.19
492.963	931.19
493.18	949.19
493.398	920.19
493.615	968.19
493.833	941.19
494.05	960.19
494.268	978.19
494.485	972.19
494.703	989.19
494.92	992.19
495.138	944.19
495.355	969.19
495.573	1020.19
495.79	978.19
496.008	987.19
496.225	1014.19
496.442	998.19
496.66	1017.19
496.877	1029.19
497.094	1060.19
497.312	1075.19
497.529	1082.19
497.746	1108.19
497.963	1159.19
498.181	1212.19
498.398	1249.19
498.615	1323.19
498.832	1432.19
499.049	1547.19
499.267	1658.19
499.484	1796.19
499.701	2005.19
499.918	2309.19
