Data from NiCl2@0.125M.TitratingCurve.Agarose3%dH2O.NegLispCup.LampEnergy10.LIBS07252019_HRD10591_18-29-28-575.txt Node
Date: Thu Jul 25 18:29:28 EDT 2019
User: cochatt
Spectrometer: HR+D1059
Trigger mode: 1
Integration Time (sec): 1.000000E-1
Scans to average: 1
Electric dark correction enabled: true
Nonlinearity correction enabled: false
Boxcar width: 0
XAxis mode: Wavelengths
Number of Pixels in Spectrum: 2048
>>>>>Begin Spectral Data<<<<<
223.165	-14.62
223.4	-14.62
223.635	-14.62
223.869	-25.62
224.104	-22.62
224.338	-9.62
224.573	-3.62
224.808	-11.62
225.042	-1.62
225.277	-0.62
225.511	-12.62
225.746	-7.62
225.98	2.38
226.215	13.38
226.449	7.38
226.683	23.38
226.918	20.38
227.152	43.38
227.387	43.38
227.621	32.38
227.856	39.38
228.09	39.38
228.324	36.38
228.559	56.38
228.793	75.38
229.027	106.38
229.262	106.38
229.496	127.38
229.73	129.38
229.964	136.38
230.199	132.38
230.433	125.38
230.667	147.38
230.901	133.38
231.136	142.38
231.37	151.38
231.604	133.38
231.838	148.38
232.072	151.38
232.306	161.38
232.541	153.38
232.775	170.38
233.009	153.38
233.243	153.38
233.477	160.38
233.711	146.38
233.945	153.38
234.179	128.38
234.413	148.38
234.647	169.38
234.881	162.38
235.115	154.38
235.349	139.38
235.583	160.38
235.817	162.38
236.051	163.38
236.285	171.38
236.519	148.38
236.753	167.38
236.987	139.38
237.221	164.38
237.455	170.38
237.689	168.38
237.922	162.38
238.156	187.38
238.39	172.38
238.624	176.38
238.858	174.38
239.091	192.38
239.325	186.38
239.559	196.38
239.793	191.38
240.027	185.38
240.26	199.38
240.494	187.38
240.728	175.38
240.961	185.38
241.195	191.38
241.429	205.38
241.662	219.38
241.896	196.38
242.13	195.38
242.363	192.38
242.597	223.38
242.83	212.38
243.064	205.38
243.298	215.38
243.531	230.38
243.765	214.38
243.998	226.38
244.232	202.38
244.465	209.38
244.699	229.38
244.932	215.38
245.166	232.38
245.399	220.38
245.633	216.38
245.866	234.38
246.099	215.38
246.333	227.38
246.566	239.38
246.8	242.38
247.033	239.38
247.266	244.38
247.5	228.38
247.733	224.38
247.966	236.38
248.2	261.38
248.433	236.38
248.666	251.38
248.899	250.38
249.133	254.38
249.366	272.38
249.599	271.38
249.832	257.38
250.066	247.38
250.299	273.38
250.532	275.38
250.765	252.38
250.998	259.38
251.231	274.38
251.465	283.38
251.698	281.38
251.931	297.38
252.164	285.38
252.397	285.38
252.63	289.38
252.863	286.38
253.096	307.38
253.329	300.38
253.562	289.38
253.795	305.38
254.028	306.38
254.261	308.38
254.494	309.38
254.727	292.38
254.96	281.38
255.193	297.38
255.426	304.38
255.659	316.38
255.892	315.38
256.124	288.38
256.357	303.38
256.59	290.38
256.823	312.38
257.056	319.38
257.289	313.38
257.521	335.38
257.754	320.38
257.987	321.38
258.22	328.38
258.452	330.38
258.685	311.38
258.918	319.38
259.151	324.38
259.383	332.38
259.616	341.38
259.849	326.38
260.081	344.38
260.314	351.38
260.547	322.38
260.779	348.38
261.012	349.38
261.244	327.38
261.477	345.38
261.71	328.38
261.942	358.38
262.175	347.38
262.407	330.38
262.64	332.38
262.872	378.38
263.105	357.38
263.337	379.38
263.57	354.38
263.802	351.38
264.035	352.38
264.267	363.38
264.499	374.38
264.732	362.38
264.964	387.38
265.197	363.38
265.429	381.38
265.661	377.38
265.894	376.38
266.126	384.38
266.358	385.38
266.591	372.38
266.823	379.38
267.055	385.38
267.287	396.38
267.52	377.38
267.752	374.38
267.984	384.38
268.216	389.38
268.448	397.38
268.681	402.38
268.913	401.38
269.145	392.38
269.377	400.38
269.609	393.38
269.841	396.38
270.073	382.38
270.306	395.38
270.538	379.38
270.77	394.38
271.002	413.38
271.234	403.38
271.466	412.38
271.698	418.38
271.93	407.38
272.162	410.38
272.394	424.38
272.626	424.38
272.858	411.38
273.09	414.38
273.322	419.38
273.553	428.38
273.785	419.38
274.017	405.38
274.249	434.38
274.481	425.38
274.713	433.38
274.945	445.38
275.176	449.38
275.408	444.38
275.64	447.38
275.872	449.38
276.104	419.38
276.335	435.38
276.567	432.38
276.799	449.38
277.031	465.38
277.262	468.38
277.494	441.38
277.726	442.38
277.957	463.38
278.189	450.38
278.421	454.38
278.652	461.38
278.884	447.38
279.115	459.38
279.347	476.38
279.579	466.38
279.81	464.38
280.042	478.38
280.273	485.38
280.505	479.38
280.736	462.38
280.968	493.38
281.199	458.38
281.431	473.38
281.662	491.38
281.894	480.38
282.125	501.38
282.356	495.38
282.588	494.38
282.819	493.38
283.051	517.38
283.282	515.38
283.513	500.38
283.745	495.38
283.976	502.38
284.207	520.38
284.439	500.38
284.67	525.38
284.901	513.38
285.132	546.38
285.364	515.38
285.595	533.38
285.826	532.38
286.057	530.38
286.288	506.38
286.52	510.38
286.751	523.38
286.982	540.38
287.213	540.38
287.444	545.38
287.675	544.38
287.906	551.38
288.138	544.38
288.369	536.38
288.6	561.38
288.831	533.38
289.062	545.38
289.293	537.38
289.524	559.38
289.755	563.38
289.986	551.38
290.217	563.38
290.448	553.38
290.679	552.38
290.91	557.38
291.141	565.38
291.371	568.38
291.602	581.38
291.833	572.38
292.064	576.38
292.295	578.38
292.526	563.38
292.757	572.38
292.987	544.38
293.218	530.38
293.449	556.38
293.68	546.38
293.91	582.38
294.141	577.38
294.372	553.38
294.603	574.38
294.833	587.38
295.064	572.38
295.295	560.38
295.525	567.38
295.756	584.38
295.987	587.38
296.217	575.38
296.448	575.38
296.679	580.38
296.909	580.38
297.14	586.38
297.37	592.38
297.601	603.38
297.831	627.38
298.062	593.38
298.292	636.38
298.523	617.38
298.753	647.38
298.984	634.38
299.214	618.38
299.445	598.38
299.675	622.38
299.905	603.38
300.136	606.38
300.366	645.38
300.597	613.38
300.827	662.38
301.057	638.38
301.288	653.38
301.518	632.38
301.748	639.38
301.979	665.38
302.209	655.38
302.439	649.38
302.669	628.38
302.9	619.38
303.13	633.38
303.36	621.38
303.59	598.38
303.82	604.38
304.051	604.38
304.281	625.38
304.511	612.38
304.741	625.38
304.971	663.38
305.201	603.38
305.431	623.38
305.661	641.38
305.891	614.38
306.121	616.38
306.352	620.38
306.582	619.38
306.812	611.38
307.042	615.38
307.272	615.38
307.502	616.38
307.731	615.38
307.961	599.38
308.191	609.38
308.421	605.38
308.651	604.38
308.881	613.38
309.111	613.38
309.341	589.38
309.571	612.38
309.8	639.38
310.03	587.38
310.26	610.38
310.49	623.38
310.72	627.38
310.949	605.38
311.179	627.38
311.409	641.38
311.639	641.38
311.868	639.38
312.098	607.38
312.328	636.38
312.557	621.38
312.787	657.38
313.017	650.38
313.246	661.38
313.476	651.38
313.706	675.38
313.935	677.38
314.165	662.38
314.394	647.38
314.624	663.38
314.853	653.38
315.083	676.38
315.312	652.38
315.542	652.38
315.771	645.38
316.001	642.38
316.23	666.38
316.46	636.38
316.689	635.38
316.919	644.38
317.148	627.38
317.377	631.38
317.607	629.38
317.836	639.38
318.065	639.38
318.295	666.38
318.524	635.38
318.753	646.38
318.983	637.38
319.212	612.38
319.441	624.38
319.67	615.38
319.9	642.38
320.129	616.38
320.358	630.38
320.587	631.38
320.816	630.38
321.046	644.38
321.275	638.38
321.504	654.38
321.733	652.38
321.962	663.38
322.191	646.38
322.42	642.38
322.649	642.38
322.878	648.38
323.108	637.38
323.337	663.38
323.566	669.38
323.795	655.38
324.024	646.38
324.253	639.38
324.482	640.38
324.71	649.38
324.939	664.38
325.168	651.38
325.397	682.38
325.626	668.38
325.855	679.38
326.084	706.38
326.313	713.38
326.542	734.38
326.77	731.38
326.999	710.38
327.228	685.38
327.457	691.38
327.686	695.38
327.914	724.38
328.143	679.38
328.372	691.38
328.6	703.38
328.829	684.38
329.058	680.38
329.287	690.38
329.515	719.38
329.744	700.38
329.972	714.38
330.201	689.38
330.43	709.38
330.658	711.38
330.887	696.38
331.115	729.38
331.344	747.38
331.572	734.38
331.801	752.38
332.03	787.38
332.258	792.38
332.486	823.38
332.715	843.38
332.943	877.38
333.172	895.38
333.4	971.38
333.629	976.38
333.857	985.38
334.085	967.38
334.314	946.38
334.542	912.38
334.771	920.38
334.999	861.38
335.227	876.38
335.455	873.38
335.684	884.38
335.912	871.38
336.14	834.38
336.369	868.38
336.597	843.38
336.825	857.38
337.053	837.38
337.281	797.38
337.51	796.38
337.738	811.38
337.966	793.38
338.194	771.38
338.422	776.38
338.65	739.38
338.878	758.38
339.106	787.38
339.334	754.38
339.562	763.38
339.79	735.38
340.018	738.38
340.246	709.38
340.474	732.38
340.702	728.38
340.93	719.38
341.158	725.38
341.386	736.38
341.614	725.38
341.842	743.38
342.07	688.38
342.298	747.38
342.526	717.38
342.754	709.38
342.981	704.38
343.209	726.38
343.437	759.38
343.665	813.38
343.893	891.38
344.12	930.38
344.348	890.38
344.576	819.38
344.804	781.38
345.031	764.38
345.259	766.38
345.487	748.38
345.714	721.38
345.942	715.38
346.17	695.38
346.397	715.38
346.625	705.38
346.853	692.38
347.08	703.38
347.308	713.38
347.535	714.38
347.763	708.38
347.99	715.38
348.218	724.38
348.445	753.38
348.673	690.38
348.9	685.38
349.128	689.38
349.355	684.38
349.583	689.38
349.81	703.38
350.037	691.38
350.265	703.38
350.492	691.38
350.72	670.38
350.947	681.38
351.174	694.38
351.402	690.38
351.629	682.38
351.856	661.38
352.083	664.38
352.311	653.38
352.538	680.38
352.765	703.38
352.992	671.38
353.22	653.38
353.447	663.38
353.674	679.38
353.901	689.38
354.128	655.38
354.355	665.38
354.583	664.38
354.81	681.38
355.037	664.38
355.264	673.38
355.491	681.38
355.718	679.38
355.945	683.38
356.172	671.38
356.399	685.38
356.626	701.38
356.853	696.38
357.08	689.38
357.307	663.38
357.534	682.38
357.761	675.38
357.988	675.38
358.215	676.38
358.441	647.38
358.668	661.38
358.895	678.38
359.122	653.38
359.349	703.38
359.576	678.38
359.802	675.38
360.029	715.38
360.256	691.38
360.483	665.38
360.709	684.38
360.936	697.38
361.163	681.38
361.39	685.38
361.616	672.38
361.843	661.38
362.07	659.38
362.296	663.38
362.523	668.38
362.749	673.38
362.976	660.38
363.203	693.38
363.429	651.38
363.656	667.38
363.882	672.38
364.109	687.38
364.335	682.38
364.562	682.38
364.788	664.38
365.015	672.38
365.241	685.38
365.468	666.38
365.694	674.38
365.92	664.38
366.147	652.38
366.373	691.38
366.599	658.38
366.826	689.38
367.052	680.38
367.278	691.38
367.505	683.38
367.731	681.38
367.957	698.38
368.184	691.38
368.41	705.38
368.636	683.38
368.862	676.38
369.089	684.38
369.315	677.38
369.541	690.38
369.767	719.38
369.993	701.38
370.219	699.38
370.445	715.38
370.672	708.38
370.898	723.38
371.124	706.38
371.35	721.38
371.576	725.38
371.802	727.38
372.028	712.38
372.254	719.38
372.48	729.38
372.706	734.38
372.932	749.38
373.158	781.38
373.384	757.38
373.61	721.38
373.835	738.38
374.061	716.38
374.287	745.38
374.513	733.38
374.739	794.38
374.965	821.38
375.191	816.38
375.416	837.38
375.642	809.38
375.868	794.38
376.094	784.38
376.319	760.38
376.545	756.38
376.771	747.38
376.997	739.38
377.222	745.38
377.448	732.38
377.674	744.38
377.899	742.38
378.125	735.38
378.35	739.38
378.576	724.38
378.802	738.38
379.027	753.38
379.253	690.38
379.478	722.38
379.704	720.38
379.929	723.38
380.155	706.38
380.38	733.38
380.606	732.38
380.831	710.38
381.057	732.38
381.282	720.38
381.507	707.38
381.733	747.38
381.958	721.38
382.184	731.38
382.409	759.38
382.634	767.38
382.86	760.38
383.085	809.38
383.31	793.38
383.535	797.38
383.761	810.38
383.986	863.38
384.211	841.38
384.436	889.38
384.662	879.38
384.887	902.38
385.112	888.38
385.337	874.38
385.562	883.38
385.787	891.38
386.013	903.38
386.238	896.38
386.463	909.38
386.688	940.38
386.913	882.38
387.138	889.38
387.363	896.38
387.588	872.38
387.813	873.38
388.038	871.38
388.263	858.38
388.488	900.38
388.713	881.38
388.938	883.38
389.163	873.38
389.387	864.38
389.612	849.38
389.837	847.38
390.062	860.38
390.287	859.38
390.512	860.38
390.736	885.38
390.961	891.38
391.186	919.38
391.411	940.38
391.636	975.38
391.86	989.38
392.085	1030.38
392.31	1025.38
392.534	1002.38
392.759	940.38
392.984	929.38
393.208	953.38
393.433	941.38
393.658	946.38
393.882	917.38
394.107	978.38
394.331	977.38
394.556	971.38
394.78	927.38
395.005	965.38
395.229	960.38
395.454	977.38
395.678	1007.38
395.903	980.38
396.127	999.38
396.352	961.38
396.576	953.38
396.801	919.38
397.025	958.38
397.249	961.38
397.474	976.38
397.698	980.38
397.922	1003.38
398.147	970.38
398.371	1002.38
398.595	1061.38
398.82	1085.38
399.044	1159.38
399.268	1314.38
399.492	1546.38
399.717	1811.38
399.941	1797.38
400.165	1555.38
400.389	1375.38
400.613	1267.38
400.837	1153.38
401.062	1154.38
401.286	1130.38
401.51	1109.38
401.734	1109.38
401.958	1157.38
402.182	1156.38
402.406	1184.38
402.63	1218.38
402.854	1220.38
403.078	1216.38
403.302	1293.38
403.526	1291.38
403.75	1297.38
403.974	1330.38
404.198	1346.38
404.422	1393.38
404.645	1345.38
404.869	1291.38
405.093	1277.38
405.317	1277.38
405.541	1268.38
405.765	1255.38
405.988	1235.38
406.212	1217.38
406.436	1240.38
406.66	1262.38
406.883	1296.38
407.107	1357.38
407.331	1430.38
407.555	1497.38
407.778	1511.38
408.002	1453.38
408.226	1412.38
408.449	1333.38
408.673	1314.38
408.896	1297.38
409.12	1301.38
409.344	1315.38
409.567	1300.38
409.791	1319.38
410.014	1359.38
410.238	1259.38
410.461	1273.38
410.685	1223.38
410.908	1222.38
411.132	1195.38
411.355	1155.38
411.578	1153.38
411.802	1182.38
412.025	1192.38
412.249	1208.38
412.472	1185.38
412.695	1137.38
412.919	1099.38
413.142	1121.38
413.365	1110.38
413.589	1113.38
413.812	1115.38
414.035	1093.38
414.258	1109.38
414.482	1139.38
414.705	1189.38
414.928	1154.38
415.151	1157.38
415.374	1108.38
415.597	1112.38
415.821	1088.38
416.044	1121.38
416.267	1093.38
416.49	1090.38
416.713	1097.38
416.936	1109.38
417.159	1111.38
417.382	1098.38
417.605	1119.38
417.828	1109.38
418.051	1119.38
418.274	1129.38
418.497	1092.38
418.72	1171.38
418.943	1157.38
419.166	1235.38
419.389	1329.38
419.611	1235.38
419.834	1195.38
420.057	1165.38
420.28	1152.38
420.503	1112.38
420.726	1103.38
420.948	1096.38
421.171	1109.38
421.394	1102.38
421.617	1119.38
421.839	1101.38
422.062	1141.38
422.285	1122.38
422.507	1139.38
422.73	1172.38
422.953	1153.38
423.175	1179.38
423.398	1216.38
423.621	1205.38
423.843	1212.38
424.066	1222.38
424.288	1218.38
424.511	1195.38
424.733	1179.38
424.956	1167.38
425.178	1185.38
425.401	1159.38
425.623	1135.38
425.846	1078.38
426.068	1098.38
426.291	1059.38
426.513	1078.38
426.735	1047.38
426.958	1013.38
427.18	1024.38
427.402	1014.38
427.625	1027.38
427.847	1001.38
428.069	984.38
428.292	972.38
428.514	985.38
428.736	961.38
428.958	1022.38
429.181	977.38
429.403	949.38
429.625	976.38
429.847	970.38
430.069	983.38
430.292	972.38
430.514	945.38
430.736	962.38
430.958	978.38
431.18	954.38
431.402	951.38
431.624	994.38
431.846	1016.38
432.068	986.38
432.29	1027.38
432.512	977.38
432.734	995.38
432.956	1004.38
433.178	971.38
433.4	999.38
433.622	1014.38
433.844	1020.38
434.066	1003.38
434.287	1012.38
434.509	1048.38
434.731	1095.38
434.953	1106.38
435.175	1171.38
435.397	1144.38
435.618	1104.38
435.84	1043.38
436.062	1006.38
436.284	1000.38
436.505	994.38
436.727	1018.38
436.949	1002.38
437.17	965.38
437.392	968.38
437.614	981.38
437.835	970.38
438.057	935.38
438.278	920.38
438.5	940.38
438.721	974.38
438.943	981.38
439.165	972.38
439.386	960.38
439.608	999.38
439.829	994.38
440.05	1005.38
440.272	997.38
440.493	1017.38
440.715	1033.38
440.936	1036.38
441.158	1072.38
441.379	1104.38
441.6	1126.38
441.822	1166.38
442.043	1171.38
442.264	1125.38
442.486	1083.38
442.707	1123.38
442.928	1099.38
443.149	1128.38
443.371	1119.38
443.592	1112.38
443.813	1124.38
444.034	1122.38
444.255	1184.38
444.476	1242.38
444.698	1343.38
444.919	1397.38
445.14	1475.38
445.361	1307.38
445.582	1180.38
445.803	1125.38
446.024	1077.38
446.245	1055.38
446.466	1042.38
446.687	1018.38
446.908	1029.38
447.129	980.38
447.35	956.38
447.571	976.38
447.792	950.38
448.013	970.38
448.234	965.38
448.455	916.38
448.675	931.38
448.896	945.38
449.117	906.38
449.338	919.38
449.559	941.38
449.779	903.38
450	906.38
450.221	929.38
450.442	925.38
450.662	934.38
450.883	928.38
451.104	947.38
451.324	942.38
451.545	974.38
451.766	972.38
451.986	940.38
452.207	923.38
452.428	941.38
452.648	925.38
452.869	916.38
453.089	919.38
453.31	909.38
453.53	909.38
453.751	904.38
453.971	897.38
454.192	877.38
454.412	865.38
454.633	889.38
454.853	884.38
455.073	859.38
455.294	885.38
455.514	889.38
455.734	874.38
455.955	823.38
456.175	868.38
456.395	839.38
456.616	841.38
456.836	847.38
457.056	853.38
457.276	843.38
457.497	849.38
457.717	849.38
457.937	885.38
458.157	866.38
458.377	869.38
458.598	916.38
458.818	903.38
459.038	949.38
459.258	993.38
459.478	1007.38
459.698	1073.38
459.918	1067.38
460.138	1124.38
460.358	1165.38
460.578	1166.38
460.798	1211.38
461.018	1253.38
461.238	1229.38
461.458	1171.38
461.678	1182.38
461.898	1211.38
462.118	1201.38
462.338	1304.38
462.558	1307.38
462.777	1353.38
462.997	1475.38
463.217	1639.38
463.437	1681.38
463.657	1561.38
463.876	1451.38
464.096	1419.38
464.316	1395.38
464.536	1434.38
464.755	1382.38
464.975	1313.38
465.195	1263.38
465.414	1204.38
465.634	1104.38
465.854	1044.38
466.073	1031.38
466.293	1010.38
466.512	967.38
466.732	967.38
466.951	984.38
467.171	950.38
467.391	992.38
467.61	964.38
467.829	972.38
468.049	963.38
468.268	917.38
468.488	931.38
468.707	900.38
468.927	940.38
469.146	933.38
469.365	946.38
469.585	930.38
469.804	982.38
470.023	967.38
470.243	986.38
470.462	1013.38
470.681	1016.38
470.901	1016.38
471.12	994.38
471.339	983.38
471.558	974.38
471.777	931.38
471.997	945.38
472.216	935.38
472.435	899.38
472.654	906.38
472.873	874.38
473.092	895.38
473.311	903.38
473.53	886.38
473.749	895.38
473.968	870.38
474.187	879.38
474.406	879.38
474.625	888.38
474.844	898.38
475.063	879.38
475.282	906.38
475.501	890.38
475.72	901.38
475.939	920.38
476.158	938.38
476.377	922.38
476.596	908.38
476.814	921.38
477.033	934.38
477.252	957.38
477.471	965.38
477.69	976.38
477.908	1032.38
478.127	1031.38
478.346	1085.38
478.564	1058.38
478.783	1059.38
479.002	1177.38
479.22	1123.38
479.439	1125.38
479.658	1102.38
479.876	1114.38
480.095	1112.38
480.313	1169.38
480.532	1206.38
480.751	1211.38
480.969	1183.38
481.188	1113.38
481.406	1074.38
481.624	1047.38
481.843	1039.38
482.061	1037.38
482.28	1022.38
482.498	989.38
482.717	986.38
482.935	1017.38
483.153	991.38
483.372	1027.38
483.59	1011.38
483.808	997.38
484.027	1010.38
484.245	1027.38
484.463	1032.38
484.681	1063.38
484.9	1049.38
485.118	1050.38
485.336	1065.38
485.554	1043.38
485.772	1074.38
485.99	1068.38
486.209	1099.38
486.427	1061.38
486.645	1090.38
486.863	1064.38
487.081	1065.38
487.299	1063.38
487.517	1044.38
487.735	1056.38
487.953	1092.38
488.171	1060.38
488.389	1021.38
488.607	1049.38
488.825	1045.38
489.043	1013.38
489.261	1057.38
489.479	1053.38
489.696	1050.38
489.914	1031.38
490.132	1059.38
490.35	1035.38
490.568	1096.38
490.786	1053.38
491.003	1077.38
491.221	1065.38
491.439	1083.38
491.657	1057.38
491.874	1075.38
492.092	1093.38
492.31	1075.38
492.527	1106.38
492.745	1098.38
492.963	1084.38
493.18	1088.38
493.398	1085.38
493.615	1104.38
493.833	1090.38
494.05	1130.38
494.268	1135.38
494.485	1125.38
494.703	1120.38
494.92	1146.38
495.138	1121.38
495.355	1101.38
495.573	1142.38
495.79	1157.38
496.008	1138.38
496.225	1155.38
496.442	1140.38
496.66	1160.38
496.877	1194.38
497.094	1221.38
497.312	1217.38
