Data from NiCl2@0.125M.TitratingCurve.Agarose3%dH2O.NegLispCup.LampEnergy10.LIBS07252019_HRD10591_18-27-33-575.txt Node
Date: Thu Jul 25 18:27:33 EDT 2019
User: cochatt
Spectrometer: HR+D1059
Trigger mode: 1
Integration Time (sec): 1.000000E-1
Scans to average: 1
Electric dark correction enabled: true
Nonlinearity correction enabled: false
Boxcar width: 0
XAxis mode: Wavelengths
Number of Pixels in Spectrum: 2048
>>>>>Begin Spectral Data<<<<<
223.165	-13.94
223.4	-13.94
223.635	-13.94
223.869	-23.94
224.104	-22.94
224.338	2.06
224.573	-17.94
224.808	-5.94
225.042	-3.94
225.277	-13.94
225.511	-9.94
225.746	-0.94
225.98	4.06
226.215	7.06
226.449	24.06
226.683	19.06
226.918	23.06
227.152	34.06
227.387	16.06
227.621	32.06
227.856	50.06
228.09	57.06
228.324	36.06
228.559	73.06
228.793	63.06
229.027	134.06
229.262	146.06
229.496	142.06
229.73	156.06
229.964	168.06
230.199	152.06
230.433	160.06
230.667	156.06
230.901	162.06
231.136	165.06
231.37	171.06
231.604	166.06
231.838	164.06
232.072	166.06
232.306	185.06
232.541	180.06
232.775	185.06
233.009	176.06
233.243	192.06
233.477	178.06
233.711	172.06
233.945	180.06
234.179	200.06
234.413	176.06
234.647	202.06
234.881	202.06
235.115	199.06
235.349	191.06
235.583	201.06
235.817	197.06
236.051	197.06
236.285	187.06
236.519	197.06
236.753	194.06
236.987	195.06
237.221	203.06
237.455	194.06
237.689	200.06
237.922	205.06
238.156	201.06
238.39	233.06
238.624	204.06
238.858	219.06
239.091	223.06
239.325	221.06
239.559	227.06
239.793	240.06
240.027	217.06
240.26	240.06
240.494	252.06
240.728	232.06
240.961	226.06
241.195	244.06
241.429	252.06
241.662	256.06
241.896	245.06
242.13	256.06
242.363	266.06
242.597	278.06
242.83	265.06
243.064	250.06
243.298	297.06
243.531	280.06
243.765	288.06
243.998	284.06
244.232	276.06
244.465	266.06
244.699	280.06
244.932	287.06
245.166	283.06
245.399	297.06
245.633	280.06
245.866	283.06
246.099	291.06
246.333	309.06
246.566	299.06
246.8	292.06
247.033	297.06
247.266	301.06
247.5	297.06
247.733	299.06
247.966	325.06
248.2	322.06
248.433	332.06
248.666	325.06
248.899	308.06
249.133	332.06
249.366	336.06
249.599	317.06
249.832	333.06
250.066	344.06
250.299	354.06
250.532	333.06
250.765	339.06
250.998	348.06
251.231	350.06
251.465	349.06
251.698	359.06
251.931	357.06
252.164	364.06
252.397	355.06
252.63	370.06
252.863	370.06
253.096	361.06
253.329	380.06
253.562	381.06
253.795	385.06
254.028	363.06
254.261	384.06
254.494	372.06
254.727	374.06
254.96	365.06
255.193	371.06
255.426	400.06
255.659	364.06
255.892	394.06
256.124	394.06
256.357	402.06
256.59	406.06
256.823	397.06
257.056	391.06
257.289	384.06
257.521	398.06
257.754	412.06
257.987	398.06
258.22	413.06
258.452	396.06
258.685	420.06
258.918	408.06
259.151	417.06
259.383	423.06
259.616	418.06
259.849	421.06
260.081	433.06
260.314	421.06
260.547	442.06
260.779	407.06
261.012	429.06
261.244	442.06
261.477	429.06
261.71	432.06
261.942	460.06
262.175	436.06
262.407	451.06
262.64	454.06
262.872	436.06
263.105	463.06
263.337	452.06
263.57	450.06
263.802	462.06
264.035	460.06
264.267	480.06
264.499	490.06
264.732	502.06
264.964	469.06
265.197	486.06
265.429	476.06
265.661	465.06
265.894	477.06
266.126	488.06
266.358	493.06
266.591	484.06
266.823	470.06
267.055	471.06
267.287	481.06
267.52	501.06
267.752	501.06
267.984	502.06
268.216	483.06
268.448	526.06
268.681	516.06
268.913	513.06
269.145	513.06
269.377	499.06
269.609	487.06
269.841	538.06
270.073	524.06
270.306	502.06
270.538	519.06
270.77	526.06
271.002	512.06
271.234	541.06
271.466	559.06
271.698	520.06
271.93	536.06
272.162	530.06
272.394	534.06
272.626	529.06
272.858	561.06
273.09	553.06
273.322	555.06
273.553	577.06
273.785	581.06
274.017	569.06
274.249	558.06
274.481	571.06
274.713	581.06
274.945	579.06
275.176	597.06
275.408	571.06
275.64	572.06
275.872	597.06
276.104	593.06
276.335	586.06
276.567	584.06
276.799	611.06
277.031	590.06
277.262	601.06
277.494	612.06
277.726	570.06
277.957	568.06
278.189	604.06
278.421	602.06
278.652	602.06
278.884	633.06
279.115	615.06
279.347	622.06
279.579	630.06
279.81	638.06
280.042	608.06
280.273	640.06
280.505	642.06
280.736	638.06
280.968	620.06
281.199	656.06
281.431	630.06
281.662	645.06
281.894	640.06
282.125	645.06
282.356	666.06
282.588	654.06
282.819	653.06
283.051	665.06
283.282	654.06
283.513	661.06
283.745	663.06
283.976	644.06
284.207	683.06
284.439	676.06
284.67	671.06
284.901	698.06
285.132	679.06
285.364	665.06
285.595	696.06
285.826	703.06
286.057	707.06
286.288	693.06
286.52	705.06
286.751	710.06
286.982	712.06
287.213	724.06
287.444	728.06
287.675	714.06
287.906	726.06
288.138	722.06
288.369	736.06
288.6	748.06
288.831	720.06
289.062	732.06
289.293	709.06
289.524	739.06
289.755	750.06
289.986	722.06
290.217	717.06
290.448	733.06
290.679	728.06
290.91	745.06
291.141	739.06
291.371	723.06
291.602	764.06
291.833	760.06
292.064	729.06
292.295	745.06
292.526	757.06
292.757	734.06
292.987	734.06
293.218	743.06
293.449	737.06
293.68	756.06
293.91	756.06
294.141	744.06
294.372	759.06
294.603	760.06
294.833	756.06
295.064	742.06
295.295	755.06
295.525	764.06
295.756	769.06
295.987	753.06
296.217	756.06
296.448	786.06
296.679	806.06
296.909	768.06
297.14	778.06
297.37	772.06
297.601	808.06
297.831	797.06
298.062	807.06
298.292	818.06
298.523	833.06
298.753	808.06
298.984	797.06
299.214	808.06
299.445	814.06
299.675	816.06
299.905	820.06
300.136	809.06
300.366	811.06
300.597	804.06
300.827	853.06
301.057	860.06
301.288	862.06
301.518	881.06
301.748	861.06
301.979	875.06
302.209	860.06
302.439	850.06
302.669	844.06
302.9	826.06
303.13	820.06
303.36	837.06
303.59	820.06
303.82	825.06
304.051	831.06
304.281	865.06
304.511	837.06
304.741	837.06
304.971	824.06
305.201	837.06
305.431	818.06
305.661	846.06
305.891	842.06
306.121	806.06
306.352	818.06
306.582	828.06
306.812	815.06
307.042	827.06
307.272	827.06
307.502	814.06
307.731	820.06
307.961	827.06
308.191	811.06
308.421	803.06
308.651	814.06
308.881	829.06
309.111	811.06
309.341	833.06
309.571	845.06
309.8	856.06
310.03	823.06
310.26	804.06
310.49	821.06
310.72	853.06
310.949	835.06
311.179	854.06
311.409	835.06
311.639	832.06
311.868	853.06
312.098	863.06
312.328	895.06
312.557	866.06
312.787	883.06
313.017	860.06
313.246	893.06
313.476	877.06
313.706	888.06
313.935	883.06
314.165	921.06
314.394	896.06
314.624	900.06
314.853	882.06
315.083	902.06
315.312	890.06
315.542	890.06
315.771	880.06
316.001	890.06
316.23	858.06
316.46	846.06
316.689	867.06
316.919	880.06
317.148	874.06
317.377	899.06
317.607	870.06
317.836	880.06
318.065	870.06
318.295	898.06
318.524	866.06
318.753	883.06
318.983	855.06
319.212	865.06
319.441	900.06
319.67	850.06
319.9	838.06
320.129	891.06
320.358	898.06
320.587	854.06
320.816	880.06
321.046	885.06
321.275	880.06
321.504	881.06
321.733	908.06
321.962	898.06
322.191	874.06
322.42	867.06
322.649	868.06
322.878	874.06
323.108	869.06
323.337	918.06
323.566	873.06
323.795	891.06
324.024	889.06
324.253	919.06
324.482	906.06
324.71	893.06
324.939	930.06
325.168	926.06
325.397	949.06
325.626	952.06
325.855	946.06
326.084	960.06
326.313	966.06
326.542	970.06
326.77	965.06
326.999	944.06
327.228	922.06
327.457	962.06
327.686	926.06
327.914	940.06
328.143	981.06
328.372	979.06
328.6	964.06
328.829	944.06
329.058	965.06
329.287	974.06
329.515	980.06
329.744	957.06
329.972	962.06
330.201	972.06
330.43	969.06
330.658	971.06
330.887	1009.06
331.115	1004.06
331.344	1009.06
331.572	1024.06
331.801	1072.06
332.03	1092.06
332.258	1083.06
332.486	1140.06
332.715	1138.06
332.943	1210.06
333.172	1269.06
333.4	1349.06
333.629	1346.06
333.857	1336.06
334.085	1304.06
334.314	1325.06
334.542	1294.06
334.771	1239.06
334.999	1208.06
335.227	1242.06
335.455	1221.06
335.684	1195.06
335.912	1198.06
336.14	1159.06
336.369	1153.06
336.597	1189.06
336.825	1153.06
337.053	1160.06
337.281	1120.06
337.51	1092.06
337.738	1097.06
337.966	1068.06
338.194	1084.06
338.422	1064.06
338.65	1063.06
338.878	1027.06
339.106	1046.06
339.334	1101.06
339.562	1043.06
339.79	1033.06
340.018	1008.06
340.246	998.06
340.474	994.06
340.702	1018.06
340.93	1021.06
341.158	1008.06
341.386	1018.06
341.614	996.06
341.842	997.06
342.07	1012.06
342.298	1024.06
342.526	985.06
342.754	1020.06
342.981	1005.06
343.209	1013.06
343.437	1078.06
343.665	1133.06
343.893	1223.06
344.12	1290.06
344.348	1210.06
344.576	1126.06
344.804	1072.06
345.031	1048.06
345.259	1022.06
345.487	992.06
345.714	984.06
345.942	961.06
346.17	992.06
346.397	972.06
346.625	966.06
346.853	947.06
347.08	955.06
347.308	955.06
347.535	971.06
347.763	982.06
347.99	963.06
348.218	964.06
348.445	962.06
348.673	956.06
348.9	949.06
349.128	932.06
349.355	930.06
349.583	973.06
349.81	978.06
350.037	954.06
350.265	901.06
350.492	930.06
350.72	916.06
350.947	936.06
351.174	946.06
351.402	922.06
351.629	892.06
351.856	914.06
352.083	909.06
352.311	939.06
352.538	917.06
352.765	941.06
352.992	907.06
353.22	906.06
353.447	914.06
353.674	932.06
353.901	924.06
354.128	927.06
354.355	891.06
354.583	909.06
354.81	937.06
355.037	932.06
355.264	929.06
355.491	939.06
355.718	949.06
355.945	917.06
356.172	955.06
356.399	931.06
356.626	936.06
356.853	935.06
357.08	932.06
357.307	940.06
357.534	925.06
357.761	932.06
357.988	932.06
358.215	933.06
358.441	928.06
358.668	915.06
358.895	946.06
359.122	932.06
359.349	902.06
359.576	929.06
359.802	923.06
360.029	919.06
360.256	952.06
360.483	954.06
360.709	927.06
360.936	925.06
361.163	915.06
361.39	941.06
361.616	881.06
361.843	936.06
362.07	937.06
362.296	926.06
362.523	948.06
362.749	939.06
362.976	921.06
363.203	912.06
363.429	922.06
363.656	914.06
363.882	938.06
364.109	938.06
364.335	919.06
364.562	909.06
364.788	933.06
365.015	937.06
365.241	909.06
365.468	921.06
365.694	924.06
365.92	918.06
366.147	937.06
366.373	945.06
366.599	907.06
366.826	930.06
367.052	908.06
367.278	926.06
367.505	939.06
367.731	952.06
367.957	918.06
368.184	949.06
368.41	934.06
368.636	917.06
368.862	944.06
369.089	975.06
369.315	970.06
369.541	940.06
369.767	962.06
369.993	941.06
370.219	979.06
370.445	988.06
370.672	1010.06
370.898	993.06
371.124	1011.06
371.35	1012.06
371.576	1026.06
371.802	999.06
372.028	1005.06
372.254	1035.06
372.48	1026.06
372.706	1042.06
372.932	1070.06
373.158	1066.06
373.384	1031.06
373.61	1015.06
373.835	1020.06
374.061	1025.06
374.287	1022.06
374.513	1034.06
374.739	1074.06
374.965	1145.06
375.191	1156.06
375.416	1128.06
375.642	1101.06
375.868	1086.06
376.094	1063.06
376.319	1052.06
376.545	1033.06
376.771	1024.06
376.997	1017.06
377.222	1012.06
377.448	1019.06
377.674	1018.06
377.899	1034.06
378.125	983.06
378.35	987.06
378.576	1003.06
378.802	997.06
379.027	969.06
379.253	976.06
379.478	1024.06
379.704	987.06
379.929	1026.06
380.155	999.06
380.38	991.06
380.606	990.06
380.831	974.06
381.057	1005.06
381.282	1016.06
381.507	1012.06
381.733	1049.06
381.958	1049.06
382.184	1029.06
382.409	1051.06
382.634	1068.06
382.86	1074.06
383.085	1071.06
383.31	1082.06
383.535	1115.06
383.761	1118.06
383.986	1149.06
384.211	1192.06
384.436	1197.06
384.662	1223.06
384.887	1242.06
385.112	1211.06
385.337	1244.06
385.562	1229.06
385.787	1252.06
386.013	1260.06
386.238	1268.06
386.463	1248.06
386.688	1233.06
386.913	1242.06
387.138	1198.06
387.363	1226.06
387.588	1197.06
387.813	1218.06
388.038	1229.06
388.263	1212.06
388.488	1225.06
388.713	1242.06
388.938	1226.06
389.163	1161.06
389.387	1186.06
389.612	1188.06
389.837	1205.06
390.062	1195.06
390.287	1228.06
390.512	1196.06
390.736	1225.06
390.961	1264.06
391.186	1266.06
391.411	1320.06
391.636	1332.06
391.86	1408.06
392.085	1446.06
392.31	1426.06
392.534	1358.06
392.759	1326.06
392.984	1284.06
393.208	1301.06
393.433	1315.06
393.658	1306.06
393.882	1308.06
394.107	1319.06
394.331	1329.06
394.556	1361.06
394.78	1347.06
395.005	1316.06
395.229	1332.06
395.454	1379.06
395.678	1413.06
395.903	1430.06
396.127	1391.06
396.352	1310.06
396.576	1286.06
396.801	1291.06
397.025	1344.06
397.249	1381.06
397.474	1369.06
397.698	1364.06
397.922	1391.06
398.147	1421.06
398.371	1445.06
398.595	1451.06
398.82	1541.06
399.044	1676.06
399.268	1844.06
399.492	2231.06
399.717	2533.06
399.941	2485.06
400.165	2128.06
400.389	1908.06
400.613	1760.06
400.837	1640.06
401.062	1609.06
401.286	1585.06
401.51	1588.06
401.734	1542.06
401.958	1576.06
402.182	1600.06
402.406	1611.06
402.63	1629.06
402.854	1653.06
403.078	1703.06
403.302	1712.06
403.526	1833.06
403.75	1887.06
403.974	1874.06
404.198	1876.06
404.422	1864.06
404.645	1876.06
404.869	1801.06
405.093	1804.06
405.317	1794.06
405.541	1758.06
405.765	1726.06
405.988	1701.06
406.212	1706.06
406.436	1729.06
406.66	1758.06
406.883	1801.06
407.107	1927.06
407.331	1986.06
407.555	2052.06
407.778	2033.06
408.002	1947.06
408.226	1898.06
408.449	1921.06
408.673	1807.06
408.896	1776.06
409.12	1723.06
409.344	1752.06
409.567	1764.06
409.791	1754.06
410.014	1776.06
410.238	1703.06
410.461	1736.06
410.685	1754.06
410.908	1629.06
411.132	1639.06
411.355	1605.06
411.578	1589.06
411.802	1615.06
412.025	1655.06
412.249	1667.06
412.472	1617.06
412.695	1606.06
412.919	1564.06
413.142	1565.06
413.365	1529.06
413.589	1553.06
413.812	1529.06
414.035	1517.06
414.258	1576.06
414.482	1544.06
414.705	1557.06
414.928	1636.06
415.151	1595.06
415.374	1581.06
415.597	1563.06
415.821	1480.06
416.044	1513.06
416.267	1528.06
416.49	1514.06
416.713	1479.06
416.936	1530.06
417.159	1510.06
417.382	1502.06
417.605	1525.06
417.828	1554.06
418.051	1584.06
418.274	1570.06
418.497	1561.06
418.72	1585.06
418.943	1579.06
419.166	1677.06
419.389	1806.06
419.611	1734.06
419.834	1688.06
420.057	1632.06
420.28	1584.06
420.503	1543.06
420.726	1521.06
420.948	1540.06
421.171	1523.06
421.394	1499.06
421.617	1512.06
421.839	1534.06
422.062	1557.06
422.285	1526.06
422.507	1580.06
422.73	1594.06
422.953	1643.06
423.175	1610.06
423.398	1646.06
423.621	1656.06
423.843	1686.06
424.066	1685.06
424.288	1632.06
424.511	1658.06
424.733	1612.06
424.956	1584.06
425.178	1570.06
425.401	1544.06
425.623	1533.06
425.846	1505.06
426.068	1523.06
426.291	1452.06
426.513	1444.06
426.735	1417.06
426.958	1437.06
427.18	1376.06
427.402	1402.06
427.625	1440.06
427.847	1368.06
428.069	1325.06
428.292	1378.06
428.514	1343.06
428.736	1331.06
428.958	1359.06
429.181	1346.06
429.403	1308.06
429.625	1307.06
429.847	1307.06
430.069	1331.06
430.292	1323.06
430.514	1309.06
430.736	1325.06
430.958	1318.06
431.18	1305.06
431.402	1328.06
431.624	1334.06
431.846	1339.06
432.068	1378.06
432.29	1383.06
432.512	1349.06
432.734	1352.06
432.956	1352.06
433.178	1358.06
433.4	1345.06
433.622	1346.06
433.844	1405.06
434.066	1364.06
434.287	1364.06
434.509	1451.06
434.731	1482.06
434.953	1538.06
435.175	1509.06
435.397	1577.06
435.618	1430.06
435.84	1430.06
436.062	1368.06
436.284	1347.06
436.505	1332.06
436.727	1348.06
436.949	1390.06
437.17	1332.06
437.392	1318.06
437.614	1306.06
437.835	1284.06
438.057	1300.06
438.278	1277.06
438.5	1311.06
438.721	1292.06
438.943	1309.06
439.165	1261.06
439.386	1286.06
439.608	1335.06
439.829	1354.06
440.05	1345.06
440.272	1369.06
440.493	1366.06
440.715	1397.06
440.936	1398.06
441.158	1404.06
441.379	1448.06
441.6	1530.06
441.822	1555.06
442.043	1571.06
442.264	1519.06
442.486	1535.06
442.707	1538.06
442.928	1490.06
443.149	1513.06
443.371	1509.06
443.592	1512.06
443.813	1540.06
444.034	1600.06
444.255	1603.06
444.476	1718.06
444.698	1834.06
444.919	1914.06
445.14	1955.06
445.361	1751.06
445.582	1570.06
445.803	1514.06
446.024	1486.06
446.245	1441.06
446.466	1383.06
446.687	1338.06
446.908	1414.06
447.129	1309.06
447.35	1317.06
447.571	1325.06
447.792	1276.06
448.013	1266.06
448.234	1266.06
448.455	1273.06
448.675	1234.06
448.896	1214.06
449.117	1222.06
449.338	1225.06
449.559	1202.06
449.779	1194.06
450	1217.06
450.221	1228.06
450.442	1242.06
450.662	1229.06
450.883	1254.06
451.104	1233.06
451.324	1214.06
451.545	1239.06
451.766	1257.06
451.986	1235.06
452.207	1240.06
452.428	1231.06
452.648	1233.06
452.869	1173.06
453.089	1184.06
453.31	1232.06
453.53	1188.06
453.751	1197.06
453.971	1204.06
454.192	1176.06
454.412	1167.06
454.633	1133.06
454.853	1170.06
455.073	1141.06
455.294	1167.06
455.514	1150.06
455.734	1135.06
455.955	1133.06
456.175	1141.06
456.395	1154.06
456.616	1131.06
456.836	1110.06
457.056	1122.06
457.276	1096.06
457.497	1178.06
457.717	1130.06
457.937	1139.06
458.157	1178.06
458.377	1176.06
458.598	1196.06
458.818	1230.06
459.038	1280.06
459.258	1347.06
459.478	1383.06
459.698	1385.06
459.918	1417.06
460.138	1506.06
460.358	1606.06
460.578	1618.06
460.798	1622.06
461.018	1617.06
461.238	1600.06
461.458	1614.06
461.678	1611.06
461.898	1634.06
462.118	1643.06
462.338	1700.06
462.558	1752.06
462.777	1820.06
462.997	2011.06
463.217	2254.06
463.437	2244.06
463.657	1947.06
463.876	1942.06
464.096	1873.06
464.316	1897.06
464.536	1873.06
464.755	1817.06
464.975	1756.06
465.195	1648.06
465.414	1592.06
465.634	1438.06
465.854	1432.06
466.073	1401.06
466.293	1323.06
466.512	1328.06
466.732	1292.06
466.951	1265.06
467.171	1266.06
467.391	1294.06
467.61	1264.06
467.829	1272.06
468.049	1276.06
468.268	1221.06
468.488	1232.06
468.707	1226.06
468.927	1218.06
469.146	1237.06
469.365	1259.06
469.585	1246.06
469.804	1288.06
470.023	1318.06
470.243	1333.06
470.462	1330.06
470.681	1350.06
470.901	1308.06
471.12	1321.06
471.339	1282.06
471.558	1242.06
471.777	1228.06
471.997	1246.06
472.216	1221.06
472.435	1204.06
472.654	1196.06
472.873	1188.06
473.092	1186.06
473.311	1184.06
473.53	1186.06
473.749	1173.06
473.968	1179.06
474.187	1203.06
474.406	1169.06
474.625	1170.06
474.844	1198.06
475.063	1184.06
475.282	1170.06
475.501	1189.06
475.72	1207.06
475.939	1197.06
476.158	1230.06
476.377	1224.06
476.596	1215.06
476.814	1236.06
477.033	1250.06
477.252	1275.06
477.471	1312.06
477.69	1330.06
477.908	1403.06
478.127	1396.06
478.346	1445.06
478.564	1464.06
478.783	1443.06
479.002	1540.06
479.22	1517.06
479.439	1494.06
479.658	1475.06
479.876	1477.06
480.095	1509.06
480.313	1621.06
480.532	1641.06
480.751	1610.06
480.969	1547.06
481.188	1487.06
481.406	1452.06
481.624	1391.06
481.843	1400.06
482.061	1350.06
482.28	1335.06
482.498	1359.06
482.717	1352.06
482.935	1346.06
483.153	1352.06
483.372	1365.06
483.59	1318.06
483.808	1388.06
484.027	1354.06
484.245	1373.06
484.463	1346.06
484.681	1383.06
484.9	1386.06
485.118	1377.06
485.336	1394.06
485.554	1410.06
485.772	1413.06
485.99	1409.06
486.209	1402.06
486.427	1404.06
486.645	1449.06
486.863	1398.06
487.081	1440.06
487.299	1432.06
487.517	1405.06
487.735	1427.06
487.953	1427.06
488.171	1436.06
488.389	1400.06
488.607	1395.06
488.825	1376.06
489.043	1388.06
489.261	1409.06
489.479	1405.06
489.696	1396.06
489.914	1415.06
490.132	1408.06
490.35	1424.06
490.568	1426.06
490.786	1397.06
491.003	1435.06
491.221	1429.06
491.439	1429.06
491.657	1429.06
491.874	1436.06
492.092	1430.06
492.31	1442.06
492.527	1478.06
492.745	1441.06
492.963	1438.06
493.18	1472.06
493.398	1472.06
