Data from SnStandardFlinnAPT0064_QswitchEnergy10_LIBS07252019.E.O._I.C._HRD10591_15-25-51-972.txt Node
Date: Thu Jul 25 15:25:51 EDT 2019
User: cochatt
Spectrometer: HR+D1059
Trigger mode: 1
Integration Time (sec): 1.000000E-1
Scans to average: 1
Electric dark correction enabled: true
Nonlinearity correction enabled: false
Boxcar width: 0
XAxis mode: Wavelengths
Number of Pixels in Spectrum: 2048
>>>>>Begin Spectral Data<<<<<
223.165	-23.44
223.4	-23.44
223.635	-23.44
223.869	-19.44
224.104	-18.44
224.338	-21.44
224.573	-6.44
224.808	-2.44
225.042	-14.44
225.277	-3.44
225.511	-6.44
225.746	1.56
225.98	7.56
226.215	23.56
226.449	15.56
226.683	17.56
226.918	24.56
227.152	25.56
227.387	38.56
227.621	32.56
227.856	41.56
228.09	53.56
228.324	49.56
228.559	37.56
228.793	56.56
229.027	72.56
229.262	67.56
229.496	57.56
229.73	60.56
229.964	72.56
230.199	75.56
230.433	86.56
230.667	77.56
230.901	74.56
231.136	80.56
231.37	79.56
231.604	80.56
231.838	93.56
232.072	120.56
232.306	115.56
232.541	78.56
232.775	87.56
233.009	71.56
233.243	78.56
233.477	72.56
233.711	97.56
233.945	101.56
234.179	96.56
234.413	75.56
234.647	87.56
234.881	80.56
235.115	72.56
235.349	86.56
235.583	114.56
235.817	113.56
236.051	126.56
236.285	86.56
236.519	80.56
236.753	77.56
236.987	79.56
237.221	81.56
237.455	83.56
237.689	71.56
237.922	83.56
238.156	75.56
238.39	59.56
238.624	73.56
238.858	84.56
239.091	79.56
239.325	64.56
239.559	78.56
239.793	73.56
240.027	70.56
240.26	79.56
240.494	80.56
240.728	73.56
240.961	85.56
241.195	93.56
241.429	98.56
241.662	84.56
241.896	84.56
242.13	90.56
242.363	118.56
242.597	153.56
242.83	121.56
243.064	136.56
243.298	164.56
243.531	140.56
243.765	108.56
243.998	84.56
244.232	80.56
244.465	86.56
244.699	72.56
244.932	74.56
245.166	79.56
245.399	87.56
245.633	88.56
245.866	95.56
246.099	73.56
246.333	85.56
246.566	77.56
246.8	69.56
247.033	72.56
247.266	77.56
247.5	78.56
247.733	85.56
247.966	85.56
248.2	86.56
248.433	99.56
248.666	118.56
248.899	96.56
249.133	88.56
249.366	86.56
249.599	107.56
249.832	104.56
250.066	114.56
250.299	88.56
250.532	89.56
250.765	76.56
250.998	88.56
251.231	72.56
251.465	72.56
251.698	72.56
251.931	74.56
252.164	75.56
252.397	82.56
252.63	84.56
252.863	87.56
253.096	97.56
253.329	86.56
253.562	102.56
253.795	93.56
254.028	69.56
254.261	96.56
254.494	83.56
254.727	111.56
254.96	157.56
255.193	122.56
255.426	92.56
255.659	82.56
255.892	83.56
256.124	65.56
256.357	76.56
256.59	78.56
256.823	83.56
257.056	94.56
257.289	141.56
257.521	176.56
257.754	115.56
257.987	88.56
258.22	95.56
258.452	72.56
258.685	66.56
258.918	71.56
259.151	74.56
259.383	104.56
259.616	123.56
259.849	148.56
260.081	101.56
260.314	82.56
260.547	74.56
260.779	76.56
261.012	88.56
261.244	73.56
261.477	93.56
261.71	75.56
261.942	77.56
262.175	72.56
262.407	76.56
262.64	73.56
262.872	73.56
263.105	83.56
263.337	89.56
263.57	78.56
263.802	70.56
264.035	74.56
264.267	87.56
264.499	78.56
264.732	77.56
264.964	61.56
265.197	78.56
265.429	81.56
265.661	92.56
265.894	83.56
266.126	124.56
266.358	150.56
266.591	129.56
266.823	90.56
267.055	92.56
267.287	74.56
267.52	91.56
267.752	88.56
267.984	83.56
268.216	85.56
268.448	91.56
268.681	78.56
268.913	85.56
269.145	73.56
269.377	83.56
269.609	82.56
269.841	102.56
270.073	94.56
270.306	118.56
270.538	188.56
270.77	293.56
271.002	324.56
271.234	195.56
271.466	86.56
271.698	83.56
271.93	92.56
272.162	95.56
272.394	77.56
272.626	86.56
272.858	90.56
273.09	102.56
273.322	79.56
273.553	72.56
273.785	73.56
274.017	79.56
274.249	81.56
274.481	81.56
274.713	81.56
274.945	84.56
275.176	87.56
275.408	87.56
275.64	103.56
275.872	78.56
276.104	92.56
276.335	87.56
276.567	99.56
276.799	94.56
277.031	92.56
277.262	97.56
277.494	113.56
277.726	111.56
277.957	144.56
278.189	229.56
278.421	226.56
278.652	170.56
278.884	174.56
279.115	136.56
279.347	120.56
279.579	93.56
279.81	89.56
280.042	101.56
280.273	78.56
280.505	97.56
280.736	105.56
280.968	115.56
281.199	165.56
281.431	214.56
281.662	247.56
281.894	158.56
282.125	110.56
282.356	110.56
282.588	102.56
282.819	85.56
283.051	102.56
283.282	127.56
283.513	179.56
283.745	297.56
283.976	490.56
284.207	737.56
284.439	574.56
284.67	255.56
284.901	240.56
285.132	337.56
285.364	375.56
285.595	215.56
285.826	158.56
286.057	237.56
286.288	387.56
286.52	568.56
286.751	461.56
286.982	205.56
287.213	118.56
287.444	110.56
287.675	105.56
287.906	94.56
288.138	76.56
288.369	104.56
288.6	85.56
288.831	105.56
289.062	89.56
289.293	93.56
289.524	85.56
289.755	88.56
289.986	81.56
290.217	103.56
290.448	87.56
290.679	94.56
290.91	115.56
291.141	150.56
291.371	198.56
291.602	263.56
291.833	199.56
292.064	112.56
292.295	102.56
292.526	86.56
292.757	76.56
292.987	82.56
293.218	85.56
293.449	94.56
293.68	93.56
293.91	80.56
294.141	84.56
294.372	102.56
294.603	92.56
294.833	83.56
295.064	80.56
295.295	92.56
295.525	84.56
295.756	88.56
295.987	92.56
296.217	108.56
296.448	97.56
296.679	103.56
296.909	83.56
297.14	100.56
297.37	93.56
297.601	92.56
297.831	84.56
298.062	89.56
298.292	92.56
298.523	100.56
298.753	102.56
298.984	106.56
299.214	100.56
299.445	105.56
299.675	102.56
299.905	105.56
300.136	118.56
300.366	145.56
300.597	253.56
300.827	402.56
301.057	630.56
301.288	574.56
301.518	216.56
301.748	144.56
301.979	116.56
302.209	119.56
302.439	118.56
302.669	146.56
302.9	256.56
303.13	460.56
303.36	830.56
303.59	1116.56
303.82	792.56
304.051	270.56
304.281	153.56
304.511	123.56
304.741	119.56
304.971	101.56
305.201	104.56
305.431	106.56
305.661	114.56
305.891	105.56
306.121	108.56
306.352	90.56
306.582	105.56
306.812	109.56
307.042	108.56
307.272	99.56
307.502	110.56
307.731	104.56
307.961	102.56
308.191	109.56
308.421	112.56
308.651	96.56
308.881	92.56
309.111	101.56
309.341	101.56
309.571	116.56
309.8	107.56
310.03	104.56
310.26	107.56
310.49	104.56
310.72	105.56
310.949	105.56
311.179	96.56
311.409	94.56
311.639	97.56
311.868	91.56
312.098	108.56
312.328	122.56
312.557	105.56
312.787	90.56
313.017	112.56
313.246	98.56
313.476	98.56
313.706	127.56
313.935	139.56
314.165	187.56
314.394	221.56
314.624	176.56
314.853	134.56
315.083	112.56
315.312	123.56
315.542	125.56
315.771	124.56
316.001	129.56
316.23	125.56
316.46	144.56
316.689	154.56
316.919	221.56
317.148	457.56
317.377	818.56
317.607	1330.56
317.836	1246.56
318.065	464.56
318.295	211.56
318.524	148.56
318.753	131.56
318.983	110.56
319.212	110.56
319.441	113.56
319.67	101.56
319.9	106.56
320.129	118.56
320.358	106.56
320.587	113.56
320.816	117.56
321.046	122.56
321.275	116.56
321.504	132.56
321.733	124.56
321.962	144.56
322.191	142.56
322.42	128.56
322.649	119.56
322.878	120.56
323.108	106.56
323.337	126.56
323.566	127.56
323.795	133.56
324.024	137.56
324.253	128.56
324.482	169.56
324.71	238.56
324.939	252.56
325.168	217.56
325.397	181.56
325.626	229.56
325.855	452.56
326.084	862.56
326.313	1462.56
326.542	1444.56
326.77	579.56
326.999	240.56
327.228	193.56
327.457	223.56
327.686	205.56
327.914	168.56
328.143	126.56
328.372	112.56
328.6	132.56
328.829	119.56
329.058	113.56
329.287	105.56
329.515	116.56
329.744	128.56
329.972	114.56
330.201	117.56
330.43	113.56
330.658	112.56
330.887	103.56
331.115	118.56
331.344	93.56
331.572	124.56
331.801	95.56
332.03	106.56
332.258	126.56
332.486	160.56
332.715	277.56
332.943	461.56
333.172	704.56
333.4	615.56
333.629	240.56
333.857	134.56
334.085	118.56
334.314	115.56
334.542	127.56
334.771	113.56
334.999	126.56
335.227	119.56
335.455	112.56
335.684	122.56
335.912	119.56
336.14	96.56
336.369	110.56
336.597	120.56
336.825	106.56
337.053	110.56
337.281	116.56
337.51	114.56
337.738	95.56
337.966	103.56
338.194	99.56
338.422	101.56
338.65	105.56
338.878	111.56
339.106	118.56
339.334	118.56
339.562	92.56
339.79	111.56
340.018	107.56
340.246	116.56
340.474	116.56
340.702	102.56
340.93	91.56
341.158	112.56
341.386	118.56
341.614	112.56
341.842	100.56
342.07	103.56
342.298	121.56
342.526	113.56
342.754	112.56
342.981	109.56
343.209	106.56
343.437	110.56
343.665	111.56
343.893	100.56
344.12	105.56
344.348	110.56
344.576	113.56
344.804	111.56
345.031	111.56
345.259	99.56
345.487	114.56
345.714	100.56
345.942	103.56
346.17	103.56
346.397	105.56
346.625	104.56
346.853	100.56
347.08	107.56
347.308	98.56
347.535	111.56
347.763	95.56
347.99	93.56
348.218	105.56
348.445	114.56
348.673	109.56
348.9	113.56
349.128	113.56
349.355	91.56
349.583	103.56
349.81	82.56
350.037	98.56
350.265	110.56
350.492	108.56
350.72	110.56
350.947	111.56
351.174	108.56
351.402	92.56
351.629	114.56
351.856	111.56
352.083	91.56
352.311	103.56
352.538	118.56
352.765	97.56
352.992	103.56
353.22	97.56
353.447	96.56
353.674	97.56
353.901	84.56
354.128	95.56
354.355	94.56
354.583	103.56
354.81	92.56
355.037	103.56
355.264	98.56
355.491	95.56
355.718	96.56
355.945	116.56
356.172	89.56
356.399	103.56
356.626	99.56
356.853	101.56
357.08	101.56
357.307	104.56
357.534	111.56
357.761	104.56
357.988	100.56
358.215	101.56
358.441	102.56
358.668	110.56
358.895	108.56
359.122	116.56
359.349	109.56
359.576	96.56
359.802	117.56
360.029	92.56
360.256	100.56
360.483	98.56
360.709	98.56
360.936	111.56
361.163	110.56
361.39	107.56
361.616	116.56
361.843	101.56
362.07	108.56
362.296	98.56
362.523	106.56
362.749	112.56
362.976	102.56
363.203	96.56
363.429	104.56
363.656	104.56
363.882	86.56
364.109	109.56
364.335	106.56
364.562	97.56
364.788	105.56
365.015	108.56
365.241	130.56
365.468	184.56
365.694	245.56
365.92	196.56
366.147	119.56
366.373	102.56
366.599	106.56
366.826	92.56
367.052	89.56
367.278	91.56
367.505	112.56
367.731	104.56
367.957	101.56
368.184	98.56
368.41	117.56
368.636	122.56
368.862	98.56
369.089	94.56
369.315	100.56
369.541	106.56
369.767	100.56
369.993	96.56
370.219	107.56
370.445	103.56
370.672	114.56
370.898	101.56
371.124	98.56
371.35	93.56
371.576	105.56
371.802	114.56
372.028	100.56
372.254	120.56
372.48	114.56
372.706	95.56
372.932	114.56
373.158	123.56
373.384	124.56
373.61	116.56
373.835	114.56
374.061	99.56
374.287	104.56
374.513	90.56
374.739	93.56
374.965	103.56
375.191	90.56
375.416	99.56
375.642	102.56
375.868	87.56
376.094	83.56
376.319	100.56
376.545	108.56
376.771	94.56
376.997	92.56
377.222	101.56
377.448	112.56
377.674	109.56
377.899	101.56
378.125	93.56
378.35	97.56
378.576	117.56
378.802	110.56
379.027	118.56
379.253	131.56
379.478	174.56
379.704	285.56
379.929	691.56
380.155	1449.56
380.38	1500.56
380.606	498.56
380.831	183.56
381.057	138.56
381.282	117.56
381.507	82.56
381.733	106.56
381.958	103.56
382.184	87.56
382.409	100.56
382.634	103.56
382.86	110.56
383.085	92.56
383.31	114.56
383.535	97.56
383.761	106.56
383.986	114.56
384.211	105.56
384.436	110.56
384.662	106.56
384.887	88.56
385.112	81.56
385.337	104.56
385.562	96.56
385.787	110.56
386.013	116.56
386.238	102.56
386.463	101.56
386.688	101.56
386.913	97.56
387.138	99.56
387.363	100.56
387.588	103.56
387.813	110.56
388.038	96.56
388.263	92.56
388.488	98.56
388.713	103.56
388.938	94.56
389.163	80.56
389.387	98.56
389.612	88.56
389.837	98.56
390.062	109.56
390.287	99.56
390.512	92.56
390.736	97.56
390.961	98.56
391.186	99.56
391.411	78.56
391.636	96.56
391.86	103.56
392.085	102.56
392.31	99.56
392.534	103.56
392.759	99.56
392.984	111.56
393.208	107.56
393.433	133.56
393.658	140.56
393.882	99.56
394.107	90.56
394.331	97.56
394.556	100.56
394.78	83.56
395.005	100.56
395.229	94.56
395.454	97.56
395.678	88.56
395.903	98.56
396.127	101.56
396.352	97.56
396.576	96.56
396.801	119.56
397.025	124.56
397.249	116.56
397.474	108.56
397.698	89.56
397.922	97.56
398.147	115.56
398.371	108.56
398.595	80.56
398.82	94.56
399.044	91.56
399.268	90.56
399.492	103.56
399.717	92.56
399.941	94.56
400.165	88.56
400.389	78.56
400.613	111.56
400.837	97.56
401.062	101.56
401.286	88.56
401.51	90.56
401.734	97.56
401.958	99.56
402.182	97.56
402.406	92.56
402.63	96.56
402.854	98.56
403.078	95.56
403.302	106.56
403.526	95.56
403.75	75.56
403.974	101.56
404.198	89.56
404.422	88.56
404.645	103.56
404.869	93.56
405.093	100.56
405.317	94.56
405.541	99.56
405.765	117.56
405.988	144.56
406.212	126.56
406.436	101.56
406.66	96.56
406.883	101.56
407.107	99.56
407.331	91.56
407.555	101.56
407.778	94.56
408.002	88.56
408.226	88.56
408.449	103.56
408.673	99.56
408.896	90.56
409.12	96.56
409.344	94.56
409.567	97.56
409.791	103.56
410.014	88.56
410.238	101.56
410.461	106.56
410.685	98.56
410.908	101.56
411.132	111.56
411.355	104.56
411.578	119.56
411.802	99.56
412.025	78.56
412.249	102.56
412.472	93.56
412.695	99.56
412.919	105.56
413.142	97.56
413.365	89.56
413.589	100.56
413.812	93.56
414.035	100.56
414.258	108.56
414.482	92.56
414.705	112.56
414.928	94.56
415.151	82.56
415.374	100.56
415.597	89.56
415.821	88.56
416.044	88.56
416.267	87.56
416.49	79.56
416.713	100.56
416.936	100.56
417.159	109.56
417.382	107.56
417.605	103.56
417.828	79.56
418.051	96.56
418.274	96.56
418.497	102.56
418.72	95.56
418.943	97.56
419.166	112.56
419.389	94.56
419.611	102.56
419.834	86.56
420.057	87.56
420.28	106.56
420.503	86.56
420.726	102.56
420.948	93.56
421.171	87.56
421.394	91.56
421.617	95.56
421.839	87.56
422.062	108.56
422.285	87.56
422.507	110.56
422.73	113.56
422.953	126.56
423.175	111.56
423.398	94.56
423.621	99.56
423.843	99.56
424.066	92.56
424.288	86.56
424.511	89.56
424.733	100.56
424.956	88.56
425.178	94.56
425.401	85.56
425.623	97.56
425.846	73.56
426.068	85.56
426.291	91.56
426.513	85.56
426.735	93.56
426.958	108.56
427.18	92.56
427.402	102.56
427.625	87.56
427.847	93.56
428.069	84.56
428.292	90.56
428.514	89.56
428.736	101.56
428.958	90.56
429.181	83.56
429.403	104.56
429.625	84.56
429.847	93.56
430.069	115.56
430.292	110.56
430.514	104.56
430.736	102.56
430.958	90.56
431.18	95.56
431.402	90.56
431.624	101.56
431.846	81.56
432.068	79.56
432.29	89.56
432.512	94.56
432.734	93.56
432.956	103.56
433.178	117.56
433.4	97.56
433.622	94.56
433.844	92.56
434.066	94.56
434.287	92.56
434.509	96.56
434.731	101.56
434.953	90.56
435.175	96.56
435.397	97.56
435.618	96.56
435.84	88.56
436.062	91.56
436.284	91.56
436.505	89.56
436.727	88.56
436.949	99.56
437.17	89.56
437.392	86.56
437.614	86.56
437.835	94.56
438.057	82.56
438.278	85.56
438.5	82.56
438.721	95.56
438.943	100.56
439.165	117.56
439.386	116.56
439.608	104.56
439.829	101.56
440.05	117.56
440.272	113.56
440.493	107.56
440.715	103.56
440.936	88.56
441.158	88.56
441.379	100.56
441.6	72.56
441.822	96.56
442.043	116.56
442.264	147.56
442.486	86.56
442.707	98.56
442.928	103.56
443.149	92.56
443.371	88.56
443.592	89.56
443.813	85.56
444.034	94.56
444.255	92.56
444.476	86.56
444.698	86.56
444.919	94.56
445.14	229.56
445.361	165.56
445.582	97.56
445.803	100.56
446.024	94.56
446.245	103.56
446.466	97.56
446.687	100.56
446.908	101.56
447.129	106.56
447.35	105.56
447.571	98.56
447.792	85.56
448.013	108.56
448.234	84.56
448.455	82.56
448.675	97.56
448.896	100.56
449.117	89.56
449.338	130.56
449.559	144.56
449.779	118.56
450	95.56
450.221	100.56
450.442	109.56
450.662	114.56
450.883	105.56
451.104	104.56
451.324	127.56
451.545	104.56
451.766	120.56
451.986	130.56
452.207	206.56
452.428	488.56
452.648	1260.56
452.869	710.56
453.089	185.56
453.31	121.56
453.53	118.56
453.751	144.56
453.971	145.56
454.192	152.56
454.412	110.56
454.633	108.56
454.853	95.56
455.073	83.56
455.294	78.56
455.514	94.56
455.734	92.56
455.955	103.56
456.175	99.56
456.395	78.56
456.616	88.56
456.836	114.56
457.056	87.56
457.276	100.56
457.497	114.56
457.717	116.56
457.937	100.56
458.157	89.56
458.377	95.56
458.598	80.56
458.818	89.56
459.038	83.56
459.258	85.56
459.478	89.56
459.698	82.56
459.918	93.56
460.138	93.56
460.358	83.56
460.578	91.56
460.798	76.56
461.018	89.56
461.238	106.56
461.458	83.56
461.678	96.56
461.898	105.56
462.118	87.56
462.338	91.56
462.558	100.56
462.777	76.56
462.997	93.56
463.217	97.56
463.437	112.56
463.657	168.56
463.876	188.56
464.096	132.56
464.316	102.56
464.536	89.56
464.755	99.56
464.975	102.56
465.195	93.56
465.414	98.56
465.634	92.56
465.854	115.56
466.073	92.56
466.293	94.56
466.512	107.56
466.732	101.56
466.951	90.56
467.171	134.56
467.391	134.56
467.61	97.56
467.829	100.56
468.049	111.56
468.268	96.56
468.488	105.56
468.707	88.56
468.927	98.56
469.146	74.56
469.365	97.56
469.585	109.56
469.804	112.56
470.023	100.56
470.243	97.56
470.462	94.56
470.681	111.56
470.901	122.56
471.12	172.56
471.339	190.56
471.558	139.56
471.777	110.56
471.997	105.56
472.216	105.56
472.435	93.56
472.654	93.56
472.873	92.56
473.092	84.56
473.311	86.56
473.53	95.56
473.749	80.56
473.968	95.56
474.187	91.56
474.406	87.56
474.625	101.56
474.844	106.56
475.063	90.56
475.282	97.56
475.501	93.56
475.72	92.56
475.939	97.56
476.158	99.56
476.377	100.56
476.596	99.56
476.814	93.56
477.033	72.56
477.252	97.56
477.471	86.56
477.69	80.56
477.908	101.56
478.127	100.56
478.346	94.56
478.564	94.56
478.783	96.56
479.002	90.56
479.22	93.56
479.439	110.56
479.658	90.56
479.876	92.56
480.095	100.56
480.313	109.56
480.532	89.56
480.751	105.56
480.969	103.56
481.188	72.56
481.406	94.56
481.624	89.56
481.843	109.56
482.061	124.56
482.28	90.56
482.498	106.56
482.717	82.56
482.935	85.56
483.153	89.56
483.372	97.56
483.59	104.56
483.808	101.56
484.027	103.56
484.245	118.56
484.463	180.56
484.681	226.56
484.9	140.56
485.118	124.56
485.336	106.56
485.554	108.56
485.772	117.56
485.99	165.56
486.209	258.56
486.427	173.56
486.645	103.56
486.863	88.56
487.081	115.56
487.299	93.56
487.517	92.56
487.735	88.56
487.953	102.56
488.171	102.56
488.389	95.56
488.607	100.56
488.825	89.56
489.043	92.56
489.261	94.56
489.479	93.56
489.696	83.56
489.914	85.56
490.132	92.56
490.35	103.56
490.568	89.56
490.786	91.56
491.003	118.56
491.221	114.56
491.439	106.56
491.657	92.56
491.874	96.56
492.092	94.56
492.31	110.56
492.527	97.56
492.745	114.56
492.963	110.56
493.18	112.56
493.398	112.56
493.615	92.56
493.833	84.56
494.05	93.56
494.268	105.56
494.485	84.56
494.703	99.56
494.92	118.56
495.138	80.56
495.355	102.56
495.573	109.56
495.79	105.56
496.008	86.56
496.225	104.56
496.442	109.56
496.66	126.56
496.877	149.56
497.094	166.56
497.312	114.56
497.529	103.56
497.746	94.56
497.963	91.56
498.181	96.56
498.398	102.56
498.615	102.56
498.832	93.56
499.049	108.56
499.267	156.56
499.484	146.56
499.701	112.56
499.918	82.56
500.135	91.56
500.352	97.56
500.569	105.56
500.786	110.56
501.003	98.56
501.22	106.56
501.437	99.56
501.654	101.56
501.871	101.56
502.088	94.56
502.305	92.56
502.522	94.56
502.739	99.56
502.956	104.56
503.172	100.56
503.389	95.56
503.606	111.56
503.823	102.56
504.04	99.56
504.256	102.56
504.473	105.56
504.69	98.56
504.907	96.56
505.123	109.56
505.34	109.56
505.557	100.56
505.773	98.56
505.99	94.56
506.207	104.56
506.423	101.56
506.64	98.56
506.856	100.56
507.073	87.56
507.289	98.56
507.506	103.56
507.722	94.56
507.939	108.56
508.155	109.56
508.372	94.56
508.588	85.56
508.805	82.56
509.021	89.56
509.238	113.56
509.454	137.56
509.67	146.56
509.887	119.56
