Data from SnStandardFlinnAPT0064_LampEnergy10_LIBS07252019.E.O._I.C._HRD10591_15-22-08-494.txt Node
Date: Thu Jul 25 15:22:08 EDT 2019
User: cochatt
Spectrometer: HR+D1059
Trigger mode: 1
Integration Time (sec): 1.000000E-1
Scans to average: 1
Electric dark correction enabled: true
Nonlinearity correction enabled: false
Boxcar width: 0
XAxis mode: Wavelengths
Number of Pixels in Spectrum: 2048
>>>>>Begin Spectral Data<<<<<
223.165	-11.06
223.4	-11.06
223.635	-11.06
223.869	-12.06
224.104	-17.06
224.338	-21.06
224.573	-3.06
224.808	-18.06
225.042	-11.06
225.277	4.94
225.511	-12.06
225.746	9.94
225.98	-5.06
226.215	-2.06
226.449	10.94
226.683	22.94
226.918	30.94
227.152	32.94
227.387	29.94
227.621	33.94
227.856	59.94
228.09	47.94
228.324	53.94
228.559	43.94
228.793	117.94
229.027	310.94
229.262	342.94
229.496	285.94
229.73	279.94
229.964	302.94
230.199	299.94
230.433	287.94
230.667	304.94
230.901	307.94
231.136	326.94
231.37	351.94
231.604	385.94
231.838	421.94
232.072	497.94
232.306	557.94
232.541	437.94
232.775	406.94
233.009	400.94
233.243	393.94
233.477	450.94
233.711	515.94
233.945	566.94
234.179	516.94
234.413	446.94
234.647	445.94
234.881	468.94
235.115	499.94
235.349	593.94
235.583	771.94
235.817	977.94
236.051	964.94
236.285	627.94
236.519	525.94
236.753	479.94
236.987	492.94
237.221	541.94
237.455	498.94
237.689	454.94
237.922	466.94
238.156	466.94
238.39	468.94
238.624	493.94
238.858	458.94
239.091	493.94
239.325	469.94
239.559	493.94
239.793	515.94
240.027	507.94
240.26	507.94
240.494	520.94
240.728	570.94
240.961	604.94
241.195	641.94
241.429	666.94
241.662	693.94
241.896	746.94
242.13	924.94
242.363	1212.94
242.597	1585.94
242.83	1485.94
243.064	1479.94
243.298	1786.94
243.531	1484.94
243.765	936.94
243.998	738.94
244.232	683.94
244.465	649.94
244.699	654.94
244.932	633.94
245.166	669.94
245.399	672.94
245.633	681.94
245.866	694.94
246.099	655.94
246.333	657.94
246.566	675.94
246.8	625.94
247.033	645.94
247.266	647.94
247.5	662.94
247.733	674.94
247.966	676.94
248.2	763.94
248.433	849.94
248.666	998.94
248.899	937.94
249.133	839.94
249.366	858.94
249.599	949.94
249.832	1048.94
250.066	1062.94
250.299	835.94
250.532	747.94
250.765	718.94
250.998	703.94
251.231	707.94
251.465	709.94
251.698	744.94
251.931	734.94
252.164	728.94
252.397	760.94
252.63	791.94
252.863	783.94
253.096	753.94
253.329	783.94
253.562	789.94
253.795	757.94
254.028	799.94
254.261	799.94
254.494	862.94
254.727	998.94
254.96	1229.94
255.193	1180.94
255.426	967.94
255.659	883.94
255.892	867.94
256.124	881.94
256.357	867.94
256.59	886.94
256.823	945.94
257.056	1110.94
257.289	1307.94
257.521	1462.94
257.754	1157.94
257.987	968.94
258.22	902.94
258.452	892.94
258.685	893.94
258.918	944.94
259.151	961.94
259.383	1063.94
259.616	1206.94
259.849	1234.94
260.081	1073.94
260.314	979.94
260.547	969.94
260.779	919.94
261.012	945.94
261.244	971.94
261.477	974.94
261.71	981.94
261.942	1016.94
262.175	1018.94
262.407	1038.94
262.64	1061.94
262.872	1095.94
263.105	1127.94
263.337	1186.94
263.57	1289.94
263.802	1307.94
264.035	1334.94
264.267	1333.94
264.499	1393.94
264.732	1409.94
264.964	1430.94
265.197	1434.94
265.429	1459.94
265.661	1465.94
265.894	1601.94
266.126	1768.94
266.358	1953.94
266.591	1907.94
266.823	1613.94
267.055	1461.94
267.287	1380.94
267.52	1322.94
267.752	1324.94
267.984	1284.94
268.216	1249.94
268.448	1237.94
268.681	1230.94
268.913	1232.94
269.145	1225.94
269.377	1221.94
269.609	1225.94
269.841	1240.94
270.073	1356.94
270.306	1624.94
270.538	2102.94
270.77	3133.94
271.002	3891.94
271.234	2721.94
271.466	1831.94
271.698	1519.94
271.93	1364.94
272.162	1327.94
272.394	1296.94
272.626	1245.94
272.858	1213.94
273.09	1206.94
273.322	1201.94
273.553	1202.94
273.785	1197.94
274.017	1205.94
274.249	1241.94
274.481	1173.94
274.713	1195.94
274.945	1191.94
275.176	1231.94
275.408	1201.94
275.64	1225.94
275.872	1233.94
276.104	1209.94
276.335	1259.94
276.567	1266.94
276.799	1242.94
277.031	1285.94
277.262	1343.94
277.494	1357.94
277.726	1522.94
277.957	1815.94
278.189	2074.94
278.421	1953.94
278.652	1713.94
278.884	1637.94
279.115	1473.94
279.347	1424.94
279.579	1405.94
279.81	1366.94
280.042	1369.94
280.273	1414.94
280.505	1427.94
280.736	1477.94
280.968	1590.94
281.199	1766.94
281.431	1978.94
281.662	2031.94
281.894	1759.94
282.125	1632.94
282.356	1616.94
282.588	1632.94
282.819	1659.94
283.051	1793.94
283.282	1942.94
283.513	2441.94
283.745	3556.94
283.976	5545.94
284.207	7857.94
284.439	7143.94
284.67	4420.94
284.901	3607.94
285.132	3635.94
285.364	3459.94
285.595	2621.94
285.826	2357.94
286.057	2817.94
286.288	3798.94
286.52	5158.94
286.751	4731.94
286.982	2961.94
287.213	2223.94
287.444	1953.94
287.675	1861.94
287.906	1727.94
288.138	1679.94
288.369	1712.94
288.6	1676.94
288.831	1662.94
289.062	1630.94
289.293	1676.94
289.524	1655.94
289.755	1691.94
289.986	1681.94
290.217	1693.94
290.448	1691.94
290.679	1726.94
290.91	1783.94
291.141	1830.94
291.371	2025.94
291.602	2093.94
291.833	1883.94
292.064	1736.94
292.295	1673.94
292.526	1664.94
292.757	1574.94
292.987	1578.94
293.218	1551.94
293.449	1599.94
293.68	1605.94
293.91	1562.94
294.141	1571.94
294.372	1553.94
294.603	1545.94
294.833	1542.94
295.064	1534.94
295.295	1537.94
295.525	1522.94
295.756	1551.94
295.987	1535.94
296.217	1561.94
296.448	1543.94
296.679	1560.94
296.909	1578.94
297.14	1607.94
297.37	1602.94
297.601	1659.94
297.831	1598.94
298.062	1610.94
298.292	1648.94
298.523	1661.94
298.753	1721.94
298.984	1726.94
299.214	1726.94
299.445	1752.94
299.675	1768.94
299.905	1846.94
300.136	1905.94
300.366	2103.94
300.597	2745.94
300.827	3713.94
301.057	5103.94
301.288	5123.94
301.518	3313.94
301.748	2521.94
301.979	2305.94
302.209	2235.94
302.439	2272.94
302.669	2409.94
302.9	2913.94
303.13	4070.94
303.36	5998.94
303.59	7998.94
303.82	7014.94
304.051	4113.94
304.281	2963.94
304.511	2470.94
304.741	2279.94
304.971	2154.94
305.201	2047.94
305.431	2005.94
305.661	1970.94
305.891	1883.94
306.121	1841.94
306.352	1843.94
306.582	1797.94
306.812	1807.94
307.042	1814.94
307.272	1808.94
307.502	1815.94
307.731	1832.94
307.961	1815.94
308.191	1779.94
308.421	1815.94
308.651	1798.94
308.881	1774.94
309.111	1774.94
309.341	1795.94
309.571	1810.94
309.8	1840.94
310.03	1877.94
310.26	1854.94
310.49	1827.94
310.72	1898.94
310.949	1852.94
311.179	1883.94
311.409	1893.94
311.639	1919.94
311.868	1933.94
312.098	1949.94
312.328	1983.94
312.557	1906.94
312.787	1942.94
313.017	1985.94
313.246	1986.94
313.476	1983.94
313.706	2081.94
313.935	2176.94
314.165	2354.94
314.394	2443.94
314.624	2353.94
314.853	2160.94
315.083	2201.94
315.312	2133.94
315.542	2160.94
315.771	2187.94
316.001	2228.94
316.23	2341.94
316.46	2421.94
316.689	2623.94
316.919	3143.94
317.148	4549.94
317.377	6909.94
317.607	10314.94
317.836	10579.94
318.065	6377.94
318.295	4125.94
318.524	3341.94
318.753	2903.94
318.983	2713.94
319.212	2532.94
319.441	2513.94
319.67	2453.94
319.9	2334.94
320.129	2349.94
320.358	2346.94
320.587	2306.94
320.816	2345.94
321.046	2335.94
321.275	2363.94
321.504	2344.94
321.733	2396.94
321.962	2478.94
322.191	2495.94
322.42	2479.94
322.649	2488.94
322.878	2455.94
323.108	2479.94
323.337	2541.94
323.566	2502.94
323.795	2649.94
324.024	2625.94
324.253	2703.94
324.482	2833.94
324.71	2953.94
324.939	3156.94
325.168	3250.94
325.397	3398.94
325.626	3977.94
325.855	5507.94
326.084	8570.94
326.313	12485.94
326.542	13205.94
326.77	8817.94
326.999	5807.94
327.228	4819.94
327.457	4603.94
327.686	4702.94
327.914	4982.94
328.143	5845.94
328.372	6996.94
328.6	7462.94
328.829	6722.94
329.058	5697.94
329.287	4977.94
329.515	4604.94
329.744	4259.94
329.972	4029.94
330.201	3843.94
330.43	3711.94
330.658	3599.94
330.887	3552.94
331.115	3462.94
331.344	3548.94
331.572	3409.94
331.801	3440.94
332.03	3478.94
332.258	3568.94
332.486	3689.94
332.715	4285.94
332.943	5249.94
333.172	6516.94
333.4	6442.94
333.629	4876.94
333.857	4403.94
334.085	4410.94
334.314	4641.94
334.542	4981.94
334.771	5942.94
334.999	7326.94
335.227	9151.94
335.455	10129.94
335.684	9108.94
335.912	7508.94
336.14	6346.94
336.369	5637.94
336.597	5157.94
336.825	4730.94
337.053	4511.94
337.281	4199.94
337.51	3967.94
337.738	3889.94
337.966	3703.94
338.194	3555.94
338.422	3429.94
338.65	3367.94
338.878	3333.94
339.106	3213.94
339.334	3197.94
339.562	3133.94
339.79	3104.94
340.018	3063.94
340.246	3012.94
340.474	2999.94
340.702	3029.94
340.93	2993.94
341.158	3029.94
341.386	2971.94
341.614	2971.94
341.842	2902.94
342.07	2826.94
342.298	2835.94
342.526	2767.94
342.754	2757.94
342.981	2751.94
343.209	2698.94
343.437	2730.94
343.665	2752.94
343.893	2801.94
344.12	2847.94
344.348	2784.94
344.576	2719.94
344.804	2693.94
345.031	2665.94
345.259	2615.94
345.487	2600.94
345.714	2529.94
345.942	2567.94
346.17	2534.94
346.397	2497.94
346.625	2538.94
346.853	2465.94
347.08	2471.94
347.308	2531.94
347.535	2522.94
347.763	2506.94
347.99	2489.94
348.218	2549.94
348.445	2476.94
348.673	2456.94
348.9	2451.94
349.128	2466.94
349.355	2454.94
349.583	2457.94
349.81	2427.94
350.037	2427.94
350.265	2407.94
350.492	2396.94
350.72	2430.94
350.947	2418.94
351.174	2401.94
351.402	2391.94
351.629	2393.94
351.856	2407.94
352.083	2391.94
352.311	2385.94
352.538	2408.94
352.765	2351.94
352.992	2358.94
353.22	2321.94
353.447	2373.94
353.674	2370.94
353.901	2354.94
354.128	2394.94
354.355	2382.94
354.583	2361.94
354.81	2423.94
355.037	2457.94
355.264	2441.94
355.491	2434.94
355.718	2457.94
355.945	2441.94
356.172	2461.94
356.399	2444.94
356.626	2490.94
356.853	2517.94
357.08	2491.94
357.307	2536.94
357.534	2575.94
357.761	2571.94
357.988	2567.94
358.215	2530.94
358.441	2543.94
358.668	2529.94
358.895	2529.94
359.122	2531.94
359.349	2554.94
359.576	2496.94
359.802	2569.94
360.029	2558.94
360.256	2542.94
360.483	2581.94
360.709	2540.94
360.936	2510.94
361.163	2522.94
361.39	2565.94
361.616	2552.94
361.843	2582.94
362.07	2542.94
362.296	2505.94
362.523	2577.94
362.749	2537.94
362.976	2514.94
363.203	2551.94
363.429	2527.94
363.656	2536.94
363.882	2535.94
364.109	2529.94
364.335	2492.94
364.562	2531.94
364.788	2589.94
365.015	2584.94
365.241	2656.94
365.468	2788.94
365.694	2956.94
365.92	2769.94
366.147	2644.94
366.373	2634.94
366.599	2629.94
366.826	2605.94
367.052	2586.94
367.278	2557.94
367.505	2586.94
367.731	2594.94
367.957	2626.94
368.184	2666.94
368.41	2699.94
368.636	2662.94
368.862	2634.94
369.089	2658.94
369.315	2630.94
369.541	2656.94
369.767	2614.94
369.993	2654.94
370.219	2675.94
370.445	2683.94
370.672	2647.94
370.898	2695.94
371.124	2707.94
371.35	2725.94
371.576	2744.94
371.802	2742.94
372.028	2807.94
372.254	2752.94
372.48	2778.94
372.706	2833.94
372.932	2780.94
373.158	2773.94
373.384	2798.94
373.61	2791.94
373.835	2795.94
374.061	2806.94
374.287	2797.94
374.513	2810.94
374.739	2894.94
374.965	2910.94
375.191	2907.94
375.416	2874.94
375.642	2847.94
375.868	2841.94
376.094	2813.94
376.319	2833.94
376.545	2806.94
376.771	2784.94
376.997	2777.94
377.222	2713.94
377.448	2698.94
377.674	2726.94
377.899	2693.94
378.125	2730.94
378.35	2746.94
378.576	2730.94
378.802	2737.94
379.027	2820.94
379.253	2908.94
379.478	3057.94
379.704	3543.94
379.929	5108.94
380.155	7832.94
380.38	8328.94
380.606	5143.94
380.831	3581.94
381.057	3184.94
381.282	2951.94
381.507	2810.94
381.733	2797.94
381.958	2754.94
382.184	2733.94
382.409	2687.94
382.634	2697.94
382.86	2692.94
383.085	2675.94
383.31	2658.94
383.535	2709.94
383.761	2730.94
383.986	2717.94
384.211	2705.94
384.436	2744.94
384.662	2773.94
384.887	2788.94
385.112	2749.94
385.337	2811.94
385.562	2786.94
385.787	2769.94
386.013	2835.94
386.238	2769.94
386.463	2811.94
386.688	2769.94
386.913	2749.94
387.138	2784.94
387.363	2759.94
387.588	2727.94
387.813	2763.94
388.038	2761.94
388.263	2757.94
388.488	2754.94
388.713	2801.94
388.938	2747.94
389.163	2695.94
389.387	2742.94
389.612	2778.94
389.837	2787.94
390.062	2716.94
390.287	2828.94
390.512	2758.94
390.736	2817.94
390.961	2886.94
391.186	2855.94
391.411	2901.94
391.636	2938.94
391.86	2938.94
392.085	2966.94
392.31	2910.94
392.534	2872.94
392.759	2846.94
392.984	2837.94
393.208	2822.94
393.433	2828.94
393.658	2844.94
393.882	2806.94
394.107	2754.94
394.331	2799.94
394.556	2810.94
394.78	2781.94
395.005	2859.94
395.229	2829.94
395.454	2869.94
395.678	2886.94
395.903	2883.94
396.127	2889.94
396.352	2887.94
396.576	2863.94
396.801	2893.94
397.025	2920.94
397.249	2927.94
397.474	2937.94
397.698	2939.94
397.922	2986.94
398.147	2989.94
398.371	3017.94
398.595	3035.94
398.82	3073.94
399.044	3201.94
399.268	3333.94
399.492	3595.94
399.717	3666.94
399.941	3696.94
400.165	3565.94
400.389	3351.94
400.613	3243.94
400.837	3175.94
401.062	3186.94
401.286	3077.94
401.51	3083.94
401.734	3023.94
401.958	3073.94
402.182	3040.94
402.406	3038.94
402.63	3089.94
402.854	3093.94
403.078	3103.94
403.302	3135.94
403.526	3182.94
403.75	3171.94
403.974	3181.94
404.198	3141.94
404.422	3183.94
404.645	3161.94
404.869	3178.94
405.093	3165.94
405.317	3146.94
405.541	3265.94
405.765	3294.94
405.988	3241.94
406.212	3288.94
406.436	3231.94
406.66	3299.94
406.883	3259.94
407.107	3417.94
407.331	3374.94
407.555	3412.94
407.778	3485.94
408.002	3403.94
408.226	3409.94
408.449	3428.94
408.673	3297.94
408.896	3273.94
409.12	3166.94
409.344	3231.94
409.567	3173.94
409.791	3195.94
410.014	3127.94
410.238	3107.94
410.461	3174.94
410.685	3135.94
410.908	3128.94
411.132	3088.94
411.355	3023.94
411.578	3085.94
411.802	3054.94
412.025	3041.94
412.249	3083.94
412.472	3048.94
412.695	3016.94
412.919	2927.94
413.142	2970.94
413.365	3045.94
413.589	3001.94
413.812	2946.94
414.035	3005.94
414.258	2991.94
414.482	3002.94
414.705	3003.94
414.928	3029.94
415.151	2938.94
415.374	2969.94
415.597	2919.94
415.821	2901.94
416.044	2835.94
416.267	2913.94
416.49	2873.94
416.713	2856.94
416.936	2899.94
417.159	2812.94
417.382	2789.94
417.605	2845.94
417.828	2859.94
418.051	2860.94
418.274	2906.94
418.497	2839.94
418.72	2940.94
418.943	2897.94
419.166	3025.94
419.389	3217.94
419.611	3145.94
419.834	3039.94
420.057	3007.94
420.28	2940.94
420.503	2857.94
420.726	2845.94
420.948	2838.94
421.171	2893.94
421.394	2817.94
421.617	2849.94
421.839	2905.94
422.062	2898.94
422.285	2801.94
422.507	2959.94
422.73	2937.94
422.953	2934.94
423.175	2947.94
423.398	2938.94
423.621	2807.94
423.843	2875.94
424.066	2895.94
424.288	2855.94
424.511	2872.94
424.733	2854.94
424.956	2816.94
425.178	2799.94
425.401	2803.94
425.623	2827.94
425.846	2801.94
426.068	2753.94
426.291	2775.94
426.513	2729.94
426.735	2781.94
426.958	2769.94
427.18	2683.94
427.402	2703.94
427.625	2733.94
427.847	2647.94
428.069	2638.94
428.292	2670.94
428.514	2673.94
428.736	2640.94
428.958	2657.94
429.181	2595.94
429.403	2596.94
429.625	2659.94
429.847	2645.94
430.069	2656.94
430.292	2764.94
430.514	2839.94
430.736	2840.94
430.958	2714.94
431.18	2643.94
431.402	2623.94
431.624	2598.94
431.846	2640.94
432.068	2619.94
432.29	2646.94
432.512	2596.94
432.734	2606.94
432.956	2606.94
433.178	2597.94
433.4	2632.94
433.622	2636.94
433.844	2649.94
434.066	2635.94
434.287	2634.94
434.509	2697.94
434.731	2743.94
434.953	2735.94
435.175	2753.94
435.397	2737.94
435.618	2703.94
435.84	2660.94
436.062	2639.94
436.284	2633.94
436.505	2557.94
436.727	2632.94
436.949	2593.94
437.17	2597.94
437.392	2565.94
437.614	2592.94
437.835	2529.94
438.057	2569.94
438.278	2527.94
438.5	2571.94
438.721	2580.94
438.943	2667.94
439.165	2710.94
439.386	2757.94
439.608	2754.94
439.829	2750.94
440.05	2823.94
440.272	2869.94
440.493	2714.94
440.715	2721.94
440.936	2696.94
441.158	2731.94
441.379	2767.94
441.6	2837.94
441.822	2914.94
442.043	3027.94
442.264	3193.94
442.486	2995.94
442.707	2896.94
442.928	2794.94
443.149	2849.94
443.371	2811.94
443.592	2802.94
443.813	2870.94
444.034	2861.94
444.255	2891.94
444.476	2981.94
444.698	3027.94
444.919	2998.94
445.14	3177.94
445.361	3001.94
445.582	2850.94
445.803	2831.94
446.024	2817.94
446.245	2792.94
446.466	2755.94
446.687	2767.94
446.908	2751.94
447.129	2683.94
447.35	2664.94
447.571	2601.94
447.792	2574.94
448.013	2598.94
448.234	2562.94
448.455	2587.94
448.675	2653.94
448.896	2661.94
449.117	2759.94
449.338	3010.94
449.559	3104.94
449.779	2795.94
450	2603.94
450.221	2552.94
450.442	2575.94
450.662	2542.94
450.883	2474.94
451.104	2580.94
451.324	2518.94
451.545	2484.94
451.766	2533.94
451.986	2606.94
452.207	2755.94
452.428	3589.94
452.648	5361.94
452.869	4480.94
453.089	3068.94
453.31	2875.94
453.53	2879.94
453.751	3013.94
453.971	3134.94
454.192	3095.94
454.412	2679.94
454.633	2524.94
454.853	2456.94
455.073	2450.94
455.294	2445.94
455.514	2427.94
455.734	2403.94
455.955	2393.94
456.175	2427.94
456.395	2429.94
456.616	2410.94
456.836	2461.94
457.056	2489.94
457.276	2465.94
457.497	2624.94
457.717	2643.94
457.937	2565.94
458.157	2543.94
458.377	2606.94
458.598	2580.94
458.818	2597.94
459.038	2579.94
459.258	2590.94
459.478	2640.94
459.698	2664.94
459.918	2679.94
460.138	2703.94
460.358	2781.94
460.578	2767.94
460.798	2870.94
461.018	2877.94
461.238	2826.94
461.458	2864.94
461.678	2859.94
461.898	3011.94
462.118	2959.94
462.338	3007.94
462.558	3031.94
462.777	3124.94
462.997	3230.94
463.217	3334.94
463.437	3506.94
463.657	3524.94
463.876	3523.94
464.096	3342.94
464.316	3201.94
464.536	3123.94
464.755	3063.94
464.975	3025.94
465.195	2939.94
465.414	2827.94
465.634	2776.94
465.854	2726.94
466.073	2713.94
466.293	2662.94
466.512	2643.94
466.732	2683.94
466.951	2819.94
467.171	2980.94
467.391	2953.94
467.61	2655.94
467.829	2595.94
468.049	2621.94
468.268	2569.94
468.488	2581.94
468.707	2565.94
468.927	2590.94
469.146	2578.94
469.365	2618.94
469.585	2626.94
469.804	2680.94
470.023	2732.94
470.243	2769.94
470.462	2803.94
470.681	2970.94
470.901	3260.94
471.12	3723.94
471.339	3741.94
471.558	3165.94
471.777	2870.94
471.997	2771.94
472.216	2666.94
472.435	2659.94
472.654	2623.94
472.873	2581.94
473.092	2631.94
473.311	2615.94
473.53	2623.94
473.749	2642.94
473.968	2733.94
474.187	2568.94
474.406	2573.94
474.625	2550.94
474.844	2601.94
475.063	2633.94
475.282	2582.94
475.501	2616.94
475.72	2605.94
475.939	2675.94
476.158	2713.94
476.377	2729.94
476.596	2718.94
476.814	2775.94
477.033	2743.94
477.252	2792.94
477.471	2781.94
477.69	2881.94
477.908	2866.94
478.127	2937.94
478.346	2956.94
478.564	2981.94
478.783	3008.94
479.002	3056.94
479.22	3099.94
479.439	3110.94
479.658	3114.94
479.876	3109.94
480.095	3162.94
480.313	3208.94
480.532	3221.94
480.751	3189.94
480.969	3173.94
481.188	3078.94
481.406	3121.94
481.624	3093.94
481.843	3159.94
482.061	3134.94
482.28	3161.94
482.498	3147.94
482.717	3152.94
482.935	3236.94
483.153	3209.94
483.372	3222.94
483.59	3302.94
483.808	3283.94
484.027	3422.94
484.245	3597.94
484.463	4052.94
484.681	4488.94
484.9	4029.94
485.118	3721.94
485.336	3651.94
485.554	3780.94
485.772	4005.94
485.99	4555.94
486.209	4849.94
486.427	4031.94
486.645	3589.94
486.863	3459.94
487.081	3351.94
487.299	3348.94
487.517	3316.94
487.735	3341.94
