Data from SnStandardFlinnAPT0064_LampEnergy5.5_LIBS07252019.E.O._I.C._HRD10591_15-16-15-491.txt Node
Date: Thu Jul 25 15:16:15 EDT 2019
User: cochatt
Spectrometer: HR+D1059
Trigger mode: 1
Integration Time (sec): 1.000000E-1
Scans to average: 1
Electric dark correction enabled: true
Nonlinearity correction enabled: false
Boxcar width: 0
XAxis mode: Wavelengths
Number of Pixels in Spectrum: 2048
>>>>>Begin Spectral Data<<<<<
223.165	-18.31
223.4	-18.31
223.635	-18.31
223.869	1.69
224.104	-13.31
224.338	-13.31
224.573	-28.31
224.808	-19.31
225.042	-11.31
225.277	-4.31
225.511	-8.31
225.746	16.69
225.98	-6.31
226.215	4.69
226.449	15.69
226.683	33.69
226.918	24.69
227.152	25.69
227.387	38.69
227.621	53.69
227.856	44.69
228.09	46.69
228.324	45.69
228.559	71.69
228.793	85.69
229.027	149.69
229.262	163.69
229.496	147.69
229.73	157.69
229.964	174.69
230.199	151.69
230.433	165.69
230.667	170.69
230.901	177.69
231.136	185.69
231.37	185.69
231.604	195.69
231.838	206.69
232.072	230.69
232.306	254.69
232.541	206.69
232.775	220.69
233.009	209.69
233.243	203.69
233.477	221.69
233.711	239.69
233.945	255.69
234.179	238.69
234.413	222.69
234.647	216.69
234.881	222.69
235.115	249.69
235.349	298.69
235.583	325.69
235.817	416.69
236.051	414.69
236.285	302.69
236.519	263.69
236.753	230.69
236.987	230.69
237.221	239.69
237.455	241.69
237.689	220.69
237.922	218.69
238.156	238.69
238.39	226.69
238.624	237.69
238.858	234.69
239.091	226.69
239.325	236.69
239.559	256.69
239.793	226.69
240.027	252.69
240.26	256.69
240.494	258.69
240.728	275.69
240.961	290.69
241.195	290.69
241.429	309.69
241.662	323.69
241.896	356.69
242.13	397.69
242.363	500.69
242.597	642.69
242.83	602.69
243.064	613.69
243.298	716.69
243.531	612.69
243.765	409.69
243.998	355.69
244.232	301.69
244.465	307.69
244.699	279.69
244.932	309.69
245.166	308.69
245.399	314.69
245.633	323.69
245.866	317.69
246.099	297.69
246.333	299.69
246.566	312.69
246.8	298.69
247.033	299.69
247.266	303.69
247.5	280.69
247.733	329.69
247.966	323.69
248.2	337.69
248.433	379.69
248.666	414.69
248.899	421.69
249.133	372.69
249.366	358.69
249.599	381.69
249.832	437.69
250.066	451.69
250.299	381.69
250.532	341.69
250.765	354.69
250.998	333.69
251.231	328.69
251.465	330.69
251.698	345.69
251.931	335.69
252.164	334.69
252.397	351.69
252.63	349.69
252.863	342.69
253.096	349.69
253.329	326.69
253.562	347.69
253.795	354.69
254.028	376.69
254.261	357.69
254.494	377.69
254.727	424.69
254.96	489.69
255.193	509.69
255.426	412.69
255.659	391.69
255.892	377.69
256.124	369.69
256.357	381.69
256.59	399.69
256.823	418.69
257.056	458.69
257.289	550.69
257.521	581.69
257.754	479.69
257.987	413.69
258.22	417.69
258.452	392.69
258.685	414.69
258.918	410.69
259.151	430.69
259.383	450.69
259.616	502.69
259.849	507.69
260.081	468.69
260.314	447.69
260.547	405.69
260.779	433.69
261.012	422.69
261.244	437.69
261.477	449.69
261.71	446.69
261.942	477.69
262.175	489.69
262.407	478.69
262.64	479.69
262.872	490.69
263.105	514.69
263.337	545.69
263.57	558.69
263.802	587.69
264.035	573.69
264.267	588.69
264.499	617.69
264.732	629.69
264.964	644.69
265.197	637.69
265.429	641.69
265.661	649.69
265.894	694.69
266.126	754.69
266.358	800.69
266.591	762.69
266.823	700.69
267.055	641.69
267.287	603.69
267.52	583.69
267.752	567.69
267.984	555.69
268.216	550.69
268.448	551.69
268.681	545.69
268.913	543.69
269.145	541.69
269.377	535.69
269.609	533.69
269.841	578.69
270.073	582.69
270.306	694.69
270.538	886.69
270.77	1261.69
271.002	1519.69
271.234	1080.69
271.466	750.69
271.698	633.69
271.93	567.69
272.162	569.69
272.394	545.69
272.626	525.69
272.858	537.69
273.09	539.69
273.322	563.69
273.553	511.69
273.785	538.69
274.017	531.69
274.249	519.69
274.481	522.69
274.713	519.69
274.945	537.69
275.176	548.69
275.408	566.69
275.64	547.69
275.872	546.69
276.104	561.69
276.335	574.69
276.567	566.69
276.799	532.69
277.031	562.69
277.262	565.69
277.494	601.69
277.726	641.69
277.957	744.69
278.189	806.69
278.421	771.69
278.652	694.69
278.884	652.69
279.115	636.69
279.347	606.69
279.579	602.69
279.81	610.69
280.042	596.69
280.273	620.69
280.505	627.69
280.736	604.69
280.968	639.69
281.199	726.69
281.431	799.69
281.662	795.69
281.894	727.69
282.125	676.69
282.356	673.69
282.588	693.69
282.819	723.69
283.051	733.69
283.282	826.69
283.513	1014.69
283.745	1380.69
283.976	2219.69
284.207	3093.69
284.439	2772.69
284.67	1718.69
284.901	1355.69
285.132	1335.69
285.364	1278.69
285.595	1055.69
285.826	943.69
286.057	1119.69
286.288	1491.69
286.52	1960.69
286.751	1834.69
286.982	1172.69
287.213	905.69
287.444	805.69
287.675	755.69
287.906	741.69
288.138	708.69
288.369	730.69
288.6	698.69
288.831	726.69
289.062	731.69
289.293	739.69
289.524	708.69
289.755	717.69
289.986	731.69
290.217	731.69
290.448	719.69
290.679	723.69
290.91	745.69
291.141	757.69
291.371	837.69
291.602	818.69
291.833	761.69
292.064	730.69
292.295	703.69
292.526	678.69
292.757	693.69
292.987	672.69
293.218	675.69
293.449	682.69
293.68	675.69
293.91	655.69
294.141	660.69
294.372	670.69
294.603	676.69
294.833	663.69
295.064	667.69
295.295	660.69
295.525	677.69
295.756	692.69
295.987	653.69
296.217	674.69
296.448	661.69
296.679	691.69
296.909	692.69
297.14	693.69
297.37	673.69
297.601	674.69
297.831	690.69
298.062	692.69
298.292	690.69
298.523	728.69
298.753	707.69
298.984	728.69
299.214	712.69
299.445	739.69
299.675	736.69
299.905	760.69
300.136	794.69
300.366	881.69
300.597	1094.69
300.827	1451.69
301.057	1965.69
301.288	1936.69
301.518	1314.69
301.748	1026.69
301.979	936.69
302.209	923.69
302.439	911.69
302.669	982.69
302.9	1125.69
303.13	1591.69
303.36	2270.69
303.59	3005.69
303.82	2620.69
304.051	1548.69
304.281	1152.69
304.511	979.69
304.741	883.69
304.971	876.69
305.201	847.69
305.431	817.69
305.661	821.69
305.891	792.69
306.121	794.69
306.352	783.69
306.582	798.69
306.812	790.69
307.042	794.69
307.272	817.69
307.502	783.69
307.731	739.69
307.961	777.69
308.191	770.69
308.421	779.69
308.651	746.69
308.881	778.69
309.111	793.69
309.341	743.69
309.571	794.69
309.8	771.69
310.03	793.69
310.26	751.69
310.49	796.69
310.72	779.69
310.949	814.69
311.179	792.69
311.409	793.69
311.639	811.69
311.868	818.69
312.098	833.69
312.328	795.69
312.557	805.69
312.787	837.69
313.017	846.69
313.246	839.69
313.476	838.69
313.706	878.69
313.935	908.69
314.165	935.69
314.394	953.69
314.624	950.69
314.853	902.69
315.083	901.69
315.312	891.69
315.542	938.69
315.771	915.69
316.001	923.69
316.23	957.69
316.46	976.69
316.689	1069.69
316.919	1285.69
317.148	1787.69
317.377	2717.69
317.607	4048.69
317.836	4114.69
318.065	2424.69
318.295	1599.69
318.524	1285.69
318.753	1185.69
318.983	1062.69
319.212	1053.69
319.441	1049.69
319.67	990.69
319.9	974.69
320.129	999.69
320.358	990.69
320.587	978.69
320.816	984.69
321.046	988.69
321.275	951.69
321.504	1002.69
321.733	1010.69
321.962	1037.69
322.191	1044.69
322.42	1015.69
322.649	1025.69
322.878	1019.69
323.108	1037.69
323.337	1048.69
323.566	1052.69
323.795	1059.69
324.024	1084.69
324.253	1101.69
324.482	1155.69
324.71	1220.69
324.939	1235.69
325.168	1270.69
325.397	1329.69
325.626	1561.69
325.855	2159.69
326.084	3306.69
326.313	4947.69
326.542	5085.69
326.77	3261.69
326.999	2168.69
327.228	1867.69
327.457	1768.69
327.686	1811.69
327.914	1921.69
328.143	2170.69
328.372	2542.69
328.6	2711.69
328.829	2523.69
329.058	2186.69
329.287	1949.69
329.515	1811.69
329.744	1682.69
329.972	1620.69
330.201	1576.69
330.43	1479.69
330.658	1448.69
330.887	1441.69
331.115	1408.69
331.344	1399.69
331.572	1404.69
331.801	1387.69
332.03	1419.69
332.258	1418.69
332.486	1512.69
332.715	1672.69
332.943	2005.69
333.172	2417.69
333.4	2419.69
333.629	1894.69
333.857	1720.69
334.085	1774.69
334.314	1860.69
334.542	1983.69
334.771	2252.69
334.999	2732.69
335.227	3326.69
335.455	3621.69
335.684	3321.69
335.912	2907.69
336.14	2489.69
336.369	2193.69
336.597	2053.69
336.825	1881.69
337.053	1825.69
337.281	1728.69
337.51	1603.69
337.738	1579.69
337.966	1497.69
338.194	1436.69
338.422	1418.69
338.65	1370.69
338.878	1353.69
339.106	1342.69
339.334	1317.69
339.562	1302.69
339.79	1276.69
340.018	1252.69
340.246	1203.69
340.474	1255.69
340.702	1267.69
340.93	1244.69
341.158	1239.69
341.386	1229.69
341.614	1248.69
341.842	1210.69
342.07	1207.69
342.298	1162.69
342.526	1138.69
342.754	1139.69
342.981	1155.69
343.209	1130.69
343.437	1155.69
343.665	1171.69
343.893	1166.69
344.12	1181.69
344.348	1170.69
344.576	1116.69
344.804	1132.69
345.031	1072.69
345.259	1094.69
345.487	1118.69
345.714	1103.69
345.942	1076.69
346.17	1057.69
346.397	1053.69
346.625	1039.69
346.853	1032.69
347.08	1050.69
347.308	1054.69
347.535	1084.69
347.763	1060.69
347.99	1048.69
348.218	1041.69
348.445	1067.69
348.673	1065.69
348.9	1042.69
349.128	1047.69
349.355	1046.69
349.583	1047.69
349.81	1056.69
350.037	1045.69
350.265	1031.69
350.492	1015.69
350.72	1012.69
350.947	1020.69
351.174	1013.69
351.402	997.69
351.629	1021.69
351.856	1009.69
352.083	1009.69
352.311	987.69
352.538	997.69
352.765	1011.69
352.992	1021.69
353.22	1029.69
353.447	1011.69
353.674	992.69
353.901	1013.69
354.128	1022.69
354.355	1034.69
354.583	1000.69
354.81	1039.69
355.037	1023.69
355.264	1051.69
355.491	1045.69
355.718	1055.69
355.945	1060.69
356.172	1081.69
356.399	1046.69
356.626	1059.69
356.853	1038.69
357.08	1053.69
357.307	1075.69
357.534	1079.69
357.761	1065.69
357.988	1066.69
358.215	1102.69
358.441	1063.69
358.668	1067.69
358.895	1081.69
359.122	1075.69
359.349	1057.69
359.576	1080.69
359.802	1069.69
360.029	1043.69
360.256	1074.69
360.483	1081.69
360.709	1071.69
360.936	1062.69
361.163	1097.69
361.39	1091.69
361.616	1074.69
361.843	1090.69
362.07	1078.69
362.296	1080.69
362.523	1081.69
362.749	1050.69
362.976	1066.69
363.203	1089.69
363.429	1070.69
363.656	1065.69
363.882	1067.69
364.109	1086.69
364.335	1079.69
364.562	1087.69
364.788	1068.69
365.015	1086.69
365.241	1115.69
365.468	1160.69
365.694	1185.69
365.92	1183.69
366.147	1108.69
366.373	1107.69
366.599	1091.69
366.826	1098.69
367.052	1101.69
367.278	1139.69
367.505	1099.69
367.731	1103.69
367.957	1111.69
368.184	1106.69
368.41	1147.69
368.636	1113.69
368.862	1110.69
369.089	1102.69
369.315	1099.69
369.541	1121.69
369.767	1122.69
369.993	1104.69
370.219	1099.69
370.445	1115.69
370.672	1098.69
370.898	1142.69
371.124	1142.69
371.35	1138.69
371.576	1156.69
371.802	1178.69
372.028	1181.69
372.254	1191.69
372.48	1179.69
372.706	1179.69
372.932	1195.69
373.158	1162.69
373.384	1188.69
373.61	1205.69
373.835	1191.69
374.061	1191.69
374.287	1206.69
374.513	1211.69
374.739	1232.69
374.965	1234.69
375.191	1237.69
375.416	1226.69
375.642	1171.69
375.868	1191.69
376.094	1172.69
376.319	1178.69
376.545	1191.69
376.771	1162.69
376.997	1172.69
377.222	1189.69
377.448	1153.69
377.674	1181.69
377.899	1155.69
378.125	1159.69
378.35	1159.69
378.576	1167.69
378.802	1210.69
379.027	1176.69
379.253	1216.69
379.478	1263.69
379.704	1463.69
379.929	2015.69
380.155	2926.69
380.38	3089.69
380.606	1997.69
380.831	1453.69
381.057	1304.69
381.282	1239.69
381.507	1192.69
381.733	1169.69
381.958	1172.69
382.184	1154.69
382.409	1159.69
382.634	1122.69
382.86	1123.69
383.085	1150.69
383.31	1141.69
383.535	1178.69
383.761	1163.69
383.986	1190.69
384.211	1173.69
384.436	1177.69
384.662	1166.69
384.887	1169.69
385.112	1165.69
385.337	1177.69
385.562	1193.69
385.787	1164.69
386.013	1180.69
386.238	1182.69
386.463	1189.69
386.688	1201.69
386.913	1177.69
387.138	1191.69
387.363	1188.69
387.588	1195.69
387.813	1194.69
388.038	1163.69
388.263	1174.69
388.488	1168.69
388.713	1170.69
388.938	1197.69
389.163	1197.69
389.387	1176.69
389.612	1203.69
389.837	1204.69
390.062	1168.69
390.287	1208.69
390.512	1223.69
390.736	1210.69
390.961	1244.69
391.186	1225.69
391.411	1220.69
391.636	1242.69
391.86	1281.69
392.085	1269.69
392.31	1283.69
392.534	1226.69
392.759	1240.69
392.984	1231.69
393.208	1211.69
393.433	1253.69
393.658	1261.69
393.882	1211.69
394.107	1224.69
394.331	1205.69
394.556	1212.69
394.78	1247.69
395.005	1218.69
395.229	1243.69
395.454	1251.69
395.678	1232.69
395.903	1213.69
396.127	1244.69
396.352	1214.69
396.576	1229.69
396.801	1242.69
397.025	1290.69
397.249	1269.69
397.474	1293.69
397.698	1274.69
397.922	1289.69
398.147	1273.69
398.371	1259.69
398.595	1295.69
398.82	1360.69
399.044	1385.69
399.268	1439.69
399.492	1529.69
399.717	1589.69
399.941	1609.69
400.165	1530.69
400.389	1484.69
400.613	1391.69
400.837	1372.69
401.062	1350.69
401.286	1299.69
401.51	1323.69
401.734	1309.69
401.958	1335.69
402.182	1322.69
402.406	1325.69
402.63	1324.69
402.854	1336.69
403.078	1355.69
403.302	1370.69
403.526	1372.69
403.75	1375.69
403.974	1370.69
404.198	1359.69
404.422	1403.69
404.645	1405.69
404.869	1339.69
405.093	1375.69
405.317	1384.69
405.541	1409.69
405.765	1390.69
405.988	1387.69
406.212	1372.69
406.436	1389.69
406.66	1440.69
406.883	1404.69
407.107	1438.69
407.331	1484.69
407.555	1479.69
407.778	1465.69
408.002	1479.69
408.226	1455.69
408.449	1412.69
408.673	1381.69
408.896	1390.69
409.12	1379.69
409.344	1388.69
409.567	1349.69
409.791	1380.69
410.014	1369.69
410.238	1377.69
410.461	1327.69
410.685	1322.69
410.908	1331.69
411.132	1358.69
411.355	1326.69
411.578	1309.69
411.802	1319.69
412.025	1309.69
412.249	1345.69
412.472	1310.69
412.695	1296.69
412.919	1331.69
413.142	1281.69
413.365	1287.69
413.589	1303.69
413.812	1289.69
414.035	1313.69
414.258	1282.69
414.482	1296.69
414.705	1292.69
414.928	1310.69
415.151	1302.69
415.374	1302.69
415.597	1309.69
415.821	1258.69
416.044	1223.69
416.267	1240.69
416.49	1285.69
416.713	1228.69
416.936	1243.69
417.159	1266.69
417.382	1233.69
417.605	1225.69
417.828	1228.69
418.051	1227.69
418.274	1259.69
418.497	1253.69
418.72	1276.69
418.943	1277.69
419.166	1310.69
419.389	1373.69
419.611	1349.69
419.834	1317.69
420.057	1323.69
420.28	1239.69
420.503	1251.69
420.726	1232.69
420.948	1208.69
421.171	1246.69
421.394	1261.69
421.617	1255.69
421.839	1267.69
422.062	1265.69
422.285	1241.69
422.507	1277.69
422.73	1287.69
422.953	1268.69
423.175	1281.69
423.398	1273.69
423.621	1250.69
423.843	1258.69
424.066	1255.69
424.288	1270.69
424.511	1271.69
424.733	1257.69
424.956	1234.69
425.178	1231.69
425.401	1240.69
425.623	1265.69
425.846	1231.69
426.068	1189.69
426.291	1192.69
426.513	1239.69
426.735	1194.69
426.958	1245.69
427.18	1177.69
427.402	1177.69
427.625	1181.69
427.847	1206.69
428.069	1139.69
428.292	1173.69
428.514	1186.69
428.736	1161.69
428.958	1150.69
429.181	1161.69
429.403	1140.69
429.625	1139.69
429.847	1150.69
430.069	1149.69
430.292	1176.69
430.514	1230.69
430.736	1230.69
430.958	1168.69
431.18	1142.69
431.402	1148.69
431.624	1137.69
431.846	1153.69
432.068	1134.69
432.29	1107.69
432.512	1108.69
432.734	1148.69
432.956	1150.69
433.178	1172.69
433.4	1193.69
433.622	1165.69
433.844	1188.69
434.066	1168.69
434.287	1143.69
434.509	1153.69
434.731	1178.69
434.953	1206.69
435.175	1205.69
435.397	1206.69
435.618	1167.69
435.84	1167.69
436.062	1134.69
436.284	1117.69
436.505	1125.69
436.727	1171.69
436.949	1130.69
437.17	1135.69
437.392	1128.69
437.614	1122.69
437.835	1105.69
438.057	1123.69
438.278	1128.69
438.5	1125.69
438.721	1137.69
438.943	1150.69
439.165	1181.69
439.386	1225.69
439.608	1202.69
439.829	1188.69
440.05	1251.69
440.272	1251.69
440.493	1225.69
440.715	1180.69
440.936	1191.69
441.158	1216.69
441.379	1210.69
441.6	1234.69
441.822	1235.69
442.043	1325.69
442.264	1354.69
442.486	1284.69
442.707	1265.69
442.928	1221.69
443.149	1216.69
443.371	1236.69
443.592	1243.69
443.813	1222.69
444.034	1238.69
444.255	1239.69
444.476	1308.69
444.698	1361.69
444.919	1323.69
445.14	1401.69
445.361	1356.69
445.582	1301.69
445.803	1227.69
446.024	1246.69
446.245	1209.69
446.466	1222.69
446.687	1199.69
446.908	1226.69
447.129	1192.69
447.35	1167.69
447.571	1202.69
447.792	1132.69
448.013	1128.69
448.234	1147.69
448.455	1136.69
448.675	1148.69
448.896	1163.69
449.117	1197.69
449.338	1310.69
449.559	1330.69
449.779	1189.69
450	1153.69
450.221	1118.69
450.442	1118.69
450.662	1115.69
450.883	1101.69
451.104	1113.69
451.324	1103.69
451.545	1119.69
451.766	1118.69
451.986	1139.69
452.207	1165.69
452.428	1443.69
452.648	1938.69
452.869	1685.69
453.089	1276.69
453.31	1207.69
453.53	1214.69
453.751	1250.69
453.971	1294.69
454.192	1309.69
454.412	1154.69
454.633	1096.69
454.853	1080.69
455.073	1048.69
455.294	1059.69
455.514	1042.69
455.734	1006.69
455.955	1035.69
456.175	1053.69
456.395	1082.69
456.616	1057.69
456.836	1061.69
457.056	1070.69
457.276	1084.69
457.497	1123.69
457.717	1135.69
457.937	1095.69
458.157	1092.69
458.377	1083.69
458.598	1108.69
458.818	1130.69
459.038	1140.69
459.258	1102.69
459.478	1151.69
459.698	1146.69
459.918	1186.69
460.138	1173.69
460.358	1237.69
460.578	1214.69
460.798	1251.69
461.018	1265.69
461.238	1235.69
461.458	1258.69
461.678	1253.69
461.898	1292.69
462.118	1269.69
462.338	1335.69
462.558	1327.69
462.777	1382.69
462.997	1414.69
463.217	1479.69
463.437	1459.69
463.657	1481.69
463.876	1483.69
464.096	1419.69
464.316	1371.69
464.536	1366.69
464.755	1337.69
464.975	1303.69
465.195	1275.69
465.414	1242.69
465.634	1202.69
465.854	1199.69
466.073	1187.69
466.293	1166.69
466.512	1139.69
466.732	1164.69
466.951	1210.69
467.171	1267.69
467.391	1233.69
467.61	1186.69
467.829	1137.69
468.049	1121.69
468.268	1147.69
468.488	1130.69
468.707	1131.69
468.927	1140.69
469.146	1109.69
469.365	1128.69
469.585	1139.69
469.804	1169.69
470.023	1193.69
470.243	1213.69
470.462	1213.69
470.681	1279.69
470.901	1399.69
471.12	1589.69
471.339	1574.69
471.558	1322.69
471.777	1254.69
471.997	1167.69
472.216	1168.69
472.435	1149.69
472.654	1107.69
472.873	1120.69
473.092	1130.69
473.311	1145.69
473.53	1128.69
473.749	1161.69
473.968	1165.69
474.187	1141.69
474.406	1138.69
474.625	1161.69
474.844	1142.69
475.063	1135.69
475.282	1155.69
475.501	1124.69
475.72	1137.69
475.939	1149.69
476.158	1176.69
476.377	1231.69
476.596	1181.69
476.814	1190.69
477.033	1175.69
477.252	1191.69
477.471	1209.69
477.69	1261.69
477.908	1270.69
478.127	1253.69
478.346	1273.69
478.564	1321.69
478.783	1329.69
479.002	1306.69
479.22	1359.69
479.439	1360.69
479.658	1347.69
479.876	1370.69
480.095	1363.69
480.313	1389.69
480.532	1408.69
480.751	1385.69
480.969	1369.69
481.188	1362.69
481.406	1326.69
481.624	1333.69
481.843	1349.69
482.061	1354.69
482.28	1380.69
482.498	1308.69
482.717	1324.69
482.935	1386.69
483.153	1432.69
483.372	1399.69
483.59	1381.69
483.808	1386.69
484.027	1445.69
484.245	1517.69
484.463	1687.69
484.681	1843.69
484.9	1662.69
485.118	1615.69
485.336	1571.69
485.554	1561.69
485.772	1635.69
485.99	1898.69
486.209	2004.69
486.427	1705.69
486.645	1546.69
486.863	1485.69
487.081	1451.69
487.299	1452.69
487.517	1437.69
487.735	1450.69
487.953	1475.69
488.171	1483.69
488.389	1490.69
488.607	1458.69
488.825	1428.69
489.043	1391.69
489.261	1367.69
489.479	1403.69
489.696	1402.69
489.914	1411.69
490.132	1410.69
490.35	1426.69
490.568	1411.69
490.786	1470.69
491.003	1495.69
