Data from SnStandardFlinnAPT0064_LampEnergy10_LIBS07252019.E.O._I.C._HRD10591_15-21-23-494.txt Node
Date: Thu Jul 25 15:21:23 EDT 2019
User: cochatt
Spectrometer: HR+D1059
Trigger mode: 1
Integration Time (sec): 1.000000E-1
Scans to average: 1
Electric dark correction enabled: true
Nonlinearity correction enabled: false
Boxcar width: 0
XAxis mode: Wavelengths
Number of Pixels in Spectrum: 2048
>>>>>Begin Spectral Data<<<<<
223.165	-8.56
223.4	-8.56
223.635	-8.56
223.869	-16.56
224.104	-9.56
224.338	-12.56
224.573	-16.56
224.808	-21.56
225.042	-9.56
225.277	7.44
225.511	0.44
225.746	-11.56
225.98	18.44
226.215	5.44
226.449	23.44
226.683	19.44
226.918	13.44
227.152	18.44
227.387	31.44
227.621	39.44
227.856	35.44
228.09	37.44
228.324	32.44
228.559	49.44
228.793	120.44
229.027	299.44
229.262	335.44
229.496	311.44
229.73	295.44
229.964	274.44
230.199	302.44
230.433	309.44
230.667	308.44
230.901	320.44
231.136	340.44
231.37	355.44
231.604	382.44
231.838	431.44
232.072	521.44
232.306	557.44
232.541	486.44
232.775	427.44
233.009	433.44
233.243	413.44
233.477	454.44
233.711	496.44
233.945	577.44
234.179	501.44
234.413	443.44
234.647	437.44
234.881	468.44
235.115	527.44
235.349	612.44
235.583	772.44
235.817	1047.44
236.051	975.44
236.285	627.44
236.519	547.44
236.753	504.44
236.987	502.44
237.221	542.44
237.455	527.44
237.689	475.44
237.922	453.44
238.156	453.44
238.39	492.44
238.624	478.44
238.858	468.44
239.091	483.44
239.325	492.44
239.559	480.44
239.793	503.44
240.027	512.44
240.26	539.44
240.494	568.44
240.728	592.44
240.961	619.44
241.195	645.44
241.429	672.44
241.662	699.44
241.896	779.44
242.13	951.44
242.363	1244.44
242.597	1632.44
242.83	1564.44
243.064	1557.44
243.298	1869.44
243.531	1494.44
243.765	1011.44
243.998	760.44
244.232	707.44
244.465	659.44
244.699	660.44
244.932	673.44
245.166	680.44
245.399	701.44
245.633	687.44
245.866	718.44
246.099	674.44
246.333	671.44
246.566	636.44
246.8	637.44
247.033	663.44
247.266	664.44
247.5	664.44
247.733	680.44
247.966	716.44
248.2	755.44
248.433	889.44
248.666	989.44
248.899	946.44
249.133	853.44
249.366	862.44
249.599	972.44
249.832	1097.44
250.066	1125.44
250.299	866.44
250.532	788.44
250.765	788.44
250.998	766.44
251.231	745.44
251.465	739.44
251.698	747.44
251.931	737.44
252.164	737.44
252.397	764.44
252.63	792.44
252.863	783.44
253.096	785.44
253.329	797.44
253.562	746.44
253.795	776.44
254.028	818.44
254.261	849.44
254.494	884.44
254.727	1004.44
254.96	1243.44
255.193	1219.44
255.426	975.44
255.659	901.44
255.892	871.44
256.124	871.44
256.357	882.44
256.59	903.44
256.823	981.44
257.056	1137.44
257.289	1341.44
257.521	1479.44
257.754	1210.44
257.987	963.44
258.22	917.44
258.452	923.44
258.685	917.44
258.918	967.44
259.151	976.44
259.383	1075.44
259.616	1243.44
259.849	1285.44
260.081	1101.44
260.314	997.44
260.547	950.44
260.779	959.44
261.012	960.44
261.244	985.44
261.477	960.44
261.71	968.44
261.942	1007.44
262.175	1031.44
262.407	1052.44
262.64	1087.44
262.872	1107.44
263.105	1161.44
263.337	1195.44
263.57	1248.44
263.802	1313.44
264.035	1351.44
264.267	1353.44
264.499	1397.44
264.732	1475.44
264.964	1466.44
265.197	1492.44
265.429	1467.44
265.661	1461.44
265.894	1614.44
266.126	1764.44
266.358	1964.44
266.591	1971.44
266.823	1691.44
267.055	1476.44
267.287	1402.44
267.52	1356.44
267.752	1306.44
267.984	1272.44
268.216	1259.44
268.448	1233.44
268.681	1241.44
268.913	1239.44
269.145	1223.44
269.377	1261.44
269.609	1283.44
269.841	1263.44
270.073	1392.44
270.306	1617.44
270.538	2196.44
270.77	3276.44
271.002	3995.44
271.234	2808.44
271.466	1851.44
271.698	1509.44
271.93	1391.44
272.162	1316.44
272.394	1311.44
272.626	1293.44
272.858	1240.44
273.09	1235.44
273.322	1223.44
273.553	1207.44
273.785	1184.44
274.017	1195.44
274.249	1219.44
274.481	1211.44
274.713	1191.44
274.945	1226.44
275.176	1207.44
275.408	1211.44
275.64	1225.44
275.872	1232.44
276.104	1261.44
276.335	1295.44
276.567	1291.44
276.799	1309.44
277.031	1285.44
277.262	1324.44
277.494	1377.44
277.726	1552.44
277.957	1851.44
278.189	2122.44
278.421	1982.44
278.652	1728.44
278.884	1675.44
279.115	1512.44
279.347	1451.44
279.579	1425.44
279.81	1377.44
280.042	1384.44
280.273	1382.44
280.505	1464.44
280.736	1480.44
280.968	1570.44
281.199	1813.44
281.431	2065.44
281.662	2106.44
281.894	1793.44
282.125	1597.44
282.356	1650.44
282.588	1653.44
282.819	1751.44
283.051	1799.44
283.282	2043.44
283.513	2492.44
283.745	3546.44
283.976	5718.44
284.207	8120.44
284.439	7403.44
284.67	4556.44
284.901	3724.44
285.132	3779.44
285.364	3570.44
285.595	2728.44
285.826	2433.44
286.057	2889.44
286.288	3900.44
286.52	5307.44
286.751	4872.44
286.982	3007.44
287.213	2311.44
287.444	1981.44
287.675	1866.44
287.906	1772.44
288.138	1755.44
288.369	1719.44
288.6	1672.44
288.831	1685.44
289.062	1700.44
289.293	1666.44
289.524	1671.44
289.755	1735.44
289.986	1704.44
290.217	1751.44
290.448	1737.44
290.679	1753.44
290.91	1812.44
291.141	1888.44
291.371	2038.44
291.602	2118.44
291.833	1903.44
292.064	1760.44
292.295	1701.44
292.526	1631.44
292.757	1640.44
292.987	1587.44
293.218	1573.44
293.449	1616.44
293.68	1601.44
293.91	1607.44
294.141	1581.44
294.372	1575.44
294.603	1592.44
294.833	1569.44
295.064	1548.44
295.295	1571.44
295.525	1589.44
295.756	1562.44
295.987	1599.44
296.217	1605.44
296.448	1582.44
296.679	1589.44
296.909	1621.44
297.14	1596.44
297.37	1600.44
297.601	1681.44
297.831	1659.44
298.062	1610.44
298.292	1613.44
298.523	1677.44
298.753	1683.44
298.984	1703.44
299.214	1736.44
299.445	1746.44
299.675	1756.44
299.905	1867.44
300.136	1899.44
300.366	2150.44
300.597	2756.44
300.827	3869.44
301.057	5318.44
301.288	5266.44
301.518	3387.44
301.748	2573.44
301.979	2365.44
302.209	2289.44
302.439	2305.44
302.669	2449.44
302.9	2998.44
303.13	4152.44
303.36	6148.44
303.59	8259.44
303.82	7122.44
304.051	4175.44
304.281	3014.44
304.511	2532.44
304.741	2340.44
304.971	2215.44
305.201	2052.44
305.431	1984.44
305.661	1961.44
305.891	1905.44
306.121	1864.44
306.352	1891.44
306.582	1821.44
306.812	1831.44
307.042	1862.44
307.272	1815.44
307.502	1817.44
307.731	1865.44
307.961	1818.44
308.191	1812.44
308.421	1792.44
308.651	1803.44
308.881	1830.44
309.111	1816.44
309.341	1810.44
309.571	1799.44
309.8	1868.44
310.03	1863.44
310.26	1849.44
310.49	1811.44
310.72	1893.44
310.949	1857.44
311.179	1959.44
311.409	1933.44
311.639	1921.44
311.868	1942.44
312.098	1900.44
312.328	1951.44
312.557	1987.44
312.787	1985.44
313.017	1964.44
313.246	2014.44
313.476	2012.44
313.706	2097.44
313.935	2195.44
314.165	2415.44
314.394	2494.44
314.624	2327.44
314.853	2219.44
315.083	2139.44
315.312	2189.44
315.542	2187.44
315.771	2203.44
316.001	2216.44
316.23	2331.44
316.46	2451.44
316.689	2669.44
316.919	3201.44
317.148	4632.44
317.377	7141.44
317.607	10521.44
317.836	10909.44
318.065	6574.44
318.295	4267.44
318.524	3390.44
318.753	2995.44
318.983	2705.44
319.212	2600.44
319.441	2531.44
319.67	2449.44
319.9	2393.44
320.129	2399.44
320.358	2335.44
320.587	2387.44
320.816	2371.44
321.046	2384.44
321.275	2389.44
321.504	2397.44
321.733	2437.44
321.962	2477.44
322.191	2564.44
322.42	2470.44
322.649	2507.44
322.878	2464.44
323.108	2466.44
323.337	2557.44
323.566	2544.44
323.795	2614.44
324.024	2647.44
324.253	2749.44
324.482	2846.44
324.71	3031.44
324.939	3215.44
325.168	3267.44
325.397	3428.44
325.626	3997.44
325.855	5655.44
326.084	8799.44
326.313	12780.44
326.542	13475.44
326.77	8966.44
326.999	5999.44
327.228	4993.44
327.457	4702.44
327.686	4814.44
327.914	5167.44
328.143	6074.44
328.372	7327.44
328.6	7987.44
328.829	7070.44
329.058	5815.44
329.287	5123.44
329.515	4657.44
329.744	4316.44
329.972	4062.44
330.201	3860.44
330.43	3755.44
330.658	3635.44
330.887	3613.44
331.115	3586.44
331.344	3509.44
331.572	3510.44
331.801	3536.44
332.03	3580.44
332.258	3593.44
332.486	3726.44
332.715	4340.44
332.943	5375.44
333.172	6575.44
333.4	6595.44
333.629	4979.44
333.857	4536.44
334.085	4507.44
334.314	4763.44
334.542	5154.44
334.771	6172.44
334.999	7549.44
335.227	9618.44
335.455	10750.44
335.684	9522.44
335.912	7800.44
336.14	6633.44
336.369	5781.44
336.597	5311.44
336.825	4859.44
337.053	4588.44
337.281	4284.44
337.51	4059.44
337.738	3889.44
337.966	3734.44
338.194	3603.44
338.422	3469.44
338.65	3416.44
338.878	3319.44
339.106	3291.44
339.334	3267.44
339.562	3174.44
339.79	3109.44
340.018	3134.44
340.246	3054.44
340.474	3028.44
340.702	3015.44
340.93	3017.44
341.158	3020.44
341.386	2979.44
341.614	2992.44
341.842	2932.44
342.07	2873.44
342.298	2878.44
342.526	2796.44
342.754	2749.44
342.981	2811.44
343.209	2722.44
343.437	2788.44
343.665	2797.44
343.893	2832.44
344.12	2849.44
344.348	2782.44
344.576	2720.44
344.804	2727.44
345.031	2671.44
345.259	2650.44
345.487	2607.44
345.714	2588.44
345.942	2573.44
346.17	2567.44
346.397	2560.44
346.625	2551.44
346.853	2563.44
347.08	2567.44
347.308	2555.44
347.535	2586.44
347.763	2531.44
347.99	2526.44
348.218	2585.44
348.445	2506.44
348.673	2487.44
348.9	2480.44
349.128	2447.44
349.355	2497.44
349.583	2448.44
349.81	2420.44
350.037	2437.44
350.265	2423.44
350.492	2424.44
350.72	2416.44
350.947	2438.44
351.174	2474.44
351.402	2416.44
351.629	2422.44
351.856	2438.44
352.083	2452.44
352.311	2364.44
352.538	2410.44
352.765	2422.44
352.992	2395.44
353.22	2397.44
353.447	2396.44
353.674	2408.44
353.901	2402.44
354.128	2428.44
354.355	2427.44
354.583	2388.44
354.81	2430.44
355.037	2472.44
355.264	2420.44
355.491	2436.44
355.718	2491.44
355.945	2453.44
356.172	2493.44
356.399	2495.44
356.626	2506.44
356.853	2470.44
357.08	2535.44
357.307	2567.44
357.534	2604.44
357.761	2604.44
357.988	2636.44
358.215	2563.44
358.441	2633.44
358.668	2534.44
358.895	2575.44
359.122	2542.44
359.349	2561.44
359.576	2531.44
359.802	2585.44
360.029	2587.44
360.256	2560.44
360.483	2550.44
360.709	2541.44
360.936	2590.44
361.163	2557.44
361.39	2546.44
361.616	2555.44
361.843	2599.44
362.07	2576.44
362.296	2598.44
362.523	2669.44
362.749	2606.44
362.976	2583.44
363.203	2547.44
363.429	2540.44
363.656	2596.44
363.882	2567.44
364.109	2531.44
364.335	2554.44
364.562	2577.44
364.788	2593.44
365.015	2607.44
365.241	2657.44
365.468	2818.44
365.694	2947.44
365.92	2804.44
366.147	2647.44
366.373	2667.44
366.599	2651.44
366.826	2611.44
367.052	2600.44
367.278	2633.44
367.505	2651.44
367.731	2620.44
367.957	2603.44
368.184	2632.44
368.41	2699.44
368.636	2675.44
368.862	2674.44
369.089	2678.44
369.315	2676.44
369.541	2695.44
369.767	2683.44
369.993	2683.44
370.219	2634.44
370.445	2675.44
370.672	2693.44
370.898	2691.44
371.124	2727.44
371.35	2761.44
371.576	2707.44
371.802	2823.44
372.028	2784.44
372.254	2767.44
372.48	2774.44
372.706	2790.44
372.932	2845.44
373.158	2779.44
373.384	2799.44
373.61	2819.44
373.835	2802.44
374.061	2817.44
374.287	2865.44
374.513	2847.44
374.739	2894.44
374.965	2935.44
375.191	2935.44
375.416	2896.44
375.642	2887.44
375.868	2878.44
376.094	2820.44
376.319	2767.44
376.545	2820.44
376.771	2790.44
376.997	2758.44
377.222	2709.44
377.448	2763.44
377.674	2770.44
377.899	2724.44
378.125	2768.44
378.35	2715.44
378.576	2763.44
378.802	2800.44
379.027	2843.44
379.253	2933.44
379.478	3067.44
379.704	3555.44
379.929	5209.44
380.155	7918.44
380.38	8614.44
380.606	5245.44
380.831	3698.44
381.057	3232.44
381.282	3019.44
381.507	2899.44
381.733	2814.44
381.958	2788.44
382.184	2779.44
382.409	2727.44
382.634	2704.44
382.86	2698.44
383.085	2731.44
383.31	2700.44
383.535	2738.44
383.761	2703.44
383.986	2731.44
384.211	2727.44
384.436	2800.44
384.662	2815.44
384.887	2830.44
385.112	2786.44
385.337	2784.44
385.562	2787.44
385.787	2770.44
386.013	2838.44
386.238	2815.44
386.463	2796.44
386.688	2804.44
386.913	2781.44
387.138	2759.44
387.363	2760.44
387.588	2767.44
387.813	2779.44
388.038	2798.44
388.263	2819.44
388.488	2771.44
388.713	2774.44
388.938	2815.44
389.163	2779.44
389.387	2788.44
389.612	2795.44
389.837	2821.44
390.062	2754.44
390.287	2783.44
390.512	2820.44
390.736	2903.44
390.961	2875.44
391.186	2912.44
391.411	2829.44
391.636	2942.44
391.86	2938.44
392.085	2919.44
392.31	2925.44
392.534	2883.44
392.759	2886.44
392.984	2851.44
393.208	2855.44
393.433	2796.44
393.658	2843.44
393.882	2812.44
394.107	2779.44
394.331	2806.44
394.556	2827.44
394.78	2851.44
395.005	2868.44
395.229	2869.44
395.454	2887.44
395.678	2934.44
395.903	2883.44
396.127	2896.44
396.352	2911.44
396.576	2848.44
396.801	2894.44
397.025	2896.44
397.249	2934.44
397.474	2950.44
397.698	2962.44
397.922	2958.44
398.147	2936.44
398.371	2994.44
398.595	3024.44
398.82	3124.44
399.044	3238.44
399.268	3388.44
399.492	3494.44
399.717	3701.44
399.941	3660.44
400.165	3518.44
400.389	3411.44
400.613	3341.44
400.837	3164.44
401.062	3131.44
401.286	3127.44
401.51	3095.44
401.734	3019.44
401.958	3106.44
402.182	3082.44
402.406	3056.44
402.63	3085.44
402.854	3105.44
403.078	3074.44
403.302	3153.44
403.526	3189.44
403.75	3148.44
403.974	3172.44
404.198	3180.44
404.422	3208.44
404.645	3197.44
404.869	3219.44
405.093	3191.44
405.317	3202.44
405.541	3252.44
405.765	3249.44
405.988	3298.44
406.212	3290.44
406.436	3300.44
406.66	3299.44
406.883	3261.44
407.107	3407.44
407.331	3444.44
407.555	3546.44
407.778	3431.44
408.002	3423.44
408.226	3379.44
408.449	3379.44
408.673	3343.44
408.896	3303.44
409.12	3234.44
409.344	3255.44
409.567	3145.44
409.791	3197.44
410.014	3153.44
410.238	3141.44
410.461	3172.44
410.685	3165.44
410.908	3098.44
411.132	3131.44
411.355	3058.44
411.578	3074.44
411.802	3091.44
412.025	3056.44
412.249	3105.44
412.472	3051.44
412.695	2999.44
412.919	3013.44
413.142	3013.44
413.365	3015.44
413.589	3052.44
413.812	3010.44
414.035	2984.44
414.258	3009.44
414.482	2979.44
414.705	2980.44
414.928	3022.44
415.151	2991.44
415.374	2941.44
415.597	2956.44
415.821	2903.44
416.044	2867.44
416.267	2859.44
416.49	2871.44
416.713	2854.44
416.936	2883.44
417.159	2847.44
417.382	2835.44
417.605	2870.44
417.828	2870.44
418.051	2908.44
418.274	2896.44
418.497	2934.44
418.72	3012.44
418.943	2908.44
419.166	3064.44
419.389	3213.44
419.611	3214.44
419.834	3049.44
420.057	3015.44
420.28	2962.44
420.503	2904.44
420.726	2892.44
420.948	2830.44
421.171	2832.44
421.394	2892.44
421.617	2885.44
421.839	2899.44
422.062	2937.44
422.285	2901.44
422.507	2960.44
422.73	2964.44
422.953	2983.44
423.175	2994.44
423.398	2988.44
423.621	2925.44
423.843	2951.44
424.066	2939.44
424.288	2891.44
424.511	2884.44
424.733	2912.44
424.956	2873.44
425.178	2802.44
425.401	2842.44
425.623	2887.44
425.846	2802.44
426.068	2837.44
426.291	2820.44
426.513	2749.44
426.735	2759.44
426.958	2760.44
427.18	2730.44
427.402	2705.44
427.625	2788.44
427.847	2660.44
428.069	2669.44
428.292	2712.44
428.514	2677.44
428.736	2632.44
428.958	2720.44
429.181	2632.44
429.403	2645.44
429.625	2588.44
429.847	2643.44
430.069	2720.44
430.292	2799.44
430.514	2894.44
430.736	2907.44
430.958	2702.44
431.18	2595.44
431.402	2651.44
431.624	2590.44
431.846	2617.44
432.068	2599.44
432.29	2605.44
432.512	2609.44
432.734	2700.44
432.956	2659.44
433.178	2639.44
433.4	2683.44
433.622	2662.44
433.844	2677.44
434.066	2673.44
434.287	2633.44
434.509	2702.44
434.731	2768.44
434.953	2775.44
435.175	2780.44
435.397	2807.44
435.618	2720.44
435.84	2707.44
436.062	2590.44
436.284	2626.44
436.505	2588.44
436.727	2661.44
436.949	2642.44
437.17	2625.44
437.392	2561.44
437.614	2601.44
437.835	2542.44
438.057	2521.44
438.278	2540.44
438.5	2567.44
438.721	2611.44
438.943	2714.44
439.165	2749.44
439.386	2750.44
439.608	2742.44
439.829	2780.44
440.05	2837.44
440.272	2897.44
440.493	2744.44
440.715	2726.44
440.936	2753.44
441.158	2766.44
441.379	2811.44
441.6	2856.44
441.822	2948.44
442.043	3109.44
442.264	3243.44
442.486	3042.44
442.707	2884.44
442.928	2801.44
443.149	2851.44
443.371	2861.44
443.592	2834.44
443.813	2851.44
444.034	2849.44
444.255	2895.44
444.476	2950.44
444.698	2997.44
444.919	2999.44
445.14	3078.44
445.361	2964.44
445.582	2941.44
445.803	2798.44
446.024	2819.44
446.245	2792.44
446.466	2842.44
446.687	2769.44
446.908	2712.44
447.129	2680.44
447.35	2696.44
447.571	2648.44
447.792	2608.44
448.013	2584.44
448.234	2557.44
448.455	2635.44
448.675	2624.44
448.896	2722.44
449.117	2767.44
449.338	2973.44
449.559	3183.44
449.779	2773.44
450	2626.44
450.221	2569.44
450.442	2633.44
450.662	2523.44
450.883	2527.44
451.104	2548.44
451.324	2533.44
451.545	2520.44
451.766	2570.44
451.986	2576.44
452.207	2870.44
452.428	3662.44
452.648	5451.44
452.869	4573.44
453.089	3182.44
453.31	2955.44
453.53	2924.44
453.751	3083.44
453.971	3245.44
454.192	3152.44
454.412	2726.44
454.633	2551.44
454.853	2528.44
455.073	2459.44
455.294	2420.44
455.514	2429.44
455.734	2454.44
455.955	2399.44
456.175	2449.44
456.395	2412.44
456.616	2439.44
456.836	2495.44
457.056	2504.44
457.276	2531.44
457.497	2629.44
457.717	2712.44
457.937	2559.44
458.157	2575.44
458.377	2604.44
458.598	2640.44
458.818	2625.44
459.038	2598.44
459.258	2619.44
459.478	2648.44
459.698	2665.44
459.918	2723.44
460.138	2724.44
460.358	2803.44
460.578	2795.44
460.798	2884.44
461.018	2913.44
461.238	2889.44
461.458	2892.44
461.678	2936.44
461.898	3032.44
462.118	3016.44
462.338	3106.44
462.558	3062.44
462.777	3145.44
462.997	3297.44
463.217	3369.44
463.437	3472.44
463.657	3614.44
463.876	3597.44
464.096	3360.44
464.316	3212.44
464.536	3211.44
464.755	3094.44
464.975	3047.44
465.195	2899.44
465.414	2856.44
465.634	2773.44
465.854	2759.44
466.073	2689.44
466.293	2628.44
466.512	2660.44
466.732	2759.44
466.951	2851.44
467.171	3061.44
467.391	2980.44
467.61	2734.44
467.829	2622.44
468.049	2617.44
468.268	2557.44
468.488	2600.44
468.707	2573.44
468.927	2604.44
469.146	2572.44
469.365	2598.44
469.585	2622.44
469.804	2668.44
470.023	2743.44
470.243	2748.44
470.462	2883.44
470.681	3005.44
470.901	3314.44
471.12	3804.44
471.339	3810.44
471.558	3163.44
471.777	2845.44
471.997	2783.44
472.216	2682.44
472.435	2670.44
472.654	2649.44
472.873	2623.44
473.092	2613.44
473.311	2611.44
473.53	2613.44
473.749	2702.44
473.968	2781.44
474.187	2656.44
474.406	2637.44
474.625	2605.44
474.844	2615.44
475.063	2630.44
475.282	2637.44
475.501	2617.44
475.72	2638.44
475.939	2701.44
476.158	2658.44
476.377	2820.44
476.596	2770.44
476.814	2787.44
477.033	2753.44
477.252	2771.44
477.471	2831.44
477.69	2874.44
477.908	2907.44
478.127	2956.44
478.346	2971.44
478.564	3078.44
478.783	3009.44
479.002	3107.44
479.22	3100.44
479.439	3103.44
479.658	3129.44
479.876	3075.44
480.095	3164.44
480.313	3215.44
480.532	3224.44
480.751	3238.44
480.969	3187.44
481.188	3202.44
481.406	3154.44
481.624	3157.44
481.843	3192.44
482.061	3221.44
482.28	3188.44
482.498	3150.44
482.717	3131.44
482.935	3189.44
483.153	3266.44
483.372	3283.44
483.59	3322.44
483.808	3411.44
484.027	3438.44
484.245	3655.44
484.463	4105.44
484.681	4592.44
484.9	4153.44
485.118	3825.44
485.336	3783.44
485.554	3788.44
485.772	4090.44
485.99	4575.44
486.209	4934.44
486.427	4163.44
486.645	3703.44
486.863	3540.44
487.081	3471.44
487.299	3382.44
487.517	3360.44
487.735	3392.44
