Data from SnStandardFlinnAPT0064_QswitchEnergy10_LIBS07252019.E.O._I.C._HRD10591_15-28-21-974.txt Node
Date: Thu Jul 25 15:28:21 EDT 2019
User: cochatt
Spectrometer: HR+D1059
Trigger mode: 1
Integration Time (sec): 1.000000E-1
Scans to average: 1
Electric dark correction enabled: true
Nonlinearity correction enabled: false
Boxcar width: 0
XAxis mode: Wavelengths
Number of Pixels in Spectrum: 2048
>>>>>Begin Spectral Data<<<<<
223.165	-22.5
223.4	-22.5
223.635	-22.5
223.869	-4.5
224.104	-11.5
224.338	-10.5
224.573	-24.5
224.808	-0.5
225.042	-11.5
225.277	-22.5
225.511	-0.5
225.746	-8.5
225.98	21.5
226.215	14.5
226.449	5.5
226.683	22.5
226.918	21.5
227.152	31.5
227.387	28.5
227.621	34.5
227.856	53.5
228.09	54.5
228.324	49.5
228.559	50.5
228.793	60.5
229.027	62.5
229.262	71.5
229.496	73.5
229.73	76.5
229.964	71.5
230.199	75.5
230.433	77.5
230.667	82.5
230.901	86.5
231.136	78.5
231.37	85.5
231.604	105.5
231.838	109.5
232.072	122.5
232.306	115.5
232.541	105.5
232.775	84.5
233.009	75.5
233.243	86.5
233.477	102.5
233.711	105.5
233.945	107.5
234.179	104.5
234.413	82.5
234.647	81.5
234.881	85.5
235.115	89.5
235.349	81.5
235.583	98.5
235.817	123.5
236.051	138.5
236.285	106.5
236.519	101.5
236.753	87.5
236.987	79.5
237.221	97.5
237.455	71.5
237.689	81.5
237.922	66.5
238.156	88.5
238.39	78.5
238.624	100.5
238.858	95.5
239.091	88.5
239.325	76.5
239.559	76.5
239.793	72.5
240.027	69.5
240.26	82.5
240.494	86.5
240.728	79.5
240.961	84.5
241.195	95.5
241.429	94.5
241.662	86.5
241.896	91.5
242.13	96.5
242.363	133.5
242.597	181.5
242.83	152.5
243.064	163.5
243.298	188.5
243.531	147.5
243.765	92.5
243.998	87.5
244.232	94.5
244.465	86.5
244.699	75.5
244.932	92.5
245.166	81.5
245.399	89.5
245.633	97.5
245.866	101.5
246.099	83.5
246.333	96.5
246.566	94.5
246.8	84.5
247.033	93.5
247.266	83.5
247.5	87.5
247.733	75.5
247.966	76.5
248.2	99.5
248.433	116.5
248.666	114.5
248.899	144.5
249.133	91.5
249.366	97.5
249.599	105.5
249.832	117.5
250.066	137.5
250.299	95.5
250.532	95.5
250.765	85.5
250.998	73.5
251.231	98.5
251.465	87.5
251.698	87.5
251.931	81.5
252.164	81.5
252.397	97.5
252.63	102.5
252.863	109.5
253.096	87.5
253.329	100.5
253.562	91.5
253.795	100.5
254.028	91.5
254.261	100.5
254.494	96.5
254.727	121.5
254.96	157.5
255.193	145.5
255.426	95.5
255.659	87.5
255.892	106.5
256.124	108.5
256.357	106.5
256.59	96.5
256.823	101.5
257.056	114.5
257.289	166.5
257.521	200.5
257.754	140.5
257.987	109.5
258.22	82.5
258.452	95.5
258.685	91.5
258.918	103.5
259.151	93.5
259.383	111.5
259.616	159.5
259.849	155.5
260.081	114.5
260.314	80.5
260.547	79.5
260.779	78.5
261.012	86.5
261.244	86.5
261.477	76.5
261.71	89.5
261.942	91.5
262.175	97.5
262.407	96.5
262.64	88.5
262.872	78.5
263.105	83.5
263.337	105.5
263.57	92.5
263.802	96.5
264.035	93.5
264.267	91.5
264.499	102.5
264.732	78.5
264.964	74.5
265.197	87.5
265.429	85.5
265.661	91.5
265.894	113.5
266.126	131.5
266.358	151.5
266.591	148.5
266.823	96.5
267.055	107.5
267.287	96.5
267.52	90.5
267.752	93.5
267.984	104.5
268.216	96.5
268.448	92.5
268.681	99.5
268.913	82.5
269.145	87.5
269.377	100.5
269.609	92.5
269.841	88.5
270.073	112.5
270.306	149.5
270.538	211.5
270.77	356.5
271.002	409.5
271.234	230.5
271.466	106.5
271.698	100.5
271.93	82.5
272.162	101.5
272.394	92.5
272.626	102.5
272.858	96.5
273.09	80.5
273.322	94.5
273.553	87.5
273.785	92.5
274.017	82.5
274.249	90.5
274.481	84.5
274.713	78.5
274.945	99.5
275.176	88.5
275.408	102.5
275.64	101.5
275.872	108.5
276.104	94.5
276.335	89.5
276.567	109.5
276.799	94.5
277.031	95.5
277.262	96.5
277.494	128.5
277.726	145.5
277.957	203.5
278.189	280.5
278.421	259.5
278.652	197.5
278.884	206.5
279.115	142.5
279.347	105.5
279.579	106.5
279.81	97.5
280.042	96.5
280.273	99.5
280.505	99.5
280.736	102.5
280.968	126.5
281.199	199.5
281.431	273.5
281.662	287.5
281.894	186.5
282.125	125.5
282.356	113.5
282.588	120.5
282.819	112.5
283.051	116.5
283.282	143.5
283.513	203.5
283.745	340.5
283.976	604.5
284.207	877.5
284.439	637.5
284.67	314.5
284.901	297.5
285.132	379.5
285.364	420.5
285.595	246.5
285.826	175.5
286.057	273.5
286.288	463.5
286.52	668.5
286.751	541.5
286.982	205.5
287.213	125.5
287.444	116.5
287.675	101.5
287.906	112.5
288.138	91.5
288.369	116.5
288.6	106.5
288.831	103.5
289.062	100.5
289.293	83.5
289.524	80.5
289.755	87.5
289.986	90.5
290.217	98.5
290.448	114.5
290.679	115.5
290.91	120.5
291.141	172.5
291.371	268.5
291.602	309.5
291.833	211.5
292.064	121.5
292.295	108.5
292.526	106.5
292.757	101.5
292.987	99.5
293.218	82.5
293.449	114.5
293.68	102.5
293.91	91.5
294.141	91.5
294.372	97.5
294.603	98.5
294.833	85.5
295.064	97.5
295.295	89.5
295.525	85.5
295.756	108.5
295.987	85.5
296.217	80.5
296.448	98.5
296.679	104.5
296.909	96.5
297.14	94.5
297.37	96.5
297.601	94.5
297.831	103.5
298.062	96.5
298.292	94.5
298.523	111.5
298.753	102.5
298.984	117.5
299.214	113.5
299.445	104.5
299.675	124.5
299.905	125.5
300.136	134.5
300.366	179.5
300.597	292.5
300.827	479.5
301.057	775.5
301.288	677.5
301.518	287.5
301.748	149.5
301.979	139.5
302.209	143.5
302.439	144.5
302.669	180.5
302.9	295.5
303.13	542.5
303.36	987.5
303.59	1355.5
303.82	943.5
304.051	313.5
304.281	184.5
304.511	136.5
304.741	139.5
304.971	127.5
305.201	111.5
305.431	115.5
305.661	111.5
305.891	103.5
306.121	93.5
306.352	107.5
306.582	107.5
306.812	117.5
307.042	121.5
307.272	108.5
307.502	114.5
307.731	101.5
307.961	118.5
308.191	103.5
308.421	125.5
308.651	106.5
308.881	115.5
309.111	119.5
309.341	111.5
309.571	108.5
309.8	107.5
310.03	94.5
310.26	106.5
310.49	102.5
310.72	119.5
310.949	108.5
311.179	115.5
311.409	122.5
311.639	120.5
311.868	117.5
312.098	123.5
312.328	115.5
312.557	108.5
312.787	126.5
313.017	115.5
313.246	137.5
313.476	139.5
313.706	140.5
313.935	162.5
314.165	212.5
314.394	261.5
314.624	184.5
314.853	142.5
315.083	137.5
315.312	120.5
315.542	139.5
315.771	141.5
316.001	157.5
316.23	148.5
316.46	159.5
316.689	193.5
316.919	282.5
317.148	565.5
317.377	1023.5
317.607	1639.5
317.836	1542.5
318.065	598.5
318.295	247.5
318.524	166.5
318.753	154.5
318.983	125.5
319.212	128.5
319.441	135.5
319.67	131.5
319.9	124.5
320.129	136.5
320.358	138.5
320.587	132.5
320.816	125.5
321.046	140.5
321.275	132.5
321.504	144.5
321.733	152.5
321.962	172.5
322.191	190.5
322.42	140.5
322.649	129.5
322.878	142.5
323.108	139.5
323.337	131.5
323.566	124.5
323.795	128.5
324.024	131.5
324.253	149.5
324.482	202.5
324.71	247.5
324.939	309.5
325.168	275.5
325.397	204.5
325.626	281.5
325.855	557.5
326.084	1040.5
326.313	1761.5
326.542	1725.5
326.77	703.5
326.999	303.5
327.228	258.5
327.457	252.5
327.686	250.5
327.914	177.5
328.143	145.5
328.372	149.5
328.6	145.5
328.829	133.5
329.058	125.5
329.287	127.5
329.515	127.5
329.744	125.5
329.972	141.5
330.201	132.5
330.43	139.5
330.658	133.5
330.887	125.5
331.115	121.5
331.344	112.5
331.572	124.5
331.801	125.5
332.03	139.5
332.258	127.5
332.486	179.5
332.715	315.5
332.943	553.5
333.172	843.5
333.4	744.5
333.629	264.5
333.857	157.5
334.085	152.5
334.314	127.5
334.542	125.5
334.771	129.5
334.999	115.5
335.227	133.5
335.455	133.5
335.684	144.5
335.912	128.5
336.14	115.5
336.369	118.5
336.597	118.5
336.825	107.5
337.053	101.5
337.281	117.5
337.51	117.5
337.738	126.5
337.966	122.5
338.194	129.5
338.422	123.5
338.65	118.5
338.878	117.5
339.106	120.5
339.334	123.5
339.562	121.5
339.79	130.5
340.018	123.5
340.246	107.5
340.474	127.5
340.702	109.5
340.93	111.5
341.158	138.5
341.386	120.5
341.614	121.5
341.842	106.5
342.07	115.5
342.298	119.5
342.526	120.5
342.754	121.5
342.981	120.5
343.209	115.5
343.437	125.5
343.665	112.5
343.893	113.5
344.12	115.5
344.348	112.5
344.576	121.5
344.804	127.5
345.031	129.5
345.259	113.5
345.487	129.5
345.714	116.5
345.942	110.5
346.17	104.5
346.397	128.5
346.625	122.5
346.853	128.5
347.08	121.5
347.308	96.5
347.535	107.5
347.763	119.5
347.99	94.5
348.218	106.5
348.445	107.5
348.673	127.5
348.9	121.5
349.128	132.5
349.355	117.5
349.583	130.5
349.81	122.5
350.037	123.5
350.265	114.5
350.492	112.5
350.72	109.5
350.947	116.5
351.174	115.5
351.402	120.5
351.629	109.5
351.856	111.5
352.083	123.5
352.311	107.5
352.538	118.5
352.765	128.5
352.992	119.5
353.22	114.5
353.447	133.5
353.674	118.5
353.901	104.5
354.128	106.5
354.355	88.5
354.583	107.5
354.81	114.5
355.037	96.5
355.264	101.5
355.491	112.5
355.718	106.5
355.945	104.5
356.172	117.5
356.399	104.5
356.626	105.5
356.853	115.5
357.08	123.5
357.307	124.5
357.534	110.5
357.761	122.5
357.988	119.5
358.215	104.5
358.441	105.5
358.668	122.5
358.895	122.5
359.122	120.5
359.349	126.5
359.576	126.5
359.802	105.5
360.029	133.5
360.256	107.5
360.483	117.5
360.709	119.5
360.936	113.5
361.163	120.5
361.39	114.5
361.616	128.5
361.843	122.5
362.07	124.5
362.296	105.5
362.523	115.5
362.749	119.5
362.976	106.5
363.203	103.5
363.429	98.5
363.656	115.5
363.882	122.5
364.109	126.5
364.335	105.5
364.562	119.5
364.788	105.5
365.015	113.5
365.241	134.5
365.468	211.5
365.694	304.5
365.92	242.5
366.147	134.5
366.373	104.5
366.599	106.5
366.826	103.5
367.052	119.5
367.278	104.5
367.505	86.5
367.731	113.5
367.957	109.5
368.184	117.5
368.41	124.5
368.636	128.5
368.862	105.5
369.089	93.5
369.315	100.5
369.541	131.5
369.767	119.5
369.993	121.5
370.219	112.5
370.445	121.5
370.672	110.5
370.898	104.5
371.124	118.5
371.35	112.5
371.576	106.5
371.802	101.5
372.028	127.5
372.254	113.5
372.48	114.5
372.706	122.5
372.932	112.5
373.158	99.5
373.384	124.5
373.61	133.5
373.835	121.5
374.061	111.5
374.287	105.5
374.513	115.5
374.739	125.5
374.965	106.5
375.191	122.5
375.416	116.5
375.642	104.5
375.868	115.5
376.094	113.5
376.319	111.5
376.545	107.5
376.771	106.5
376.997	113.5
377.222	100.5
377.448	108.5
377.674	118.5
377.899	109.5
378.125	111.5
378.35	108.5
378.576	125.5
378.802	120.5
379.027	119.5
379.253	155.5
379.478	186.5
379.704	341.5
379.929	874.5
380.155	1752.5
380.38	1816.5
380.606	587.5
380.831	204.5
381.057	139.5
381.282	126.5
381.507	127.5
381.733	120.5
381.958	124.5
382.184	125.5
382.409	104.5
382.634	119.5
382.86	116.5
383.085	115.5
383.31	113.5
383.535	120.5
383.761	115.5
383.986	119.5
384.211	111.5
384.436	104.5
384.662	102.5
384.887	109.5
385.112	107.5
385.337	101.5
385.562	119.5
385.787	104.5
386.013	111.5
386.238	127.5
386.463	103.5
386.688	92.5
386.913	113.5
387.138	111.5
387.363	114.5
387.588	116.5
387.813	93.5
388.038	116.5
388.263	118.5
388.488	108.5
388.713	101.5
388.938	115.5
389.163	100.5
389.387	110.5
389.612	111.5
389.837	108.5
390.062	105.5
390.287	101.5
390.512	101.5
390.736	100.5
390.961	101.5
391.186	95.5
391.411	111.5
391.636	112.5
391.86	109.5
392.085	105.5
392.31	101.5
392.534	114.5
392.759	105.5
392.984	109.5
393.208	137.5
393.433	164.5
393.658	171.5
393.882	127.5
394.107	103.5
394.331	102.5
394.556	114.5
394.78	97.5
395.005	117.5
395.229	105.5
395.454	96.5
395.678	106.5
395.903	99.5
396.127	100.5
396.352	118.5
396.576	115.5
396.801	135.5
397.025	148.5
397.249	119.5
397.474	97.5
397.698	102.5
397.922	100.5
398.147	106.5
398.371	116.5
398.595	106.5
398.82	99.5
399.044	117.5
399.268	115.5
399.492	88.5
399.717	104.5
399.941	97.5
400.165	111.5
400.389	85.5
400.613	111.5
400.837	95.5
401.062	102.5
401.286	101.5
401.51	100.5
401.734	119.5
401.958	106.5
402.182	106.5
402.406	105.5
402.63	111.5
402.854	96.5
403.078	113.5
403.302	104.5
403.526	107.5
403.75	99.5
403.974	92.5
404.198	103.5
404.422	104.5
404.645	95.5
404.869	92.5
405.093	112.5
405.317	101.5
405.541	107.5
405.765	145.5
405.988	162.5
406.212	127.5
406.436	118.5
406.66	92.5
406.883	100.5
407.107	91.5
407.331	104.5
407.555	107.5
407.778	107.5
408.002	99.5
408.226	87.5
408.449	100.5
408.673	103.5
408.896	103.5
409.12	95.5
409.344	97.5
409.567	88.5
409.791	101.5
410.014	108.5
410.238	114.5
410.461	115.5
410.685	90.5
410.908	109.5
411.132	104.5
411.355	114.5
411.578	101.5
411.802	99.5
412.025	111.5
412.249	90.5
412.472	109.5
412.695	110.5
412.919	105.5
413.142	115.5
413.365	113.5
413.589	98.5
413.812	96.5
414.035	123.5
414.258	99.5
414.482	115.5
414.705	114.5
414.928	97.5
415.151	97.5
415.374	92.5
415.597	101.5
415.821	100.5
416.044	97.5
416.267	102.5
416.49	79.5
416.713	104.5
416.936	100.5
417.159	113.5
417.382	109.5
417.605	104.5
417.828	99.5
418.051	95.5
418.274	104.5
418.497	102.5
418.72	111.5
418.943	106.5
419.166	101.5
419.389	109.5
419.611	99.5
419.834	100.5
420.057	90.5
420.28	108.5
420.503	121.5
420.726	101.5
420.948	94.5
421.171	103.5
421.394	107.5
421.617	97.5
421.839	104.5
422.062	114.5
422.285	102.5
422.507	128.5
422.73	156.5
422.953	143.5
423.175	103.5
423.398	105.5
423.621	114.5
423.843	95.5
424.066	99.5
424.288	113.5
424.511	101.5
424.733	107.5
424.956	105.5
425.178	111.5
425.401	98.5
425.623	101.5
425.846	89.5
426.068	108.5
426.291	99.5
426.513	97.5
426.735	104.5
426.958	88.5
427.18	96.5
427.402	88.5
427.625	105.5
427.847	104.5
428.069	114.5
428.292	103.5
428.514	99.5
428.736	104.5
428.958	95.5
429.181	104.5
429.403	108.5
429.625	101.5
429.847	98.5
430.069	113.5
430.292	102.5
430.514	102.5
430.736	104.5
430.958	99.5
431.18	113.5
431.402	97.5
431.624	104.5
431.846	92.5
432.068	92.5
432.29	103.5
432.512	89.5
432.734	81.5
432.956	113.5
433.178	96.5
433.4	95.5
433.622	89.5
433.844	83.5
434.066	98.5
434.287	112.5
434.509	91.5
434.731	90.5
434.953	98.5
435.175	100.5
435.397	102.5
435.618	98.5
435.84	84.5
436.062	85.5
436.284	98.5
436.505	95.5
436.727	92.5
436.949	99.5
437.17	93.5
437.392	90.5
437.614	100.5
437.835	95.5
438.057	95.5
438.278	107.5
438.5	94.5
438.721	99.5
438.943	91.5
439.165	112.5
439.386	115.5
439.608	105.5
439.829	112.5
440.05	115.5
440.272	119.5
440.493	102.5
440.715	89.5
440.936	98.5
441.158	106.5
441.379	118.5
441.6	103.5
441.822	108.5
442.043	113.5
442.264	132.5
442.486	123.5
442.707	103.5
442.928	104.5
443.149	99.5
443.371	98.5
443.592	113.5
443.813	115.5
444.034	92.5
444.255	101.5
444.476	98.5
444.698	100.5
444.919	106.5
445.14	182.5
445.361	151.5
445.582	112.5
445.803	107.5
446.024	99.5
446.245	96.5
446.466	116.5
446.687	121.5
446.908	118.5
447.129	103.5
447.35	96.5
447.571	101.5
447.792	95.5
448.013	104.5
448.234	92.5
448.455	89.5
448.675	100.5
448.896	94.5
449.117	108.5
449.338	130.5
449.559	167.5
449.779	119.5
450	123.5
450.221	119.5
450.442	131.5
450.662	132.5
450.883	107.5
451.104	107.5
451.324	117.5
451.545	99.5
451.766	123.5
451.986	130.5
452.207	232.5
452.428	602.5
452.648	1576.5
452.869	837.5
453.089	229.5
453.31	147.5
453.53	135.5
453.751	154.5
453.971	176.5
454.192	179.5
454.412	118.5
454.633	101.5
454.853	104.5
455.073	107.5
455.294	90.5
455.514	104.5
455.734	111.5
455.955	107.5
456.175	85.5
456.395	93.5
456.616	100.5
456.836	120.5
457.056	96.5
457.276	111.5
457.497	105.5
457.717	113.5
457.937	107.5
458.157	97.5
458.377	85.5
458.598	101.5
458.818	85.5
459.038	84.5
459.258	83.5
459.478	85.5
459.698	81.5
459.918	87.5
460.138	100.5
460.358	92.5
460.578	81.5
460.798	95.5
461.018	104.5
461.238	107.5
461.458	97.5
461.678	105.5
461.898	79.5
462.118	103.5
462.338	111.5
462.558	100.5
462.777	111.5
462.997	101.5
463.217	123.5
463.437	133.5
463.657	194.5
463.876	200.5
464.096	133.5
464.316	113.5
464.536	105.5
464.755	104.5
464.975	107.5
465.195	88.5
465.414	97.5
465.634	107.5
465.854	83.5
466.073	106.5
466.293	96.5
466.512	87.5
466.732	126.5
466.951	115.5
467.171	153.5
467.391	151.5
467.61	103.5
467.829	110.5
468.049	102.5
468.268	107.5
468.488	101.5
468.707	102.5
468.927	91.5
469.146	99.5
469.365	102.5
469.585	90.5
469.804	94.5
470.023	105.5
470.243	92.5
470.462	102.5
470.681	108.5
470.901	140.5
471.12	194.5
471.339	220.5
471.558	151.5
471.777	120.5
471.997	119.5
472.216	111.5
472.435	101.5
472.654	92.5
472.873	100.5
473.092	96.5
473.311	96.5
473.53	108.5
473.749	106.5
473.968	101.5
474.187	126.5
474.406	101.5
474.625	83.5
474.844	93.5
475.063	93.5
475.282	89.5
475.501	97.5
475.72	104.5
475.939	92.5
476.158	107.5
476.377	105.5
476.596	93.5
476.814	107.5
477.033	94.5
477.252	115.5
477.471	116.5
477.69	99.5
477.908	101.5
478.127	118.5
478.346	86.5
478.564	105.5
478.783	114.5
479.002	87.5
479.22	89.5
479.439	104.5
479.658	99.5
479.876	93.5
480.095	107.5
480.313	90.5
480.532	104.5
480.751	108.5
480.969	95.5
481.188	102.5
481.406	103.5
481.624	102.5
481.843	122.5
482.061	121.5
482.28	108.5
482.498	111.5
482.717	95.5
482.935	96.5
483.153	96.5
483.372	123.5
483.59	111.5
483.808	100.5
484.027	124.5
484.245	133.5
484.463	194.5
484.681	237.5
484.9	160.5
485.118	135.5
485.336	106.5
485.554	123.5
485.772	145.5
485.99	191.5
486.209	266.5
486.427	167.5
486.645	129.5
486.863	120.5
487.081	95.5
487.299	117.5
487.517	103.5
487.735	115.5
487.953	101.5
488.171	85.5
488.389	81.5
488.607	85.5
488.825	90.5
489.043	96.5
489.261	106.5
489.479	100.5
489.696	105.5
489.914	107.5
490.132	107.5
490.35	98.5
490.568	106.5
490.786	99.5
491.003	116.5
491.221	121.5
491.439	116.5
491.657	113.5
491.874	111.5
492.092	111.5
492.31	92.5
492.527	102.5
492.745	108.5
492.963	104.5
493.18	104.5
493.398	101.5
493.615	107.5
493.833	104.5
494.05	105.5
494.268	108.5
494.485	113.5
494.703	106.5
494.92	117.5
495.138	111.5
495.355	116.5
495.573	100.5
495.79	108.5
496.008	111.5
496.225	103.5
496.442	111.5
496.66	129.5
496.877	173.5
497.094	163.5
497.312	112.5
497.529	118.5
497.746	121.5
497.963	104.5
498.181	107.5
498.398	120.5
498.615	102.5
498.832	108.5
499.049	105.5
499.267	147.5
499.484	183.5
499.701	120.5
499.918	105.5
500.135	96.5
500.352	105.5
500.569	102.5
500.786	97.5
501.003	102.5
501.22	104.5
501.437	99.5
501.654	114.5
501.871	100.5
502.088	111.5
502.305	118.5
502.522	100.5
502.739	117.5
502.956	96.5
503.172	120.5
503.389	107.5
503.606	106.5
503.823	106.5
504.04	107.5
504.256	110.5
504.473	96.5
504.69	104.5
504.907	108.5
505.123	123.5
505.34	111.5
505.557	106.5
505.773	87.5
505.99	99.5
506.207	107.5
506.423	99.5
506.64	122.5
506.856	112.5
507.073	100.5
507.289	111.5
507.506	106.5
507.722	89.5
507.939	106.5
508.155	111.5
508.372	97.5
508.588	89.5
508.805	106.5
509.021	118.5
509.238	113.5
509.454	135.5
509.67	173.5
509.887	119.5
510.103	112.5
510.319	103.5
510.536	92.5
510.752	132.5
510.968	107.5
511.184	103.5
511.401	91.5
511.617	87.5
511.833	100.5
512.049	93.5
512.265	107.5
512.481	101.5
512.698	104.5
512.914	107.5
513.13	104.5
513.346	83.5
513.562	101.5
513.778	94.5
513.994	85.5
514.21	109.5
514.426	156.5
514.642	193.5
514.858	127.5
515.074	108.5
515.29	105.5
515.506	97.5
515.721	106.5
515.937	101.5
516.153	109.5
516.369	103.5
516.585	100.5
516.801	97.5
517.016	95.5
517.232	108.5
517.448	95.5
517.664	103.5
517.879	112.5
518.095	117.5
518.311	115.5
518.527	103.5
518.742	107.5
518.958	120.5
519.173	185.5
519.389	130.5
519.605	109.5
519.82	104.5
520.036	95.5
520.251	104.5
520.467	114.5
520.682	87.5
520.898	89.5
521.113	84.5
521.329	106.5
521.544	95.5
521.76	98.5
521.975	134.5
522.19	103.5
522.406	95.5
522.621	96.5
522.836	118.5
523.052	105.5
523.267	101.5
523.482	92.5
523.698	97.5
523.913	99.5
524.128	99.5
524.343	103.5
524.559	93.5
524.774	100.5
