Data from SnStandardFlinnAPT0064_QswitchEnergy10_LIBS07252019.E.O._I.C._HRD10591_15-27-54-974.txt Node
Date: Thu Jul 25 15:27:54 EDT 2019
User: cochatt
Spectrometer: HR+D1059
Trigger mode: 1
Integration Time (sec): 1.000000E-1
Scans to average: 1
Electric dark correction enabled: true
Nonlinearity correction enabled: false
Boxcar width: 0
XAxis mode: Wavelengths
Number of Pixels in Spectrum: 2048
>>>>>Begin Spectral Data<<<<<
223.165	-7.56
223.4	-7.56
223.635	-7.56
223.869	-16.56
224.104	-7.56
224.338	-14.56
224.573	-16.56
224.808	-13.56
225.042	3.44
225.277	-14.56
225.511	-1.56
225.746	0.44
225.98	-0.56
226.215	10.44
226.449	13.44
226.683	10.44
226.918	23.44
227.152	31.44
227.387	36.44
227.621	41.44
227.856	47.44
228.09	55.44
228.324	60.44
228.559	55.44
228.793	52.44
229.027	68.44
229.262	75.44
229.496	60.44
229.73	75.44
229.964	78.44
230.199	76.44
230.433	81.44
230.667	79.44
230.901	82.44
231.136	86.44
231.37	87.44
231.604	83.44
231.838	109.44
232.072	113.44
232.306	121.44
232.541	99.44
232.775	94.44
233.009	78.44
233.243	87.44
233.477	91.44
233.711	93.44
233.945	92.44
234.179	92.44
234.413	101.44
234.647	89.44
234.881	102.44
235.115	104.44
235.349	96.44
235.583	95.44
235.817	116.44
236.051	135.44
236.285	95.44
236.519	88.44
236.753	76.44
236.987	80.44
237.221	77.44
237.455	81.44
237.689	77.44
237.922	85.44
238.156	90.44
238.39	83.44
238.624	81.44
238.858	71.44
239.091	92.44
239.325	81.44
239.559	68.44
239.793	86.44
240.027	81.44
240.26	77.44
240.494	87.44
240.728	81.44
240.961	89.44
241.195	95.44
241.429	97.44
241.662	74.44
241.896	89.44
242.13	111.44
242.363	125.44
242.597	165.44
242.83	144.44
243.064	141.44
243.298	177.44
243.531	147.44
243.765	101.44
243.998	87.44
244.232	79.44
244.465	89.44
244.699	70.44
244.932	86.44
245.166	74.44
245.399	96.44
245.633	85.44
245.866	90.44
246.099	82.44
246.333	98.44
246.566	86.44
246.8	75.44
247.033	89.44
247.266	74.44
247.5	68.44
247.733	80.44
247.966	89.44
248.2	111.44
248.433	102.44
248.666	121.44
248.899	120.44
249.133	89.44
249.366	92.44
249.599	111.44
249.832	130.44
250.066	126.44
250.299	106.44
250.532	82.44
250.765	80.44
250.998	84.44
251.231	73.44
251.465	87.44
251.698	90.44
251.931	85.44
252.164	78.44
252.397	104.44
252.63	109.44
252.863	105.44
253.096	103.44
253.329	94.44
253.562	94.44
253.795	100.44
254.028	90.44
254.261	70.44
254.494	100.44
254.727	123.44
254.96	147.44
255.193	119.44
255.426	95.44
255.659	99.44
255.892	92.44
256.124	101.44
256.357	86.44
256.59	99.44
256.823	93.44
257.056	105.44
257.289	139.44
257.521	181.44
257.754	127.44
257.987	100.44
258.22	87.44
258.452	97.44
258.685	96.44
258.918	94.44
259.151	101.44
259.383	97.44
259.616	138.44
259.849	161.44
260.081	99.44
260.314	90.44
260.547	85.44
260.779	102.44
261.012	90.44
261.244	90.44
261.477	98.44
261.71	103.44
261.942	83.44
262.175	72.44
262.407	83.44
262.64	91.44
262.872	82.44
263.105	84.44
263.337	78.44
263.57	84.44
263.802	86.44
264.035	89.44
264.267	89.44
264.499	86.44
264.732	85.44
264.964	84.44
265.197	89.44
265.429	92.44
265.661	104.44
265.894	93.44
266.126	147.44
266.358	165.44
266.591	168.44
266.823	96.44
267.055	91.44
267.287	81.44
267.52	93.44
267.752	96.44
267.984	107.44
268.216	85.44
268.448	95.44
268.681	97.44
268.913	95.44
269.145	100.44
269.377	90.44
269.609	79.44
269.841	82.44
270.073	106.44
270.306	129.44
270.538	192.44
270.77	317.44
271.002	383.44
271.234	208.44
271.466	122.44
271.698	102.44
271.93	91.44
272.162	100.44
272.394	97.44
272.626	92.44
272.858	96.44
273.09	84.44
273.322	92.44
273.553	102.44
273.785	80.44
274.017	83.44
274.249	92.44
274.481	104.44
274.713	88.44
274.945	89.44
275.176	91.44
275.408	89.44
275.64	79.44
275.872	100.44
276.104	88.44
276.335	116.44
276.567	97.44
276.799	97.44
277.031	95.44
277.262	106.44
277.494	119.44
277.726	127.44
277.957	173.44
278.189	262.44
278.421	247.44
278.652	197.44
278.884	204.44
279.115	136.44
279.347	114.44
279.579	99.44
279.81	96.44
280.042	101.44
280.273	105.44
280.505	120.44
280.736	109.44
280.968	128.44
281.199	186.44
281.431	254.44
281.662	265.44
281.894	179.44
282.125	105.44
282.356	102.44
282.588	119.44
282.819	130.44
283.051	131.44
283.282	141.44
283.513	198.44
283.745	324.44
283.976	562.44
284.207	809.44
284.439	599.44
284.67	277.44
284.901	267.44
285.132	339.44
285.364	399.44
285.595	229.44
285.826	175.44
286.057	261.44
286.288	417.44
286.52	629.44
286.751	483.44
286.982	215.44
287.213	123.44
287.444	125.44
287.675	112.44
287.906	104.44
288.138	103.44
288.369	96.44
288.6	96.44
288.831	108.44
289.062	87.44
289.293	87.44
289.524	100.44
289.755	85.44
289.986	91.44
290.217	101.44
290.448	96.44
290.679	106.44
290.91	131.44
291.141	180.44
291.371	246.44
291.602	300.44
291.833	209.44
292.064	129.44
292.295	101.44
292.526	99.44
292.757	114.44
292.987	89.44
293.218	83.44
293.449	102.44
293.68	108.44
293.91	93.44
294.141	115.44
294.372	97.44
294.603	97.44
294.833	86.44
295.064	103.44
295.295	98.44
295.525	97.44
295.756	107.44
295.987	105.44
296.217	104.44
296.448	96.44
296.679	97.44
296.909	101.44
297.14	105.44
297.37	101.44
297.601	88.44
297.831	96.44
298.062	98.44
298.292	100.44
298.523	104.44
298.753	95.44
298.984	101.44
299.214	116.44
299.445	115.44
299.675	116.44
299.905	128.44
300.136	127.44
300.366	173.44
300.597	274.44
300.827	466.44
301.057	699.44
301.288	650.44
301.518	268.44
301.748	146.44
301.979	135.44
302.209	138.44
302.439	154.44
302.669	176.44
302.9	279.44
303.13	505.44
303.36	926.44
303.59	1231.44
303.82	858.44
304.051	297.44
304.281	172.44
304.511	136.44
304.741	124.44
304.971	106.44
305.201	125.44
305.431	96.44
305.661	101.44
305.891	91.44
306.121	104.44
306.352	120.44
306.582	102.44
306.812	104.44
307.042	125.44
307.272	114.44
307.502	95.44
307.731	115.44
307.961	111.44
308.191	113.44
308.421	100.44
308.651	109.44
308.881	111.44
309.111	101.44
309.341	112.44
309.571	115.44
309.8	119.44
310.03	120.44
310.26	108.44
310.49	117.44
310.72	100.44
310.949	114.44
311.179	109.44
311.409	114.44
311.639	103.44
311.868	110.44
312.098	119.44
312.328	119.44
312.557	113.44
312.787	119.44
313.017	117.44
313.246	105.44
313.476	126.44
313.706	123.44
313.935	167.44
314.165	195.44
314.394	234.44
314.624	184.44
314.853	140.44
315.083	136.44
315.312	130.44
315.542	129.44
315.771	126.44
316.001	136.44
316.23	148.44
316.46	147.44
316.689	201.44
316.919	289.44
317.148	492.44
317.377	915.44
317.607	1531.44
317.836	1404.44
318.065	524.44
318.295	224.44
318.524	151.44
318.753	137.44
318.983	136.44
319.212	128.44
319.441	124.44
319.67	113.44
319.9	118.44
320.129	115.44
320.358	113.44
320.587	128.44
320.816	120.44
321.046	131.44
321.275	122.44
321.504	128.44
321.733	144.44
321.962	152.44
322.191	158.44
322.42	141.44
322.649	124.44
322.878	116.44
323.108	108.44
323.337	133.44
323.566	119.44
323.795	128.44
324.024	140.44
324.253	146.44
324.482	184.44
324.71	228.44
324.939	310.44
325.168	239.44
325.397	205.44
325.626	266.44
325.855	502.44
326.084	940.44
326.313	1606.44
326.542	1600.44
326.77	623.44
326.999	255.44
327.228	221.44
327.457	245.44
327.686	228.44
327.914	164.44
328.143	139.44
328.372	123.44
328.6	129.44
328.829	121.44
329.058	129.44
329.287	125.44
329.515	129.44
329.744	121.44
329.972	116.44
330.201	125.44
330.43	115.44
330.658	127.44
330.887	129.44
331.115	116.44
331.344	119.44
331.572	119.44
331.801	113.44
332.03	140.44
332.258	140.44
332.486	175.44
332.715	293.44
332.943	520.44
333.172	789.44
333.4	661.44
333.629	256.44
333.857	145.44
334.085	136.44
334.314	116.44
334.542	118.44
334.771	129.44
334.999	119.44
335.227	129.44
335.455	127.44
335.684	105.44
335.912	103.44
336.14	119.44
336.369	113.44
336.597	113.44
336.825	123.44
337.053	93.44
337.281	108.44
337.51	130.44
337.738	113.44
337.966	124.44
338.194	108.44
338.422	115.44
338.65	111.44
338.878	108.44
339.106	117.44
339.334	111.44
339.562	123.44
339.79	126.44
340.018	114.44
340.246	122.44
340.474	120.44
340.702	107.44
340.93	116.44
341.158	127.44
341.386	127.44
341.614	131.44
341.842	107.44
342.07	127.44
342.298	120.44
342.526	108.44
342.754	116.44
342.981	113.44
343.209	115.44
343.437	110.44
343.665	113.44
343.893	128.44
344.12	124.44
344.348	107.44
344.576	103.44
344.804	114.44
345.031	127.44
345.259	88.44
345.487	116.44
345.714	103.44
345.942	105.44
346.17	108.44
346.397	120.44
346.625	111.44
346.853	102.44
347.08	124.44
347.308	97.44
347.535	114.44
347.763	103.44
347.99	106.44
348.218	99.44
348.445	102.44
348.673	102.44
348.9	130.44
349.128	124.44
349.355	128.44
349.583	111.44
349.81	108.44
350.037	123.44
350.265	119.44
350.492	119.44
350.72	107.44
350.947	119.44
351.174	121.44
351.402	113.44
351.629	106.44
351.856	123.44
352.083	114.44
352.311	113.44
352.538	116.44
352.765	98.44
352.992	88.44
353.22	111.44
353.447	115.44
353.674	100.44
353.901	111.44
354.128	105.44
354.355	100.44
354.583	111.44
354.81	99.44
355.037	117.44
355.264	111.44
355.491	106.44
355.718	112.44
355.945	111.44
356.172	104.44
356.399	96.44
356.626	99.44
356.853	120.44
357.08	103.44
357.307	94.44
357.534	112.44
357.761	103.44
357.988	101.44
358.215	97.44
358.441	106.44
358.668	101.44
358.895	125.44
359.122	118.44
359.349	139.44
359.576	117.44
359.802	107.44
360.029	125.44
360.256	123.44
360.483	124.44
360.709	112.44
360.936	112.44
361.163	120.44
361.39	118.44
361.616	122.44
361.843	112.44
362.07	108.44
362.296	106.44
362.523	106.44
362.749	106.44
362.976	99.44
363.203	118.44
363.429	116.44
363.656	116.44
363.882	105.44
364.109	127.44
364.335	115.44
364.562	99.44
364.788	107.44
365.015	115.44
365.241	133.44
365.468	197.44
365.694	267.44
365.92	200.44
366.147	111.44
366.373	103.44
366.599	113.44
366.826	108.44
367.052	109.44
367.278	107.44
367.505	98.44
367.731	96.44
367.957	89.44
368.184	129.44
368.41	124.44
368.636	118.44
368.862	100.44
369.089	101.44
369.315	108.44
369.541	106.44
369.767	96.44
369.993	112.44
370.219	109.44
370.445	111.44
370.672	110.44
370.898	90.44
371.124	115.44
371.35	109.44
371.576	100.44
371.802	120.44
372.028	107.44
372.254	103.44
372.48	120.44
372.706	105.44
372.932	117.44
373.158	116.44
373.384	121.44
373.61	121.44
373.835	128.44
374.061	113.44
374.287	117.44
374.513	119.44
374.739	111.44
374.965	112.44
375.191	104.44
375.416	108.44
375.642	119.44
375.868	114.44
376.094	115.44
376.319	113.44
376.545	120.44
376.771	104.44
376.997	94.44
377.222	131.44
377.448	112.44
377.674	111.44
377.899	125.44
378.125	120.44
378.35	122.44
378.576	124.44
378.802	104.44
379.027	143.44
379.253	129.44
379.478	188.44
379.704	331.44
379.929	830.44
380.155	1614.44
380.38	1672.44
380.606	517.44
380.831	203.44
381.057	147.44
381.282	131.44
381.507	127.44
381.733	100.44
381.958	113.44
382.184	121.44
382.409	111.44
382.634	106.44
382.86	116.44
383.085	109.44
383.31	103.44
383.535	96.44
383.761	101.44
383.986	117.44
384.211	111.44
384.436	112.44
384.662	116.44
384.887	115.44
385.112	114.44
385.337	112.44
385.562	120.44
385.787	92.44
386.013	109.44
386.238	107.44
386.463	119.44
386.688	99.44
386.913	107.44
387.138	106.44
387.363	121.44
387.588	118.44
387.813	103.44
388.038	109.44
388.263	128.44
388.488	110.44
388.713	107.44
388.938	110.44
389.163	96.44
389.387	97.44
389.612	111.44
389.837	92.44
390.062	101.44
390.287	106.44
390.512	112.44
390.736	91.44
390.961	111.44
391.186	108.44
391.411	105.44
391.636	103.44
391.86	96.44
392.085	104.44
392.31	107.44
392.534	95.44
392.759	111.44
392.984	107.44
393.208	120.44
393.433	148.44
393.658	127.44
393.882	91.44
394.107	101.44
394.331	114.44
394.556	99.44
394.78	97.44
395.005	112.44
395.229	96.44
395.454	112.44
395.678	104.44
395.903	122.44
396.127	99.44
396.352	115.44
396.576	111.44
396.801	123.44
397.025	138.44
397.249	123.44
397.474	116.44
397.698	99.44
397.922	101.44
398.147	91.44
398.371	115.44
398.595	109.44
398.82	101.44
399.044	83.44
399.268	99.44
399.492	89.44
399.717	104.44
399.941	93.44
400.165	85.44
400.389	96.44
400.613	109.44
400.837	92.44
401.062	108.44
401.286	106.44
401.51	99.44
401.734	106.44
401.958	92.44
402.182	80.44
402.406	108.44
402.63	105.44
402.854	103.44
403.078	99.44
403.302	109.44
403.526	100.44
403.75	113.44
403.974	94.44
404.198	100.44
404.422	109.44
404.645	92.44
404.869	95.44
405.093	108.44
405.317	119.44
405.541	104.44
405.765	135.44
405.988	157.44
406.212	115.44
406.436	102.44
406.66	93.44
406.883	91.44
407.107	95.44
407.331	103.44
407.555	102.44
407.778	96.44
408.002	95.44
408.226	99.44
408.449	96.44
408.673	104.44
408.896	105.44
409.12	100.44
409.344	115.44
409.567	111.44
409.791	104.44
410.014	109.44
410.238	112.44
410.461	112.44
410.685	104.44
410.908	80.44
411.132	111.44
411.355	103.44
411.578	106.44
411.802	104.44
412.025	100.44
412.249	110.44
412.472	95.44
412.695	116.44
412.919	105.44
413.142	95.44
413.365	104.44
413.589	104.44
413.812	86.44
414.035	127.44
414.258	104.44
414.482	104.44
414.705	104.44
414.928	114.44
415.151	111.44
415.374	102.44
415.597	108.44
415.821	105.44
416.044	92.44
416.267	125.44
416.49	105.44
416.713	92.44
416.936	84.44
417.159	96.44
417.382	115.44
417.605	104.44
417.828	103.44
418.051	113.44
418.274	102.44
418.497	118.44
418.72	99.44
418.943	113.44
419.166	107.44
419.389	113.44
419.611	105.44
419.834	107.44
420.057	100.44
420.28	115.44
420.503	109.44
420.726	100.44
420.948	96.44
421.171	101.44
421.394	92.44
421.617	104.44
421.839	92.44
422.062	102.44
422.285	111.44
422.507	106.44
422.73	118.44
422.953	129.44
423.175	122.44
423.398	107.44
423.621	111.44
423.843	96.44
424.066	100.44
424.288	89.44
424.511	99.44
424.733	92.44
424.956	105.44
425.178	90.44
425.401	103.44
425.623	100.44
425.846	100.44
426.068	96.44
426.291	111.44
426.513	101.44
426.735	113.44
426.958	101.44
427.18	91.44
427.402	101.44
427.625	98.44
427.847	85.44
428.069	102.44
428.292	98.44
428.514	113.44
428.736	99.44
428.958	94.44
429.181	109.44
429.403	102.44
429.625	104.44
429.847	94.44
430.069	104.44
430.292	101.44
430.514	108.44
430.736	117.44
430.958	99.44
431.18	97.44
431.402	109.44
431.624	117.44
431.846	88.44
432.068	97.44
432.29	87.44
432.512	105.44
432.734	104.44
432.956	100.44
433.178	92.44
433.4	105.44
433.622	107.44
433.844	101.44
434.066	112.44
434.287	93.44
434.509	102.44
434.731	97.44
434.953	97.44
435.175	95.44
435.397	88.44
435.618	97.44
435.84	90.44
436.062	104.44
436.284	105.44
436.505	102.44
436.727	96.44
436.949	94.44
437.17	92.44
437.392	90.44
437.614	98.44
437.835	107.44
438.057	93.44
438.278	91.44
438.5	94.44
438.721	91.44
438.943	111.44
439.165	108.44
439.386	125.44
439.608	90.44
439.829	127.44
440.05	135.44
440.272	123.44
440.493	110.44
440.715	105.44
440.936	88.44
441.158	98.44
441.379	107.44
441.6	105.44
441.822	91.44
442.043	112.44
442.264	134.44
442.486	119.44
442.707	107.44
442.928	104.44
443.149	91.44
443.371	104.44
443.592	116.44
443.813	107.44
444.034	90.44
444.255	93.44
444.476	93.44
444.698	93.44
444.919	93.44
445.14	195.44
445.361	156.44
445.582	100.44
445.803	106.44
446.024	84.44
446.245	97.44
446.466	114.44
446.687	124.44
446.908	100.44
447.129	111.44
447.35	101.44
447.571	92.44
447.792	82.44
448.013	104.44
448.234	100.44
448.455	98.44
448.675	104.44
448.896	104.44
449.117	105.44
449.338	126.44
449.559	173.44
449.779	114.44
450	102.44
450.221	96.44
450.442	108.44
450.662	119.44
450.883	122.44
451.104	101.44
451.324	111.44
451.545	113.44
451.766	106.44
451.986	147.44
452.207	218.44
452.428	574.44
452.648	1391.44
452.869	771.44
453.089	208.44
453.31	127.44
453.53	121.44
453.751	146.44
453.971	175.44
454.192	167.44
454.412	117.44
454.633	103.44
454.853	92.44
455.073	93.44
455.294	100.44
455.514	103.44
455.734	92.44
455.955	100.44
456.175	90.44
456.395	102.44
456.616	101.44
456.836	101.44
457.056	100.44
457.276	82.44
457.497	110.44
457.717	111.44
457.937	99.44
458.157	107.44
458.377	84.44
458.598	85.44
458.818	106.44
459.038	73.44
459.258	93.44
459.478	95.44
459.698	91.44
459.918	102.44
460.138	107.44
460.358	100.44
460.578	87.44
460.798	98.44
461.018	90.44
461.238	92.44
461.458	106.44
461.678	104.44
461.898	82.44
462.118	93.44
462.338	96.44
462.558	97.44
462.777	99.44
462.997	115.44
463.217	102.44
463.437	137.44
463.657	189.44
463.876	195.44
464.096	124.44
464.316	108.44
464.536	87.44
464.755	100.44
464.975	100.44
465.195	77.44
465.414	107.44
465.634	86.44
465.854	101.44
466.073	89.44
466.293	106.44
466.512	95.44
466.732	95.44
466.951	131.44
467.171	149.44
467.391	139.44
467.61	101.44
467.829	83.44
468.049	100.44
468.268	106.44
468.488	100.44
468.707	93.44
468.927	95.44
469.146	89.44
469.365	100.44
469.585	104.44
469.804	96.44
470.023	107.44
470.243	105.44
470.462	110.44
470.681	116.44
470.901	141.44
471.12	185.44
471.339	216.44
471.558	140.44
471.777	107.44
471.997	99.44
472.216	104.44
472.435	100.44
472.654	93.44
472.873	94.44
473.092	90.44
473.311	82.44
473.53	90.44
473.749	112.44
473.968	95.44
474.187	100.44
474.406	85.44
474.625	95.44
474.844	96.44
475.063	92.44
475.282	97.44
475.501	97.44
475.72	109.44
475.939	101.44
476.158	104.44
476.377	106.44
476.596	97.44
476.814	113.44
477.033	80.44
477.252	91.44
477.471	94.44
477.69	101.44
477.908	100.44
478.127	116.44
478.346	97.44
478.564	93.44
478.783	108.44
479.002	96.44
479.22	109.44
479.439	89.44
479.658	83.44
479.876	98.44
480.095	104.44
480.313	103.44
480.532	101.44
480.751	101.44
480.969	89.44
481.188	89.44
481.406	97.44
481.624	101.44
481.843	122.44
482.061	113.44
482.28	107.44
482.498	100.44
482.717	105.44
482.935	92.44
483.153	109.44
483.372	107.44
483.59	105.44
483.808	101.44
484.027	112.44
484.245	117.44
484.463	180.44
484.681	239.44
484.9	144.44
485.118	117.44
485.336	117.44
485.554	117.44
485.772	144.44
485.99	196.44
486.209	247.44
486.427	175.44
486.645	120.44
486.863	97.44
487.081	115.44
487.299	106.44
487.517	96.44
487.735	103.44
487.953	102.44
488.171	117.44
488.389	108.44
488.607	109.44
488.825	97.44
489.043	113.44
489.261	99.44
489.479	112.44
489.696	89.44
489.914	93.44
490.132	97.44
490.35	95.44
490.568	92.44
490.786	106.44
491.003	104.44
491.221	112.44
491.439	120.44
491.657	89.44
491.874	123.44
492.092	103.44
492.31	108.44
492.527	103.44
492.745	95.44
492.963	110.44
493.18	112.44
493.398	113.44
493.615	109.44
493.833	117.44
494.05	112.44
494.268	107.44
494.485	103.44
494.703	99.44
494.92	104.44
495.138	101.44
495.355	107.44
495.573	103.44
495.79	106.44
496.008	116.44
496.225	113.44
496.442	108.44
496.66	127.44
496.877	152.44
497.094	149.44
497.312	120.44
497.529	111.44
497.746	106.44
497.963	108.44
498.181	119.44
498.398	106.44
498.615	104.44
498.832	111.44
499.049	110.44
499.267	141.44
499.484	158.44
499.701	121.44
499.918	105.44
500.135	101.44
500.352	95.44
500.569	108.44
500.786	97.44
501.003	114.44
501.22	94.44
501.437	107.44
501.654	102.44
501.871	104.44
502.088	106.44
502.305	116.44
502.522	105.44
502.739	104.44
502.956	92.44
503.172	102.44
503.389	102.44
503.606	116.44
503.823	95.44
504.04	79.44
504.256	97.44
504.473	97.44
504.69	97.44
504.907	124.44
505.123	125.44
505.34	109.44
505.557	117.44
505.773	116.44
505.99	107.44
506.207	114.44
506.423	104.44
506.64	105.44
506.856	102.44
