Data from SnStandardFlinnAPT0064_QswitchEnergy10_LIBS07252019.E.O._I.C._HRD10591_15-28-47-974.txt Node
Date: Thu Jul 25 15:28:47 EDT 2019
User: cochatt
Spectrometer: HR+D1059
Trigger mode: 1
Integration Time (sec): 1.000000E-1
Scans to average: 1
Electric dark correction enabled: true
Nonlinearity correction enabled: false
Boxcar width: 0
XAxis mode: Wavelengths
Number of Pixels in Spectrum: 2048
>>>>>Begin Spectral Data<<<<<
223.165	-14.38
223.4	-14.38
223.635	-14.38
223.869	-18.38
224.104	-14.38
224.338	-6.38
224.573	-10.38
224.808	-26.38
225.042	-17.38
225.277	6.62
225.511	-1.38
225.746	-0.38
225.98	12.62
226.215	6.62
226.449	13.62
226.683	17.62
226.918	21.62
227.152	30.62
227.387	26.62
227.621	41.62
227.856	52.62
228.09	55.62
228.324	54.62
228.559	50.62
228.793	67.62
229.027	71.62
229.262	84.62
229.496	94.62
229.73	73.62
229.964	89.62
230.199	67.62
230.433	87.62
230.667	74.62
230.901	78.62
231.136	77.62
231.37	85.62
231.604	96.62
231.838	90.62
232.072	106.62
232.306	122.62
232.541	97.62
232.775	100.62
233.009	82.62
233.243	88.62
233.477	86.62
233.711	100.62
233.945	107.62
234.179	97.62
234.413	89.62
234.647	91.62
234.881	90.62
235.115	90.62
235.349	87.62
235.583	111.62
235.817	127.62
236.051	128.62
236.285	85.62
236.519	90.62
236.753	83.62
236.987	69.62
237.221	90.62
237.455	78.62
237.689	79.62
237.922	90.62
238.156	82.62
238.39	91.62
238.624	91.62
238.858	82.62
239.091	70.62
239.325	81.62
239.559	86.62
239.793	71.62
240.027	86.62
240.26	94.62
240.494	94.62
240.728	74.62
240.961	84.62
241.195	101.62
241.429	101.62
241.662	69.62
241.896	98.62
242.13	107.62
242.363	120.62
242.597	178.62
242.83	148.62
243.064	133.62
243.298	167.62
243.531	163.62
243.765	105.62
243.998	90.62
244.232	78.62
244.465	85.62
244.699	95.62
244.932	72.62
245.166	70.62
245.399	76.62
245.633	99.62
245.866	90.62
246.099	65.62
246.333	78.62
246.566	94.62
246.8	92.62
247.033	94.62
247.266	90.62
247.5	82.62
247.733	85.62
247.966	70.62
248.2	104.62
248.433	114.62
248.666	129.62
248.899	121.62
249.133	112.62
249.366	88.62
249.599	102.62
249.832	127.62
250.066	133.62
250.299	90.62
250.532	92.62
250.765	98.62
250.998	94.62
251.231	87.62
251.465	89.62
251.698	69.62
251.931	79.62
252.164	93.62
252.397	88.62
252.63	96.62
252.863	106.62
253.096	117.62
253.329	106.62
253.562	100.62
253.795	102.62
254.028	105.62
254.261	96.62
254.494	100.62
254.727	120.62
254.96	148.62
255.193	134.62
255.426	92.62
255.659	93.62
255.892	101.62
256.124	86.62
256.357	91.62
256.59	97.62
256.823	96.62
257.056	114.62
257.289	147.62
257.521	189.62
257.754	125.62
257.987	85.62
258.22	93.62
258.452	74.62
258.685	78.62
258.918	102.62
259.151	95.62
259.383	104.62
259.616	140.62
259.849	150.62
260.081	109.62
260.314	90.62
260.547	96.62
260.779	82.62
261.012	75.62
261.244	97.62
261.477	82.62
261.71	87.62
261.942	84.62
262.175	83.62
262.407	81.62
262.64	80.62
262.872	77.62
263.105	85.62
263.337	81.62
263.57	84.62
263.802	97.62
264.035	87.62
264.267	84.62
264.499	81.62
264.732	84.62
264.964	81.62
265.197	88.62
265.429	81.62
265.661	94.62
265.894	94.62
266.126	139.62
266.358	163.62
266.591	157.62
266.823	98.62
267.055	92.62
267.287	104.62
267.52	102.62
267.752	75.62
267.984	100.62
268.216	79.62
268.448	96.62
268.681	93.62
268.913	76.62
269.145	90.62
269.377	103.62
269.609	86.62
269.841	98.62
270.073	113.62
270.306	135.62
270.538	201.62
270.77	334.62
271.002	388.62
271.234	213.62
271.466	113.62
271.698	102.62
271.93	96.62
272.162	109.62
272.394	98.62
272.626	85.62
272.858	101.62
273.09	94.62
273.322	95.62
273.553	94.62
273.785	96.62
274.017	90.62
274.249	91.62
274.481	102.62
274.713	97.62
274.945	96.62
275.176	82.62
275.408	84.62
275.64	100.62
275.872	94.62
276.104	97.62
276.335	107.62
276.567	92.62
276.799	82.62
277.031	105.62
277.262	106.62
277.494	100.62
277.726	140.62
277.957	170.62
278.189	256.62
278.421	232.62
278.652	193.62
278.884	186.62
279.115	151.62
279.347	129.62
279.579	121.62
279.81	94.62
280.042	105.62
280.273	96.62
280.505	125.62
280.736	124.62
280.968	133.62
281.199	191.62
281.431	257.62
281.662	268.62
281.894	173.62
282.125	122.62
282.356	116.62
282.588	113.62
282.819	120.62
283.051	123.62
283.282	145.62
283.513	199.62
283.745	314.62
283.976	572.62
284.207	818.62
284.439	611.62
284.67	294.62
284.901	248.62
285.132	371.62
285.364	403.62
285.595	219.62
285.826	176.62
286.057	267.62
286.288	417.62
286.52	642.62
286.751	512.62
286.982	205.62
287.213	124.62
287.444	100.62
287.675	104.62
287.906	119.62
288.138	102.62
288.369	104.62
288.6	112.62
288.831	101.62
289.062	108.62
289.293	99.62
289.524	110.62
289.755	102.62
289.986	103.62
290.217	98.62
290.448	109.62
290.679	119.62
290.91	139.62
291.141	171.62
291.371	266.62
291.602	317.62
291.833	210.62
292.064	122.62
292.295	91.62
292.526	108.62
292.757	103.62
292.987	97.62
293.218	89.62
293.449	92.62
293.68	100.62
293.91	100.62
294.141	81.62
294.372	87.62
294.603	92.62
294.833	100.62
295.064	96.62
295.295	103.62
295.525	99.62
295.756	89.62
295.987	108.62
296.217	94.62
296.448	99.62
296.679	92.62
296.909	92.62
297.14	99.62
297.37	86.62
297.601	99.62
297.831	101.62
298.062	109.62
298.292	102.62
298.523	116.62
298.753	101.62
298.984	112.62
299.214	118.62
299.445	113.62
299.675	123.62
299.905	130.62
300.136	128.62
300.366	179.62
300.597	271.62
300.827	478.62
301.057	716.62
301.288	653.62
301.518	268.62
301.748	157.62
301.979	132.62
302.209	142.62
302.439	157.62
302.669	186.62
302.9	292.62
303.13	520.62
303.36	909.62
303.59	1282.62
303.82	870.62
304.051	333.62
304.281	178.62
304.511	138.62
304.741	117.62
304.971	130.62
305.201	112.62
305.431	113.62
305.661	114.62
305.891	114.62
306.121	113.62
306.352	120.62
306.582	119.62
306.812	121.62
307.042	130.62
307.272	126.62
307.502	121.62
307.731	106.62
307.961	94.62
308.191	116.62
308.421	112.62
308.651	112.62
308.881	111.62
309.111	108.62
309.341	101.62
309.571	100.62
309.8	118.62
310.03	117.62
310.26	113.62
310.49	114.62
310.72	114.62
310.949	118.62
311.179	117.62
311.409	104.62
311.639	109.62
311.868	120.62
312.098	117.62
312.328	117.62
312.557	124.62
312.787	121.62
313.017	113.62
313.246	117.62
313.476	108.62
313.706	122.62
313.935	158.62
314.165	199.62
314.394	254.62
314.624	216.62
314.853	135.62
315.083	130.62
315.312	141.62
315.542	137.62
315.771	146.62
316.001	144.62
316.23	148.62
316.46	168.62
316.689	208.62
316.919	277.62
317.148	526.62
317.377	970.62
317.607	1540.62
317.836	1436.62
318.065	553.62
318.295	234.62
318.524	161.62
318.753	141.62
318.983	127.62
319.212	135.62
319.441	133.62
319.67	126.62
319.9	116.62
320.129	123.62
320.358	130.62
320.587	121.62
320.816	139.62
321.046	149.62
321.275	132.62
321.504	150.62
321.733	167.62
321.962	182.62
322.191	162.62
322.42	154.62
322.649	138.62
322.878	132.62
323.108	123.62
323.337	125.62
323.566	127.62
323.795	141.62
324.024	137.62
324.253	165.62
324.482	188.62
324.71	237.62
324.939	299.62
325.168	237.62
325.397	213.62
325.626	284.62
325.855	498.62
326.084	1001.62
326.313	1677.62
326.542	1637.62
326.77	638.62
326.999	268.62
327.228	205.62
327.457	235.62
327.686	234.62
327.914	171.62
328.143	143.62
328.372	149.62
328.6	143.62
328.829	123.62
329.058	125.62
329.287	127.62
329.515	115.62
329.744	124.62
329.972	119.62
330.201	119.62
330.43	120.62
330.658	120.62
330.887	121.62
331.115	114.62
331.344	112.62
331.572	115.62
331.801	120.62
332.03	122.62
332.258	140.62
332.486	173.62
332.715	296.62
332.943	534.62
333.172	809.62
333.4	700.62
333.629	270.62
333.857	149.62
334.085	131.62
334.314	128.62
334.542	142.62
334.771	149.62
334.999	139.62
335.227	128.62
335.455	133.62
335.684	118.62
335.912	129.62
336.14	108.62
336.369	134.62
336.597	102.62
336.825	121.62
337.053	102.62
337.281	118.62
337.51	120.62
337.738	126.62
337.966	95.62
338.194	120.62
338.422	128.62
338.65	134.62
338.878	132.62
339.106	124.62
339.334	128.62
339.562	116.62
339.79	132.62
340.018	131.62
340.246	128.62
340.474	122.62
340.702	111.62
340.93	124.62
341.158	121.62
341.386	124.62
341.614	123.62
341.842	133.62
342.07	130.62
342.298	143.62
342.526	126.62
342.754	124.62
342.981	123.62
343.209	121.62
343.437	108.62
343.665	126.62
343.893	113.62
344.12	124.62
344.348	121.62
344.576	119.62
344.804	120.62
345.031	128.62
345.259	116.62
345.487	116.62
345.714	112.62
345.942	117.62
346.17	114.62
346.397	115.62
346.625	122.62
346.853	119.62
347.08	116.62
347.308	116.62
347.535	115.62
347.763	109.62
347.99	120.62
348.218	99.62
348.445	116.62
348.673	126.62
348.9	134.62
349.128	137.62
349.355	140.62
349.583	128.62
349.81	132.62
350.037	133.62
350.265	118.62
350.492	118.62
350.72	114.62
350.947	121.62
351.174	125.62
351.402	123.62
351.629	131.62
351.856	109.62
352.083	120.62
352.311	122.62
352.538	112.62
352.765	121.62
352.992	121.62
353.22	113.62
353.447	121.62
353.674	108.62
353.901	117.62
354.128	121.62
354.355	116.62
354.583	107.62
354.81	116.62
355.037	114.62
355.264	106.62
355.491	118.62
355.718	102.62
355.945	97.62
356.172	101.62
356.399	112.62
356.626	114.62
356.853	109.62
357.08	124.62
357.307	120.62
357.534	110.62
357.761	124.62
357.988	112.62
358.215	105.62
358.441	112.62
358.668	100.62
358.895	121.62
359.122	123.62
359.349	137.62
359.576	122.62
359.802	117.62
360.029	116.62
360.256	117.62
360.483	135.62
360.709	118.62
360.936	132.62
361.163	117.62
361.39	117.62
361.616	128.62
361.843	125.62
362.07	127.62
362.296	125.62
362.523	117.62
362.749	113.62
362.976	119.62
363.203	125.62
363.429	120.62
363.656	117.62
363.882	120.62
364.109	113.62
364.335	124.62
364.562	124.62
364.788	117.62
365.015	128.62
365.241	141.62
365.468	201.62
365.694	273.62
365.92	226.62
366.147	135.62
366.373	128.62
366.599	116.62
366.826	101.62
367.052	108.62
367.278	100.62
367.505	97.62
367.731	120.62
367.957	108.62
368.184	116.62
368.41	132.62
368.636	118.62
368.862	115.62
369.089	102.62
369.315	102.62
369.541	125.62
369.767	116.62
369.993	110.62
370.219	95.62
370.445	119.62
370.672	104.62
370.898	132.62
371.124	120.62
371.35	124.62
371.576	128.62
371.802	113.62
372.028	112.62
372.254	123.62
372.48	117.62
372.706	117.62
372.932	129.62
373.158	132.62
373.384	117.62
373.61	128.62
373.835	116.62
374.061	130.62
374.287	119.62
374.513	114.62
374.739	119.62
374.965	119.62
375.191	112.62
375.416	119.62
375.642	120.62
375.868	114.62
376.094	99.62
376.319	111.62
376.545	97.62
376.771	120.62
376.997	116.62
377.222	123.62
377.448	122.62
377.674	126.62
377.899	96.62
378.125	122.62
378.35	121.62
378.576	115.62
378.802	112.62
379.027	134.62
379.253	147.62
379.478	173.62
379.704	328.62
379.929	804.62
380.155	1629.62
380.38	1670.62
380.606	570.62
380.831	195.62
381.057	148.62
381.282	126.62
381.507	112.62
381.733	115.62
381.958	107.62
382.184	117.62
382.409	110.62
382.634	116.62
382.86	122.62
383.085	100.62
383.31	103.62
383.535	108.62
383.761	129.62
383.986	110.62
384.211	102.62
384.436	101.62
384.662	109.62
384.887	109.62
385.112	100.62
385.337	113.62
385.562	116.62
385.787	104.62
386.013	114.62
386.238	98.62
386.463	126.62
386.688	103.62
386.913	120.62
387.138	130.62
387.363	120.62
387.588	107.62
387.813	102.62
388.038	123.62
388.263	106.62
388.488	107.62
388.713	121.62
388.938	118.62
389.163	105.62
389.387	113.62
389.612	118.62
389.837	109.62
390.062	107.62
390.287	98.62
390.512	104.62
390.736	100.62
390.961	114.62
391.186	104.62
391.411	102.62
391.636	114.62
391.86	107.62
392.085	99.62
392.31	109.62
392.534	99.62
392.759	113.62
392.984	100.62
393.208	136.62
393.433	154.62
393.658	150.62
393.882	118.62
394.107	97.62
394.331	101.62
394.556	101.62
394.78	114.62
395.005	113.62
395.229	106.62
395.454	118.62
395.678	99.62
395.903	99.62
396.127	88.62
396.352	98.62
396.576	126.62
396.801	110.62
397.025	131.62
397.249	113.62
397.474	93.62
397.698	108.62
397.922	95.62
398.147	106.62
398.371	103.62
398.595	94.62
398.82	107.62
399.044	101.62
399.268	100.62
399.492	105.62
399.717	94.62
399.941	105.62
400.165	100.62
400.389	108.62
400.613	97.62
400.837	93.62
401.062	103.62
401.286	93.62
401.51	113.62
401.734	108.62
401.958	90.62
402.182	100.62
402.406	102.62
402.63	91.62
402.854	113.62
403.078	110.62
403.302	102.62
403.526	84.62
403.75	99.62
403.974	102.62
404.198	104.62
404.422	115.62
404.645	114.62
404.869	95.62
405.093	97.62
405.317	100.62
405.541	123.62
405.765	134.62
405.988	148.62
406.212	123.62
406.436	104.62
406.66	102.62
406.883	94.62
407.107	104.62
407.331	96.62
407.555	93.62
407.778	92.62
408.002	101.62
408.226	108.62
408.449	105.62
408.673	95.62
408.896	91.62
409.12	103.62
409.344	91.62
409.567	108.62
409.791	107.62
410.014	107.62
410.238	109.62
410.461	108.62
410.685	98.62
410.908	107.62
411.132	103.62
411.355	112.62
411.578	101.62
411.802	99.62
412.025	91.62
412.249	109.62
412.472	112.62
412.695	117.62
412.919	86.62
413.142	104.62
413.365	89.62
413.589	92.62
413.812	92.62
414.035	107.62
414.258	112.62
414.482	97.62
414.705	122.62
414.928	120.62
415.151	109.62
415.374	109.62
415.597	108.62
415.821	84.62
416.044	117.62
416.267	100.62
416.49	98.62
416.713	97.62
416.936	116.62
417.159	92.62
417.382	97.62
417.605	93.62
417.828	102.62
418.051	103.62
418.274	105.62
418.497	100.62
418.72	108.62
418.943	111.62
419.166	116.62
419.389	106.62
419.611	88.62
419.834	87.62
420.057	113.62
420.28	96.62
420.503	103.62
420.726	117.62
420.948	109.62
421.171	94.62
421.394	103.62
421.617	113.62
421.839	98.62
422.062	106.62
422.285	98.62
422.507	114.62
422.73	114.62
422.953	142.62
423.175	117.62
423.398	100.62
423.621	98.62
423.843	99.62
424.066	100.62
424.288	99.62
424.511	105.62
424.733	91.62
424.956	91.62
425.178	99.62
425.401	94.62
425.623	90.62
425.846	96.62
426.068	98.62
426.291	96.62
426.513	98.62
426.735	99.62
426.958	114.62
427.18	108.62
427.402	95.62
427.625	100.62
427.847	105.62
428.069	94.62
428.292	103.62
428.514	106.62
428.736	96.62
428.958	100.62
429.181	97.62
429.403	92.62
429.625	108.62
429.847	109.62
430.069	111.62
430.292	106.62
430.514	100.62
430.736	119.62
430.958	100.62
431.18	91.62
431.402	100.62
431.624	108.62
431.846	101.62
432.068	95.62
432.29	100.62
432.512	103.62
432.734	101.62
432.956	108.62
433.178	92.62
433.4	95.62
433.622	94.62
433.844	102.62
434.066	104.62
434.287	96.62
434.509	113.62
434.731	92.62
434.953	96.62
435.175	94.62
435.397	93.62
435.618	99.62
435.84	90.62
436.062	103.62
436.284	97.62
436.505	99.62
436.727	112.62
436.949	96.62
437.17	102.62
437.392	105.62
437.614	104.62
437.835	93.62
438.057	88.62
438.278	104.62
438.5	105.62
438.721	103.62
438.943	103.62
439.165	114.62
439.386	95.62
439.608	104.62
439.829	107.62
440.05	119.62
440.272	129.62
440.493	116.62
440.715	102.62
440.936	99.62
441.158	103.62
441.379	107.62
441.6	103.62
441.822	102.62
442.043	134.62
442.264	122.62
442.486	126.62
442.707	94.62
442.928	114.62
443.149	107.62
443.371	109.62
443.592	84.62
443.813	99.62
444.034	106.62
444.255	108.62
444.476	99.62
444.698	99.62
444.919	97.62
445.14	193.62
445.361	133.62
445.582	84.62
445.803	114.62
446.024	103.62
446.245	109.62
446.466	109.62
446.687	106.62
446.908	106.62
447.129	100.62
447.35	86.62
447.571	94.62
447.792	105.62
448.013	102.62
448.234	100.62
448.455	108.62
448.675	97.62
448.896	87.62
449.117	117.62
449.338	125.62
449.559	146.62
449.779	132.62
450	113.62
450.221	117.62
450.442	118.62
450.662	116.62
450.883	115.62
451.104	114.62
451.324	129.62
451.545	116.62
451.766	116.62
451.986	142.62
452.207	228.62
452.428	577.62
452.648	1466.62
452.869	810.62
453.089	222.62
453.31	140.62
453.53	115.62
453.751	143.62
453.971	159.62
454.192	173.62
454.412	127.62
454.633	98.62
454.853	100.62
455.073	84.62
455.294	98.62
455.514	102.62
455.734	98.62
455.955	97.62
456.175	96.62
456.395	93.62
456.616	112.62
456.836	97.62
457.056	98.62
457.276	101.62
457.497	102.62
457.717	123.62
457.937	114.62
458.157	96.62
458.377	82.62
458.598	108.62
458.818	90.62
459.038	97.62
459.258	90.62
459.478	76.62
459.698	94.62
459.918	111.62
460.138	98.62
460.358	120.62
460.578	101.62
460.798	90.62
461.018	98.62
461.238	90.62
461.458	89.62
461.678	111.62
461.898	86.62
462.118	88.62
462.338	110.62
462.558	106.62
462.777	84.62
462.997	105.62
463.217	110.62
463.437	149.62
463.657	199.62
463.876	182.62
464.096	127.62
464.316	103.62
464.536	104.62
464.755	89.62
464.975	98.62
465.195	109.62
465.414	98.62
465.634	99.62
465.854	100.62
466.073	96.62
466.293	110.62
466.512	95.62
466.732	110.62
466.951	106.62
467.171	155.62
467.391	137.62
467.61	108.62
467.829	103.62
468.049	73.62
468.268	94.62
468.488	89.62
468.707	90.62
468.927	113.62
469.146	100.62
469.365	88.62
469.585	100.62
469.804	106.62
470.023	97.62
470.243	102.62
470.462	99.62
470.681	103.62
470.901	132.62
471.12	183.62
471.339	200.62
471.558	132.62
471.777	116.62
471.997	109.62
472.216	100.62
472.435	94.62
472.654	107.62
472.873	97.62
473.092	118.62
473.311	103.62
473.53	104.62
473.749	94.62
473.968	98.62
474.187	113.62
474.406	91.62
474.625	101.62
474.844	95.62
475.063	93.62
475.282	102.62
475.501	96.62
475.72	97.62
475.939	109.62
476.158	102.62
476.377	126.62
476.596	107.62
476.814	104.62
477.033	106.62
477.252	108.62
477.471	105.62
477.69	109.62
477.908	101.62
478.127	112.62
478.346	114.62
478.564	98.62
478.783	85.62
479.002	100.62
479.22	95.62
479.439	114.62
479.658	90.62
479.876	84.62
480.095	94.62
480.313	97.62
480.532	100.62
480.751	112.62
480.969	86.62
481.188	86.62
481.406	89.62
481.624	109.62
481.843	133.62
482.061	130.62
482.28	91.62
482.498	81.62
482.717	105.62
482.935	92.62
483.153	114.62
483.372	96.62
483.59	102.62
483.808	94.62
484.027	107.62
484.245	106.62
484.463	175.62
484.681	224.62
484.9	149.62
485.118	124.62
485.336	105.62
485.554	122.62
485.772	135.62
485.99	196.62
486.209	245.62
486.427	158.62
486.645	108.62
486.863	105.62
487.081	119.62
487.299	118.62
487.517	97.62
487.735	100.62
487.953	103.62
488.171	116.62
488.389	107.62
488.607	108.62
488.825	86.62
489.043	101.62
489.261	96.62
489.479	89.62
489.696	108.62
489.914	89.62
490.132	99.62
490.35	109.62
490.568	101.62
490.786	110.62
491.003	96.62
491.221	104.62
491.439	111.62
491.657	99.62
491.874	114.62
492.092	110.62
492.31	114.62
492.527	108.62
492.745	109.62
492.963	101.62
493.18	124.62
493.398	108.62
493.615	98.62
493.833	97.62
494.05	114.62
494.268	116.62
494.485	107.62
494.703	110.62
494.92	115.62
495.138	93.62
495.355	109.62
495.573	104.62
495.79	108.62
496.008	115.62
496.225	111.62
496.442	105.62
496.66	121.62
496.877	177.62
497.094	161.62
497.312	117.62
497.529	99.62
497.746	114.62
497.963	109.62
498.181	113.62
498.398	101.62
498.615	96.62
498.832	107.62
499.049	107.62
499.267	154.62
499.484	158.62
499.701	109.62
499.918	106.62
500.135	104.62
500.352	114.62
500.569	98.62
500.786	107.62
501.003	111.62
501.22	116.62
501.437	102.62
501.654	106.62
501.871	113.62
502.088	93.62
502.305	104.62
502.522	96.62
502.739	98.62
502.956	97.62
503.172	104.62
503.389	94.62
503.606	81.62
503.823	99.62
504.04	97.62
504.256	121.62
504.473	114.62
504.69	114.62
504.907	116.62
505.123	118.62
505.34	98.62
505.557	98.62
505.773	112.62
505.99	99.62
506.207	91.62
506.423	104.62
506.64	121.62
