Data from SnStandardFlinnAPT0064_LampEnergy10_LIBS07252019.E.O._I.C._HRD10591_15-20-19-493.txt Node
Date: Thu Jul 25 15:20:19 EDT 2019
User: cochatt
Spectrometer: HR+D1059
Trigger mode: 1
Integration Time (sec): 1.000000E-1
Scans to average: 1
Electric dark correction enabled: true
Nonlinearity correction enabled: false
Boxcar width: 0
XAxis mode: Wavelengths
Number of Pixels in Spectrum: 2048
>>>>>Begin Spectral Data<<<<<
223.165	0.69
223.4	0.69
223.635	0.69
223.869	-13.31
224.104	-23.31
224.338	-2.31
224.573	-9.31
224.808	-10.31
225.042	-8.31
225.277	-15.31
225.511	1.69
225.746	-20.31
225.98	13.69
226.215	11.69
226.449	8.69
226.683	17.69
226.918	21.69
227.152	26.69
227.387	30.69
227.621	44.69
227.856	51.69
228.09	54.69
228.324	44.69
228.559	71.69
228.793	134.69
229.027	319.69
229.262	346.69
229.496	293.69
229.73	291.69
229.964	314.69
230.199	303.69
230.433	317.69
230.667	319.69
230.901	317.69
231.136	333.69
231.37	361.69
231.604	387.69
231.838	446.69
232.072	527.69
232.306	567.69
232.541	486.69
232.775	453.69
233.009	427.69
233.243	429.69
233.477	459.69
233.711	504.69
233.945	588.69
234.179	500.69
234.413	463.69
234.647	468.69
234.881	477.69
235.115	528.69
235.349	607.69
235.583	744.69
235.817	1026.69
236.051	989.69
236.285	652.69
236.519	523.69
236.753	517.69
236.987	518.69
237.221	531.69
237.455	531.69
237.689	483.69
237.922	479.69
238.156	476.69
238.39	475.69
238.624	503.69
238.858	517.69
239.091	485.69
239.325	488.69
239.559	512.69
239.793	524.69
240.027	514.69
240.26	550.69
240.494	551.69
240.728	574.69
240.961	620.69
241.195	665.69
241.429	681.69
241.662	706.69
241.896	803.69
242.13	958.69
242.363	1285.69
242.597	1659.69
242.83	1563.69
243.064	1587.69
243.298	1868.69
243.531	1548.69
243.765	969.69
243.998	799.69
244.232	714.69
244.465	687.69
244.699	657.69
244.932	659.69
245.166	672.69
245.399	655.69
245.633	675.69
245.866	683.69
246.099	661.69
246.333	657.69
246.566	621.69
246.8	643.69
247.033	631.69
247.266	651.69
247.5	668.69
247.733	688.69
247.966	695.69
248.2	772.69
248.433	885.69
248.666	1036.69
248.899	979.69
249.133	853.69
249.366	861.69
249.599	969.69
249.832	1109.69
250.066	1092.69
250.299	897.69
250.532	802.69
250.765	754.69
250.998	754.69
251.231	757.69
251.465	743.69
251.698	727.69
251.931	728.69
252.164	751.69
252.397	770.69
252.63	792.69
252.863	798.69
253.096	762.69
253.329	785.69
253.562	778.69
253.795	758.69
254.028	797.69
254.261	855.69
254.494	872.69
254.727	1035.69
254.96	1267.69
255.193	1224.69
255.426	964.69
255.659	875.69
255.892	879.69
256.124	883.69
256.357	864.69
256.59	930.69
256.823	981.69
257.056	1145.69
257.289	1349.69
257.521	1507.69
257.754	1203.69
257.987	1007.69
258.22	951.69
258.452	955.69
258.685	932.69
258.918	964.69
259.151	994.69
259.383	1090.69
259.616	1218.69
259.849	1278.69
260.081	1096.69
260.314	984.69
260.547	969.69
260.779	938.69
261.012	952.69
261.244	968.69
261.477	970.69
261.71	983.69
261.942	993.69
262.175	1023.69
262.407	1029.69
262.64	1035.69
262.872	1075.69
263.105	1117.69
263.337	1207.69
263.57	1252.69
263.802	1260.69
264.035	1332.69
264.267	1360.69
264.499	1362.69
264.732	1412.69
264.964	1417.69
265.197	1368.69
265.429	1435.69
265.661	1455.69
265.894	1548.69
266.126	1736.69
266.358	1921.69
266.591	1900.69
266.823	1603.69
267.055	1434.69
267.287	1406.69
267.52	1318.69
267.752	1285.69
267.984	1282.69
268.216	1257.69
268.448	1267.69
268.681	1251.69
268.913	1203.69
269.145	1223.69
269.377	1243.69
269.609	1264.69
269.841	1310.69
270.073	1378.69
270.306	1607.69
270.538	2167.69
270.77	3264.69
271.002	3997.69
271.234	2843.69
271.466	1914.69
271.698	1564.69
271.93	1415.69
272.162	1315.69
272.394	1298.69
272.626	1260.69
272.858	1262.69
273.09	1250.69
273.322	1234.69
273.553	1211.69
273.785	1211.69
274.017	1208.69
274.249	1217.69
274.481	1219.69
274.713	1227.69
274.945	1189.69
275.176	1206.69
275.408	1233.69
275.64	1254.69
275.872	1247.69
276.104	1250.69
276.335	1279.69
276.567	1278.69
276.799	1271.69
277.031	1291.69
277.262	1317.69
277.494	1424.69
277.726	1551.69
277.957	1851.69
278.189	2117.69
278.421	1999.69
278.652	1773.69
278.884	1659.69
279.115	1491.69
279.347	1436.69
279.579	1410.69
279.81	1393.69
280.042	1381.69
280.273	1405.69
280.505	1470.69
280.736	1514.69
280.968	1607.69
281.199	1796.69
281.431	2092.69
281.662	2095.69
281.894	1796.69
282.125	1653.69
282.356	1640.69
282.588	1692.69
282.819	1717.69
283.051	1827.69
283.282	2002.69
283.513	2500.69
283.745	3677.69
283.976	5805.69
284.207	8163.69
284.439	7556.69
284.67	4695.69
284.901	3814.69
285.132	3825.69
285.364	3647.69
285.595	2721.69
285.826	2488.69
286.057	2857.69
286.288	3945.69
286.52	5353.69
286.751	4987.69
286.982	3094.69
287.213	2275.69
287.444	1961.69
287.675	1876.69
287.906	1768.69
288.138	1731.69
288.369	1706.69
288.6	1677.69
288.831	1681.69
289.062	1651.69
289.293	1672.69
289.524	1661.69
289.755	1662.69
289.986	1697.69
290.217	1728.69
290.448	1733.69
290.679	1747.69
290.91	1767.69
291.141	1859.69
291.371	2043.69
291.602	2183.69
291.833	1949.69
292.064	1728.69
292.295	1666.69
292.526	1636.69
292.757	1634.69
292.987	1597.69
293.218	1574.69
293.449	1604.69
293.68	1569.69
293.91	1556.69
294.141	1583.69
294.372	1559.69
294.603	1527.69
294.833	1539.69
295.064	1553.69
295.295	1587.69
295.525	1526.69
295.756	1578.69
295.987	1547.69
296.217	1553.69
296.448	1580.69
296.679	1594.69
296.909	1573.69
297.14	1600.69
297.37	1615.69
297.601	1625.69
297.831	1635.69
298.062	1653.69
298.292	1631.69
298.523	1685.69
298.753	1694.69
298.984	1659.69
299.214	1750.69
299.445	1769.69
299.675	1818.69
299.905	1825.69
300.136	1923.69
300.366	2159.69
300.597	2751.69
300.827	3902.69
301.057	5348.69
301.288	5301.69
301.518	3448.69
301.748	2625.69
301.979	2375.69
302.209	2316.69
302.439	2349.69
302.669	2484.69
302.9	2983.69
303.13	4202.69
303.36	6289.69
303.59	8280.69
303.82	7370.69
304.051	4375.69
304.281	3116.69
304.511	2624.69
304.741	2395.69
304.971	2216.69
305.201	2083.69
305.431	2030.69
305.661	1944.69
305.891	1911.69
306.121	1880.69
306.352	1879.69
306.582	1867.69
306.812	1818.69
307.042	1843.69
307.272	1841.69
307.502	1806.69
307.731	1801.69
307.961	1805.69
308.191	1816.69
308.421	1789.69
308.651	1783.69
308.881	1813.69
309.111	1808.69
309.341	1841.69
309.571	1843.69
309.8	1816.69
310.03	1874.69
310.26	1834.69
310.49	1861.69
310.72	1828.69
310.949	1854.69
311.179	1919.69
311.409	1865.69
311.639	1919.69
311.868	1908.69
312.098	1915.69
312.328	1953.69
312.557	1970.69
312.787	1963.69
313.017	1962.69
313.246	1951.69
313.476	1997.69
313.706	2036.69
313.935	2172.69
314.165	2346.69
314.394	2494.69
314.624	2388.69
314.853	2174.69
315.083	2183.69
315.312	2179.69
315.542	2181.69
315.771	2220.69
316.001	2222.69
316.23	2322.69
316.46	2454.69
316.689	2682.69
316.919	3260.69
317.148	4615.69
317.377	7218.69
317.607	10635.69
317.836	11141.69
318.065	6776.69
318.295	4351.69
318.524	3487.69
318.753	3035.69
318.983	2772.69
319.212	2592.69
319.441	2539.69
319.67	2463.69
319.9	2373.69
320.129	2360.69
320.358	2303.69
320.587	2334.69
320.816	2340.69
321.046	2383.69
321.275	2378.69
321.504	2380.69
321.733	2460.69
321.962	2449.69
322.191	2488.69
322.42	2473.69
322.649	2445.69
322.878	2489.69
323.108	2450.69
323.337	2509.69
323.566	2558.69
323.795	2607.69
324.024	2628.69
324.253	2716.69
324.482	2871.69
324.71	3047.69
324.939	3213.69
325.168	3253.69
325.397	3411.69
325.626	4064.69
325.855	5593.69
326.084	8915.69
326.313	12904.69
326.542	13592.69
326.77	9303.69
326.999	6101.69
327.228	5024.69
327.457	4788.69
327.686	4882.69
327.914	5162.69
328.143	6058.69
328.372	7299.69
328.6	7914.69
328.829	7026.69
329.058	5963.69
329.287	5087.69
329.515	4733.69
329.744	4288.69
329.972	4065.69
330.201	3839.69
330.43	3690.69
330.658	3573.69
330.887	3591.69
331.115	3496.69
331.344	3473.69
331.572	3445.69
331.801	3479.69
332.03	3556.69
332.258	3587.69
332.486	3796.69
332.715	4243.69
332.943	5359.69
333.172	6667.69
333.4	6643.69
333.629	5051.69
333.857	4478.69
334.085	4472.69
334.314	4754.69
334.542	5191.69
334.771	6109.69
334.999	7526.69
335.227	9479.69
335.455	10530.69
335.684	9503.69
335.912	7798.69
336.14	6498.69
336.369	5843.69
336.597	5248.69
336.825	4850.69
337.053	4492.69
337.281	4165.69
337.51	4005.69
337.738	3817.69
337.966	3688.69
338.194	3540.69
338.422	3439.69
338.65	3384.69
338.878	3276.69
339.106	3205.69
339.334	3191.69
339.562	3134.69
339.79	3052.69
340.018	3024.69
340.246	3078.69
340.474	3017.69
340.702	2953.69
340.93	2979.69
341.158	3020.69
341.386	3001.69
341.614	2930.69
341.842	2914.69
342.07	2833.69
342.298	2806.69
342.526	2767.69
342.754	2701.69
342.981	2705.69
343.209	2696.69
343.437	2732.69
343.665	2772.69
343.893	2805.69
344.12	2797.69
344.348	2705.69
344.576	2715.69
344.804	2704.69
345.031	2637.69
345.259	2600.69
345.487	2597.69
345.714	2556.69
345.942	2534.69
346.17	2517.69
346.397	2516.69
346.625	2517.69
346.853	2540.69
347.08	2490.69
347.308	2528.69
347.535	2530.69
347.763	2543.69
347.99	2462.69
348.218	2442.69
348.445	2464.69
348.673	2388.69
348.9	2427.69
349.128	2475.69
349.355	2406.69
349.583	2451.69
349.81	2423.69
350.037	2402.69
350.265	2381.69
350.492	2395.69
350.72	2394.69
350.947	2395.69
351.174	2417.69
351.402	2391.69
351.629	2374.69
351.856	2351.69
352.083	2361.69
352.311	2353.69
352.538	2377.69
352.765	2344.69
352.992	2348.69
353.22	2337.69
353.447	2348.69
353.674	2407.69
353.901	2370.69
354.128	2362.69
354.355	2384.69
354.583	2410.69
354.81	2407.69
355.037	2405.69
355.264	2402.69
355.491	2416.69
355.718	2439.69
355.945	2432.69
356.172	2435.69
356.399	2435.69
356.626	2477.69
356.853	2479.69
357.08	2494.69
357.307	2557.69
357.534	2545.69
357.761	2529.69
357.988	2575.69
358.215	2572.69
358.441	2547.69
358.668	2523.69
358.895	2540.69
359.122	2556.69
359.349	2499.69
359.576	2545.69
359.802	2543.69
360.029	2463.69
360.256	2498.69
360.483	2544.69
360.709	2531.69
360.936	2490.69
361.163	2513.69
361.39	2488.69
361.616	2579.69
361.843	2575.69
362.07	2538.69
362.296	2581.69
362.523	2565.69
362.749	2543.69
362.976	2512.69
363.203	2516.69
363.429	2528.69
363.656	2492.69
363.882	2501.69
364.109	2521.69
364.335	2545.69
364.562	2525.69
364.788	2510.69
365.015	2608.69
365.241	2615.69
365.468	2834.69
365.694	2923.69
365.92	2787.69
366.147	2622.69
366.373	2625.69
366.599	2610.69
366.826	2560.69
367.052	2593.69
367.278	2601.69
367.505	2654.69
367.731	2581.69
367.957	2599.69
368.184	2666.69
368.41	2626.69
368.636	2645.69
368.862	2607.69
369.089	2630.69
369.315	2662.69
369.541	2631.69
369.767	2619.69
369.993	2588.69
370.219	2596.69
370.445	2594.69
370.672	2689.69
370.898	2667.69
371.124	2663.69
371.35	2652.69
371.576	2727.69
371.802	2737.69
372.028	2710.69
372.254	2726.69
372.48	2702.69
372.706	2779.69
372.932	2780.69
373.158	2743.69
373.384	2790.69
373.61	2743.69
373.835	2823.69
374.061	2793.69
374.287	2801.69
374.513	2804.69
374.739	2889.69
374.965	2875.69
375.191	2853.69
375.416	2892.69
375.642	2808.69
375.868	2823.69
376.094	2764.69
376.319	2766.69
376.545	2729.69
376.771	2703.69
376.997	2707.69
377.222	2737.69
377.448	2707.69
377.674	2783.69
377.899	2746.69
378.125	2725.69
378.35	2723.69
378.576	2733.69
378.802	2725.69
379.027	2819.69
379.253	2885.69
379.478	3018.69
379.704	3634.69
379.929	5148.69
380.155	7988.69
380.38	8824.69
380.606	5320.69
380.831	3692.69
381.057	3220.69
381.282	2973.69
381.507	2859.69
381.733	2800.69
381.958	2748.69
382.184	2703.69
382.409	2732.69
382.634	2654.69
382.86	2656.69
383.085	2672.69
383.31	2687.69
383.535	2711.69
383.761	2674.69
383.986	2701.69
384.211	2758.69
384.436	2716.69
384.662	2733.69
384.887	2747.69
385.112	2699.69
385.337	2729.69
385.562	2776.69
385.787	2772.69
386.013	2781.69
386.238	2789.69
386.463	2771.69
386.688	2758.69
386.913	2715.69
387.138	2771.69
387.363	2799.69
387.588	2734.69
387.813	2764.69
388.038	2719.69
388.263	2684.69
388.488	2764.69
388.713	2753.69
388.938	2697.69
389.163	2761.69
389.387	2732.69
389.612	2745.69
389.837	2773.69
390.062	2753.69
390.287	2730.69
390.512	2779.69
390.736	2788.69
390.961	2836.69
391.186	2890.69
391.411	2889.69
391.636	2919.69
391.86	2905.69
392.085	2892.69
392.31	2850.69
392.534	2844.69
392.759	2859.69
392.984	2817.69
393.208	2836.69
393.433	2854.69
393.658	2803.69
393.882	2779.69
394.107	2761.69
394.331	2784.69
394.556	2783.69
394.78	2807.69
395.005	2845.69
395.229	2803.69
395.454	2881.69
395.678	2863.69
395.903	2872.69
396.127	2865.69
396.352	2865.69
396.576	2818.69
396.801	2847.69
397.025	2928.69
397.249	2869.69
397.474	2891.69
397.698	2897.69
397.922	2915.69
398.147	2932.69
398.371	2959.69
398.595	3018.69
398.82	3069.69
399.044	3209.69
399.268	3337.69
399.492	3531.69
399.717	3635.69
399.941	3623.69
400.165	3530.69
400.389	3385.69
400.613	3235.69
400.837	3155.69
401.062	3028.69
401.286	3077.69
401.51	2984.69
401.734	2993.69
401.958	3052.69
402.182	3031.69
402.406	3063.69
402.63	3047.69
402.854	3075.69
403.078	3053.69
403.302	3100.69
403.526	3121.69
403.75	3146.69
403.974	3153.69
404.198	3149.69
404.422	3100.69
404.645	3131.69
404.869	3136.69
405.093	3131.69
405.317	3130.69
405.541	3180.69
405.765	3197.69
405.988	3271.69
406.212	3236.69
406.436	3284.69
406.66	3337.69
406.883	3295.69
407.107	3323.69
407.331	3381.69
407.555	3405.69
407.778	3475.69
408.002	3355.69
408.226	3321.69
408.449	3367.69
408.673	3257.69
408.896	3265.69
409.12	3233.69
409.344	3234.69
409.567	3145.69
409.791	3191.69
410.014	3141.69
410.238	3192.69
410.461	3118.69
410.685	3074.69
410.908	3125.69
411.132	3080.69
411.355	3045.69
411.578	3012.69
411.802	3018.69
412.025	3007.69
412.249	3032.69
412.472	3013.69
412.695	2957.69
412.919	2970.69
413.142	2989.69
413.365	2988.69
413.589	2956.69
413.812	2948.69
414.035	2944.69
414.258	2978.69
414.482	3016.69
414.705	2995.69
414.928	3027.69
415.151	2998.69
415.374	2927.69
415.597	2879.69
415.821	2832.69
416.044	2863.69
416.267	2833.69
416.49	2898.69
416.713	2875.69
416.936	2863.69
417.159	2781.69
417.382	2823.69
417.605	2791.69
417.828	2848.69
418.051	2848.69
418.274	2872.69
418.497	2902.69
418.72	2906.69
418.943	2877.69
419.166	3027.69
419.389	3168.69
419.611	3166.69
419.834	3067.69
420.057	2967.69
420.28	2943.69
420.503	2861.69
420.726	2882.69
420.948	2799.69
421.171	2889.69
421.394	2849.69
421.617	2834.69
421.839	2897.69
422.062	2912.69
422.285	2797.69
422.507	2832.69
422.73	2957.69
422.953	2917.69
423.175	2971.69
423.398	2947.69
423.621	2872.69
423.843	2908.69
424.066	2895.69
424.288	2828.69
424.511	2824.69
424.733	2820.69
424.956	2828.69
425.178	2833.69
425.401	2805.69
425.623	2787.69
425.846	2757.69
426.068	2754.69
426.291	2716.69
426.513	2739.69
426.735	2675.69
426.958	2742.69
427.18	2665.69
427.402	2674.69
427.625	2730.69
427.847	2674.69
428.069	2660.69
428.292	2693.69
428.514	2655.69
428.736	2611.69
428.958	2695.69
429.181	2566.69
429.403	2577.69
429.625	2623.69
429.847	2653.69
430.069	2681.69
430.292	2818.69
430.514	2859.69
430.736	2812.69
430.958	2706.69
431.18	2593.69
431.402	2651.69
431.624	2578.69
431.846	2608.69
432.068	2572.69
432.29	2585.69
432.512	2511.69
432.734	2577.69
432.956	2585.69
433.178	2600.69
433.4	2599.69
433.622	2659.69
433.844	2690.69
434.066	2637.69
434.287	2617.69
434.509	2691.69
434.731	2690.69
434.953	2743.69
435.175	2745.69
435.397	2766.69
435.618	2648.69
435.84	2613.69
436.062	2635.69
436.284	2627.69
436.505	2653.69
436.727	2616.69
436.949	2603.69
437.17	2584.69
437.392	2563.69
437.614	2549.69
437.835	2525.69
438.057	2518.69
438.278	2534.69
438.5	2549.69
438.721	2551.69
438.943	2689.69
439.165	2688.69
439.386	2708.69
439.608	2703.69
439.829	2750.69
440.05	2831.69
440.272	2847.69
440.493	2712.69
440.715	2659.69
440.936	2715.69
441.158	2725.69
441.379	2801.69
441.6	2848.69
441.822	2925.69
442.043	3027.69
442.264	3168.69
442.486	2956.69
442.707	2853.69
442.928	2808.69
443.149	2821.69
443.371	2775.69
443.592	2764.69
443.813	2826.69
444.034	2861.69
444.255	2804.69
444.476	2933.69
444.698	2985.69
444.919	3006.69
445.14	3058.69
445.361	2910.69
445.582	2830.69
445.803	2770.69
446.024	2780.69
446.245	2782.69
446.466	2823.69
446.687	2741.69
446.908	2749.69
447.129	2683.69
447.35	2635.69
447.571	2615.69
447.792	2523.69
448.013	2578.69
448.234	2569.69
448.455	2579.69
448.675	2603.69
448.896	2713.69
449.117	2731.69
449.338	2998.69
449.559	3121.69
449.779	2806.69
450	2591.69
450.221	2538.69
450.442	2579.69
450.662	2533.69
450.883	2541.69
451.104	2593.69
451.324	2543.69
451.545	2535.69
451.766	2549.69
451.986	2579.69
452.207	2778.69
452.428	3594.69
452.648	5465.69
452.869	4563.69
453.089	3198.69
453.31	2990.69
453.53	2966.69
453.751	3001.69
453.971	3151.69
454.192	3093.69
454.412	2663.69
454.633	2515.69
454.853	2530.69
455.073	2423.69
455.294	2487.69
455.514	2387.69
455.734	2423.69
455.955	2359.69
456.175	2380.69
456.395	2413.69
456.616	2420.69
456.836	2462.69
457.056	2469.69
457.276	2505.69
457.497	2637.69
457.717	2629.69
457.937	2600.69
458.157	2581.69
458.377	2560.69
458.598	2571.69
458.818	2597.69
459.038	2567.69
459.258	2557.69
459.478	2619.69
459.698	2663.69
459.918	2684.69
460.138	2740.69
460.358	2804.69
460.578	2783.69
460.798	2770.69
461.018	2861.69
461.238	2836.69
461.458	2860.69
461.678	2929.69
461.898	2972.69
462.118	2960.69
462.338	3026.69
462.558	3103.69
462.777	3108.69
462.997	3214.69
463.217	3304.69
463.437	3474.69
463.657	3583.69
463.876	3547.69
464.096	3350.69
464.316	3213.69
464.536	3130.69
464.755	3107.69
464.975	2973.69
465.195	2869.69
465.414	2802.69
465.634	2703.69
465.854	2705.69
466.073	2692.69
466.293	2629.69
466.512	2612.69
466.732	2671.69
466.951	2763.69
467.171	2969.69
467.391	2899.69
467.61	2689.69
467.829	2585.69
468.049	2609.69
468.268	2596.69
468.488	2508.69
468.707	2532.69
468.927	2602.69
469.146	2573.69
469.365	2678.69
469.585	2597.69
469.804	2658.69
470.023	2738.69
470.243	2779.69
470.462	2837.69
470.681	3015.69
470.901	3313.69
471.12	3815.69
471.339	3802.69
471.558	3196.69
471.777	2906.69
471.997	2799.69
472.216	2695.69
472.435	2687.69
472.654	2557.69
472.873	2583.69
473.092	2604.69
473.311	2603.69
473.53	2601.69
473.749	2691.69
473.968	2788.69
474.187	2661.69
474.406	2593.69
474.625	2593.69
474.844	2604.69
475.063	2552.69
475.282	2602.69
475.501	2613.69
475.72	2641.69
475.939	2647.69
476.158	2742.69
476.377	2761.69
476.596	2720.69
476.814	2764.69
477.033	2728.69
477.252	2765.69
477.471	2822.69
477.69	2839.69
477.908	2877.69
478.127	2890.69
478.346	2945.69
478.564	2957.69
478.783	3025.69
479.002	3055.69
479.22	3077.69
479.439	3120.69
479.658	3103.69
479.876	3084.69
480.095	3104.69
480.313	3229.69
480.532	3196.69
480.751	3165.69
480.969	3131.69
481.188	3133.69
481.406	3160.69
481.624	3152.69
481.843	3149.69
482.061	3188.69
482.28	3174.69
482.498	3135.69
482.717	3127.69
482.935	3171.69
483.153	3222.69
483.372	3224.69
483.59	3294.69
483.808	3317.69
484.027	3401.69
484.245	3592.69
484.463	4105.69
484.681	4539.69
484.9	4157.69
485.118	3873.69
485.336	3686.69
485.554	3793.69
485.772	4103.69
485.99	4621.69
486.209	4967.69
486.427	4137.69
486.645	3690.69
486.863	3561.69
487.081	3472.69
487.299	3424.69
487.517	3379.69
487.735	3401.69
