Data from SnStandardFlinnAPT0064_LampEnergy10_LIBS07252019.E.O._I.C._HRD10591_15-19-20-493.txt Node
Date: Thu Jul 25 15:19:20 EDT 2019
User: cochatt
Spectrometer: HR+D1059
Trigger mode: 1
Integration Time (sec): 1.000000E-1
Scans to average: 1
Electric dark correction enabled: true
Nonlinearity correction enabled: false
Boxcar width: 0
XAxis mode: Wavelengths
Number of Pixels in Spectrum: 2048
>>>>>Begin Spectral Data<<<<<
223.165	-26.94
223.4	-26.94
223.635	-26.94
223.869	-9.94
224.104	-4.94
224.338	-11.94
224.573	-12.94
224.808	-19.94
225.042	-21.94
225.277	-17.94
225.511	1.06
225.746	11.06
225.98	8.06
226.215	1.06
226.449	24.06
226.683	17.06
226.918	37.06
227.152	27.06
227.387	35.06
227.621	35.06
227.856	44.06
228.09	39.06
228.324	66.06
228.559	53.06
228.793	134.06
229.027	346.06
229.262	349.06
229.496	298.06
229.73	295.06
229.964	311.06
230.199	306.06
230.433	309.06
230.667	329.06
230.901	356.06
231.136	339.06
231.37	369.06
231.604	405.06
231.838	474.06
232.072	557.06
232.306	607.06
232.541	513.06
232.775	459.06
233.009	426.06
233.243	452.06
233.477	487.06
233.711	550.06
233.945	660.06
234.179	566.06
234.413	484.06
234.647	473.06
234.881	515.06
235.115	585.06
235.349	671.06
235.583	857.06
235.817	1112.06
236.051	1073.06
236.285	715.06
236.519	567.06
236.753	524.06
236.987	531.06
237.221	552.06
237.455	535.06
237.689	494.06
237.922	511.06
238.156	492.06
238.39	525.06
238.624	521.06
238.858	515.06
239.091	480.06
239.325	518.06
239.559	497.06
239.793	515.06
240.027	532.06
240.26	552.06
240.494	578.06
240.728	609.06
240.961	637.06
241.195	677.06
241.429	693.06
241.662	748.06
241.896	845.06
242.13	1052.06
242.363	1386.06
242.597	1847.06
242.83	1759.06
243.064	1752.06
243.298	2066.06
243.531	1665.06
243.765	1049.06
243.998	826.06
244.232	744.06
244.465	705.06
244.699	683.06
244.932	643.06
245.166	675.06
245.399	692.06
245.633	693.06
245.866	677.06
246.099	690.06
246.333	665.06
246.566	671.06
246.8	653.06
247.033	663.06
247.266	648.06
247.5	677.06
247.733	698.06
247.966	723.06
248.2	793.06
248.433	913.06
248.666	1095.06
248.899	1033.06
249.133	887.06
249.366	917.06
249.599	998.06
249.832	1160.06
250.066	1160.06
250.299	886.06
250.532	799.06
250.765	769.06
250.998	756.06
251.231	731.06
251.465	740.06
251.698	759.06
251.931	735.06
252.164	739.06
252.397	769.06
252.63	786.06
252.863	804.06
253.096	817.06
253.329	791.06
253.562	788.06
253.795	773.06
254.028	794.06
254.261	832.06
254.494	905.06
254.727	1071.06
254.96	1352.06
255.193	1304.06
255.426	1041.06
255.659	916.06
255.892	875.06
256.124	861.06
256.357	881.06
256.59	931.06
256.823	1009.06
257.056	1179.06
257.289	1445.06
257.521	1590.06
257.754	1258.06
257.987	1005.06
258.22	938.06
258.452	908.06
258.685	953.06
258.918	959.06
259.151	1015.06
259.383	1123.06
259.616	1298.06
259.849	1337.06
260.081	1099.06
260.314	1020.06
260.547	961.06
260.779	923.06
261.012	943.06
261.244	949.06
261.477	945.06
261.71	989.06
261.942	1002.06
262.175	992.06
262.407	1034.06
262.64	1023.06
262.872	1045.06
263.105	1098.06
263.337	1165.06
263.57	1225.06
263.802	1258.06
264.035	1251.06
264.267	1304.06
264.499	1322.06
264.732	1414.06
264.964	1393.06
265.197	1401.06
265.429	1354.06
265.661	1457.06
265.894	1560.06
266.126	1752.06
266.358	2004.06
266.591	1934.06
266.823	1601.06
267.055	1420.06
267.287	1338.06
267.52	1273.06
267.752	1278.06
267.984	1253.06
268.216	1206.06
268.448	1232.06
268.681	1214.06
268.913	1221.06
269.145	1221.06
269.377	1206.06
269.609	1251.06
269.841	1301.06
270.073	1381.06
270.306	1644.06
270.538	2358.06
270.77	3607.06
271.002	4448.06
271.234	3087.06
271.466	2033.06
271.698	1605.06
271.93	1465.06
272.162	1356.06
272.394	1314.06
272.626	1283.06
272.858	1222.06
273.09	1231.06
273.322	1219.06
273.553	1196.06
273.785	1183.06
274.017	1173.06
274.249	1219.06
274.481	1194.06
274.713	1179.06
274.945	1212.06
275.176	1200.06
275.408	1230.06
275.64	1208.06
275.872	1223.06
276.104	1247.06
276.335	1250.06
276.567	1267.06
276.799	1263.06
277.031	1310.06
277.262	1333.06
277.494	1415.06
277.726	1631.06
277.957	1943.06
278.189	2215.06
278.421	2100.06
278.652	1819.06
278.884	1759.06
279.115	1539.06
279.347	1423.06
279.579	1388.06
279.81	1405.06
280.042	1384.06
280.273	1427.06
280.505	1477.06
280.736	1490.06
280.968	1618.06
281.199	1864.06
281.431	2191.06
281.662	2228.06
281.894	1875.06
282.125	1681.06
282.356	1687.06
282.588	1705.06
282.819	1784.06
283.051	1920.06
283.282	2103.06
283.513	2700.06
283.745	3967.06
283.976	6436.06
284.207	9108.06
284.439	8350.06
284.67	5171.06
284.901	4235.06
285.132	4255.06
285.364	3972.06
285.595	2992.06
285.826	2635.06
286.057	3145.06
286.288	4289.06
286.52	5961.06
286.751	5497.06
286.982	3404.06
287.213	2453.06
287.444	2123.06
287.675	1951.06
287.906	1853.06
288.138	1773.06
288.369	1713.06
288.6	1723.06
288.831	1681.06
289.062	1659.06
289.293	1718.06
289.524	1697.06
289.755	1717.06
289.986	1683.06
290.217	1720.06
290.448	1715.06
290.679	1719.06
290.91	1767.06
291.141	1892.06
291.371	2087.06
291.602	2205.06
291.833	2017.06
292.064	1772.06
292.295	1703.06
292.526	1644.06
292.757	1588.06
292.987	1598.06
293.218	1601.06
293.449	1571.06
293.68	1542.06
293.91	1555.06
294.141	1549.06
294.372	1561.06
294.603	1560.06
294.833	1549.06
295.064	1543.06
295.295	1561.06
295.525	1550.06
295.756	1564.06
295.987	1528.06
296.217	1569.06
296.448	1570.06
296.679	1578.06
296.909	1612.06
297.14	1579.06
297.37	1589.06
297.601	1616.06
297.831	1596.06
298.062	1634.06
298.292	1631.06
298.523	1678.06
298.753	1692.06
298.984	1674.06
299.214	1724.06
299.445	1760.06
299.675	1760.06
299.905	1824.06
300.136	1987.06
300.366	2229.06
300.597	2889.06
300.827	4229.06
301.057	5848.06
301.288	5920.06
301.518	3777.06
301.748	2783.06
301.979	2532.06
302.209	2394.06
302.439	2432.06
302.669	2604.06
302.9	3217.06
303.13	4672.06
303.36	6911.06
303.59	9441.06
303.82	8177.06
304.051	4790.06
304.281	3318.06
304.511	2727.06
304.741	2451.06
304.971	2293.06
305.201	2153.06
305.431	2097.06
305.661	2007.06
305.891	1895.06
306.121	1907.06
306.352	1903.06
306.582	1856.06
306.812	1860.06
307.042	1859.06
307.272	1801.06
307.502	1838.06
307.731	1784.06
307.961	1819.06
308.191	1766.06
308.421	1761.06
308.651	1787.06
308.881	1800.06
309.111	1798.06
309.341	1780.06
309.571	1812.06
309.8	1853.06
310.03	1845.06
310.26	1828.06
310.49	1839.06
310.72	1851.06
310.949	1850.06
311.179	1856.06
311.409	1880.06
311.639	1890.06
311.868	1911.06
312.098	1845.06
312.328	1917.06
312.557	1948.06
312.787	1914.06
313.017	1963.06
313.246	2008.06
313.476	1996.06
313.706	2139.06
313.935	2191.06
314.165	2381.06
314.394	2540.06
314.624	2426.06
314.853	2182.06
315.083	2155.06
315.312	2217.06
315.542	2154.06
315.771	2204.06
316.001	2278.06
316.23	2374.06
316.46	2551.06
316.689	2759.06
316.919	3430.06
317.148	5079.06
317.377	7905.06
317.607	11740.06
317.836	12271.06
318.065	7583.06
318.295	4854.06
318.524	3713.06
318.753	3153.06
318.983	2953.06
319.212	2708.06
319.441	2579.06
319.67	2557.06
319.9	2449.06
320.129	2418.06
320.358	2403.06
320.587	2341.06
320.816	2329.06
321.046	2346.06
321.275	2355.06
321.504	2364.06
321.733	2418.06
321.962	2523.06
322.191	2576.06
322.42	2485.06
322.649	2484.06
322.878	2493.06
323.108	2467.06
323.337	2584.06
323.566	2577.06
323.795	2623.06
324.024	2721.06
324.253	2772.06
324.482	2902.06
324.71	3066.06
324.939	3278.06
325.168	3421.06
325.397	3537.06
325.626	4323.06
325.855	6163.06
326.084	9696.06
326.313	13733.06
326.542	14419.06
326.77	10218.06
326.999	6540.06
327.228	5354.06
327.457	5095.06
327.686	5071.06
327.914	5315.06
328.143	6167.06
328.372	7241.06
328.6	7951.06
328.829	7043.06
329.058	5887.06
329.287	5176.06
329.515	4703.06
329.744	4387.06
329.972	4101.06
330.201	3833.06
330.43	3722.06
330.658	3641.06
330.887	3569.06
331.115	3504.06
331.344	3417.06
331.572	3419.06
331.801	3505.06
332.03	3500.06
332.258	3542.06
332.486	3782.06
332.715	4431.06
332.943	5640.06
333.172	7159.06
333.4	7108.06
333.629	5172.06
333.857	4622.06
334.085	4540.06
334.314	4761.06
334.542	5116.06
334.771	6086.06
334.999	7504.06
335.227	9321.06
335.455	10431.06
335.684	9473.06
335.912	7757.06
336.14	6531.06
336.369	5690.06
336.597	5257.06
336.825	4791.06
337.053	4469.06
337.281	4210.06
337.51	3946.06
337.738	3804.06
337.966	3674.06
338.194	3533.06
338.422	3396.06
338.65	3338.06
338.878	3235.06
339.106	3193.06
339.334	3146.06
339.562	3084.06
339.79	3006.06
340.018	2994.06
340.246	2960.06
340.474	2953.06
340.702	2928.06
340.93	2920.06
341.158	2983.06
341.386	2865.06
341.614	2890.06
341.842	2874.06
342.07	2758.06
342.298	2724.06
342.526	2745.06
342.754	2708.06
342.981	2639.06
343.209	2611.06
343.437	2653.06
343.665	2706.06
343.893	2738.06
344.12	2760.06
344.348	2683.06
344.576	2673.06
344.804	2635.06
345.031	2543.06
345.259	2553.06
345.487	2600.06
345.714	2485.06
345.942	2459.06
346.17	2515.06
346.397	2512.06
346.625	2472.06
346.853	2476.06
347.08	2441.06
347.308	2422.06
347.535	2436.06
347.763	2465.06
347.99	2451.06
348.218	2409.06
348.445	2439.06
348.673	2413.06
348.9	2420.06
349.128	2391.06
349.355	2390.06
349.583	2387.06
349.81	2378.06
350.037	2369.06
350.265	2355.06
350.492	2333.06
350.72	2337.06
350.947	2374.06
351.174	2356.06
351.402	2361.06
351.629	2356.06
351.856	2340.06
352.083	2330.06
352.311	2346.06
352.538	2296.06
352.765	2324.06
352.992	2331.06
353.22	2294.06
353.447	2290.06
353.674	2351.06
353.901	2349.06
354.128	2346.06
354.355	2341.06
354.583	2297.06
354.81	2339.06
355.037	2375.06
355.264	2384.06
355.491	2390.06
355.718	2390.06
355.945	2380.06
356.172	2385.06
356.399	2425.06
356.626	2437.06
356.853	2497.06
357.08	2455.06
357.307	2503.06
357.534	2485.06
357.761	2515.06
357.988	2526.06
358.215	2495.06
358.441	2463.06
358.668	2471.06
358.895	2481.06
359.122	2493.06
359.349	2439.06
359.576	2438.06
359.802	2489.06
360.029	2544.06
360.256	2463.06
360.483	2492.06
360.709	2473.06
360.936	2520.06
361.163	2464.06
361.39	2471.06
361.616	2458.06
361.843	2477.06
362.07	2496.06
362.296	2479.06
362.523	2466.06
362.749	2524.06
362.976	2460.06
363.203	2442.06
363.429	2417.06
363.656	2441.06
363.882	2455.06
364.109	2443.06
364.335	2473.06
364.562	2421.06
364.788	2529.06
365.015	2540.06
365.241	2575.06
365.468	2751.06
365.694	2916.06
365.92	2845.06
366.147	2524.06
366.373	2515.06
366.599	2537.06
366.826	2524.06
367.052	2507.06
367.278	2553.06
367.505	2544.06
367.731	2475.06
367.957	2523.06
368.184	2591.06
368.41	2564.06
368.636	2605.06
368.862	2607.06
369.089	2611.06
369.315	2544.06
369.541	2577.06
369.767	2561.06
369.993	2544.06
370.219	2542.06
370.445	2597.06
370.672	2597.06
370.898	2594.06
371.124	2617.06
371.35	2633.06
371.576	2624.06
371.802	2622.06
372.028	2646.06
372.254	2690.06
372.48	2644.06
372.706	2723.06
372.932	2685.06
373.158	2681.06
373.384	2668.06
373.61	2689.06
373.835	2709.06
374.061	2727.06
374.287	2758.06
374.513	2757.06
374.739	2794.06
374.965	2837.06
375.191	2803.06
375.416	2800.06
375.642	2731.06
375.868	2735.06
376.094	2753.06
376.319	2710.06
376.545	2694.06
376.771	2707.06
376.997	2649.06
377.222	2669.06
377.448	2652.06
377.674	2643.06
377.899	2623.06
378.125	2678.06
378.35	2711.06
378.576	2662.06
378.802	2726.06
379.027	2767.06
379.253	2829.06
379.478	3037.06
379.704	3721.06
379.929	5529.06
380.155	8801.06
380.38	9641.06
380.606	5875.06
380.831	3914.06
381.057	3292.06
381.282	2970.06
381.507	2855.06
381.733	2797.06
381.958	2731.06
382.184	2674.06
382.409	2681.06
382.634	2630.06
382.86	2596.06
383.085	2659.06
383.31	2636.06
383.535	2633.06
383.761	2631.06
383.986	2640.06
384.211	2633.06
384.436	2701.06
384.662	2680.06
384.887	2748.06
385.112	2619.06
385.337	2699.06
385.562	2691.06
385.787	2691.06
386.013	2753.06
386.238	2729.06
386.463	2628.06
386.688	2716.06
386.913	2680.06
387.138	2688.06
387.363	2663.06
387.588	2609.06
387.813	2685.06
388.038	2640.06
388.263	2663.06
388.488	2660.06
388.713	2679.06
388.938	2667.06
389.163	2697.06
389.387	2689.06
389.612	2633.06
389.837	2664.06
390.062	2691.06
390.287	2705.06
390.512	2725.06
390.736	2783.06
390.961	2772.06
391.186	2747.06
391.411	2788.06
391.636	2770.06
391.86	2833.06
392.085	2819.06
392.31	2794.06
392.534	2770.06
392.759	2775.06
392.984	2743.06
393.208	2837.06
393.433	2855.06
393.658	2849.06
393.882	2737.06
394.107	2712.06
394.331	2740.06
394.556	2776.06
394.78	2714.06
395.005	2767.06
395.229	2729.06
395.454	2810.06
395.678	2787.06
395.903	2777.06
396.127	2799.06
396.352	2829.06
396.576	2762.06
396.801	2830.06
397.025	2865.06
397.249	2826.06
397.474	2822.06
397.698	2805.06
397.922	2853.06
398.147	2857.06
398.371	2888.06
398.595	2927.06
398.82	3010.06
399.044	3055.06
399.268	3258.06
399.492	3409.06
399.717	3483.06
399.941	3473.06
400.165	3413.06
400.389	3261.06
400.613	3149.06
400.837	3025.06
401.062	2991.06
401.286	3025.06
401.51	2958.06
401.734	2949.06
401.958	2952.06
402.182	2951.06
402.406	2983.06
402.63	2939.06
402.854	2981.06
403.078	2952.06
403.302	3015.06
403.526	3064.06
403.75	3047.06
403.974	3059.06
404.198	3059.06
404.422	3024.06
404.645	3091.06
404.869	3065.06
405.093	3111.06
405.317	3036.06
405.541	3101.06
405.765	3151.06
405.988	3192.06
406.212	3142.06
406.436	3112.06
406.66	3153.06
406.883	3132.06
407.107	3255.06
407.331	3275.06
407.555	3368.06
407.778	3319.06
408.002	3241.06
408.226	3263.06
408.449	3227.06
408.673	3221.06
408.896	3152.06
409.12	3127.06
409.344	3145.06
409.567	3018.06
409.791	3026.06
410.014	3020.06
410.238	3047.06
410.461	3080.06
410.685	3028.06
410.908	3005.06
411.132	3013.06
411.355	2951.06
411.578	2946.06
411.802	2939.06
412.025	2958.06
412.249	2995.06
412.472	3009.06
412.695	2910.06
412.919	2899.06
413.142	2903.06
413.365	2877.06
413.589	2928.06
413.812	2869.06
414.035	2895.06
414.258	2919.06
414.482	2887.06
414.705	2897.06
414.928	2929.06
415.151	2865.06
415.374	2857.06
415.597	2874.06
415.821	2771.06
416.044	2804.06
416.267	2786.06
416.49	2819.06
416.713	2767.06
416.936	2810.06
417.159	2706.06
417.382	2743.06
417.605	2745.06
417.828	2775.06
418.051	2799.06
418.274	2815.06
418.497	2841.06
418.72	2877.06
418.943	2870.06
419.166	2965.06
419.389	3113.06
419.611	3048.06
419.834	2965.06
420.057	2904.06
420.28	2869.06
420.503	2761.06
420.726	2782.06
420.948	2737.06
421.171	2715.06
421.394	2801.06
421.617	2776.06
421.839	2778.06
422.062	2853.06
422.285	2790.06
422.507	2870.06
422.73	2916.06
422.953	2936.06
423.175	2959.06
423.398	2889.06
423.621	2774.06
423.843	2804.06
424.066	2821.06
424.288	2796.06
424.511	2742.06
424.733	2743.06
424.956	2749.06
425.178	2746.06
425.401	2748.06
425.623	2742.06
425.846	2707.06
426.068	2717.06
426.291	2660.06
426.513	2701.06
426.735	2696.06
426.958	2725.06
427.18	2673.06
427.402	2661.06
427.625	2674.06
427.847	2594.06
428.069	2595.06
428.292	2658.06
428.514	2613.06
428.736	2577.06
428.958	2660.06
429.181	2570.06
429.403	2585.06
429.625	2561.06
429.847	2581.06
430.069	2647.06
430.292	2741.06
430.514	2833.06
430.736	2800.06
430.958	2669.06
431.18	2573.06
431.402	2571.06
431.624	2505.06
431.846	2536.06
432.068	2519.06
432.29	2535.06
432.512	2566.06
432.734	2570.06
432.956	2552.06
433.178	2560.06
433.4	2571.06
433.622	2593.06
433.844	2583.06
434.066	2577.06
434.287	2568.06
434.509	2610.06
434.731	2633.06
434.953	2597.06
435.175	2648.06
435.397	2691.06
435.618	2603.06
435.84	2619.06
436.062	2569.06
436.284	2571.06
436.505	2571.06
436.727	2601.06
436.949	2584.06
437.17	2543.06
437.392	2543.06
437.614	2520.06
437.835	2443.06
438.057	2486.06
438.278	2474.06
438.5	2487.06
438.721	2562.06
438.943	2633.06
439.165	2725.06
439.386	2729.06
439.608	2736.06
439.829	2682.06
440.05	2775.06
440.272	2865.06
440.493	2723.06
440.715	2678.06
440.936	2670.06
441.158	2687.06
441.379	2747.06
441.6	2852.06
441.822	2900.06
442.043	3035.06
442.264	3207.06
442.486	2944.06
442.707	2851.06
442.928	2782.06
443.149	2717.06
443.371	2743.06
443.592	2739.06
443.813	2764.06
444.034	2772.06
444.255	2815.06
444.476	2846.06
444.698	2937.06
444.919	2969.06
445.14	2924.06
445.361	2892.06
445.582	2829.06
445.803	2783.06
446.024	2743.06
446.245	2683.06
446.466	2745.06
446.687	2689.06
446.908	2724.06
447.129	2637.06
447.35	2577.06
447.571	2585.06
447.792	2554.06
448.013	2570.06
448.234	2532.06
448.455	2531.06
448.675	2600.06
448.896	2642.06
449.117	2768.06
449.338	3045.06
449.559	3213.06
449.779	2866.06
450	2559.06
450.221	2535.06
450.442	2511.06
450.662	2499.06
450.883	2504.06
451.104	2506.06
451.324	2486.06
451.545	2528.06
451.766	2571.06
451.986	2623.06
452.207	2825.06
452.428	3836.06
452.648	6165.06
452.869	4981.06
453.089	3318.06
453.31	3048.06
453.53	3034.06
453.751	3034.06
453.971	3270.06
454.192	3207.06
454.412	2728.06
454.633	2567.06
454.853	2491.06
455.073	2395.06
455.294	2400.06
455.514	2393.06
455.734	2380.06
455.955	2322.06
456.175	2361.06
456.395	2316.06
456.616	2375.06
456.836	2413.06
457.056	2419.06
457.276	2432.06
457.497	2627.06
457.717	2653.06
457.937	2546.06
458.157	2489.06
458.377	2529.06
458.598	2534.06
458.818	2568.06
459.038	2537.06
459.258	2584.06
459.478	2614.06
459.698	2609.06
459.918	2603.06
460.138	2699.06
460.358	2796.06
460.578	2771.06
460.798	2799.06
461.018	2803.06
461.238	2816.06
461.458	2846.06
461.678	2823.06
461.898	2956.06
462.118	2916.06
462.338	3013.06
462.558	3002.06
462.777	3073.06
462.997	3193.06
463.217	3329.06
463.437	3469.06
463.657	3568.06
463.876	3533.06
464.096	3339.06
464.316	3162.06
464.536	3055.06
464.755	3026.06
464.975	2958.06
465.195	2853.06
465.414	2783.06
465.634	2675.06
465.854	2704.06
466.073	2671.06
466.293	2651.06
466.512	2625.06
466.732	2711.06
466.951	2829.06
467.171	3009.06
467.391	2945.06
467.61	2677.06
467.829	2578.06
468.049	2601.06
468.268	2543.06
468.488	2559.06
468.707	2535.06
468.927	2550.06
469.146	2567.06
469.365	2582.06
469.585	2604.06
469.804	2690.06
470.023	2751.06
470.243	2767.06
470.462	2896.06
470.681	3059.06
470.901	3411.06
471.12	3942.06
471.339	3877.06
471.558	3176.06
471.777	2935.06
471.997	2785.06
472.216	2692.06
472.435	2609.06
472.654	2591.06
472.873	2563.06
473.092	2583.06
473.311	2564.06
473.53	2564.06
473.749	2625.06
473.968	2748.06
474.187	2627.06
474.406	2521.06
474.625	2602.06
474.844	2568.06
475.063	2585.06
475.282	2587.06
475.501	2591.06
475.72	2619.06
475.939	2642.06
476.158	2673.06
476.377	2770.06
476.596	2732.06
476.814	2695.06
477.033	2693.06
477.252	2687.06
477.471	2794.06
477.69	2793.06
477.908	2864.06
478.127	2931.06
478.346	2875.06
478.564	2874.06
478.783	2905.06
479.002	3040.06
479.22	3068.06
479.439	3006.06
479.658	3013.06
479.876	3095.06
480.095	3105.06
480.313	3139.06
480.532	3188.06
480.751	3108.06
480.969	3122.06
481.188	3091.06
481.406	3046.06
481.624	3120.06
481.843	3162.06
482.061	3199.06
482.28	3131.06
482.498	3118.06
482.717	3087.06
482.935	3162.06
483.153	3224.06
483.372	3242.06
483.59	3290.06
483.808	3332.06
484.027	3379.06
484.245	3718.06
484.463	4163.06
484.681	4566.06
484.9	4255.06
485.118	3925.06
485.336	3807.06
485.554	3856.06
485.772	4120.06
485.99	4743.06
486.209	4959.06
486.427	4172.06
486.645	3723.06
486.863	3539.06
487.081	3441.06
487.299	3408.06
487.517	3315.06
487.735	3327.06
