Data from SnStandardFlinnAPT0064_LampEnergy5.5_LIBS07252019.E.O._I.C._HRD10591_15-16-37-491.txt Node
Date: Thu Jul 25 15:16:37 EDT 2019
User: cochatt
Spectrometer: HR+D1059
Trigger mode: 1
Integration Time (sec): 1.000000E-1
Scans to average: 1
Electric dark correction enabled: true
Nonlinearity correction enabled: false
Boxcar width: 0
XAxis mode: Wavelengths
Number of Pixels in Spectrum: 2048
>>>>>Begin Spectral Data<<<<<
223.165	-10.88
223.4	-10.88
223.635	-10.88
223.869	-17.88
224.104	-6.88
224.338	-19.88
224.573	-2.88
224.808	-19.88
225.042	-1.88
225.277	-8.88
225.511	9.12
225.746	-7.88
225.98	1.12
226.215	16.12
226.449	11.12
226.683	17.12
226.918	14.12
227.152	28.12
227.387	24.12
227.621	22.12
227.856	52.12
228.09	54.12
228.324	51.12
228.559	59.12
228.793	87.12
229.027	135.12
229.262	162.12
229.496	156.12
229.73	142.12
229.964	151.12
230.199	151.12
230.433	159.12
230.667	159.12
230.901	163.12
231.136	168.12
231.37	193.12
231.604	194.12
231.838	202.12
232.072	244.12
232.306	246.12
232.541	223.12
232.775	193.12
233.009	207.12
233.243	201.12
233.477	208.12
233.711	240.12
233.945	279.12
234.179	239.12
234.413	216.12
234.647	215.12
234.881	217.12
235.115	236.12
235.349	272.12
235.583	349.12
235.817	439.12
236.051	434.12
236.285	288.12
236.519	226.12
236.753	242.12
236.987	238.12
237.221	252.12
237.455	238.12
237.689	208.12
237.922	208.12
238.156	224.12
238.39	229.12
238.624	230.12
238.858	228.12
239.091	212.12
239.325	239.12
239.559	233.12
239.793	234.12
240.027	232.12
240.26	236.12
240.494	260.12
240.728	247.12
240.961	277.12
241.195	277.12
241.429	296.12
241.662	292.12
241.896	322.12
242.13	398.12
242.363	516.12
242.597	654.12
242.83	609.12
243.064	624.12
243.298	737.12
243.531	640.12
243.765	402.12
243.998	340.12
244.232	327.12
244.465	284.12
244.699	289.12
244.932	309.12
245.166	310.12
245.399	305.12
245.633	303.12
245.866	313.12
246.099	303.12
246.333	278.12
246.566	297.12
246.8	271.12
247.033	286.12
247.266	285.12
247.5	292.12
247.733	320.12
247.966	314.12
248.2	329.12
248.433	384.12
248.666	408.12
248.899	392.12
249.133	355.12
249.366	386.12
249.599	393.12
249.832	440.12
250.066	440.12
250.299	375.12
250.532	335.12
250.765	339.12
250.998	332.12
251.231	344.12
251.465	310.12
251.698	341.12
251.931	335.12
252.164	321.12
252.397	343.12
252.63	338.12
252.863	367.12
253.096	339.12
253.329	361.12
253.562	316.12
253.795	343.12
254.028	354.12
254.261	361.12
254.494	397.12
254.727	455.12
254.96	521.12
255.193	501.12
255.426	416.12
255.659	377.12
255.892	396.12
256.124	393.12
256.357	383.12
256.59	404.12
256.823	409.12
257.056	464.12
257.289	532.12
257.521	590.12
257.754	497.12
257.987	408.12
258.22	415.12
258.452	385.12
258.685	410.12
258.918	421.12
259.151	423.12
259.383	447.12
259.616	489.12
259.849	517.12
260.081	464.12
260.314	419.12
260.547	416.12
260.779	412.12
261.012	414.12
261.244	409.12
261.477	412.12
261.71	445.12
261.942	430.12
262.175	453.12
262.407	463.12
262.64	482.12
262.872	469.12
263.105	488.12
263.337	511.12
263.57	550.12
263.802	558.12
264.035	565.12
264.267	591.12
264.499	586.12
264.732	615.12
264.964	625.12
265.197	617.12
265.429	622.12
265.661	641.12
265.894	690.12
266.126	734.12
266.358	816.12
266.591	787.12
266.823	690.12
267.055	633.12
267.287	592.12
267.52	578.12
267.752	586.12
267.984	550.12
268.216	558.12
268.448	532.12
268.681	570.12
268.913	560.12
269.145	524.12
269.377	549.12
269.609	544.12
269.841	562.12
270.073	584.12
270.306	670.12
270.538	914.12
270.77	1296.12
271.002	1566.12
271.234	1118.12
271.466	736.12
271.698	615.12
271.93	588.12
272.162	554.12
272.394	547.12
272.626	520.12
272.858	533.12
273.09	538.12
273.322	559.12
273.553	536.12
273.785	544.12
274.017	492.12
274.249	525.12
274.481	536.12
274.713	522.12
274.945	529.12
275.176	532.12
275.408	547.12
275.64	557.12
275.872	532.12
276.104	547.12
276.335	559.12
276.567	545.12
276.799	560.12
277.031	570.12
277.262	567.12
277.494	589.12
277.726	633.12
277.957	730.12
278.189	818.12
278.421	765.12
278.652	711.12
278.884	706.12
279.115	613.12
279.347	610.12
279.579	590.12
279.81	592.12
280.042	597.12
280.273	611.12
280.505	629.12
280.736	636.12
280.968	649.12
281.199	728.12
281.431	810.12
281.662	821.12
281.894	714.12
282.125	677.12
282.356	681.12
282.588	695.12
282.819	695.12
283.051	768.12
283.282	820.12
283.513	1020.12
283.745	1467.12
283.976	2327.12
284.207	3255.12
284.439	2884.12
284.67	1744.12
284.901	1356.12
285.132	1364.12
285.364	1324.12
285.595	1041.12
285.826	960.12
286.057	1137.12
286.288	1533.12
286.52	2086.12
286.751	1886.12
286.982	1203.12
287.213	894.12
287.444	788.12
287.675	767.12
287.906	742.12
288.138	738.12
288.369	732.12
288.6	706.12
288.831	696.12
289.062	706.12
289.293	724.12
289.524	707.12
289.755	717.12
289.986	703.12
290.217	714.12
290.448	731.12
290.679	708.12
290.91	723.12
291.141	777.12
291.371	798.12
291.602	801.12
291.833	762.12
292.064	733.12
292.295	721.12
292.526	687.12
292.757	684.12
292.987	693.12
293.218	674.12
293.449	685.12
293.68	643.12
293.91	674.12
294.141	690.12
294.372	646.12
294.603	664.12
294.833	676.12
295.064	670.12
295.295	648.12
295.525	655.12
295.756	659.12
295.987	673.12
296.217	660.12
296.448	665.12
296.679	677.12
296.909	681.12
297.14	686.12
297.37	709.12
297.601	680.12
297.831	704.12
298.062	688.12
298.292	687.12
298.523	710.12
298.753	710.12
298.984	720.12
299.214	733.12
299.445	750.12
299.675	733.12
299.905	735.12
300.136	791.12
300.366	888.12
300.597	1122.12
300.827	1522.12
301.057	2036.12
301.288	2039.12
301.518	1308.12
301.748	1019.12
301.979	940.12
302.209	910.12
302.439	897.12
302.669	977.12
302.9	1152.12
303.13	1624.12
303.36	2372.12
303.59	3208.12
303.82	2744.12
304.051	1584.12
304.281	1199.12
304.511	988.12
304.741	931.12
304.971	864.12
305.201	848.12
305.431	794.12
305.661	824.12
305.891	812.12
306.121	807.12
306.352	798.12
306.582	772.12
306.812	782.12
307.042	781.12
307.272	753.12
307.502	776.12
307.731	771.12
307.961	794.12
308.191	780.12
308.421	783.12
308.651	773.12
308.881	788.12
309.111	778.12
309.341	772.12
309.571	782.12
309.8	795.12
310.03	806.12
310.26	790.12
310.49	808.12
310.72	787.12
310.949	812.12
311.179	809.12
311.409	808.12
311.639	807.12
311.868	804.12
312.098	823.12
312.328	812.12
312.557	842.12
312.787	851.12
313.017	830.12
313.246	834.12
313.476	842.12
313.706	874.12
313.935	926.12
314.165	940.12
314.394	977.12
314.624	956.12
314.853	897.12
315.083	896.12
315.312	909.12
315.542	928.12
315.771	941.12
316.001	942.12
316.23	944.12
316.46	986.12
316.689	1089.12
316.919	1294.12
317.148	1844.12
317.377	2834.12
317.607	4209.12
317.836	4304.12
318.065	2472.12
318.295	1610.12
318.524	1308.12
318.753	1157.12
318.983	1078.12
319.212	1040.12
319.441	1010.12
319.67	1015.12
319.9	980.12
320.129	967.12
320.358	969.12
320.587	986.12
320.816	988.12
321.046	975.12
321.275	969.12
321.504	1005.12
321.733	1021.12
321.962	1012.12
322.191	1017.12
322.42	1045.12
322.649	1029.12
322.878	1028.12
323.108	1029.12
323.337	1022.12
323.566	1051.12
323.795	1080.12
324.024	1099.12
324.253	1120.12
324.482	1149.12
324.71	1175.12
324.939	1237.12
325.168	1278.12
325.397	1308.12
325.626	1551.12
325.855	2193.12
326.084	3467.12
326.313	5170.12
326.542	5392.12
326.77	3391.12
326.999	2190.12
327.228	1881.12
327.457	1777.12
327.686	1797.12
327.914	1926.12
328.143	2193.12
328.372	2545.12
328.6	2683.12
328.829	2519.12
329.058	2163.12
329.287	1974.12
329.515	1808.12
329.744	1674.12
329.972	1607.12
330.201	1509.12
330.43	1518.12
330.658	1456.12
330.887	1454.12
331.115	1395.12
331.344	1395.12
331.572	1372.12
331.801	1424.12
332.03	1413.12
332.258	1426.12
332.486	1504.12
332.715	1703.12
332.943	2038.12
333.172	2505.12
333.4	2455.12
333.629	1911.12
333.857	1761.12
334.085	1769.12
334.314	1871.12
334.542	1977.12
334.771	2280.12
334.999	2736.12
335.227	3294.12
335.455	3700.12
335.684	3413.12
335.912	2896.12
336.14	2492.12
336.369	2228.12
336.597	2055.12
336.825	1912.12
337.053	1789.12
337.281	1686.12
337.51	1614.12
337.738	1508.12
337.966	1488.12
338.194	1430.12
338.422	1417.12
338.65	1361.12
338.878	1351.12
339.106	1306.12
339.334	1328.12
339.562	1284.12
339.79	1249.12
340.018	1257.12
340.246	1280.12
340.474	1255.12
340.702	1260.12
340.93	1290.12
341.158	1228.12
341.386	1215.12
341.614	1233.12
341.842	1216.12
342.07	1176.12
342.298	1188.12
342.526	1160.12
342.754	1122.12
342.981	1181.12
343.209	1173.12
343.437	1172.12
343.665	1168.12
343.893	1174.12
344.12	1185.12
344.348	1160.12
344.576	1154.12
344.804	1143.12
345.031	1120.12
345.259	1118.12
345.487	1119.12
345.714	1102.12
345.942	1090.12
346.17	1112.12
346.397	1081.12
346.625	1075.12
346.853	1055.12
347.08	1066.12
347.308	1055.12
347.535	1076.12
347.763	1078.12
347.99	1068.12
348.218	1077.12
348.445	1040.12
348.673	1036.12
348.9	992.12
349.128	1023.12
349.355	1038.12
349.583	1029.12
349.81	1041.12
350.037	1044.12
350.265	1033.12
350.492	1038.12
350.72	1029.12
350.947	1010.12
351.174	999.12
351.402	1034.12
351.629	1026.12
351.856	1005.12
352.083	1024.12
352.311	999.12
352.538	990.12
352.765	1012.12
352.992	1026.12
353.22	982.12
353.447	993.12
353.674	999.12
353.901	1043.12
354.128	1024.12
354.355	1020.12
354.583	1025.12
354.81	1026.12
355.037	1023.12
355.264	1030.12
355.491	1022.12
355.718	1012.12
355.945	1027.12
356.172	1030.12
356.399	1027.12
356.626	1049.12
356.853	1054.12
357.08	1070.12
357.307	1092.12
357.534	1064.12
357.761	1061.12
357.988	1061.12
358.215	1076.12
358.441	1049.12
358.668	1029.12
358.895	1035.12
359.122	1053.12
359.349	1068.12
359.576	1040.12
359.802	1069.12
360.029	1061.12
360.256	1083.12
360.483	1095.12
360.709	1096.12
360.936	1079.12
361.163	1084.12
361.39	1104.12
361.616	1070.12
361.843	1105.12
362.07	1091.12
362.296	1076.12
362.523	1096.12
362.749	1102.12
362.976	1079.12
363.203	1099.12
363.429	1077.12
363.656	1081.12
363.882	1090.12
364.109	1082.12
364.335	1058.12
364.562	1056.12
364.788	1113.12
365.015	1073.12
365.241	1108.12
365.468	1136.12
365.694	1200.12
365.92	1147.12
366.147	1096.12
366.373	1083.12
366.599	1119.12
366.826	1125.12
367.052	1094.12
367.278	1118.12
367.505	1117.12
367.731	1107.12
367.957	1101.12
368.184	1100.12
368.41	1133.12
368.636	1144.12
368.862	1137.12
369.089	1097.12
369.315	1111.12
369.541	1103.12
369.767	1096.12
369.993	1134.12
370.219	1087.12
370.445	1126.12
370.672	1142.12
370.898	1143.12
371.124	1129.12
371.35	1152.12
371.576	1145.12
371.802	1173.12
372.028	1172.12
372.254	1185.12
372.48	1211.12
372.706	1194.12
372.932	1184.12
373.158	1180.12
373.384	1201.12
373.61	1194.12
373.835	1158.12
374.061	1200.12
374.287	1203.12
374.513	1232.12
374.739	1234.12
374.965	1215.12
375.191	1253.12
375.416	1217.12
375.642	1198.12
375.868	1190.12
376.094	1180.12
376.319	1194.12
376.545	1191.12
376.771	1190.12
376.997	1144.12
377.222	1153.12
377.448	1154.12
377.674	1167.12
377.899	1170.12
378.125	1177.12
378.35	1168.12
378.576	1158.12
378.802	1173.12
379.027	1199.12
379.253	1219.12
379.478	1244.12
379.704	1471.12
379.929	2022.12
380.155	3077.12
380.38	3252.12
380.606	2048.12
380.831	1466.12
381.057	1315.12
381.282	1220.12
381.507	1180.12
381.733	1178.12
381.958	1198.12
382.184	1144.12
382.409	1159.12
382.634	1162.12
382.86	1152.12
383.085	1140.12
383.31	1184.12
383.535	1144.12
383.761	1152.12
383.986	1177.12
384.211	1188.12
384.436	1149.12
384.662	1195.12
384.887	1230.12
385.112	1185.12
385.337	1188.12
385.562	1167.12
385.787	1204.12
386.013	1220.12
386.238	1208.12
386.463	1192.12
386.688	1218.12
386.913	1218.12
387.138	1187.12
387.363	1211.12
387.588	1181.12
387.813	1174.12
388.038	1188.12
388.263	1153.12
388.488	1184.12
388.713	1182.12
388.938	1191.12
389.163	1202.12
389.387	1196.12
389.612	1193.12
389.837	1207.12
390.062	1207.12
390.287	1221.12
390.512	1146.12
390.736	1218.12
390.961	1239.12
391.186	1216.12
391.411	1261.12
391.636	1239.12
391.86	1285.12
392.085	1241.12
392.31	1234.12
392.534	1241.12
392.759	1238.12
392.984	1204.12
393.208	1240.12
393.433	1254.12
393.658	1207.12
393.882	1215.12
394.107	1252.12
394.331	1206.12
394.556	1215.12
394.78	1228.12
395.005	1230.12
395.229	1196.12
395.454	1235.12
395.678	1214.12
395.903	1238.12
396.127	1248.12
396.352	1221.12
396.576	1241.12
396.801	1229.12
397.025	1246.12
397.249	1310.12
397.474	1258.12
397.698	1265.12
397.922	1290.12
398.147	1291.12
398.371	1291.12
398.595	1347.12
398.82	1349.12
399.044	1407.12
399.268	1438.12
399.492	1540.12
399.717	1612.12
399.941	1570.12
400.165	1507.12
400.389	1452.12
400.613	1453.12
400.837	1358.12
401.062	1360.12
401.286	1359.12
401.51	1337.12
401.734	1310.12
401.958	1337.12
402.182	1361.12
402.406	1324.12
402.63	1352.12
402.854	1357.12
403.078	1362.12
403.302	1374.12
403.526	1363.12
403.75	1328.12
403.974	1395.12
404.198	1352.12
404.422	1396.12
404.645	1361.12
404.869	1374.12
405.093	1375.12
405.317	1367.12
405.541	1404.12
405.765	1437.12
405.988	1422.12
406.212	1405.12
406.436	1370.12
406.66	1412.12
406.883	1412.12
407.107	1462.12
407.331	1476.12
407.555	1464.12
407.778	1498.12
408.002	1458.12
408.226	1433.12
408.449	1439.12
408.673	1414.12
408.896	1404.12
409.12	1419.12
409.344	1383.12
409.567	1362.12
409.791	1382.12
410.014	1375.12
410.238	1324.12
410.461	1348.12
410.685	1360.12
410.908	1358.12
411.132	1334.12
411.355	1310.12
411.578	1336.12
411.802	1317.12
412.025	1325.12
412.249	1355.12
412.472	1355.12
412.695	1321.12
412.919	1298.12
413.142	1296.12
413.365	1304.12
413.589	1317.12
413.812	1278.12
414.035	1295.12
414.258	1269.12
414.482	1320.12
414.705	1293.12
414.928	1303.12
415.151	1281.12
415.374	1316.12
415.597	1276.12
415.821	1256.12
416.044	1244.12
416.267	1227.12
416.49	1250.12
416.713	1269.12
416.936	1264.12
417.159	1254.12
417.382	1250.12
417.605	1225.12
417.828	1264.12
418.051	1245.12
418.274	1261.12
418.497	1266.12
418.72	1310.12
418.943	1264.12
419.166	1348.12
419.389	1388.12
419.611	1359.12
419.834	1326.12
420.057	1301.12
420.28	1290.12
420.503	1264.12
420.726	1263.12
420.948	1254.12
421.171	1262.12
421.394	1269.12
421.617	1254.12
421.839	1249.12
422.062	1254.12
422.285	1249.12
422.507	1259.12
422.73	1265.12
422.953	1317.12
423.175	1298.12
423.398	1269.12
423.621	1274.12
423.843	1279.12
424.066	1266.12
424.288	1257.12
424.511	1272.12
424.733	1270.12
424.956	1209.12
425.178	1225.12
425.401	1254.12
425.623	1262.12
425.846	1217.12
426.068	1252.12
426.291	1198.12
426.513	1208.12
426.735	1191.12
426.958	1184.12
427.18	1183.12
427.402	1203.12
427.625	1191.12
427.847	1196.12
428.069	1178.12
428.292	1154.12
428.514	1205.12
428.736	1176.12
428.958	1158.12
429.181	1120.12
429.403	1142.12
429.625	1152.12
429.847	1140.12
430.069	1177.12
430.292	1200.12
430.514	1216.12
430.736	1241.12
430.958	1192.12
431.18	1144.12
431.402	1182.12
431.624	1158.12
431.846	1135.12
432.068	1136.12
432.29	1130.12
432.512	1130.12
432.734	1126.12
432.956	1113.12
433.178	1160.12
433.4	1144.12
433.622	1166.12
433.844	1192.12
434.066	1182.12
434.287	1132.12
434.509	1140.12
434.731	1211.12
434.953	1215.12
435.175	1221.12
435.397	1201.12
435.618	1188.12
435.84	1187.12
436.062	1107.12
436.284	1140.12
436.505	1121.12
436.727	1184.12
436.949	1162.12
437.17	1146.12
437.392	1138.12
437.614	1127.12
437.835	1093.12
438.057	1090.12
438.278	1098.12
438.5	1112.12
438.721	1171.12
438.943	1183.12
439.165	1210.12
439.386	1221.12
439.608	1205.12
439.829	1174.12
440.05	1221.12
440.272	1230.12
440.493	1205.12
440.715	1225.12
440.936	1210.12
441.158	1188.12
441.379	1198.12
441.6	1266.12
441.822	1290.12
442.043	1341.12
442.264	1374.12
442.486	1274.12
442.707	1290.12
442.928	1234.12
443.149	1258.12
443.371	1220.12
443.592	1241.12
443.813	1242.12
444.034	1214.12
444.255	1253.12
444.476	1266.12
444.698	1316.12
444.919	1299.12
445.14	1384.12
445.361	1335.12
445.582	1299.12
445.803	1226.12
446.024	1208.12
446.245	1214.12
446.466	1245.12
446.687	1216.12
446.908	1208.12
447.129	1212.12
447.35	1165.12
447.571	1180.12
447.792	1129.12
448.013	1160.12
448.234	1114.12
448.455	1138.12
448.675	1162.12
448.896	1149.12
449.117	1169.12
449.338	1274.12
449.559	1360.12
449.779	1218.12
450	1149.12
450.221	1127.12
450.442	1099.12
450.662	1111.12
450.883	1110.12
451.104	1127.12
451.324	1135.12
451.545	1109.12
451.766	1127.12
451.986	1112.12
452.207	1180.12
452.428	1454.12
452.648	1999.12
452.869	1720.12
453.089	1290.12
453.31	1214.12
453.53	1211.12
453.751	1248.12
453.971	1348.12
454.192	1303.12
454.412	1125.12
454.633	1098.12
454.853	1101.12
455.073	1097.12
455.294	1060.12
455.514	1028.12
455.734	1057.12
455.955	1051.12
456.175	1055.12
456.395	1040.12
456.616	1046.12
456.836	1089.12
457.056	1048.12
457.276	1069.12
457.497	1106.12
457.717	1141.12
457.937	1094.12
458.157	1101.12
458.377	1107.12
458.598	1122.12
458.818	1123.12
459.038	1101.12
459.258	1142.12
459.478	1146.12
459.698	1185.12
459.918	1174.12
460.138	1201.12
460.358	1184.12
460.578	1220.12
460.798	1221.12
461.018	1253.12
461.238	1238.12
461.458	1277.12
461.678	1263.12
461.898	1247.12
462.118	1313.12
462.338	1320.12
462.558	1347.12
462.777	1358.12
462.997	1398.12
463.217	1462.12
463.437	1497.12
463.657	1529.12
463.876	1488.12
464.096	1444.12
464.316	1383.12
464.536	1359.12
464.755	1332.12
464.975	1324.12
465.195	1249.12
465.414	1234.12
465.634	1158.12
465.854	1181.12
466.073	1176.12
466.293	1152.12
466.512	1168.12
466.732	1178.12
466.951	1260.12
467.171	1311.12
467.391	1324.12
467.61	1218.12
467.829	1165.12
468.049	1157.12
468.268	1115.12
468.488	1122.12
468.707	1124.12
468.927	1156.12
469.146	1116.12
469.365	1148.12
469.585	1178.12
469.804	1166.12
470.023	1182.12
470.243	1196.12
470.462	1253.12
470.681	1310.12
470.901	1422.12
471.12	1629.12
471.339	1652.12
471.558	1361.12
471.777	1258.12
471.997	1150.12
472.216	1144.12
472.435	1129.12
472.654	1130.12
472.873	1110.12
473.092	1152.12
473.311	1145.12
473.53	1124.12
473.749	1159.12
473.968	1184.12
474.187	1174.12
474.406	1118.12
474.625	1111.12
474.844	1150.12
475.063	1163.12
475.282	1148.12
475.501	1125.12
475.72	1147.12
475.939	1183.12
476.158	1184.12
476.377	1212.12
476.596	1204.12
476.814	1191.12
477.033	1178.12
477.252	1210.12
477.471	1240.12
477.69	1267.12
477.908	1271.12
478.127	1298.12
478.346	1299.12
478.564	1301.12
478.783	1332.12
479.002	1350.12
479.22	1357.12
479.439	1373.12
479.658	1337.12
479.876	1334.12
480.095	1335.12
480.313	1364.12
480.532	1413.12
480.751	1383.12
480.969	1348.12
481.188	1348.12
481.406	1327.12
481.624	1328.12
481.843	1320.12
482.061	1340.12
482.28	1342.12
482.498	1363.12
482.717	1324.12
482.935	1353.12
483.153	1383.12
483.372	1429.12
483.59	1434.12
483.808	1434.12
484.027	1453.12
484.245	1530.12
484.463	1698.12
484.681	1888.12
484.9	1734.12
485.118	1626.12
485.336	1572.12
485.554	1561.12
485.772	1657.12
485.99	1881.12
486.209	2078.12
486.427	1753.12
486.645	1554.12
486.863	1517.12
487.081	1493.12
487.299	1408.12
487.517	1410.12
487.735	1417.12
487.953	1495.12
488.171	1477.12
488.389	1427.12
488.607	1393.12
488.825	1410.12
489.043	1389.12
489.261	1414.12
489.479	1397.12
489.696	1410.12
489.914	1405.12
490.132	1423.12
490.35	1414.12
490.568	1450.12
490.786	1472.12
491.003	1497.12
