Data from SnStandardFlinnAPT0064_LampEnergy10_LIBS07252019.E.O._I.C._HRD10591_15-22-02-494.txt Node
Date: Thu Jul 25 15:22:02 EDT 2019
User: cochatt
Spectrometer: HR+D1059
Trigger mode: 1
Integration Time (sec): 1.000000E-1
Scans to average: 1
Electric dark correction enabled: true
Nonlinearity correction enabled: false
Boxcar width: 0
XAxis mode: Wavelengths
Number of Pixels in Spectrum: 2048
>>>>>Begin Spectral Data<<<<<
223.165	-5
223.4	-5
223.635	-5
223.869	-25
224.104	-19
224.338	-28
224.573	-21
224.808	-7
225.042	4
225.277	-10
225.511	-10
225.746	14
225.98	9
226.215	-4
226.449	20
226.683	34
226.918	19
227.152	29
227.387	36
227.621	25
227.856	44
228.09	44
228.324	49
228.559	52
228.793	125
229.027	302
229.262	336
229.496	303
229.73	309
229.964	311
230.199	290
230.433	315
230.667	297
230.901	322
231.136	325
231.37	348
231.604	386
231.838	447
232.072	520
232.306	546
232.541	480
232.775	413
233.009	404
233.243	418
233.477	442
233.711	489
233.945	566
234.179	532
234.413	438
234.647	454
234.881	462
235.115	501
235.349	613
235.583	771
235.817	961
236.051	954
236.285	647
236.519	544
236.753	495
236.987	486
237.221	548
237.455	523
237.689	475
237.922	457
238.156	473
238.39	478
238.624	490
238.858	494
239.091	495
239.325	498
239.559	488
239.793	482
240.027	513
240.26	535
240.494	573
240.728	585
240.961	622
241.195	635
241.429	679
241.662	697
241.896	775
242.13	940
242.363	1215
242.597	1585
242.83	1516
243.064	1537
243.298	1799
243.531	1446
243.765	928
243.998	746
244.232	691
244.465	684
244.699	666
244.932	651
245.166	651
245.399	676
245.633	680
245.866	678
246.099	647
246.333	644
246.566	631
246.8	624
247.033	635
247.266	610
247.5	651
247.733	679
247.966	692
248.2	763
248.433	878
248.666	965
248.899	920
249.133	830
249.366	839
249.599	948
249.832	1100
250.066	1059
250.299	863
250.532	787
250.765	754
250.998	754
251.231	746
251.465	726
251.698	731
251.931	728
252.164	729
252.397	755
252.63	763
252.863	809
253.096	779
253.329	790
253.562	773
253.795	779
254.028	809
254.261	818
254.494	883
254.727	1024
254.96	1219
255.193	1190
255.426	953
255.659	886
255.892	865
256.124	892
256.357	837
256.59	906
256.823	945
257.056	1087
257.289	1311
257.521	1465
257.754	1199
257.987	969
258.22	907
258.452	922
258.685	907
258.918	931
259.151	1009
259.383	1120
259.616	1179
259.849	1263
260.081	1097
260.314	986
260.547	930
260.779	955
261.012	943
261.244	965
261.477	984
261.71	1009
261.942	1001
262.175	1025
262.407	1064
262.64	1068
262.872	1093
263.105	1153
263.337	1199
263.57	1280
263.802	1302
264.035	1306
264.267	1365
264.499	1353
264.732	1440
264.964	1443
265.197	1437
265.429	1451
265.661	1491
265.894	1579
266.126	1818
266.358	1964
266.591	1951
266.823	1626
267.055	1455
267.287	1385
267.52	1335
267.752	1317
267.984	1277
268.216	1256
268.448	1265
268.681	1223
268.913	1253
269.145	1258
269.377	1234
269.609	1238
269.841	1273
270.073	1345
270.306	1613
270.538	2193
270.77	3162
271.002	3853
271.234	2739
271.466	1856
271.698	1546
271.93	1387
272.162	1346
272.394	1290
272.626	1239
272.858	1241
273.09	1245
273.322	1208
273.553	1184
273.785	1210
274.017	1195
274.249	1215
274.481	1200
274.713	1212
274.945	1213
275.176	1235
275.408	1235
275.64	1240
275.872	1232
276.104	1260
276.335	1257
276.567	1289
276.799	1259
277.031	1315
277.262	1327
277.494	1425
277.726	1561
277.957	1795
278.189	2095
278.421	1952
278.652	1740
278.884	1656
279.115	1446
279.347	1414
279.579	1360
279.81	1377
280.042	1387
280.273	1425
280.505	1423
280.736	1484
280.968	1599
281.199	1769
281.431	2010
281.662	2060
281.894	1775
282.125	1628
282.356	1665
282.588	1649
282.819	1702
283.051	1831
283.282	2010
283.513	2473
283.745	3564
283.976	5613
284.207	7876
284.439	7133
284.67	4455
284.901	3633
285.132	3639
285.364	3533
285.595	2721
285.826	2413
286.057	2881
286.288	3833
286.52	5156
286.751	4772
286.982	3001
287.213	2239
287.444	1987
287.675	1805
287.906	1771
288.138	1725
288.369	1681
288.6	1683
288.831	1700
289.062	1623
289.293	1671
289.524	1689
289.755	1732
289.986	1772
290.217	1750
290.448	1692
290.679	1695
290.91	1770
291.141	1866
291.371	2029
291.602	2088
291.833	1930
292.064	1755
292.295	1674
292.526	1636
292.757	1597
292.987	1554
293.218	1569
293.449	1611
293.68	1570
293.91	1587
294.141	1566
294.372	1540
294.603	1561
294.833	1607
295.064	1564
295.295	1558
295.525	1535
295.756	1565
295.987	1576
296.217	1592
296.448	1592
296.679	1592
296.909	1578
297.14	1626
297.37	1659
297.601	1625
297.831	1605
298.062	1640
298.292	1666
298.523	1691
298.753	1690
298.984	1686
299.214	1742
299.445	1750
299.675	1802
299.905	1884
300.136	1899
300.366	2118
300.597	2735
300.827	3763
301.057	5118
301.288	5130
301.518	3307
301.748	2579
301.979	2337
302.209	2241
302.439	2292
302.669	2439
302.9	2948
303.13	4163
303.36	6099
303.59	8086
303.82	6985
304.051	4103
304.281	2957
304.511	2503
304.741	2314
304.971	2228
305.201	2111
305.431	2001
305.661	1956
305.891	1889
306.121	1872
306.352	1874
306.582	1854
306.812	1865
307.042	1873
307.272	1820
307.502	1803
307.731	1852
307.961	1836
308.191	1799
308.421	1795
308.651	1814
308.881	1815
309.111	1827
309.341	1841
309.571	1865
309.8	1878
310.03	1851
310.26	1859
310.49	1852
310.72	1872
310.949	1875
311.179	1895
311.409	1903
311.639	1964
311.868	1911
312.098	1957
312.328	1972
312.557	1959
312.787	1981
313.017	1959
313.246	1990
313.476	1981
313.706	2096
313.935	2197
314.165	2400
314.394	2471
314.624	2335
314.853	2175
315.083	2190
315.312	2183
315.542	2199
315.771	2237
316.001	2243
316.23	2329
316.46	2445
316.689	2680
316.919	3227
317.148	4582
317.377	6962
317.607	10267
317.836	10552
318.065	6474
318.295	4183
318.524	3328
318.753	2941
318.983	2736
319.212	2539
319.441	2533
319.67	2465
319.9	2410
320.129	2385
320.358	2374
320.587	2364
320.816	2346
321.046	2324
321.275	2299
321.504	2372
321.733	2456
321.962	2572
322.191	2541
322.42	2515
322.649	2481
322.878	2496
323.108	2521
323.337	2556
323.566	2615
323.795	2635
324.024	2641
324.253	2699
324.482	2835
324.71	2975
324.939	3191
325.168	3258
325.397	3401
325.626	3981
325.855	5470
326.084	8585
326.313	12559
326.542	13214
326.77	8908
326.999	5886
327.228	4873
327.457	4629
327.686	4739
327.914	5063
328.143	5906
328.372	7007
328.6	7643
328.829	6833
329.058	5781
329.287	5050
329.515	4592
329.744	4254
329.972	3979
330.201	3851
330.43	3713
330.658	3609
330.887	3546
331.115	3533
331.344	3482
331.572	3453
331.801	3496
332.03	3513
332.258	3562
332.486	3740
332.715	4216
332.943	5301
333.172	6480
333.4	6455
333.629	4904
333.857	4425
334.085	4479
334.314	4704
334.542	5107
334.771	5921
334.999	7312
335.227	9242
335.455	10317
335.684	9224
335.912	7567
336.14	6401
336.369	5663
336.597	5230
336.825	4809
337.053	4525
337.281	4270
337.51	4086
337.738	3881
337.966	3747
338.194	3569
338.422	3513
338.65	3351
338.878	3350
339.106	3277
339.334	3193
339.562	3168
339.79	3086
340.018	3107
340.246	3024
340.474	3063
340.702	3049
340.93	3017
341.158	2993
341.386	3027
341.614	2908
341.842	2898
342.07	2849
342.298	2825
342.526	2801
342.754	2773
342.981	2771
343.209	2746
343.437	2767
343.665	2827
343.893	2838
344.12	2859
344.348	2813
344.576	2724
344.804	2727
345.031	2683
345.259	2653
345.487	2623
345.714	2572
345.942	2566
346.17	2597
346.397	2515
346.625	2538
346.853	2541
347.08	2498
347.308	2524
347.535	2513
347.763	2573
347.99	2526
348.218	2490
348.445	2505
348.673	2434
348.9	2533
349.128	2447
349.355	2455
349.583	2472
349.81	2423
350.037	2396
350.265	2383
350.492	2417
350.72	2407
350.947	2421
351.174	2465
351.402	2469
351.629	2383
351.856	2382
352.083	2412
352.311	2395
352.538	2361
352.765	2381
352.992	2402
353.22	2373
353.447	2383
353.674	2394
353.901	2375
354.128	2411
354.355	2391
354.583	2370
354.81	2395
355.037	2463
355.264	2426
355.491	2473
355.718	2469
355.945	2498
356.172	2507
356.399	2431
356.626	2463
356.853	2527
357.08	2516
357.307	2562
357.534	2579
357.761	2580
357.988	2581
358.215	2547
358.441	2579
358.668	2546
358.895	2566
359.122	2548
359.349	2578
359.576	2513
359.802	2513
360.029	2519
360.256	2539
360.483	2573
360.709	2547
360.936	2565
361.163	2540
361.39	2604
361.616	2564
361.843	2616
362.07	2628
362.296	2578
362.523	2587
362.749	2621
362.976	2541
363.203	2548
363.429	2533
363.656	2544
363.882	2553
364.109	2540
364.335	2519
364.562	2535
364.788	2591
365.015	2613
365.241	2615
365.468	2746
365.694	2945
365.92	2826
366.147	2651
366.373	2592
366.599	2628
366.826	2628
367.052	2579
367.278	2652
367.505	2626
367.731	2596
367.957	2604
368.184	2619
368.41	2643
368.636	2699
368.862	2700
369.089	2707
369.315	2660
369.541	2653
369.767	2656
369.993	2637
370.219	2693
370.445	2665
370.672	2641
370.898	2667
371.124	2674
371.35	2707
371.576	2743
371.802	2767
372.028	2739
372.254	2808
372.48	2779
372.706	2793
372.932	2837
373.158	2845
373.384	2792
373.61	2801
373.835	2827
374.061	2787
374.287	2875
374.513	2921
374.739	2912
374.965	2885
375.191	2937
375.416	2934
375.642	2858
375.868	2827
376.094	2860
376.319	2801
376.545	2806
376.771	2755
376.997	2771
377.222	2775
377.448	2712
377.674	2730
377.899	2755
378.125	2775
378.35	2812
378.576	2793
378.802	2776
379.027	2855
379.253	2892
379.478	3063
379.704	3625
379.929	5147
380.155	7832
380.38	8451
380.606	5151
380.831	3640
381.057	3225
381.282	2995
381.507	2897
381.733	2846
381.958	2795
382.184	2745
382.409	2719
382.634	2681
382.86	2707
383.085	2720
383.31	2721
383.535	2710
383.761	2711
383.986	2697
384.211	2786
384.436	2755
384.662	2788
384.887	2837
385.112	2725
385.337	2747
385.562	2816
385.787	2819
386.013	2806
386.238	2741
386.463	2824
386.688	2803
386.913	2764
387.138	2812
387.363	2824
387.588	2780
387.813	2775
388.038	2795
388.263	2801
388.488	2824
388.713	2744
388.938	2789
389.163	2753
389.387	2755
389.612	2724
389.837	2739
390.062	2788
390.287	2838
390.512	2789
390.736	2856
390.961	2851
391.186	2931
391.411	2955
391.636	2932
391.86	2941
392.085	2935
392.31	2887
392.534	2872
392.759	2848
392.984	2869
393.208	2837
393.433	2850
393.658	2823
393.882	2840
394.107	2802
394.331	2792
394.556	2851
394.78	2845
395.005	2898
395.229	2879
395.454	2896
395.678	2904
395.903	2912
396.127	2892
396.352	2836
396.576	2907
396.801	2855
397.025	2893
397.249	2947
397.474	2935
397.698	2959
397.922	2953
398.147	2979
398.371	3020
398.595	3060
398.82	3113
399.044	3231
399.268	3374
399.492	3586
399.717	3697
399.941	3678
400.165	3602
400.389	3404
400.613	3263
400.837	3095
401.062	3117
401.286	3127
401.51	3041
401.734	3058
401.958	3093
402.182	3068
402.406	3085
402.63	3127
402.854	3119
403.078	3123
403.302	3157
403.526	3166
403.75	3192
403.974	3172
404.198	3163
404.422	3198
404.645	3179
404.869	3192
405.093	3225
405.317	3154
405.541	3259
405.765	3215
405.988	3306
406.212	3319
406.436	3226
406.66	3328
406.883	3290
407.107	3399
407.331	3429
407.555	3501
407.778	3503
408.002	3416
408.226	3389
408.449	3467
408.673	3343
408.896	3235
409.12	3251
409.344	3223
409.567	3181
409.791	3236
410.014	3203
410.238	3211
410.461	3105
410.685	3161
410.908	3109
411.132	3142
411.355	3063
411.578	3108
411.802	3116
412.025	3074
412.249	3084
412.472	3067
412.695	3013
412.919	3009
413.142	3036
413.365	3019
413.589	3041
413.812	2998
414.035	3036
414.258	3088
414.482	2995
414.705	3040
414.928	2988
415.151	3046
415.374	2950
415.597	2966
415.821	2885
416.044	2855
416.267	2908
416.49	2887
416.713	2880
416.936	2903
417.159	2851
417.382	2818
417.605	2875
417.828	2907
418.051	2924
418.274	2915
418.497	2904
418.72	2942
418.943	2901
419.166	3056
419.389	3224
419.611	3221
419.834	3105
420.057	3010
420.28	2931
420.503	2903
420.726	2845
420.948	2838
421.171	2903
421.394	2935
421.617	2916
421.839	2923
422.062	2919
422.285	2869
422.507	2910
422.73	2965
422.953	2972
423.175	2975
423.398	2932
423.621	2928
423.843	2874
424.066	2885
424.288	2910
424.511	2917
424.733	2871
424.956	2859
425.178	2827
425.401	2852
425.623	2852
425.846	2758
426.068	2795
426.291	2783
426.513	2772
426.735	2721
426.958	2738
427.18	2731
427.402	2755
427.625	2736
427.847	2729
428.069	2662
428.292	2677
428.514	2625
428.736	2729
428.958	2693
429.181	2661
429.403	2612
429.625	2612
429.847	2614
430.069	2755
430.292	2819
430.514	2880
430.736	2872
430.958	2701
431.18	2629
431.402	2641
431.624	2638
431.846	2667
432.068	2599
432.29	2677
432.512	2567
432.734	2626
432.956	2679
433.178	2629
433.4	2670
433.622	2675
433.844	2698
434.066	2633
434.287	2627
434.509	2680
434.731	2717
434.953	2813
435.175	2745
435.397	2730
435.618	2749
435.84	2685
436.062	2654
436.284	2595
436.505	2611
436.727	2657
436.949	2647
437.17	2632
437.392	2631
437.614	2609
437.835	2562
438.057	2555
438.278	2547
438.5	2540
438.721	2631
438.943	2709
439.165	2689
439.386	2735
439.608	2667
439.829	2762
440.05	2774
440.272	2899
440.493	2757
440.715	2694
440.936	2699
441.158	2790
441.379	2805
441.6	2877
441.822	2959
442.043	3061
442.264	3199
442.486	2963
442.707	2888
442.928	2830
443.149	2858
443.371	2843
443.592	2867
443.813	2882
444.034	2887
444.255	2921
444.476	2931
444.698	2971
444.919	3043
445.14	3173
445.361	3005
445.582	2883
445.803	2855
446.024	2791
446.245	2780
446.466	2762
446.687	2753
446.908	2761
447.129	2701
447.35	2674
447.571	2675
447.792	2577
448.013	2543
448.234	2591
448.455	2628
448.675	2639
448.896	2707
449.117	2770
449.338	3020
449.559	3142
449.779	2784
450	2616
450.221	2580
450.442	2550
450.662	2549
450.883	2533
451.104	2569
451.324	2567
451.545	2518
451.766	2584
451.986	2647
452.207	2835
452.428	3570
452.648	5413
452.869	4511
453.089	3185
453.31	2944
453.53	2963
453.751	2991
453.971	3157
454.192	3092
454.412	2685
454.633	2601
454.853	2511
455.073	2483
455.294	2462
455.514	2448
455.734	2468
455.955	2394
456.175	2434
456.395	2410
456.616	2457
456.836	2489
457.056	2509
457.276	2485
457.497	2595
457.717	2624
457.937	2592
458.157	2605
458.377	2629
458.598	2611
458.818	2624
459.038	2589
459.258	2674
459.478	2676
459.698	2651
459.918	2667
460.138	2818
460.358	2785
460.578	2845
460.798	2884
461.018	2900
461.238	2908
461.458	2917
461.678	2897
461.898	3043
462.118	3014
462.338	3044
462.558	3090
462.777	3152
462.997	3299
463.217	3389
463.437	3529
463.657	3574
463.876	3519
464.096	3381
464.316	3185
464.536	3156
464.755	3119
464.975	3025
465.195	2916
465.414	2892
465.634	2744
465.854	2763
466.073	2709
466.293	2669
466.512	2654
466.732	2708
466.951	2823
467.171	3005
467.391	2943
467.61	2723
467.829	2671
468.049	2564
468.268	2594
468.488	2552
468.707	2581
468.927	2599
469.146	2611
469.365	2609
469.585	2620
469.804	2719
470.023	2804
470.243	2785
470.462	2888
470.681	3021
470.901	3295
471.12	3771
471.339	3807
471.558	3187
471.777	2912
471.997	2767
472.216	2723
472.435	2655
472.654	2631
472.873	2586
473.092	2611
473.311	2626
473.53	2639
473.749	2724
473.968	2768
474.187	2625
474.406	2569
474.625	2618
474.844	2633
475.063	2659
475.282	2583
475.501	2647
475.72	2648
475.939	2684
476.158	2695
476.377	2818
476.596	2754
476.814	2719
477.033	2783
477.252	2786
477.471	2900
477.69	2879
477.908	2916
478.127	3001
478.346	2995
478.564	2991
478.783	3060
479.002	3111
479.22	3130
479.439	3092
479.658	3095
479.876	3132
480.095	3125
480.313	3259
480.532	3202
480.751	3287
480.969	3205
481.188	3132
481.406	3129
481.624	3168
481.843	3111
482.061	3169
482.28	3185
482.498	3145
482.717	3149
482.935	3204
483.153	3247
483.372	3254
483.59	3228
483.808	3384
484.027	3427
484.245	3645
484.463	4081
484.681	4485
484.9	4124
485.118	3799
485.336	3754
485.554	3863
485.772	3997
485.99	4547
486.209	4820
486.427	4087
486.645	3671
486.863	3559
487.081	3461
487.299	3439
487.517	3393
487.735	3356
487.953	3405
488.171	3381
488.389	3286
488.607	3268
488.825	3289
489.043	3266
489.261	3247
489.479	3260
489.696	3259
489.914	3279
490.132	3308
490.35	3356
490.568	3307
490.786	3350
491.003	3333
491.221	3431
491.439	3395
491.657	3346
491.874	3380
492.092	3411
492.31	3420
492.527	3453
492.745	3477
492.963	3406
493.18	3339
493.398	3358
493.615	3418
493.833	3414
494.05	3427
494.268	3441
494.485	3505
494.703	3443
494.92	3449
495.138	3384
495.355	3435
495.573	3393
495.79	3509
496.008	3547
496.225	3480
496.442	3581
496.66	3664
496.877	3889
497.094	3797
497.312	3746
497.529	3726
497.746	3737
497.963	3819
498.181	3959
498.398	3899
498.615	4115
498.832	4283
499.049	4468
499.267	4818
499.484	5041
499.701	5076
499.918	5156
500.135	5562
500.352	5708
500.569	5841
500.786	5719
501.003	5597
501.22	5310
501.437	5094
501.654	4801
501.871	4632
502.088	4443
502.305	4239
502.522	4131
502.739	4029
502.956	3868
503.172	3775
503.389	3763
503.606	3691
503.823	3660
504.04	3614
504.256	3644
504.473	3565
504.69	3560
504.907	3526
505.123	3543
505.34	3366
505.557	3266
505.773	3219
505.99	3227
506.207	3151
506.423	3121
506.64	3091
506.856	3122
507.073	3059
507.289	3129
507.506	3030
507.722	3027
507.939	3031
508.155	2983
508.372	3009
508.588	2952
508.805	2966
509.021	2953
509.238	3060
509.454	3104
509.67	3347
509.887	3117
510.103	3030
510.319	2976
510.536	2987
510.752	2980
510.968	2883
511.184	2883
511.401	2875
511.617	2845
511.833	2873
512.049	2833
512.265	2867
512.481	2863
512.698	2843
512.914	2829
513.13	2832
513.346	2846
513.562	2817
513.778	2892
513.994	2919
514.21	2963
514.426	3145
514.642	3276
514.858	2996
515.074	2936
515.29	2886
515.506	2872
515.721	2927
515.937	2953
516.153	2975
516.369	2988
516.585	2995
516.801	3062
517.016	3063
517.232	3153
517.448	3243
517.664	3251
517.879	3244
518.095	3277
518.311	3249
518.527	3170
518.742	3161
518.958	3217
519.173	3239
519.389	3101
519.605	2965
519.82	2920
520.036	2951
520.251	2937
520.467	2889
520.682	2835
520.898	2802
521.113	2834
521.329	2778
521.544	2808
521.76	2789
521.975	2785
522.19	2805
522.406	2753
522.621	2792
522.836	2773
523.052	2778
523.267	2732
523.482	2720
523.698	2725
523.913	2734
524.128	2719
524.343	2700
524.559	2732
524.774	2751
524.989	2676
525.204	2749
525.419	2674
525.634	2738
525.849	2749
526.064	2730
526.28	2718
526.495	2748
526.71	2754
526.925	2741
527.14	2734
527.355	2716
527.57	2733
527.785	2809
527.999	2789
528.214	2780
528.429	2785
528.644	2833
528.859	2817
529.074	2814
529.289	2889
529.503	2916
529.718	2887
529.933	2901
530.148	2884
530.363	2896
530.577	2868
530.792	2924
531.007	2897
531.221	2969
531.436	2998
531.651	3020
531.865	3054
532.08	3053
532.295	3143
532.509	3367
532.724	3408
532.938	3417
533.153	3524
533.367	3795
533.582	4019
533.796	3873
534.011	3777
534.225	3628
534.44	3493
534.654	3408
534.868	3311
535.083	3253
535.297	3199
535.511	3107
535.726	3117
535.94	3032
536.154	2980
536.369	3000
536.583	2923
536.797	2891
537.011	2875
537.225	2834
537.44	2787
537.654	2805
537.868	2768
538.082	2741
538.296	2706
538.51	2689
538.724	2717
538.938	2688
539.153	2709
539.367	2737
539.581	2656
539.795	2622
540.009	2644
540.222	2613
540.436	2648
540.65	2608
540.864	2655
541.078	2689
541.292	2842
541.506	3299
541.72	3463
541.934	3031
542.147	2881
542.361	2719
