Data from SnStandardFlinnAPT0064_LampEnergy10_LIBS07252019.E.O._I.C._HRD10591_15-19-58-493.txt Node
Date: Thu Jul 25 15:19:58 EDT 2019
User: cochatt
Spectrometer: HR+D1059
Trigger mode: 1
Integration Time (sec): 1.000000E-1
Scans to average: 1
Electric dark correction enabled: true
Nonlinearity correction enabled: false
Boxcar width: 0
XAxis mode: Wavelengths
Number of Pixels in Spectrum: 2048
>>>>>Begin Spectral Data<<<<<
223.165	-1.56
223.4	-1.56
223.635	-1.56
223.869	-19.56
224.104	-22.56
224.338	-16.56
224.573	-14.56
224.808	-9.56
225.042	-7.56
225.277	-3.56
225.511	-16.56
225.746	-2.56
225.98	9.44
226.215	12.44
226.449	25.44
226.683	9.44
226.918	31.44
227.152	26.44
227.387	26.44
227.621	30.44
227.856	56.44
228.09	43.44
228.324	34.44
228.559	61.44
228.793	121.44
229.027	306.44
229.262	317.44
229.496	296.44
229.73	267.44
229.964	289.44
230.199	271.44
230.433	299.44
230.667	317.44
230.901	321.44
231.136	307.44
231.37	348.44
231.604	373.44
231.838	417.44
232.072	489.44
232.306	527.44
232.541	451.44
232.775	405.44
233.009	415.44
233.243	401.44
233.477	426.44
233.711	504.44
233.945	555.44
234.179	477.44
234.413	427.44
234.647	440.44
234.881	450.44
235.115	496.44
235.349	586.44
235.583	752.44
235.817	896.44
236.051	905.44
236.285	628.44
236.519	503.44
236.753	476.44
236.987	480.44
237.221	513.44
237.455	481.44
237.689	441.44
237.922	441.44
238.156	425.44
238.39	463.44
238.624	485.44
238.858	457.44
239.091	447.44
239.325	446.44
239.559	449.44
239.793	479.44
240.027	473.44
240.26	507.44
240.494	533.44
240.728	555.44
240.961	594.44
241.195	614.44
241.429	637.44
241.662	668.44
241.896	763.44
242.13	897.44
242.363	1137.44
242.597	1484.44
242.83	1409.44
243.064	1432.44
243.298	1633.44
243.531	1365.44
243.765	884.44
243.998	753.44
244.232	650.44
244.465	621.44
244.699	601.44
244.932	603.44
245.166	617.44
245.399	616.44
245.633	643.44
245.866	667.44
246.099	594.44
246.333	606.44
246.566	614.44
246.8	589.44
247.033	616.44
247.266	594.44
247.5	645.44
247.733	639.44
247.966	658.44
248.2	723.44
248.433	837.44
248.666	917.44
248.899	887.44
249.133	794.44
249.366	828.44
249.599	893.44
249.832	1007.44
250.066	1033.44
250.299	803.44
250.532	727.44
250.765	685.44
250.998	683.44
251.231	721.44
251.465	692.44
251.698	710.44
251.931	693.44
252.164	711.44
252.397	727.44
252.63	737.44
252.863	741.44
253.096	744.44
253.329	757.44
253.562	737.44
253.795	726.44
254.028	745.44
254.261	782.44
254.494	822.44
254.727	933.44
254.96	1167.44
255.193	1144.44
255.426	923.44
255.659	832.44
255.892	803.44
256.124	817.44
256.357	867.44
256.59	839.44
256.823	899.44
257.056	1040.44
257.289	1265.44
257.521	1359.44
257.754	1145.44
257.987	933.44
258.22	859.44
258.452	861.44
258.685	870.44
258.918	904.44
259.151	925.44
259.383	1026.44
259.616	1157.44
259.849	1188.44
260.081	1032.44
260.314	927.44
260.547	927.44
260.779	885.44
261.012	906.44
261.244	911.44
261.477	933.44
261.71	952.44
261.942	953.44
262.175	960.44
262.407	985.44
262.64	995.44
262.872	1013.44
263.105	1095.44
263.337	1131.44
263.57	1144.44
263.802	1198.44
264.035	1223.44
264.267	1248.44
264.499	1309.44
264.732	1341.44
264.964	1317.44
265.197	1301.44
265.429	1353.44
265.661	1369.44
265.894	1425.44
266.126	1619.44
266.358	1818.44
266.591	1792.44
266.823	1498.44
267.055	1343.44
267.287	1299.44
267.52	1247.44
267.752	1210.44
267.984	1151.44
268.216	1207.44
268.448	1146.44
268.681	1168.44
268.913	1139.44
269.145	1171.44
269.377	1149.44
269.609	1176.44
269.841	1205.44
270.073	1261.44
270.306	1491.44
270.538	2005.44
270.77	2877.44
271.002	3629.44
271.234	2560.44
271.466	1788.44
271.698	1467.44
271.93	1320.44
272.162	1254.44
272.394	1220.44
272.626	1179.44
272.858	1168.44
273.09	1171.44
273.322	1176.44
273.553	1167.44
273.785	1138.44
274.017	1130.44
274.249	1134.44
274.481	1139.44
274.713	1121.44
274.945	1137.44
275.176	1146.44
275.408	1130.44
275.64	1159.44
275.872	1136.44
276.104	1191.44
276.335	1199.44
276.567	1208.44
276.799	1187.44
277.031	1239.44
277.262	1258.44
277.494	1318.44
277.726	1463.44
277.957	1754.44
278.189	1960.44
278.421	1829.44
278.652	1623.44
278.884	1583.44
279.115	1361.44
279.347	1317.44
279.579	1314.44
279.81	1348.44
280.042	1351.44
280.273	1315.44
280.505	1363.44
280.736	1407.44
280.968	1491.44
281.199	1696.44
281.431	1937.44
281.662	1947.44
281.894	1716.44
282.125	1517.44
282.356	1545.44
282.588	1559.44
282.819	1607.44
283.051	1705.44
283.282	1873.44
283.513	2261.44
283.745	3262.44
283.976	5111.44
284.207	7161.44
284.439	6638.44
284.67	4258.44
284.901	3514.44
285.132	3494.44
285.364	3308.44
285.595	2522.44
285.826	2255.44
286.057	2648.44
286.288	3594.44
286.52	4763.44
286.751	4519.44
286.982	2885.44
287.213	2150.44
287.444	1887.44
287.675	1763.44
287.906	1717.44
288.138	1657.44
288.369	1588.44
288.6	1612.44
288.831	1601.44
289.062	1579.44
289.293	1553.44
289.524	1601.44
289.755	1587.44
289.986	1621.44
290.217	1582.44
290.448	1627.44
290.679	1634.44
290.91	1714.44
291.141	1749.44
291.371	1848.44
291.602	1980.44
291.833	1803.44
292.064	1653.44
292.295	1588.44
292.526	1560.44
292.757	1537.44
292.987	1504.44
293.218	1501.44
293.449	1507.44
293.68	1489.44
293.91	1428.44
294.141	1467.44
294.372	1469.44
294.603	1516.44
294.833	1498.44
295.064	1459.44
295.295	1461.44
295.525	1431.44
295.756	1461.44
295.987	1433.44
296.217	1496.44
296.448	1465.44
296.679	1485.44
296.909	1457.44
297.14	1525.44
297.37	1505.44
297.601	1542.44
297.831	1521.44
298.062	1567.44
298.292	1554.44
298.523	1568.44
298.753	1606.44
298.984	1592.44
299.214	1647.44
299.445	1655.44
299.675	1671.44
299.905	1743.44
300.136	1798.44
300.366	2033.44
300.597	2490.44
300.827	3542.44
301.057	4776.44
301.288	4839.44
301.518	3167.44
301.748	2469.44
301.979	2237.44
302.209	2173.44
302.439	2213.44
302.669	2314.44
302.9	2752.44
303.13	3819.44
303.36	5599.44
303.59	7470.44
303.82	6565.44
304.051	4005.44
304.281	2855.44
304.511	2397.44
304.741	2181.44
304.971	2059.44
305.201	2009.44
305.431	1857.44
305.661	1870.44
305.891	1789.44
306.121	1793.44
306.352	1757.44
306.582	1782.44
306.812	1739.44
307.042	1733.44
307.272	1753.44
307.502	1715.44
307.731	1709.44
307.961	1731.44
308.191	1738.44
308.421	1681.44
308.651	1698.44
308.881	1702.44
309.111	1702.44
309.341	1720.44
309.571	1735.44
309.8	1729.44
310.03	1773.44
310.26	1722.44
310.49	1773.44
310.72	1795.44
310.949	1775.44
311.179	1802.44
311.409	1761.44
311.639	1815.44
311.868	1829.44
312.098	1797.44
312.328	1831.44
312.557	1855.44
312.787	1843.44
313.017	1863.44
313.246	1906.44
313.476	1919.44
313.706	1998.44
313.935	2094.44
314.165	2205.44
314.394	2329.44
314.624	2227.44
314.853	2044.44
315.083	2049.44
315.312	2023.44
315.542	2099.44
315.771	2119.44
316.001	2130.44
316.23	2183.44
316.46	2322.44
316.689	2515.44
316.919	2981.44
317.148	4241.44
317.377	6395.44
317.607	9414.44
317.836	9912.44
318.065	6109.44
318.295	4089.44
318.524	3299.44
318.753	2804.44
318.983	2621.44
319.212	2462.44
319.441	2391.44
319.67	2355.44
319.9	2260.44
320.129	2264.44
320.358	2222.44
320.587	2213.44
320.816	2229.44
321.046	2200.44
321.275	2212.44
321.504	2248.44
321.733	2308.44
321.962	2353.44
322.191	2367.44
322.42	2354.44
322.649	2382.44
322.878	2352.44
323.108	2326.44
323.337	2397.44
323.566	2377.44
323.795	2459.44
324.024	2532.44
324.253	2520.44
324.482	2679.44
324.71	2809.44
324.939	2976.44
325.168	3075.44
325.397	3201.44
325.626	3792.44
325.855	5051.44
326.084	7851.44
326.313	11468.44
326.542	12258.44
326.77	8455.44
326.999	5637.44
327.228	4753.44
327.457	4512.44
327.686	4522.44
327.914	4750.44
328.143	5404.44
328.372	6366.44
328.6	6946.44
328.829	6216.44
329.058	5330.44
329.287	4836.44
329.515	4376.44
329.744	3991.44
329.972	3794.44
330.201	3617.44
330.43	3520.44
330.658	3328.44
330.887	3366.44
331.115	3318.44
331.344	3216.44
331.572	3209.44
331.801	3223.44
332.03	3255.44
332.258	3311.44
332.486	3528.44
332.715	3969.44
332.943	4911.44
333.172	6036.44
333.4	6123.44
333.629	4645.44
333.857	4163.44
334.085	4226.44
334.314	4378.44
334.542	4709.44
334.771	5439.44
334.999	6600.44
335.227	8202.44
335.455	9154.44
335.684	8299.44
335.912	6958.44
336.14	5939.44
336.369	5299.44
336.597	4847.44
336.825	4410.44
337.053	4176.44
337.281	3995.44
337.51	3727.44
337.738	3556.44
337.966	3447.44
338.194	3330.44
338.422	3235.44
338.65	3174.44
338.878	3106.44
339.106	3059.44
339.334	3046.44
339.562	2985.44
339.79	2859.44
340.018	2867.44
340.246	2835.44
340.474	2825.44
340.702	2839.44
340.93	2782.44
341.158	2813.44
341.386	2847.44
341.614	2799.44
341.842	2741.44
342.07	2684.44
342.298	2689.44
342.526	2563.44
342.754	2580.44
342.981	2535.44
343.209	2567.44
343.437	2566.44
343.665	2628.44
343.893	2573.44
344.12	2627.44
344.348	2576.44
344.576	2578.44
344.804	2563.44
345.031	2488.44
345.259	2434.44
345.487	2426.44
345.714	2371.44
345.942	2426.44
346.17	2419.44
346.397	2378.44
346.625	2401.44
346.853	2405.44
347.08	2376.44
347.308	2373.44
347.535	2370.44
347.763	2354.44
347.99	2336.44
348.218	2331.44
348.445	2316.44
348.673	2299.44
348.9	2329.44
349.128	2332.44
349.355	2288.44
349.583	2314.44
349.81	2272.44
350.037	2262.44
350.265	2250.44
350.492	2272.44
350.72	2256.44
350.947	2245.44
351.174	2264.44
351.402	2234.44
351.629	2259.44
351.856	2254.44
352.083	2294.44
352.311	2250.44
352.538	2213.44
352.765	2246.44
352.992	2270.44
353.22	2209.44
353.447	2232.44
353.674	2218.44
353.901	2294.44
354.128	2222.44
354.355	2210.44
354.583	2276.44
354.81	2266.44
355.037	2281.44
355.264	2287.44
355.491	2270.44
355.718	2283.44
355.945	2301.44
356.172	2299.44
356.399	2320.44
356.626	2309.44
356.853	2360.44
357.08	2347.44
357.307	2312.44
357.534	2374.44
357.761	2381.44
357.988	2387.44
358.215	2406.44
358.441	2366.44
358.668	2355.44
358.895	2418.44
359.122	2354.44
359.349	2387.44
359.576	2362.44
359.802	2381.44
360.029	2367.44
360.256	2346.44
360.483	2401.44
360.709	2369.44
360.936	2367.44
361.163	2393.44
361.39	2384.44
361.616	2374.44
361.843	2386.44
362.07	2399.44
362.296	2386.44
362.523	2357.44
362.749	2397.44
362.976	2397.44
363.203	2363.44
363.429	2355.44
363.656	2381.44
363.882	2373.44
364.109	2325.44
364.335	2367.44
364.562	2398.44
364.788	2352.44
365.015	2395.44
365.241	2520.44
365.468	2638.44
365.694	2736.44
365.92	2658.44
366.147	2425.44
366.373	2423.44
366.599	2427.44
366.826	2478.44
367.052	2459.44
367.278	2437.44
367.505	2477.44
367.731	2436.44
367.957	2421.44
368.184	2450.44
368.41	2527.44
368.636	2508.44
368.862	2568.44
369.089	2483.44
369.315	2507.44
369.541	2452.44
369.767	2481.44
369.993	2423.44
370.219	2456.44
370.445	2462.44
370.672	2529.44
370.898	2496.44
371.124	2474.44
371.35	2568.44
371.576	2567.44
371.802	2500.44
372.028	2603.44
372.254	2591.44
372.48	2528.44
372.706	2560.44
372.932	2629.44
373.158	2538.44
373.384	2606.44
373.61	2557.44
373.835	2607.44
374.061	2600.44
374.287	2630.44
374.513	2673.44
374.739	2642.44
374.965	2671.44
375.191	2658.44
375.416	2681.44
375.642	2675.44
375.868	2631.44
376.094	2640.44
376.319	2603.44
376.545	2576.44
376.771	2560.44
376.997	2563.44
377.222	2526.44
377.448	2517.44
377.674	2595.44
377.899	2552.44
378.125	2571.44
378.35	2533.44
378.576	2506.44
378.802	2600.44
379.027	2575.44
379.253	2749.44
379.478	2880.44
379.704	3330.44
379.929	4727.44
380.155	7247.44
380.38	8041.44
380.606	4957.44
380.831	3528.44
381.057	3015.44
381.282	2804.44
381.507	2685.44
381.733	2649.44
381.958	2606.44
382.184	2556.44
382.409	2568.44
382.634	2545.44
382.86	2488.44
383.085	2570.44
383.31	2526.44
383.535	2556.44
383.761	2559.44
383.986	2528.44
384.211	2546.44
384.436	2571.44
384.662	2565.44
384.887	2609.44
385.112	2568.44
385.337	2591.44
385.562	2568.44
385.787	2575.44
386.013	2609.44
386.238	2599.44
386.463	2576.44
386.688	2630.44
386.913	2571.44
387.138	2601.44
387.363	2655.44
387.588	2556.44
387.813	2610.44
388.038	2579.44
388.263	2575.44
388.488	2588.44
388.713	2590.44
388.938	2647.44
389.163	2602.44
389.387	2642.44
389.612	2559.44
389.837	2562.44
390.062	2629.44
390.287	2609.44
390.512	2625.44
390.736	2678.44
390.961	2719.44
391.186	2680.44
391.411	2705.44
391.636	2718.44
391.86	2708.44
392.085	2690.44
392.31	2729.44
392.534	2674.44
392.759	2686.44
392.984	2647.44
393.208	2646.44
393.433	2707.44
393.658	2695.44
393.882	2574.44
394.107	2627.44
394.331	2577.44
394.556	2635.44
394.78	2619.44
395.005	2658.44
395.229	2662.44
395.454	2693.44
395.678	2697.44
395.903	2698.44
396.127	2657.44
396.352	2690.44
396.576	2665.44
396.801	2672.44
397.025	2703.44
397.249	2739.44
397.474	2715.44
397.698	2738.44
397.922	2743.44
398.147	2723.44
398.371	2800.44
398.595	2833.44
398.82	2893.44
399.044	2976.44
399.268	3108.44
399.492	3246.44
399.717	3380.44
399.941	3362.44
400.165	3181.44
400.389	3113.44
400.613	3000.44
400.837	2933.44
401.062	2889.44
401.286	2871.44
401.51	2837.44
401.734	2806.44
401.958	2842.44
402.182	2818.44
402.406	2812.44
402.63	2862.44
402.854	2890.44
403.078	2842.44
403.302	2871.44
403.526	2923.44
403.75	2986.44
403.974	2921.44
404.198	2904.44
404.422	3002.44
404.645	2920.44
404.869	2886.44
405.093	2894.44
405.317	2927.44
405.541	2946.44
405.765	3034.44
405.988	3009.44
406.212	3038.44
406.436	2951.44
406.66	3021.44
406.883	3020.44
407.107	3099.44
407.331	3103.44
407.555	3225.44
407.778	3156.44
408.002	3190.44
408.226	3143.44
408.449	3179.44
408.673	3047.44
408.896	3042.44
409.12	2954.44
409.344	3014.44
409.567	2956.44
409.791	2969.44
410.014	2957.44
410.238	2983.44
410.461	2909.44
410.685	2910.44
410.908	2907.44
411.132	2811.44
411.355	2795.44
411.578	2851.44
411.802	2903.44
412.025	2767.44
412.249	2847.44
412.472	2845.44
412.695	2795.44
412.919	2813.44
413.142	2792.44
413.365	2760.44
413.589	2849.44
413.812	2769.44
414.035	2783.44
414.258	2802.44
414.482	2791.44
414.705	2805.44
414.928	2821.44
415.151	2793.44
415.374	2762.44
415.597	2782.44
415.821	2761.44
416.044	2639.44
416.267	2660.44
416.49	2683.44
416.713	2658.44
416.936	2662.44
417.159	2677.44
417.382	2620.44
417.605	2641.44
417.828	2631.44
418.051	2671.44
418.274	2693.44
418.497	2641.44
418.72	2753.44
418.943	2679.44
419.166	2784.44
419.389	2970.44
419.611	2945.44
419.834	2832.44
420.057	2758.44
420.28	2705.44
420.503	2657.44
420.726	2689.44
420.948	2655.44
421.171	2660.44
421.394	2672.44
421.617	2679.44
421.839	2658.44
422.062	2712.44
422.285	2653.44
422.507	2743.44
422.73	2722.44
422.953	2731.44
423.175	2746.44
423.398	2753.44
423.621	2678.44
423.843	2688.44
424.066	2689.44
424.288	2663.44
424.511	2690.44
424.733	2651.44
424.956	2630.44
425.178	2650.44
425.401	2642.44
425.623	2630.44
425.846	2591.44
426.068	2601.44
426.291	2531.44
426.513	2549.44
426.735	2589.44
426.958	2570.44
427.18	2514.44
427.402	2514.44
427.625	2545.44
427.847	2488.44
428.069	2507.44
428.292	2494.44
428.514	2467.44
428.736	2497.44
428.958	2530.44
429.181	2432.44
429.403	2432.44
429.625	2445.44
429.847	2528.44
430.069	2510.44
430.292	2584.44
430.514	2653.44
430.736	2673.44
430.958	2529.44
431.18	2464.44
431.402	2474.44
431.624	2398.44
431.846	2430.44
432.068	2480.44
432.29	2438.44
432.512	2438.44
432.734	2431.44
432.956	2423.44
433.178	2513.44
433.4	2474.44
433.622	2512.44
433.844	2507.44
434.066	2456.44
434.287	2478.44
434.509	2494.44
434.731	2521.44
434.953	2536.44
435.175	2550.44
435.397	2547.44
435.618	2491.44
435.84	2519.44
436.062	2480.44
436.284	2446.44
436.505	2445.44
436.727	2424.44
436.949	2438.44
437.17	2435.44
437.392	2434.44
437.614	2433.44
437.835	2385.44
438.057	2403.44
438.278	2340.44
438.5	2391.44
438.721	2429.44
438.943	2534.44
439.165	2546.44
439.386	2543.44
439.608	2541.44
439.829	2585.44
440.05	2619.44
440.272	2691.44
440.493	2603.44
440.715	2547.44
440.936	2541.44
441.158	2592.44
441.379	2582.44
441.6	2661.44
441.822	2721.44
442.043	2869.44
442.264	2944.44
442.486	2787.44
442.707	2703.44
442.928	2660.44
443.149	2611.44
443.371	2601.44
443.592	2655.44
443.813	2641.44
444.034	2623.44
444.255	2660.44
444.476	2711.44
444.698	2725.44
444.919	2819.44
445.14	2786.44
445.361	2717.44
445.582	2672.44
445.803	2677.44
446.024	2642.44
446.245	2609.44
446.466	2607.44
446.687	2570.44
446.908	2580.44
447.129	2461.44
447.35	2472.44
447.571	2519.44
447.792	2432.44
448.013	2425.44
448.234	2432.44
448.455	2453.44
448.675	2479.44
448.896	2527.44
449.117	2570.44
449.338	2771.44
449.559	2896.44
449.779	2599.44
450	2433.44
450.221	2398.44
450.442	2380.44
450.662	2410.44
450.883	2397.44
451.104	2388.44
451.324	2449.44
451.545	2413.44
451.766	2391.44
451.986	2435.44
452.207	2661.44
452.428	3358.44
452.648	5078.44
452.869	4280.44
453.089	2944.44
453.31	2797.44
453.53	2742.44
453.751	2809.44
453.971	2992.44
454.192	2831.44
454.412	2567.44
454.633	2451.44
454.853	2373.44
455.073	2305.44
455.294	2325.44
455.514	2305.44
455.734	2295.44
455.955	2274.44
456.175	2297.44
456.395	2289.44
456.616	2303.44
456.836	2343.44
457.056	2321.44
457.276	2302.44
457.497	2462.44
457.717	2455.44
457.937	2392.44
458.157	2369.44
458.377	2394.44
458.598	2439.44
458.818	2465.44
459.038	2485.44
459.258	2427.44
459.478	2490.44
459.698	2523.44
459.918	2491.44
460.138	2543.44
460.358	2591.44
460.578	2642.44
460.798	2632.44
461.018	2678.44
461.238	2700.44
461.458	2723.44
461.678	2663.44
461.898	2798.44
462.118	2752.44
462.338	2861.44
462.558	2850.44
462.777	2900.44
462.997	3009.44
463.217	3105.44
463.437	3198.44
463.657	3247.44
463.876	3223.44
464.096	3125.44
464.316	2959.44
464.536	2943.44
464.755	2864.44
464.975	2811.44
465.195	2707.44
465.414	2642.44
465.634	2601.44
465.854	2545.44
466.073	2538.44
466.293	2525.44
466.512	2523.44
466.732	2522.44
466.951	2663.44
467.171	2862.44
467.391	2717.44
467.61	2567.44
467.829	2462.44
468.049	2449.44
468.268	2444.44
468.488	2465.44
468.707	2429.44
468.927	2440.44
469.146	2447.44
469.365	2448.44
469.585	2450.44
469.804	2527.44
470.023	2593.44
470.243	2566.44
470.462	2674.44
470.681	2831.44
470.901	3032.44
471.12	3463.44
471.339	3401.44
471.558	2984.44
471.777	2761.44
471.997	2593.44
472.216	2545.44
472.435	2526.44
472.654	2477.44
472.873	2452.44
473.092	2461.44
473.311	2433.44
473.53	2484.44
473.749	2545.44
473.968	2673.44
474.187	2507.44
474.406	2477.44
474.625	2520.44
474.844	2468.44
475.063	2441.44
475.282	2480.44
475.501	2514.44
475.72	2443.44
475.939	2469.44
476.158	2610.44
476.377	2622.44
476.596	2581.44
476.814	2570.44
477.033	2580.44
477.252	2624.44
477.471	2694.44
477.69	2723.44
477.908	2757.44
478.127	2763.44
478.346	2821.44
478.564	2830.44
478.783	2829.44
479.002	2882.44
479.22	2915.44
479.439	2894.44
479.658	2910.44
479.876	2965.44
480.095	2963.44
480.313	3006.44
480.532	3047.44
480.751	2991.44
480.969	2950.44
481.188	2947.44
481.406	2935.44
481.624	2955.44
481.843	2981.44
482.061	2992.44
482.28	2982.44
482.498	2968.44
482.717	2965.44
482.935	3019.44
483.153	3017.44
483.372	3045.44
483.59	3154.44
483.808	3137.44
484.027	3235.44
484.245	3444.44
484.463	3823.44
484.681	4131.44
484.9	3928.44
485.118	3588.44
485.336	3525.44
485.554	3620.44
485.772	3779.44
485.99	4183.44
486.209	4411.44
486.427	3775.44
486.645	3488.44
486.863	3342.44
487.081	3252.44
487.299	3208.44
487.517	3216.44
487.735	3171.44
487.953	3200.44
