Data from SnStandardFlinnAPT0064_LampEnergy5.5_LIBS07252019.E.O._I.C._HRD10591_15-17-16-492.txt Node
Date: Thu Jul 25 15:17:16 EDT 2019
User: cochatt
Spectrometer: HR+D1059
Trigger mode: 1
Integration Time (sec): 1.000000E-1
Scans to average: 1
Electric dark correction enabled: true
Nonlinearity correction enabled: false
Boxcar width: 0
XAxis mode: Wavelengths
Number of Pixels in Spectrum: 2048
>>>>>Begin Spectral Data<<<<<
223.165	-7.62
223.4	-7.62
223.635	-7.62
223.869	-9.62
224.104	-33.62
224.338	-17.62
224.573	-4.62
224.808	-18.62
225.042	-6.62
225.277	9.38
225.511	-11.62
225.746	1.38
225.98	0.38
226.215	15.38
226.449	21.38
226.683	19.38
226.918	21.38
227.152	21.38
227.387	32.38
227.621	44.38
227.856	41.38
228.09	39.38
228.324	47.38
228.559	60.38
228.793	85.38
229.027	144.38
229.262	182.38
229.496	157.38
229.73	161.38
229.964	167.38
230.199	147.38
230.433	182.38
230.667	172.38
230.901	174.38
231.136	160.38
231.37	192.38
231.604	178.38
231.838	205.38
232.072	241.38
232.306	250.38
232.541	232.38
232.775	215.38
233.009	220.38
233.243	208.38
233.477	229.38
233.711	265.38
233.945	283.38
234.179	241.38
234.413	221.38
234.647	214.38
234.881	229.38
235.115	241.38
235.349	287.38
235.583	357.38
235.817	453.38
236.051	455.38
236.285	321.38
236.519	266.38
236.753	256.38
236.987	232.38
237.221	252.38
237.455	255.38
237.689	237.38
237.922	224.38
238.156	224.38
238.39	233.38
238.624	245.38
238.858	258.38
239.091	247.38
239.325	241.38
239.559	231.38
239.793	253.38
240.027	266.38
240.26	274.38
240.494	276.38
240.728	280.38
240.961	280.38
241.195	308.38
241.429	335.38
241.662	322.38
241.896	357.38
242.13	408.38
242.363	528.38
242.597	718.38
242.83	684.38
243.064	680.38
243.298	790.38
243.531	666.38
243.765	424.38
243.998	345.38
244.232	318.38
244.465	306.38
244.699	304.38
244.932	312.38
245.166	311.38
245.399	303.38
245.633	292.38
245.866	310.38
246.099	304.38
246.333	318.38
246.566	311.38
246.8	279.38
247.033	320.38
247.266	308.38
247.5	289.38
247.733	300.38
247.966	328.38
248.2	363.38
248.433	386.38
248.666	442.38
248.899	406.38
249.133	358.38
249.366	404.38
249.599	423.38
249.832	479.38
250.066	472.38
250.299	381.38
250.532	374.38
250.765	377.38
250.998	356.38
251.231	350.38
251.465	342.38
251.698	333.38
251.931	341.38
252.164	343.38
252.397	355.38
252.63	350.38
252.863	374.38
253.096	346.38
253.329	362.38
253.562	370.38
253.795	361.38
254.028	357.38
254.261	371.38
254.494	390.38
254.727	482.38
254.96	546.38
255.193	556.38
255.426	432.38
255.659	393.38
255.892	410.38
256.124	392.38
256.357	408.38
256.59	408.38
256.823	433.38
257.056	471.38
257.289	547.38
257.521	636.38
257.754	532.38
257.987	424.38
258.22	405.38
258.452	411.38
258.685	430.38
258.918	429.38
259.151	452.38
259.383	487.38
259.616	531.38
259.849	536.38
260.081	493.38
260.314	458.38
260.547	438.38
260.779	447.38
261.012	450.38
261.244	457.38
261.477	429.38
261.71	466.38
261.942	458.38
262.175	451.38
262.407	467.38
262.64	471.38
262.872	499.38
263.105	523.38
263.337	548.38
263.57	566.38
263.802	580.38
264.035	605.38
264.267	638.38
264.499	612.38
264.732	644.38
264.964	665.38
265.197	665.38
265.429	644.38
265.661	668.38
265.894	711.38
266.126	788.38
266.358	843.38
266.591	828.38
266.823	697.38
267.055	660.38
267.287	605.38
267.52	604.38
267.752	601.38
267.984	578.38
268.216	583.38
268.448	571.38
268.681	580.38
268.913	566.38
269.145	560.38
269.377	554.38
269.609	573.38
269.841	578.38
270.073	620.38
270.306	700.38
270.538	957.38
270.77	1396.38
271.002	1676.38
271.234	1175.38
271.466	776.38
271.698	648.38
271.93	592.38
272.162	578.38
272.394	588.38
272.626	545.38
272.858	542.38
273.09	565.38
273.322	545.38
273.553	553.38
273.785	538.38
274.017	573.38
274.249	556.38
274.481	538.38
274.713	541.38
274.945	552.38
275.176	553.38
275.408	554.38
275.64	550.38
275.872	564.38
276.104	560.38
276.335	579.38
276.567	570.38
276.799	546.38
277.031	579.38
277.262	589.38
277.494	629.38
277.726	668.38
277.957	774.38
278.189	849.38
278.421	843.38
278.652	701.38
278.884	663.38
279.115	644.38
279.347	620.38
279.579	612.38
279.81	638.38
280.042	610.38
280.273	643.38
280.505	632.38
280.736	688.38
280.968	662.38
281.199	740.38
281.431	825.38
281.662	884.38
281.894	768.38
282.125	689.38
282.356	696.38
282.588	723.38
282.819	745.38
283.051	781.38
283.282	855.38
283.513	1050.38
283.745	1526.38
283.976	2442.38
284.207	3490.38
284.439	3148.38
284.67	1812.38
284.901	1469.38
285.132	1479.38
285.364	1404.38
285.595	1121.38
285.826	995.38
286.057	1213.38
286.288	1681.38
286.52	2239.38
286.751	2056.38
286.982	1261.38
287.213	962.38
287.444	825.38
287.675	814.38
287.906	760.38
288.138	750.38
288.369	741.38
288.6	744.38
288.831	734.38
289.062	738.38
289.293	732.38
289.524	730.38
289.755	742.38
289.986	727.38
290.217	749.38
290.448	750.38
290.679	761.38
290.91	779.38
291.141	803.38
291.371	858.38
291.602	848.38
291.833	781.38
292.064	737.38
292.295	734.38
292.526	699.38
292.757	694.38
292.987	688.38
293.218	713.38
293.449	698.38
293.68	705.38
293.91	694.38
294.141	689.38
294.372	679.38
294.603	677.38
294.833	695.38
295.064	691.38
295.295	697.38
295.525	697.38
295.756	663.38
295.987	688.38
296.217	700.38
296.448	714.38
296.679	706.38
296.909	696.38
297.14	674.38
297.37	694.38
297.601	690.38
297.831	718.38
298.062	708.38
298.292	737.38
298.523	735.38
298.753	732.38
298.984	750.38
299.214	776.38
299.445	746.38
299.675	777.38
299.905	803.38
300.136	838.38
300.366	921.38
300.597	1180.38
300.827	1628.38
301.057	2226.38
301.288	2173.38
301.518	1375.38
301.748	1057.38
301.979	987.38
302.209	961.38
302.439	970.38
302.669	1024.38
302.9	1222.38
303.13	1697.38
303.36	2532.38
303.59	3434.38
303.82	2969.38
304.051	1728.38
304.281	1223.38
304.511	1040.38
304.741	946.38
304.971	912.38
305.201	863.38
305.431	850.38
305.661	824.38
305.891	817.38
306.121	817.38
306.352	828.38
306.582	809.38
306.812	775.38
307.042	803.38
307.272	782.38
307.502	792.38
307.731	793.38
307.961	817.38
308.191	810.38
308.421	798.38
308.651	788.38
308.881	781.38
309.111	785.38
309.341	790.38
309.571	824.38
309.8	805.38
310.03	802.38
310.26	823.38
310.49	803.38
310.72	831.38
310.949	809.38
311.179	830.38
311.409	793.38
311.639	807.38
311.868	827.38
312.098	851.38
312.328	864.38
312.557	881.38
312.787	866.38
313.017	864.38
313.246	899.38
313.476	861.38
313.706	894.38
313.935	920.38
314.165	982.38
314.394	1035.38
314.624	991.38
314.853	961.38
315.083	911.38
315.312	934.38
315.542	960.38
315.771	940.38
316.001	951.38
316.23	984.38
316.46	1032.38
316.689	1124.38
316.919	1381.38
317.148	1964.38
317.377	3080.38
317.607	4535.38
317.836	4628.38
318.065	2702.38
318.295	1722.38
318.524	1358.38
318.753	1198.38
318.983	1124.38
319.212	1071.38
319.441	1030.38
319.67	1052.38
319.9	1035.38
320.129	992.38
320.358	1000.38
320.587	1018.38
320.816	1030.38
321.046	1001.38
321.275	997.38
321.504	1009.38
321.733	1006.38
321.962	1065.38
322.191	1062.38
322.42	1074.38
322.649	1029.38
322.878	1068.38
323.108	1088.38
323.337	1061.38
323.566	1091.38
323.795	1134.38
324.024	1144.38
324.253	1135.38
324.482	1189.38
324.71	1249.38
324.939	1313.38
325.168	1359.38
325.397	1459.38
325.626	1658.38
325.855	2350.38
326.084	3660.38
326.313	5510.38
326.542	5861.38
326.77	3626.38
326.999	2307.38
327.228	1962.38
327.457	1892.38
327.686	1852.38
327.914	1978.38
328.143	2201.38
328.372	2655.38
328.6	2874.38
328.829	2619.38
329.058	2254.38
329.287	2019.38
329.515	1870.38
329.744	1724.38
329.972	1661.38
330.201	1609.38
330.43	1525.38
330.658	1473.38
330.887	1487.38
331.115	1423.38
331.344	1443.38
331.572	1448.38
331.801	1420.38
332.03	1468.38
332.258	1448.38
332.486	1576.38
332.715	1747.38
332.943	2195.38
333.172	2677.38
333.4	2636.38
333.629	1991.38
333.857	1818.38
334.085	1851.38
334.314	1876.38
334.542	2081.38
334.771	2334.38
334.999	2828.38
335.227	3459.38
335.455	3825.38
335.684	3543.38
335.912	2976.38
336.14	2572.38
336.369	2257.38
336.597	2147.38
336.825	1964.38
337.053	1877.38
337.281	1713.38
337.51	1690.38
337.738	1602.38
337.966	1561.38
338.194	1507.38
338.422	1473.38
338.65	1438.38
338.878	1390.38
339.106	1381.38
339.334	1367.38
339.562	1304.38
339.79	1297.38
340.018	1281.38
340.246	1320.38
340.474	1295.38
340.702	1309.38
340.93	1272.38
341.158	1262.38
341.386	1267.38
341.614	1262.38
341.842	1251.38
342.07	1227.38
342.298	1200.38
342.526	1209.38
342.754	1189.38
342.981	1136.38
343.209	1205.38
343.437	1215.38
343.665	1211.38
343.893	1200.38
344.12	1241.38
344.348	1202.38
344.576	1189.38
344.804	1174.38
345.031	1161.38
345.259	1148.38
345.487	1132.38
345.714	1116.38
345.942	1070.38
346.17	1133.38
346.397	1117.38
346.625	1106.38
346.853	1089.38
347.08	1073.38
347.308	1077.38
347.535	1118.38
347.763	1088.38
347.99	1076.38
348.218	1074.38
348.445	1073.38
348.673	1054.38
348.9	1055.38
349.128	1077.38
349.355	1066.38
349.583	1068.38
349.81	1072.38
350.037	1070.38
350.265	1063.38
350.492	1028.38
350.72	1059.38
350.947	1058.38
351.174	1055.38
351.402	1063.38
351.629	1046.38
351.856	1047.38
352.083	1031.38
352.311	1024.38
352.538	1040.38
352.765	1101.38
352.992	1043.38
353.22	1047.38
353.447	1045.38
353.674	1032.38
353.901	1058.38
354.128	1034.38
354.355	1047.38
354.583	1063.38
354.81	1059.38
355.037	1086.38
355.264	1066.38
355.491	1078.38
355.718	1060.38
355.945	1056.38
356.172	1065.38
356.399	1052.38
356.626	1069.38
356.853	1080.38
357.08	1088.38
357.307	1073.38
357.534	1115.38
357.761	1117.38
357.988	1091.38
358.215	1085.38
358.441	1116.38
358.668	1145.38
358.895	1122.38
359.122	1112.38
359.349	1108.38
359.576	1070.38
359.802	1127.38
360.029	1085.38
360.256	1085.38
360.483	1107.38
360.709	1104.38
360.936	1110.38
361.163	1107.38
361.39	1133.38
361.616	1121.38
361.843	1115.38
362.07	1110.38
362.296	1138.38
362.523	1124.38
362.749	1095.38
362.976	1140.38
363.203	1100.38
363.429	1127.38
363.656	1123.38
363.882	1101.38
364.109	1119.38
364.335	1111.38
364.562	1090.38
364.788	1128.38
365.015	1150.38
365.241	1119.38
365.468	1194.38
365.694	1236.38
365.92	1225.38
366.147	1142.38
366.373	1099.38
366.599	1113.38
366.826	1107.38
367.052	1118.38
367.278	1146.38
367.505	1116.38
367.731	1153.38
367.957	1158.38
368.184	1125.38
368.41	1141.38
368.636	1179.38
368.862	1166.38
369.089	1163.38
369.315	1186.38
369.541	1171.38
369.767	1145.38
369.993	1149.38
370.219	1144.38
370.445	1134.38
370.672	1154.38
370.898	1167.38
371.124	1172.38
371.35	1176.38
371.576	1181.38
371.802	1199.38
372.028	1185.38
372.254	1202.38
372.48	1181.38
372.706	1237.38
372.932	1223.38
373.158	1199.38
373.384	1221.38
373.61	1212.38
373.835	1253.38
374.061	1229.38
374.287	1249.38
374.513	1217.38
374.739	1257.38
374.965	1237.38
375.191	1253.38
375.416	1284.38
375.642	1246.38
375.868	1228.38
376.094	1183.38
376.319	1222.38
376.545	1200.38
376.771	1185.38
376.997	1183.38
377.222	1192.38
377.448	1163.38
377.674	1187.38
377.899	1200.38
378.125	1230.38
378.35	1178.38
378.576	1191.38
378.802	1204.38
379.027	1228.38
379.253	1303.38
379.478	1332.38
379.704	1534.38
379.929	2214.38
380.155	3304.38
380.38	3464.38
380.606	2125.38
380.831	1548.38
381.057	1342.38
381.282	1270.38
381.507	1227.38
381.733	1211.38
381.958	1189.38
382.184	1212.38
382.409	1206.38
382.634	1203.38
382.86	1158.38
383.085	1153.38
383.31	1196.38
383.535	1173.38
383.761	1152.38
383.986	1160.38
384.211	1222.38
384.436	1217.38
384.662	1244.38
384.887	1249.38
385.112	1188.38
385.337	1226.38
385.562	1226.38
385.787	1192.38
386.013	1220.38
386.238	1241.38
386.463	1208.38
386.688	1224.38
386.913	1225.38
387.138	1218.38
387.363	1235.38
387.588	1241.38
387.813	1239.38
388.038	1224.38
388.263	1254.38
388.488	1231.38
388.713	1238.38
388.938	1207.38
389.163	1204.38
389.387	1191.38
389.612	1194.38
389.837	1224.38
390.062	1205.38
390.287	1244.38
390.512	1247.38
390.736	1265.38
390.961	1260.38
391.186	1278.38
391.411	1285.38
391.636	1295.38
391.86	1298.38
392.085	1309.38
392.31	1262.38
392.534	1246.38
392.759	1261.38
392.984	1232.38
393.208	1282.38
393.433	1281.38
393.658	1287.38
393.882	1256.38
394.107	1207.38
394.331	1225.38
394.556	1247.38
394.78	1251.38
395.005	1287.38
395.229	1247.38
395.454	1235.38
395.678	1288.38
395.903	1248.38
396.127	1274.38
396.352	1304.38
396.576	1270.38
396.801	1286.38
397.025	1318.38
397.249	1288.38
397.474	1301.38
397.698	1302.38
397.922	1333.38
398.147	1311.38
398.371	1360.38
398.595	1334.38
398.82	1376.38
399.044	1398.38
399.268	1500.38
399.492	1528.38
399.717	1612.38
399.941	1594.38
400.165	1532.38
400.389	1477.38
400.613	1435.38
400.837	1396.38
401.062	1391.38
401.286	1399.38
401.51	1361.38
401.734	1354.38
401.958	1363.38
402.182	1365.38
402.406	1317.38
402.63	1399.38
402.854	1398.38
403.078	1391.38
403.302	1361.38
403.526	1398.38
403.75	1428.38
403.974	1401.38
404.198	1372.38
404.422	1409.38
404.645	1392.38
404.869	1404.38
405.093	1426.38
405.317	1382.38
405.541	1416.38
405.765	1422.38
405.988	1446.38
406.212	1444.38
406.436	1395.38
406.66	1487.38
406.883	1463.38
407.107	1494.38
407.331	1508.38
407.555	1508.38
407.778	1496.38
408.002	1479.38
408.226	1477.38
408.449	1496.38
408.673	1471.38
408.896	1427.38
409.12	1438.38
409.344	1410.38
409.567	1363.38
409.791	1418.38
410.014	1400.38
410.238	1391.38
410.461	1417.38
410.685	1379.38
410.908	1411.38
411.132	1394.38
411.355	1340.38
411.578	1347.38
411.802	1365.38
412.025	1343.38
412.249	1336.38
412.472	1368.38
412.695	1352.38
412.919	1344.38
413.142	1339.38
413.365	1325.38
413.589	1341.38
413.812	1331.38
414.035	1321.38
414.258	1347.38
414.482	1340.38
414.705	1346.38
414.928	1338.38
415.151	1340.38
415.374	1334.38
415.597	1286.38
415.821	1280.38
416.044	1317.38
416.267	1270.38
416.49	1296.38
416.713	1266.38
416.936	1277.38
417.159	1212.38
417.382	1286.38
417.605	1254.38
417.828	1272.38
418.051	1301.38
418.274	1301.38
418.497	1287.38
418.72	1298.38
418.943	1316.38
419.166	1345.38
419.389	1423.38
419.611	1440.38
419.834	1380.38
420.057	1313.38
420.28	1326.38
420.503	1254.38
420.726	1257.38
420.948	1280.38
421.171	1310.38
421.394	1310.38
421.617	1270.38
421.839	1317.38
422.062	1303.38
422.285	1285.38
422.507	1308.38
422.73	1344.38
422.953	1306.38
423.175	1318.38
423.398	1334.38
423.621	1255.38
423.843	1258.38
424.066	1320.38
424.288	1282.38
424.511	1288.38
424.733	1289.38
424.956	1299.38
425.178	1305.38
425.401	1255.38
425.623	1306.38
425.846	1278.38
426.068	1255.38
426.291	1242.38
426.513	1250.38
426.735	1238.38
426.958	1188.38
427.18	1218.38
427.402	1232.38
427.625	1219.38
427.847	1187.38
428.069	1195.38
428.292	1232.38
428.514	1217.38
428.736	1191.38
428.958	1189.38
429.181	1196.38
429.403	1184.38
429.625	1178.38
429.847	1165.38
430.069	1206.38
430.292	1254.38
430.514	1295.38
430.736	1276.38
430.958	1196.38
431.18	1188.38
431.402	1163.38
431.624	1149.38
431.846	1163.38
432.068	1164.38
432.29	1126.38
432.512	1170.38
432.734	1193.38
432.956	1168.38
433.178	1191.38
433.4	1196.38
433.622	1221.38
433.844	1192.38
434.066	1190.38
434.287	1156.38
434.509	1234.38
434.731	1219.38
434.953	1232.38
435.175	1241.38
435.397	1228.38
435.618	1192.38
435.84	1202.38
436.062	1185.38
436.284	1161.38
436.505	1151.38
436.727	1168.38
436.949	1194.38
437.17	1196.38
437.392	1172.38
437.614	1200.38
437.835	1141.38
438.057	1107.38
438.278	1107.38
438.5	1148.38
438.721	1163.38
438.943	1196.38
439.165	1204.38
439.386	1217.38
439.608	1225.38
439.829	1195.38
440.05	1260.38
440.272	1293.38
440.493	1209.38
440.715	1229.38
440.936	1216.38
441.158	1243.38
441.379	1215.38
441.6	1264.38
441.822	1302.38
442.043	1379.38
442.264	1417.38
442.486	1317.38
442.707	1279.38
442.928	1268.38
443.149	1264.38
443.371	1248.38
443.592	1272.38
443.813	1278.38
444.034	1286.38
444.255	1294.38
444.476	1322.38
444.698	1364.38
444.919	1359.38
445.14	1477.38
445.361	1374.38
445.582	1309.38
445.803	1320.38
446.024	1248.38
446.245	1312.38
446.466	1276.38
446.687	1268.38
446.908	1224.38
447.129	1220.38
447.35	1196.38
447.571	1182.38
447.792	1160.38
448.013	1214.38
448.234	1183.38
448.455	1159.38
448.675	1167.38
448.896	1217.38
449.117	1230.38
449.338	1346.38
449.559	1426.38
449.779	1226.38
450	1172.38
450.221	1147.38
450.442	1160.38
450.662	1156.38
450.883	1144.38
451.104	1122.38
451.324	1135.38
451.545	1144.38
451.766	1132.38
451.986	1166.38
452.207	1253.38
452.428	1544.38
452.648	2150.38
452.869	1798.38
453.089	1301.38
453.31	1240.38
453.53	1258.38
453.751	1316.38
453.971	1374.38
454.192	1388.38
454.412	1183.38
454.633	1141.38
454.853	1081.38
455.073	1106.38
455.294	1076.38
455.514	1100.38
455.734	1061.38
455.955	1101.38
456.175	1085.38
456.395	1083.38
456.616	1093.38
456.836	1130.38
457.056	1084.38
457.276	1122.38
457.497	1180.38
457.717	1176.38
457.937	1117.38
458.157	1132.38
458.377	1108.38
458.598	1156.38
458.818	1174.38
459.038	1154.38
459.258	1140.38
459.478	1200.38
459.698	1194.38
459.918	1214.38
460.138	1254.38
460.358	1233.38
460.578	1248.38
460.798	1308.38
461.018	1296.38
461.238	1293.38
461.458	1310.38
461.678	1303.38
461.898	1328.38
462.118	1303.38
462.338	1358.38
462.558	1318.38
462.777	1382.38
462.997	1489.38
463.217	1486.38
463.437	1523.38
463.657	1565.38
463.876	1575.38
464.096	1473.38
464.316	1415.38
464.536	1373.38
464.755	1338.38
464.975	1334.38
465.195	1295.38
465.414	1272.38
465.634	1260.38
465.854	1226.38
466.073	1198.38
466.293	1172.38
466.512	1179.38
466.732	1212.38
466.951	1264.38
467.171	1317.38
467.391	1305.38
467.61	1242.38
467.829	1180.38
468.049	1186.38
468.268	1181.38
468.488	1184.38
468.707	1154.38
468.927	1142.38
469.146	1140.38
469.365	1152.38
469.585	1153.38
469.804	1223.38
470.023	1206.38
470.243	1228.38
470.462	1283.38
470.681	1308.38
470.901	1407.38
471.12	1669.38
471.339	1704.38
471.558	1412.38
471.777	1273.38
471.997	1210.38
472.216	1198.38
472.435	1198.38
472.654	1164.38
472.873	1136.38
473.092	1142.38
473.311	1155.38
473.53	1187.38
473.749	1177.38
473.968	1232.38
474.187	1180.38
474.406	1150.38
474.625	1181.38
474.844	1168.38
475.063	1201.38
475.282	1148.38
475.501	1168.38
475.72	1183.38
475.939	1235.38
476.158	1198.38
476.377	1213.38
476.596	1216.38
476.814	1233.38
477.033	1217.38
477.252	1231.38
477.471	1257.38
477.69	1286.38
477.908	1287.38
478.127	1336.38
478.346	1332.38
478.564	1346.38
478.783	1332.38
479.002	1348.38
479.22	1438.38
479.439	1374.38
479.658	1357.38
479.876	1369.38
480.095	1373.38
480.313	1425.38
480.532	1406.38
480.751	1412.38
480.969	1404.38
481.188	1360.38
481.406	1382.38
481.624	1366.38
481.843	1358.38
482.061	1406.38
482.28	1364.38
482.498	1377.38
482.717	1358.38
482.935	1374.38
483.153	1427.38
483.372	1442.38
483.59	1441.38
483.808	1463.38
484.027	1485.38
484.245	1577.38
484.463	1732.38
484.681	1972.38
484.9	1801.38
485.118	1652.38
485.336	1623.38
485.554	1618.38
485.772	1709.38
485.99	1968.38
486.209	2144.38
486.427	1755.38
486.645	1610.38
486.863	1564.38
487.081	1510.38
487.299	1450.38
487.517	1477.38
487.735	1525.38
487.953	1532.38
488.171	1490.38
488.389	1465.38
488.607	1459.38
488.825	1441.38
489.043	1418.38
489.261	1467.38
489.479	1429.38
489.696	1445.38
489.914	1450.38
490.132	1470.38
490.35	1459.38
490.568	1495.38
490.786	1497.38
