Data from SnStandardFlinnAPT0064_QswitchEnergy10_LIBS07252019.E.O._I.C._HRD10591_15-28-51-974.txt Node
Date: Thu Jul 25 15:28:51 EDT 2019
User: cochatt
Spectrometer: HR+D1059
Trigger mode: 1
Integration Time (sec): 1.000000E-1
Scans to average: 1
Electric dark correction enabled: true
Nonlinearity correction enabled: false
Boxcar width: 0
XAxis mode: Wavelengths
Number of Pixels in Spectrum: 2048
>>>>>Begin Spectral Data<<<<<
223.165	-0.56
223.4	-0.56
223.635	-0.56
223.869	-20.56
224.104	-23.56
224.338	-0.56
224.573	-3.56
224.808	-9.56
225.042	-1.56
225.277	-12.56
225.511	3.44
225.746	-10.56
225.98	-2.56
226.215	11.44
226.449	11.44
226.683	29.44
226.918	8.44
227.152	21.44
227.387	35.44
227.621	43.44
227.856	46.44
228.09	49.44
228.324	53.44
228.559	57.44
228.793	57.44
229.027	60.44
229.262	81.44
229.496	63.44
229.73	61.44
229.964	75.44
230.199	72.44
230.433	82.44
230.667	75.44
230.901	96.44
231.136	89.44
231.37	93.44
231.604	94.44
231.838	105.44
232.072	130.44
232.306	121.44
232.541	96.44
232.775	99.44
233.009	85.44
233.243	88.44
233.477	82.44
233.711	104.44
233.945	109.44
234.179	90.44
234.413	85.44
234.647	83.44
234.881	85.44
235.115	81.44
235.349	100.44
235.583	97.44
235.817	132.44
236.051	123.44
236.285	109.44
236.519	85.44
236.753	82.44
236.987	86.44
237.221	84.44
237.455	80.44
237.689	80.44
237.922	80.44
238.156	79.44
238.39	77.44
238.624	93.44
238.858	84.44
239.091	79.44
239.325	78.44
239.559	63.44
239.793	69.44
240.027	73.44
240.26	79.44
240.494	76.44
240.728	92.44
240.961	90.44
241.195	90.44
241.429	86.44
241.662	90.44
241.896	86.44
242.13	110.44
242.363	124.44
242.597	180.44
242.83	138.44
243.064	153.44
243.298	174.44
243.531	168.44
243.765	101.44
243.998	102.44
244.232	96.44
244.465	73.44
244.699	71.44
244.932	85.44
245.166	62.44
245.399	89.44
245.633	77.44
245.866	89.44
246.099	79.44
246.333	71.44
246.566	73.44
246.8	76.44
247.033	79.44
247.266	79.44
247.5	79.44
247.733	87.44
247.966	84.44
248.2	100.44
248.433	105.44
248.666	146.44
248.899	125.44
249.133	89.44
249.366	94.44
249.599	105.44
249.832	118.44
250.066	101.44
250.299	96.44
250.532	79.44
250.765	79.44
250.998	83.44
251.231	80.44
251.465	75.44
251.698	84.44
251.931	73.44
252.164	85.44
252.397	96.44
252.63	100.44
252.863	103.44
253.096	89.44
253.329	95.44
253.562	106.44
253.795	79.44
254.028	100.44
254.261	79.44
254.494	92.44
254.727	122.44
254.96	151.44
255.193	134.44
255.426	95.44
255.659	92.44
255.892	97.44
256.124	90.44
256.357	99.44
256.59	93.44
256.823	88.44
257.056	114.44
257.289	137.44
257.521	176.44
257.754	114.44
257.987	96.44
258.22	98.44
258.452	85.44
258.685	95.44
258.918	95.44
259.151	94.44
259.383	107.44
259.616	142.44
259.849	152.44
260.081	118.44
260.314	99.44
260.547	81.44
260.779	80.44
261.012	80.44
261.244	85.44
261.477	75.44
261.71	71.44
261.942	88.44
262.175	87.44
262.407	87.44
262.64	71.44
262.872	79.44
263.105	96.44
263.337	81.44
263.57	67.44
263.802	99.44
264.035	82.44
264.267	78.44
264.499	92.44
264.732	78.44
264.964	88.44
265.197	89.44
265.429	91.44
265.661	87.44
265.894	81.44
266.126	107.44
266.358	156.44
266.591	151.44
266.823	102.44
267.055	75.44
267.287	96.44
267.52	101.44
267.752	74.44
267.984	73.44
268.216	90.44
268.448	95.44
268.681	101.44
268.913	91.44
269.145	95.44
269.377	89.44
269.609	89.44
269.841	99.44
270.073	103.44
270.306	127.44
270.538	197.44
270.77	325.44
271.002	377.44
271.234	200.44
271.466	119.44
271.698	100.44
271.93	92.44
272.162	97.44
272.394	86.44
272.626	94.44
272.858	80.44
273.09	93.44
273.322	87.44
273.553	96.44
273.785	96.44
274.017	83.44
274.249	78.44
274.481	91.44
274.713	83.44
274.945	101.44
275.176	82.44
275.408	94.44
275.64	96.44
275.872	100.44
276.104	101.44
276.335	108.44
276.567	89.44
276.799	83.44
277.031	102.44
277.262	93.44
277.494	94.44
277.726	124.44
277.957	188.44
278.189	251.44
278.421	246.44
278.652	198.44
278.884	194.44
279.115	148.44
279.347	113.44
279.579	95.44
279.81	103.44
280.042	101.44
280.273	90.44
280.505	98.44
280.736	113.44
280.968	133.44
281.199	169.44
281.431	258.44
281.662	272.44
281.894	161.44
282.125	122.44
282.356	122.44
282.588	97.44
282.819	116.44
283.051	105.44
283.282	131.44
283.513	207.44
283.745	314.44
283.976	563.44
284.207	818.44
284.439	597.44
284.67	273.44
284.901	261.44
285.132	353.44
285.364	404.44
285.595	247.44
285.826	187.44
286.057	242.44
286.288	442.44
286.52	630.44
286.751	498.44
286.982	207.44
287.213	131.44
287.444	104.44
287.675	102.44
287.906	102.44
288.138	103.44
288.369	93.44
288.6	97.44
288.831	89.44
289.062	96.44
289.293	98.44
289.524	93.44
289.755	97.44
289.986	94.44
290.217	104.44
290.448	98.44
290.679	99.44
290.91	128.44
291.141	170.44
291.371	250.44
291.602	315.44
291.833	198.44
292.064	111.44
292.295	106.44
292.526	93.44
292.757	90.44
292.987	106.44
293.218	105.44
293.449	98.44
293.68	94.44
293.91	107.44
294.141	99.44
294.372	95.44
294.603	118.44
294.833	89.44
295.064	98.44
295.295	89.44
295.525	106.44
295.756	91.44
295.987	95.44
296.217	83.44
296.448	92.44
296.679	96.44
296.909	104.44
297.14	106.44
297.37	96.44
297.601	105.44
297.831	101.44
298.062	110.44
298.292	117.44
298.523	105.44
298.753	96.44
298.984	96.44
299.214	98.44
299.445	118.44
299.675	122.44
299.905	131.44
300.136	117.44
300.366	160.44
300.597	274.44
300.827	468.44
301.057	735.44
301.288	650.44
301.518	257.44
301.748	152.44
301.979	147.44
302.209	153.44
302.439	147.44
302.669	183.44
302.9	283.44
303.13	538.44
303.36	938.44
303.59	1277.44
303.82	866.44
304.051	303.44
304.281	172.44
304.511	126.44
304.741	109.44
304.971	120.44
305.201	112.44
305.431	121.44
305.661	109.44
305.891	101.44
306.121	114.44
306.352	119.44
306.582	111.44
306.812	106.44
307.042	131.44
307.272	111.44
307.502	128.44
307.731	100.44
307.961	113.44
308.191	109.44
308.421	98.44
308.651	107.44
308.881	105.44
309.111	121.44
309.341	111.44
309.571	107.44
309.8	111.44
310.03	104.44
310.26	100.44
310.49	112.44
310.72	114.44
310.949	123.44
311.179	116.44
311.409	104.44
311.639	88.44
311.868	108.44
312.098	101.44
312.328	115.44
312.557	120.44
312.787	115.44
313.017	118.44
313.246	115.44
313.476	124.44
313.706	144.44
313.935	174.44
314.165	208.44
314.394	249.44
314.624	192.44
314.853	121.44
315.083	136.44
315.312	118.44
315.542	128.44
315.771	131.44
316.001	144.44
316.23	143.44
316.46	146.44
316.689	198.44
316.919	273.44
317.148	529.44
317.377	975.44
317.607	1541.44
317.836	1493.44
318.065	571.44
318.295	234.44
318.524	183.44
318.753	141.44
318.983	131.44
319.212	147.44
319.441	123.44
319.67	112.44
319.9	131.44
320.129	114.44
320.358	118.44
320.587	124.44
320.816	129.44
321.046	128.44
321.275	130.44
321.504	140.44
321.733	148.44
321.962	169.44
322.191	188.44
322.42	149.44
322.649	127.44
322.878	118.44
323.108	132.44
323.337	138.44
323.566	135.44
323.795	123.44
324.024	128.44
324.253	159.44
324.482	191.44
324.71	249.44
324.939	300.44
325.168	249.44
325.397	190.44
325.626	276.44
325.855	503.44
326.084	1009.44
326.313	1639.44
326.542	1629.44
326.77	622.44
326.999	264.44
327.228	242.44
327.457	260.44
327.686	237.44
327.914	175.44
328.143	152.44
328.372	129.44
328.6	135.44
328.829	130.44
329.058	137.44
329.287	125.44
329.515	121.44
329.744	97.44
329.972	115.44
330.201	98.44
330.43	123.44
330.658	120.44
330.887	126.44
331.115	121.44
331.344	129.44
331.572	120.44
331.801	126.44
332.03	136.44
332.258	143.44
332.486	189.44
332.715	301.44
332.943	530.44
333.172	797.44
333.4	702.44
333.629	270.44
333.857	141.44
334.085	127.44
334.314	126.44
334.542	149.44
334.771	119.44
334.999	116.44
335.227	137.44
335.455	132.44
335.684	107.44
335.912	118.44
336.14	114.44
336.369	112.44
336.597	113.44
336.825	118.44
337.053	115.44
337.281	121.44
337.51	114.44
337.738	120.44
337.966	101.44
338.194	129.44
338.422	121.44
338.65	120.44
338.878	111.44
339.106	128.44
339.334	137.44
339.562	118.44
339.79	123.44
340.018	122.44
340.246	115.44
340.474	127.44
340.702	118.44
340.93	126.44
341.158	130.44
341.386	111.44
341.614	122.44
341.842	128.44
342.07	107.44
342.298	109.44
342.526	113.44
342.754	120.44
342.981	120.44
343.209	106.44
343.437	112.44
343.665	117.44
343.893	112.44
344.12	111.44
344.348	125.44
344.576	114.44
344.804	103.44
345.031	116.44
345.259	105.44
345.487	115.44
345.714	117.44
345.942	109.44
346.17	105.44
346.397	104.44
346.625	122.44
346.853	106.44
347.08	119.44
347.308	113.44
347.535	118.44
347.763	110.44
347.99	112.44
348.218	117.44
348.445	121.44
348.673	118.44
348.9	129.44
349.128	120.44
349.355	123.44
349.583	126.44
349.81	133.44
350.037	123.44
350.265	120.44
350.492	122.44
350.72	128.44
350.947	116.44
351.174	130.44
351.402	138.44
351.629	123.44
351.856	103.44
352.083	117.44
352.311	117.44
352.538	112.44
352.765	113.44
352.992	115.44
353.22	120.44
353.447	102.44
353.674	97.44
353.901	107.44
354.128	118.44
354.355	111.44
354.583	118.44
354.81	105.44
355.037	121.44
355.264	110.44
355.491	106.44
355.718	120.44
355.945	123.44
356.172	112.44
356.399	105.44
356.626	96.44
356.853	118.44
357.08	119.44
357.307	117.44
357.534	107.44
357.761	111.44
357.988	111.44
358.215	115.44
358.441	112.44
358.668	114.44
358.895	124.44
359.122	119.44
359.349	116.44
359.576	119.44
359.802	128.44
360.029	116.44
360.256	117.44
360.483	103.44
360.709	109.44
360.936	117.44
361.163	103.44
361.39	130.44
361.616	119.44
361.843	117.44
362.07	116.44
362.296	121.44
362.523	114.44
362.749	117.44
362.976	125.44
363.203	107.44
363.429	107.44
363.656	122.44
363.882	122.44
364.109	117.44
364.335	117.44
364.562	120.44
364.788	124.44
365.015	128.44
365.241	159.44
365.468	209.44
365.694	274.44
365.92	227.44
366.147	124.44
366.373	114.44
366.599	98.44
366.826	114.44
367.052	109.44
367.278	109.44
367.505	118.44
367.731	107.44
367.957	114.44
368.184	125.44
368.41	119.44
368.636	109.44
368.862	121.44
369.089	117.44
369.315	121.44
369.541	111.44
369.767	102.44
369.993	111.44
370.219	106.44
370.445	125.44
370.672	109.44
370.898	118.44
371.124	117.44
371.35	117.44
371.576	92.44
371.802	109.44
372.028	117.44
372.254	115.44
372.48	123.44
372.706	123.44
372.932	120.44
373.158	120.44
373.384	134.44
373.61	126.44
373.835	127.44
374.061	120.44
374.287	99.44
374.513	125.44
374.739	120.44
374.965	112.44
375.191	103.44
375.416	123.44
375.642	122.44
375.868	114.44
376.094	121.44
376.319	102.44
376.545	116.44
376.771	121.44
376.997	105.44
377.222	117.44
377.448	118.44
377.674	104.44
377.899	103.44
378.125	128.44
378.35	117.44
378.576	124.44
378.802	130.44
379.027	132.44
379.253	157.44
379.478	197.44
379.704	348.44
379.929	830.44
380.155	1712.44
380.38	1718.44
380.606	541.44
380.831	203.44
381.057	151.44
381.282	115.44
381.507	119.44
381.733	110.44
381.958	102.44
382.184	103.44
382.409	122.44
382.634	123.44
382.86	125.44
383.085	125.44
383.31	120.44
383.535	104.44
383.761	124.44
383.986	107.44
384.211	109.44
384.436	112.44
384.662	111.44
384.887	109.44
385.112	118.44
385.337	104.44
385.562	109.44
385.787	110.44
386.013	101.44
386.238	105.44
386.463	105.44
386.688	109.44
386.913	115.44
387.138	110.44
387.363	103.44
387.588	113.44
387.813	107.44
388.038	106.44
388.263	112.44
388.488	125.44
388.713	115.44
388.938	98.44
389.163	91.44
389.387	88.44
389.612	107.44
389.837	96.44
390.062	99.44
390.287	104.44
390.512	108.44
390.736	110.44
390.961	121.44
391.186	102.44
391.411	100.44
391.636	110.44
391.86	118.44
392.085	97.44
392.31	97.44
392.534	86.44
392.759	97.44
392.984	93.44
393.208	118.44
393.433	145.44
393.658	146.44
393.882	115.44
394.107	86.44
394.331	100.44
394.556	92.44
394.78	104.44
395.005	87.44
395.229	103.44
395.454	106.44
395.678	108.44
395.903	109.44
396.127	113.44
396.352	123.44
396.576	109.44
396.801	121.44
397.025	127.44
397.249	125.44
397.474	103.44
397.698	107.44
397.922	97.44
398.147	82.44
398.371	95.44
398.595	103.44
398.82	111.44
399.044	106.44
399.268	98.44
399.492	101.44
399.717	88.44
399.941	103.44
400.165	89.44
400.389	95.44
400.613	94.44
400.837	101.44
401.062	104.44
401.286	113.44
401.51	103.44
401.734	99.44
401.958	109.44
402.182	94.44
402.406	93.44
402.63	94.44
402.854	98.44
403.078	96.44
403.302	112.44
403.526	98.44
403.75	99.44
403.974	93.44
404.198	100.44
404.422	115.44
404.645	96.44
404.869	118.44
405.093	100.44
405.317	113.44
405.541	108.44
405.765	147.44
405.988	147.44
406.212	141.44
406.436	103.44
406.66	109.44
406.883	109.44
407.107	95.44
407.331	103.44
407.555	85.44
407.778	107.44
408.002	104.44
408.226	101.44
408.449	110.44
408.673	114.44
408.896	109.44
409.12	98.44
409.344	113.44
409.567	104.44
409.791	112.44
410.014	97.44
410.238	89.44
410.461	110.44
410.685	115.44
410.908	113.44
411.132	110.44
411.355	106.44
411.578	101.44
411.802	100.44
412.025	101.44
412.249	100.44
412.472	92.44
412.695	111.44
412.919	105.44
413.142	109.44
413.365	101.44
413.589	87.44
413.812	104.44
414.035	99.44
414.258	94.44
414.482	102.44
414.705	98.44
414.928	117.44
415.151	111.44
415.374	98.44
415.597	102.44
415.821	98.44
416.044	98.44
416.267	100.44
416.49	102.44
416.713	102.44
416.936	104.44
417.159	105.44
417.382	122.44
417.605	103.44
417.828	113.44
418.051	97.44
418.274	98.44
418.497	103.44
418.72	106.44
418.943	106.44
419.166	120.44
419.389	121.44
419.611	118.44
419.834	105.44
420.057	105.44
420.28	95.44
420.503	104.44
420.726	104.44
420.948	111.44
421.171	106.44
421.394	113.44
421.617	108.44
421.839	101.44
422.062	95.44
422.285	97.44
422.507	111.44
422.73	129.44
422.953	131.44
423.175	111.44
423.398	91.44
423.621	105.44
423.843	96.44
424.066	101.44
424.288	87.44
424.511	99.44
424.733	115.44
424.956	112.44
425.178	85.44
425.401	99.44
425.623	110.44
425.846	89.44
426.068	96.44
426.291	106.44
426.513	101.44
426.735	115.44
426.958	89.44
427.18	95.44
427.402	110.44
427.625	99.44
427.847	90.44
428.069	93.44
428.292	95.44
428.514	96.44
428.736	101.44
428.958	99.44
429.181	101.44
429.403	94.44
429.625	100.44
429.847	97.44
430.069	110.44
430.292	89.44
430.514	110.44
430.736	113.44
430.958	104.44
431.18	99.44
431.402	99.44
431.624	86.44
431.846	87.44
432.068	104.44
432.29	108.44
432.512	107.44
432.734	101.44
432.956	104.44
433.178	95.44
433.4	111.44
433.622	83.44
433.844	94.44
434.066	101.44
434.287	99.44
434.509	99.44
434.731	104.44
434.953	89.44
435.175	93.44
435.397	98.44
435.618	95.44
435.84	90.44
436.062	95.44
436.284	102.44
436.505	106.44
436.727	89.44
436.949	94.44
437.17	97.44
437.392	97.44
437.614	93.44
437.835	87.44
438.057	87.44
438.278	96.44
438.5	102.44
438.721	78.44
438.943	122.44
439.165	117.44
439.386	115.44
439.608	114.44
439.829	106.44
440.05	126.44
440.272	123.44
440.493	106.44
440.715	117.44
440.936	109.44
441.158	97.44
441.379	99.44
441.6	106.44
441.822	117.44
442.043	120.44
442.264	128.44
442.486	120.44
442.707	99.44
442.928	111.44
443.149	101.44
443.371	90.44
443.592	105.44
443.813	89.44
444.034	99.44
444.255	89.44
444.476	93.44
444.698	114.44
444.919	93.44
445.14	189.44
445.361	147.44
445.582	104.44
445.803	94.44
446.024	102.44
446.245	102.44
446.466	99.44
446.687	108.44
446.908	103.44
447.129	100.44
447.35	104.44
447.571	109.44
447.792	115.44
448.013	90.44
448.234	97.44
448.455	101.44
448.675	104.44
448.896	99.44
449.117	107.44
449.338	131.44
449.559	158.44
449.779	123.44
450	111.44
450.221	121.44
450.442	123.44
450.662	119.44
450.883	119.44
451.104	122.44
451.324	125.44
451.545	112.44
451.766	125.44
451.986	126.44
452.207	242.44
452.428	596.44
452.648	1517.44
452.869	846.44
453.089	213.44
453.31	117.44
453.53	126.44
453.751	138.44
453.971	177.44
454.192	158.44
454.412	116.44
454.633	105.44
454.853	98.44
455.073	98.44
455.294	84.44
455.514	106.44
455.734	92.44
455.955	98.44
456.175	109.44
456.395	101.44
456.616	90.44
456.836	103.44
457.056	97.44
457.276	87.44
457.497	118.44
457.717	118.44
457.937	104.44
458.157	103.44
458.377	106.44
458.598	94.44
458.818	90.44
459.038	81.44
459.258	85.44
459.478	89.44
459.698	93.44
459.918	98.44
460.138	109.44
460.358	102.44
460.578	91.44
460.798	101.44
461.018	109.44
461.238	101.44
461.458	110.44
461.678	75.44
461.898	89.44
462.118	94.44
462.338	89.44
462.558	111.44
462.777	98.44
462.997	127.44
463.217	103.44
463.437	133.44
463.657	185.44
463.876	197.44
464.096	128.44
464.316	114.44
464.536	97.44
464.755	99.44
464.975	115.44
465.195	94.44
465.414	98.44
465.634	93.44
465.854	98.44
466.073	93.44
466.293	91.44
466.512	104.44
466.732	105.44
466.951	120.44
467.171	139.44
467.391	138.44
467.61	116.44
467.829	111.44
468.049	88.44
468.268	95.44
468.488	121.44
468.707	104.44
468.927	103.44
469.146	86.44
469.365	103.44
469.585	101.44
469.804	104.44
470.023	105.44
470.243	93.44
470.462	98.44
470.681	125.44
470.901	133.44
471.12	185.44
471.339	222.44
471.558	130.44
471.777	123.44
471.997	114.44
472.216	98.44
472.435	109.44
472.654	92.44
472.873	99.44
473.092	106.44
473.311	98.44
473.53	107.44
473.749	94.44
473.968	109.44
474.187	101.44
474.406	100.44
474.625	90.44
474.844	92.44
475.063	89.44
475.282	97.44
475.501	97.44
475.72	104.44
475.939	88.44
476.158	101.44
476.377	121.44
476.596	123.44
476.814	103.44
477.033	90.44
477.252	100.44
477.471	102.44
477.69	112.44
477.908	90.44
478.127	96.44
478.346	97.44
478.564	100.44
478.783	104.44
479.002	105.44
479.22	89.44
479.439	90.44
479.658	94.44
479.876	95.44
480.095	91.44
480.313	99.44
480.532	101.44
480.751	92.44
480.969	92.44
481.188	90.44
481.406	104.44
481.624	90.44
481.843	122.44
482.061	115.44
482.28	108.44
482.498	97.44
482.717	97.44
482.935	99.44
483.153	96.44
483.372	109.44
483.59	111.44
483.808	107.44
484.027	115.44
484.245	110.44
484.463	184.44
484.681	254.44
484.9	152.44
485.118	120.44
485.336	117.44
485.554	123.44
485.772	126.44
485.99	189.44
486.209	248.44
486.427	145.44
486.645	122.44
486.863	110.44
487.081	113.44
487.299	106.44
487.517	112.44
487.735	96.44
487.953	97.44
488.171	96.44
488.389	94.44
488.607	106.44
488.825	103.44
489.043	109.44
489.261	100.44
489.479	114.44
489.696	101.44
489.914	91.44
490.132	119.44
490.35	99.44
490.568	104.44
490.786	111.44
491.003	117.44
491.221	113.44
491.439	119.44
491.657	104.44
491.874	106.44
492.092	103.44
492.31	103.44
492.527	111.44
492.745	91.44
492.963	114.44
493.18	117.44
493.398	114.44
493.615	120.44
493.833	108.44
494.05	106.44
494.268	98.44
494.485	112.44
494.703	117.44
494.92	103.44
495.138	123.44
495.355	99.44
495.573	104.44
495.79	100.44
496.008	115.44
496.225	109.44
496.442	118.44
496.66	123.44
496.877	162.44
497.094	166.44
497.312	109.44
497.529	102.44
497.746	107.44
497.963	116.44
498.181	96.44
498.398	107.44
498.615	99.44
498.832	112.44
499.049	114.44
499.267	149.44
499.484	151.44
499.701	108.44
499.918	121.44
500.135	115.44
500.352	96.44
500.569	113.44
500.786	92.44
501.003	94.44
501.22	115.44
501.437	99.44
501.654	109.44
501.871	107.44
502.088	106.44
502.305	101.44
502.522	103.44
502.739	103.44
502.956	93.44
503.172	86.44
503.389	94.44
503.606	102.44
503.823	106.44
504.04	109.44
504.256	93.44
504.473	117.44
504.69	104.44
504.907	120.44
505.123	120.44
505.34	112.44
505.557	102.44
505.773	113.44
505.99	91.44
506.207	93.44
506.423	92.44
506.64	115.44
506.856	118.44
507.073	109.44
