Data from SnStandardFlinnAPT0064_LampEnergy10_LIBS07252019.E.O._I.C._HRD10591_15-20-10-494.txt Node
Date: Thu Jul 25 15:20:10 EDT 2019
User: cochatt
Spectrometer: HR+D1059
Trigger mode: 1
Integration Time (sec): 1.000000E-1
Scans to average: 1
Electric dark correction enabled: true
Nonlinearity correction enabled: false
Boxcar width: 0
XAxis mode: Wavelengths
Number of Pixels in Spectrum: 2048
>>>>>Begin Spectral Data<<<<<
223.165	-7.25
223.4	-7.25
223.635	-7.25
223.869	-25.25
224.104	-12.25
224.338	-13.25
224.573	-8.25
224.808	-23.25
225.042	-2.25
225.277	-1.25
225.511	-14.25
225.746	7.75
225.98	7.75
226.215	5.75
226.449	8.75
226.683	10.75
226.918	33.75
227.152	32.75
227.387	28.75
227.621	44.75
227.856	51.75
228.09	40.75
228.324	43.75
228.559	46.75
228.793	129.75
229.027	310.75
229.262	330.75
229.496	299.75
229.73	281.75
229.964	291.75
230.199	291.75
230.433	293.75
230.667	298.75
230.901	307.75
231.136	324.75
231.37	354.75
231.604	378.75
231.838	442.75
232.072	539.75
232.306	588.75
232.541	488.75
232.775	423.75
233.009	438.75
233.243	442.75
233.477	461.75
233.711	532.75
233.945	588.75
234.179	533.75
234.413	448.75
234.647	466.75
234.881	442.75
235.115	531.75
235.349	625.75
235.583	803.75
235.817	1013.75
236.051	1003.75
236.285	666.75
236.519	524.75
236.753	499.75
236.987	492.75
237.221	547.75
237.455	529.75
237.689	485.75
237.922	464.75
238.156	479.75
238.39	487.75
238.624	494.75
238.858	484.75
239.091	491.75
239.325	473.75
239.559	481.75
239.793	515.75
240.027	485.75
240.26	524.75
240.494	550.75
240.728	586.75
240.961	635.75
241.195	680.75
241.429	667.75
241.662	711.75
241.896	789.75
242.13	953.75
242.363	1278.75
242.597	1626.75
242.83	1558.75
243.064	1591.75
243.298	1856.75
243.531	1526.75
243.765	977.75
243.998	782.75
244.232	709.75
244.465	692.75
244.699	672.75
244.932	652.75
245.166	680.75
245.399	667.75
245.633	677.75
245.866	688.75
246.099	658.75
246.333	635.75
246.566	648.75
246.8	618.75
247.033	640.75
247.266	628.75
247.5	662.75
247.733	668.75
247.966	683.75
248.2	779.75
248.433	866.75
248.666	991.75
248.899	967.75
249.133	864.75
249.366	882.75
249.599	957.75
249.832	1087.75
250.066	1086.75
250.299	860.75
250.532	766.75
250.765	745.75
250.998	721.75
251.231	703.75
251.465	727.75
251.698	733.75
251.931	737.75
252.164	740.75
252.397	776.75
252.63	794.75
252.863	789.75
253.096	784.75
253.329	774.75
253.562	785.75
253.795	781.75
254.028	812.75
254.261	835.75
254.494	880.75
254.727	1022.75
254.96	1243.75
255.193	1256.75
255.426	955.75
255.659	869.75
255.892	870.75
256.124	868.75
256.357	868.75
256.59	927.75
256.823	967.75
257.056	1114.75
257.289	1402.75
257.521	1513.75
257.754	1203.75
257.987	941.75
258.22	913.75
258.452	922.75
258.685	935.75
258.918	937.75
259.151	978.75
259.383	1082.75
259.616	1206.75
259.849	1303.75
260.081	1072.75
260.314	992.75
260.547	930.75
260.779	954.75
261.012	949.75
261.244	935.75
261.477	964.75
261.71	978.75
261.942	972.75
262.175	1011.75
262.407	1012.75
262.64	1030.75
262.872	1058.75
263.105	1106.75
263.337	1152.75
263.57	1224.75
263.802	1306.75
264.035	1328.75
264.267	1304.75
264.499	1338.75
264.732	1400.75
264.964	1394.75
265.197	1414.75
265.429	1418.75
265.661	1408.75
265.894	1570.75
266.126	1698.75
266.358	1963.75
266.591	1897.75
266.823	1575.75
267.055	1434.75
267.287	1356.75
267.52	1300.75
267.752	1256.75
267.984	1224.75
268.216	1243.75
268.448	1227.75
268.681	1211.75
268.913	1207.75
269.145	1208.75
269.377	1202.75
269.609	1228.75
269.841	1265.75
270.073	1364.75
270.306	1603.75
270.538	2150.75
270.77	3264.75
271.002	4027.75
271.234	2864.75
271.466	1889.75
271.698	1534.75
271.93	1398.75
272.162	1312.75
272.394	1289.75
272.626	1259.75
272.858	1254.75
273.09	1232.75
273.322	1225.75
273.553	1188.75
273.785	1182.75
274.017	1166.75
274.249	1186.75
274.481	1177.75
274.713	1191.75
274.945	1196.75
275.176	1192.75
275.408	1191.75
275.64	1198.75
275.872	1211.75
276.104	1228.75
276.335	1257.75
276.567	1230.75
276.799	1247.75
277.031	1305.75
277.262	1284.75
277.494	1377.75
277.726	1533.75
277.957	1825.75
278.189	2147.75
278.421	1962.75
278.652	1758.75
278.884	1660.75
279.115	1496.75
279.347	1426.75
279.579	1390.75
279.81	1387.75
280.042	1396.75
280.273	1425.75
280.505	1472.75
280.736	1489.75
280.968	1592.75
281.199	1755.75
281.431	2075.75
281.662	2139.75
281.894	1755.75
282.125	1596.75
282.356	1618.75
282.588	1655.75
282.819	1642.75
283.051	1800.75
283.282	2022.75
283.513	2482.75
283.745	3633.75
283.976	5806.75
284.207	8179.75
284.439	7465.75
284.67	4620.75
284.901	3811.75
285.132	3807.75
285.364	3653.75
285.595	2723.75
285.826	2452.75
286.057	2908.75
286.288	3958.75
286.52	5273.75
286.751	4964.75
286.982	3124.75
287.213	2316.75
287.444	2023.75
287.675	1858.75
287.906	1779.75
288.138	1717.75
288.369	1690.75
288.6	1672.75
288.831	1656.75
289.062	1646.75
289.293	1670.75
289.524	1670.75
289.755	1684.75
289.986	1680.75
290.217	1684.75
290.448	1723.75
290.679	1689.75
290.91	1778.75
291.141	1829.75
291.371	2016.75
291.602	2149.75
291.833	1911.75
292.064	1774.75
292.295	1669.75
292.526	1607.75
292.757	1616.75
292.987	1552.75
293.218	1575.75
293.449	1606.75
293.68	1593.75
293.91	1574.75
294.141	1541.75
294.372	1543.75
294.603	1561.75
294.833	1537.75
295.064	1537.75
295.295	1553.75
295.525	1546.75
295.756	1532.75
295.987	1533.75
296.217	1563.75
296.448	1557.75
296.679	1537.75
296.909	1565.75
297.14	1554.75
297.37	1601.75
297.601	1623.75
297.831	1588.75
298.062	1623.75
298.292	1618.75
298.523	1695.75
298.753	1690.75
298.984	1698.75
299.214	1730.75
299.445	1699.75
299.675	1776.75
299.905	1841.75
300.136	1929.75
300.366	2131.75
300.597	2793.75
300.827	3922.75
301.057	5376.75
301.288	5352.75
301.518	3424.75
301.748	2638.75
301.979	2363.75
302.209	2254.75
302.439	2273.75
302.669	2442.75
302.9	3014.75
303.13	4171.75
303.36	6275.75
303.59	8438.75
303.82	7391.75
304.051	4284.75
304.281	3076.75
304.511	2523.75
304.741	2320.75
304.971	2202.75
305.201	2081.75
305.431	2012.75
305.661	1948.75
305.891	1909.75
306.121	1867.75
306.352	1830.75
306.582	1849.75
306.812	1792.75
307.042	1821.75
307.272	1782.75
307.502	1783.75
307.731	1809.75
307.961	1780.75
308.191	1791.75
308.421	1787.75
308.651	1770.75
308.881	1800.75
309.111	1769.75
309.341	1771.75
309.571	1799.75
309.8	1796.75
310.03	1806.75
310.26	1822.75
310.49	1811.75
310.72	1812.75
310.949	1871.75
311.179	1822.75
311.409	1870.75
311.639	1934.75
311.868	1899.75
312.098	1897.75
312.328	1929.75
312.557	1929.75
312.787	1932.75
313.017	1923.75
313.246	1985.75
313.476	1987.75
313.706	2050.75
313.935	2222.75
314.165	2306.75
314.394	2407.75
314.624	2340.75
314.853	2130.75
315.083	2150.75
315.312	2150.75
315.542	2164.75
315.771	2175.75
316.001	2239.75
316.23	2325.75
316.46	2411.75
316.689	2665.75
316.919	3281.75
317.148	4692.75
317.377	7244.75
317.607	10599.75
317.836	11139.75
318.065	6738.75
318.295	4366.75
318.524	3463.75
318.753	2992.75
318.983	2708.75
319.212	2587.75
319.441	2511.75
319.67	2379.75
319.9	2379.75
320.129	2370.75
320.358	2350.75
320.587	2321.75
320.816	2307.75
321.046	2324.75
321.275	2322.75
321.504	2346.75
321.733	2366.75
321.962	2492.75
322.191	2493.75
322.42	2501.75
322.649	2443.75
322.878	2478.75
323.108	2430.75
323.337	2491.75
323.566	2540.75
323.795	2608.75
324.024	2629.75
324.253	2656.75
324.482	2767.75
324.71	3004.75
324.939	3193.75
325.168	3315.75
325.397	3425.75
325.626	4042.75
325.855	5622.75
326.084	8822.75
326.313	12842.75
326.542	13577.75
326.77	9430.75
326.999	6089.75
327.228	5044.75
327.457	4806.75
327.686	4798.75
327.914	5107.75
328.143	5918.75
328.372	7132.75
328.6	7792.75
328.829	6914.75
329.058	5786.75
329.287	5066.75
329.515	4566.75
329.744	4219.75
329.972	4006.75
330.201	3764.75
330.43	3621.75
330.658	3557.75
330.887	3489.75
331.115	3423.75
331.344	3378.75
331.572	3394.75
331.801	3449.75
332.03	3429.75
332.258	3488.75
332.486	3704.75
332.715	4248.75
332.943	5340.75
333.172	6645.75
333.4	6602.75
333.629	4986.75
333.857	4454.75
334.085	4494.75
334.314	4660.75
334.542	5095.75
334.771	5951.75
334.999	7385.75
335.227	9234.75
335.455	10358.75
335.684	9288.75
335.912	7635.75
336.14	6448.75
336.369	5650.75
336.597	5186.75
336.825	4696.75
337.053	4419.75
337.281	4235.75
337.51	3947.75
337.738	3803.75
337.966	3660.75
338.194	3499.75
338.422	3419.75
338.65	3270.75
338.878	3249.75
339.106	3191.75
339.334	3161.75
339.562	3106.75
339.79	3023.75
340.018	3000.75
340.246	2970.75
340.474	2975.75
340.702	2955.75
340.93	3009.75
341.158	2959.75
341.386	2988.75
341.614	2982.75
341.842	2803.75
342.07	2761.75
342.298	2776.75
342.526	2735.75
342.754	2722.75
342.981	2642.75
343.209	2644.75
343.437	2672.75
343.665	2691.75
343.893	2741.75
344.12	2709.75
344.348	2714.75
344.576	2712.75
344.804	2619.75
345.031	2562.75
345.259	2539.75
345.487	2528.75
345.714	2508.75
345.942	2518.75
346.17	2495.75
346.397	2454.75
346.625	2464.75
346.853	2483.75
347.08	2453.75
347.308	2468.75
347.535	2482.75
347.763	2454.75
347.99	2420.75
348.218	2431.75
348.445	2433.75
348.673	2408.75
348.9	2408.75
349.128	2397.75
349.355	2387.75
349.583	2362.75
349.81	2394.75
350.037	2394.75
350.265	2348.75
350.492	2387.75
350.72	2384.75
350.947	2333.75
351.174	2345.75
351.402	2357.75
351.629	2329.75
351.856	2350.75
352.083	2315.75
352.311	2313.75
352.538	2331.75
352.765	2365.75
352.992	2321.75
353.22	2312.75
353.447	2364.75
353.674	2309.75
353.901	2336.75
354.128	2331.75
354.355	2371.75
354.583	2372.75
354.81	2404.75
355.037	2380.75
355.264	2379.75
355.491	2374.75
355.718	2354.75
355.945	2393.75
356.172	2420.75
356.399	2484.75
356.626	2421.75
356.853	2452.75
357.08	2458.75
357.307	2509.75
357.534	2523.75
357.761	2498.75
357.988	2551.75
358.215	2481.75
358.441	2528.75
358.668	2483.75
358.895	2474.75
359.122	2474.75
359.349	2454.75
359.576	2441.75
359.802	2515.75
360.029	2496.75
360.256	2493.75
360.483	2499.75
360.709	2490.75
360.936	2494.75
361.163	2524.75
361.39	2466.75
361.616	2483.75
361.843	2527.75
362.07	2491.75
362.296	2511.75
362.523	2498.75
362.749	2514.75
362.976	2480.75
363.203	2454.75
363.429	2514.75
363.656	2520.75
363.882	2481.75
364.109	2487.75
364.335	2470.75
364.562	2480.75
364.788	2460.75
365.015	2540.75
365.241	2622.75
365.468	2747.75
365.694	2926.75
365.92	2816.75
366.147	2568.75
366.373	2565.75
366.599	2533.75
366.826	2539.75
367.052	2539.75
367.278	2538.75
367.505	2571.75
367.731	2614.75
367.957	2515.75
368.184	2568.75
368.41	2614.75
368.636	2569.75
368.862	2615.75
369.089	2619.75
369.315	2589.75
369.541	2555.75
369.767	2580.75
369.993	2566.75
370.219	2528.75
370.445	2570.75
370.672	2606.75
370.898	2618.75
371.124	2654.75
371.35	2639.75
371.576	2673.75
371.802	2668.75
372.028	2651.75
372.254	2622.75
372.48	2688.75
372.706	2684.75
372.932	2705.75
373.158	2768.75
373.384	2730.75
373.61	2683.75
373.835	2737.75
374.061	2751.75
374.287	2761.75
374.513	2760.75
374.739	2782.75
374.965	2832.75
375.191	2837.75
375.416	2794.75
375.642	2713.75
375.868	2768.75
376.094	2755.75
376.319	2709.75
376.545	2663.75
376.771	2706.75
376.997	2651.75
377.222	2689.75
377.448	2626.75
377.674	2682.75
377.899	2696.75
378.125	2724.75
378.35	2657.75
378.576	2678.75
378.802	2663.75
379.027	2768.75
379.253	2814.75
379.478	3020.75
379.704	3501.75
379.929	5180.75
380.155	8027.75
380.38	8753.75
380.606	5358.75
380.831	3688.75
381.057	3204.75
381.282	2910.75
381.507	2796.75
381.733	2768.75
381.958	2700.75
382.184	2667.75
382.409	2636.75
382.634	2664.75
382.86	2595.75
383.085	2665.75
383.31	2630.75
383.535	2621.75
383.761	2634.75
383.986	2645.75
384.211	2656.75
384.436	2677.75
384.662	2716.75
384.887	2721.75
385.112	2672.75
385.337	2761.75
385.562	2723.75
385.787	2718.75
386.013	2751.75
386.238	2711.75
386.463	2743.75
386.688	2713.75
386.913	2737.75
387.138	2698.75
387.363	2725.75
387.588	2675.75
387.813	2691.75
388.038	2695.75
388.263	2674.75
388.488	2748.75
388.713	2704.75
388.938	2700.75
389.163	2676.75
389.387	2725.75
389.612	2693.75
389.837	2712.75
390.062	2710.75
390.287	2716.75
390.512	2792.75
390.736	2769.75
390.961	2791.75
391.186	2801.75
391.411	2836.75
391.636	2841.75
391.86	2802.75
392.085	2832.75
392.31	2836.75
392.534	2823.75
392.759	2844.75
392.984	2790.75
393.208	2709.75
393.433	2760.75
393.658	2706.75
393.882	2749.75
394.107	2776.75
394.331	2725.75
394.556	2746.75
394.78	2776.75
395.005	2777.75
395.229	2731.75
395.454	2802.75
395.678	2818.75
395.903	2824.75
396.127	2793.75
396.352	2793.75
396.576	2774.75
396.801	2776.75
397.025	2894.75
397.249	2857.75
397.474	2846.75
397.698	2820.75
397.922	2871.75
398.147	2862.75
398.371	2898.75
398.595	2956.75
398.82	2990.75
399.044	3191.75
399.268	3275.75
399.492	3486.75
399.717	3616.75
399.941	3507.75
400.165	3454.75
400.389	3295.75
400.613	3222.75
400.837	3094.75
401.062	3022.75
401.286	3061.75
401.51	3020.75
401.734	2951.75
401.958	2986.75
402.182	2969.75
402.406	2981.75
402.63	3007.75
402.854	3056.75
403.078	3034.75
403.302	3037.75
403.526	3141.75
403.75	3063.75
403.974	3113.75
404.198	3070.75
404.422	3107.75
404.645	3060.75
404.869	3122.75
405.093	3131.75
405.317	3035.75
405.541	3122.75
405.765	3167.75
405.988	3239.75
406.212	3235.75
406.436	3192.75
406.66	3203.75
406.883	3209.75
407.107	3290.75
407.331	3339.75
407.555	3399.75
407.778	3369.75
408.002	3300.75
408.226	3323.75
408.449	3338.75
408.673	3199.75
408.896	3185.75
409.12	3122.75
409.344	3183.75
409.567	3108.75
409.791	3131.75
410.014	3092.75
410.238	3087.75
410.461	3058.75
410.685	3074.75
410.908	3051.75
411.132	2980.75
411.355	3001.75
411.578	3022.75
411.802	2952.75
412.025	2974.75
412.249	3045.75
412.472	2974.75
412.695	2939.75
412.919	3006.75
413.142	2951.75
413.365	2936.75
413.589	2937.75
413.812	2889.75
414.035	2984.75
414.258	2929.75
414.482	2937.75
414.705	2947.75
414.928	2940.75
415.151	2937.75
415.374	2890.75
415.597	2866.75
415.821	2850.75
416.044	2833.75
416.267	2841.75
416.49	2826.75
416.713	2816.75
416.936	2800.75
417.159	2762.75
417.382	2766.75
417.605	2789.75
417.828	2802.75
418.051	2842.75
418.274	2810.75
418.497	2896.75
418.72	2912.75
418.943	2840.75
419.166	3011.75
419.389	3106.75
419.611	3093.75
419.834	2971.75
420.057	2918.75
420.28	2874.75
420.503	2812.75
420.726	2807.75
420.948	2855.75
421.171	2839.75
421.394	2810.75
421.617	2810.75
421.839	2804.75
422.062	2844.75
422.285	2770.75
422.507	2836.75
422.73	2802.75
422.953	2876.75
423.175	2943.75
423.398	2882.75
423.621	2814.75
423.843	2827.75
424.066	2844.75
424.288	2807.75
424.511	2826.75
424.733	2782.75
424.956	2802.75
425.178	2755.75
425.401	2811.75
425.623	2795.75
425.846	2686.75
426.068	2716.75
426.291	2677.75
426.513	2723.75
426.735	2706.75
426.958	2691.75
427.18	2605.75
427.402	2712.75
427.625	2686.75
427.847	2633.75
428.069	2600.75
428.292	2694.75
428.514	2594.75
428.736	2601.75
428.958	2640.75
429.181	2571.75
429.403	2591.75
429.625	2607.75
429.847	2645.75
430.069	2644.75
430.292	2733.75
430.514	2794.75
430.736	2754.75
430.958	2636.75
431.18	2594.75
431.402	2592.75
431.624	2557.75
431.846	2517.75
432.068	2537.75
432.29	2586.75
432.512	2531.75
432.734	2612.75
432.956	2549.75
433.178	2593.75
433.4	2554.75
433.622	2604.75
433.844	2598.75
434.066	2582.75
434.287	2648.75
434.509	2671.75
434.731	2621.75
434.953	2668.75
435.175	2654.75
435.397	2690.75
435.618	2614.75
435.84	2586.75
436.062	2590.75
436.284	2586.75
436.505	2567.75
436.727	2551.75
436.949	2602.75
437.17	2560.75
437.392	2550.75
437.614	2496.75
437.835	2458.75
438.057	2486.75
438.278	2486.75
438.5	2558.75
438.721	2553.75
438.943	2598.75
439.165	2693.75
439.386	2672.75
439.608	2649.75
439.829	2684.75
440.05	2784.75
440.272	2841.75
440.493	2728.75
440.715	2656.75
440.936	2667.75
441.158	2638.75
441.379	2683.75
441.6	2790.75
441.822	2886.75
442.043	3037.75
442.264	3122.75
442.486	2956.75
442.707	2828.75
442.928	2719.75
443.149	2716.75
443.371	2740.75
443.592	2738.75
443.813	2801.75
444.034	2795.75
444.255	2796.75
444.476	2844.75
444.698	2936.75
444.919	2974.75
445.14	2981.75
445.361	2867.75
445.582	2830.75
445.803	2774.75
446.024	2731.75
446.245	2759.75
446.466	2771.75
446.687	2731.75
446.908	2692.75
447.129	2668.75
447.35	2618.75
447.571	2624.75
447.792	2518.75
448.013	2560.75
448.234	2495.75
448.455	2570.75
448.675	2576.75
448.896	2678.75
449.117	2686.75
449.338	2993.75
449.559	3150.75
449.779	2790.75
450	2632.75
450.221	2528.75
450.442	2521.75
450.662	2532.75
450.883	2553.75
451.104	2506.75
451.324	2486.75
451.545	2482.75
451.766	2519.75
451.986	2586.75
452.207	2775.75
452.428	3570.75
452.648	5571.75
452.869	4579.75
453.089	3183.75
453.31	2939.75
453.53	2973.75
453.751	3000.75
453.971	3200.75
454.192	3100.75
454.412	2680.75
454.633	2531.75
454.853	2454.75
455.073	2412.75
455.294	2440.75
455.514	2386.75
455.734	2385.75
455.955	2336.75
456.175	2390.75
456.395	2391.75
456.616	2415.75
456.836	2427.75
457.056	2425.75
457.276	2459.75
457.497	2570.75
457.717	2527.75
457.937	2542.75
458.157	2486.75
458.377	2514.75
458.598	2550.75
458.818	2517.75
459.038	2566.75
459.258	2517.75
459.478	2610.75
459.698	2591.75
459.918	2614.75
460.138	2682.75
460.358	2750.75
460.578	2783.75
460.798	2791.75
461.018	2819.75
461.238	2842.75
461.458	2879.75
461.678	2862.75
461.898	2931.75
462.118	2939.75
462.338	2966.75
462.558	2996.75
462.777	3092.75
462.997	3167.75
463.217	3360.75
463.437	3463.75
463.657	3510.75
463.876	3513.75
464.096	3316.75
464.316	3162.75
464.536	3108.75
464.755	3037.75
464.975	2960.75
465.195	2855.75
465.414	2800.75
465.634	2633.75
465.854	2654.75
466.073	2663.75
466.293	2601.75
466.512	2602.75
466.732	2674.75
466.951	2717.75
467.171	3028.75
467.391	2922.75
467.61	2666.75
467.829	2585.75
468.049	2520.75
468.268	2531.75
468.488	2518.75
468.707	2514.75
468.927	2533.75
469.146	2551.75
469.365	2639.75
469.585	2577.75
469.804	2655.75
470.023	2711.75
470.243	2725.75
470.462	2836.75
470.681	2971.75
470.901	3299.75
471.12	3771.75
471.339	3818.75
471.558	3173.75
471.777	2867.75
471.997	2756.75
472.216	2689.75
472.435	2627.75
472.654	2561.75
472.873	2549.75
473.092	2574.75
473.311	2584.75
473.53	2552.75
473.749	2651.75
473.968	2786.75
474.187	2568.75
474.406	2518.75
474.625	2596.75
474.844	2576.75
475.063	2594.75
475.282	2567.75
475.501	2598.75
475.72	2636.75
475.939	2618.75
476.158	2681.75
476.377	2726.75
476.596	2700.75
476.814	2706.75
477.033	2696.75
477.252	2722.75
477.471	2768.75
477.69	2827.75
477.908	2841.75
478.127	2942.75
478.346	2924.75
478.564	2942.75
478.783	2936.75
479.002	3045.75
479.22	3055.75
479.439	3003.75
479.658	3061.75
479.876	3074.75
480.095	3101.75
480.313	3126.75
480.532	3190.75
480.751	3189.75
480.969	3116.75
481.188	3091.75
481.406	3061.75
481.624	3080.75
481.843	3120.75
482.061	3177.75
482.28	3114.75
482.498	3084.75
482.717	3058.75
482.935	3126.75
483.153	3187.75
483.372	3153.75
483.59	3210.75
483.808	3312.75
484.027	3320.75
484.245	3592.75
484.463	4016.75
484.681	4490.75
484.9	4106.75
485.118	3776.75
485.336	3751.75
485.554	3764.75
485.772	4062.75
485.99	4489.75
486.209	4790.75
486.427	4111.75
486.645	3660.75
486.863	3506.75
487.081	3370.75
487.299	3362.75
487.517	3320.75
487.735	3306.75
