Data from SnStandardFlinnAPT0064_QswitchEnergy10_LIBS07252019.E.O._I.C._HRD10591_15-25-48-972.txt Node
Date: Thu Jul 25 15:25:48 EDT 2019
User: cochatt
Spectrometer: HR+D1059
Trigger mode: 1
Integration Time (sec): 1.000000E-1
Scans to average: 1
Electric dark correction enabled: true
Nonlinearity correction enabled: false
Boxcar width: 0
XAxis mode: Wavelengths
Number of Pixels in Spectrum: 2048
>>>>>Begin Spectral Data<<<<<
223.165	-7.88
223.4	-7.88
223.635	-7.88
223.869	-14.88
224.104	-14.88
224.338	-2.88
224.573	-14.88
224.808	-0.88
225.042	-20.88
225.277	-0.88
225.511	-16.88
225.746	-8.88
225.98	0.12
226.215	-0.88
226.449	20.12
226.683	11.12
226.918	40.12
227.152	33.12
227.387	34.12
227.621	36.12
227.856	47.12
228.09	49.12
228.324	52.12
228.559	76.12
228.793	77.12
229.027	69.12
229.262	76.12
229.496	75.12
229.73	80.12
229.964	80.12
230.199	71.12
230.433	81.12
230.667	79.12
230.901	78.12
231.136	73.12
231.37	88.12
231.604	88.12
231.838	103.12
232.072	115.12
232.306	106.12
232.541	93.12
232.775	92.12
233.009	94.12
233.243	95.12
233.477	90.12
233.711	94.12
233.945	86.12
234.179	95.12
234.413	96.12
234.647	86.12
234.881	91.12
235.115	87.12
235.349	101.12
235.583	85.12
235.817	117.12
236.051	132.12
236.285	97.12
236.519	100.12
236.753	88.12
236.987	95.12
237.221	82.12
237.455	79.12
237.689	82.12
237.922	83.12
238.156	77.12
238.39	91.12
238.624	79.12
238.858	88.12
239.091	91.12
239.325	79.12
239.559	78.12
239.793	93.12
240.027	91.12
240.26	84.12
240.494	81.12
240.728	82.12
240.961	85.12
241.195	87.12
241.429	104.12
241.662	77.12
241.896	87.12
242.13	99.12
242.363	125.12
242.597	154.12
242.83	134.12
243.064	133.12
243.298	167.12
243.531	145.12
243.765	119.12
243.998	103.12
244.232	85.12
244.465	79.12
244.699	81.12
244.932	92.12
245.166	87.12
245.399	89.12
245.633	93.12
245.866	81.12
246.099	88.12
246.333	83.12
246.566	78.12
246.8	78.12
247.033	92.12
247.266	74.12
247.5	85.12
247.733	100.12
247.966	89.12
248.2	93.12
248.433	118.12
248.666	112.12
248.899	129.12
249.133	95.12
249.366	81.12
249.599	106.12
249.832	137.12
250.066	131.12
250.299	87.12
250.532	82.12
250.765	94.12
250.998	96.12
251.231	89.12
251.465	82.12
251.698	92.12
251.931	84.12
252.164	83.12
252.397	82.12
252.63	96.12
252.863	102.12
253.096	100.12
253.329	118.12
253.562	80.12
253.795	98.12
254.028	109.12
254.261	91.12
254.494	104.12
254.727	110.12
254.96	132.12
255.193	119.12
255.426	103.12
255.659	97.12
255.892	94.12
256.124	102.12
256.357	92.12
256.59	82.12
256.823	89.12
257.056	125.12
257.289	135.12
257.521	167.12
257.754	133.12
257.987	82.12
258.22	82.12
258.452	94.12
258.685	82.12
258.918	78.12
259.151	99.12
259.383	110.12
259.616	119.12
259.849	143.12
260.081	112.12
260.314	104.12
260.547	85.12
260.779	103.12
261.012	109.12
261.244	79.12
261.477	79.12
261.71	100.12
261.942	76.12
262.175	75.12
262.407	83.12
262.64	95.12
262.872	68.12
263.105	91.12
263.337	76.12
263.57	87.12
263.802	100.12
264.035	96.12
264.267	99.12
264.499	101.12
264.732	110.12
264.964	80.12
265.197	98.12
265.429	109.12
265.661	90.12
265.894	115.12
266.126	125.12
266.358	159.12
266.591	145.12
266.823	98.12
267.055	95.12
267.287	103.12
267.52	103.12
267.752	84.12
267.984	95.12
268.216	96.12
268.448	101.12
268.681	93.12
268.913	98.12
269.145	101.12
269.377	100.12
269.609	102.12
269.841	101.12
270.073	110.12
270.306	118.12
270.538	172.12
270.77	303.12
271.002	336.12
271.234	185.12
271.466	104.12
271.698	107.12
271.93	89.12
272.162	96.12
272.394	99.12
272.626	102.12
272.858	86.12
273.09	94.12
273.322	89.12
273.553	84.12
273.785	86.12
274.017	96.12
274.249	80.12
274.481	95.12
274.713	87.12
274.945	100.12
275.176	81.12
275.408	92.12
275.64	85.12
275.872	88.12
276.104	77.12
276.335	105.12
276.567	101.12
276.799	102.12
277.031	95.12
277.262	104.12
277.494	108.12
277.726	137.12
277.957	166.12
278.189	223.12
278.421	212.12
278.652	174.12
278.884	186.12
279.115	143.12
279.347	115.12
279.579	101.12
279.81	107.12
280.042	104.12
280.273	100.12
280.505	100.12
280.736	96.12
280.968	123.12
281.199	174.12
281.431	223.12
281.662	251.12
281.894	152.12
282.125	103.12
282.356	107.12
282.588	118.12
282.819	119.12
283.051	129.12
283.282	130.12
283.513	175.12
283.745	301.12
283.976	496.12
284.207	711.12
284.439	539.12
284.67	261.12
284.901	235.12
285.132	309.12
285.364	360.12
285.595	201.12
285.826	169.12
286.057	216.12
286.288	381.12
286.52	557.12
286.751	452.12
286.982	194.12
287.213	122.12
287.444	108.12
287.675	102.12
287.906	108.12
288.138	100.12
288.369	108.12
288.6	95.12
288.831	86.12
289.062	103.12
289.293	89.12
289.524	109.12
289.755	91.12
289.986	103.12
290.217	95.12
290.448	101.12
290.679	115.12
290.91	120.12
291.141	165.12
291.371	222.12
291.602	271.12
291.833	196.12
292.064	111.12
292.295	109.12
292.526	91.12
292.757	93.12
292.987	94.12
293.218	100.12
293.449	84.12
293.68	89.12
293.91	96.12
294.141	96.12
294.372	97.12
294.603	98.12
294.833	97.12
295.064	104.12
295.295	98.12
295.525	108.12
295.756	98.12
295.987	115.12
296.217	98.12
296.448	97.12
296.679	109.12
296.909	102.12
297.14	103.12
297.37	104.12
297.601	104.12
297.831	98.12
298.062	97.12
298.292	105.12
298.523	106.12
298.753	104.12
298.984	102.12
299.214	106.12
299.445	108.12
299.675	111.12
299.905	108.12
300.136	128.12
300.366	161.12
300.597	266.12
300.827	403.12
301.057	636.12
301.288	579.12
301.518	247.12
301.748	137.12
301.979	129.12
302.209	138.12
302.439	132.12
302.669	184.12
302.9	246.12
303.13	461.12
303.36	772.12
303.59	1080.12
303.82	775.12
304.051	285.12
304.281	155.12
304.511	131.12
304.741	119.12
304.971	107.12
305.201	102.12
305.431	122.12
305.661	115.12
305.891	103.12
306.121	111.12
306.352	117.12
306.582	104.12
306.812	108.12
307.042	117.12
307.272	104.12
307.502	103.12
307.731	115.12
307.961	107.12
308.191	99.12
308.421	112.12
308.651	94.12
308.881	110.12
309.111	113.12
309.341	103.12
309.571	99.12
309.8	98.12
310.03	106.12
310.26	115.12
310.49	111.12
310.72	90.12
310.949	99.12
311.179	98.12
311.409	108.12
311.639	119.12
311.868	121.12
312.098	108.12
312.328	111.12
312.557	113.12
312.787	105.12
313.017	112.12
313.246	124.12
313.476	114.12
313.706	124.12
313.935	141.12
314.165	168.12
314.394	197.12
314.624	168.12
314.853	109.12
315.083	115.12
315.312	112.12
315.542	141.12
315.771	134.12
316.001	153.12
316.23	142.12
316.46	143.12
316.689	179.12
316.919	226.12
317.148	465.12
317.377	844.12
317.607	1320.12
317.836	1242.12
318.065	468.12
318.295	213.12
318.524	143.12
318.753	126.12
318.983	130.12
319.212	112.12
319.441	131.12
319.67	107.12
319.9	106.12
320.129	116.12
320.358	123.12
320.587	123.12
320.816	122.12
321.046	108.12
321.275	126.12
321.504	139.12
321.733	141.12
321.962	154.12
322.191	138.12
322.42	118.12
322.649	120.12
322.878	118.12
323.108	128.12
323.337	118.12
323.566	112.12
323.795	141.12
324.024	124.12
324.253	133.12
324.482	156.12
324.71	226.12
324.939	251.12
325.168	228.12
325.397	171.12
325.626	249.12
325.855	453.12
326.084	849.12
326.313	1392.12
326.542	1401.12
326.77	555.12
326.999	237.12
327.228	205.12
327.457	202.12
327.686	191.12
327.914	149.12
328.143	133.12
328.372	133.12
328.6	117.12
328.829	124.12
329.058	119.12
329.287	109.12
329.515	125.12
329.744	140.12
329.972	127.12
330.201	109.12
330.43	123.12
330.658	110.12
330.887	116.12
331.115	113.12
331.344	127.12
331.572	127.12
331.801	125.12
332.03	129.12
332.258	130.12
332.486	147.12
332.715	282.12
332.943	470.12
333.172	697.12
333.4	611.12
333.629	237.12
333.857	154.12
334.085	123.12
334.314	113.12
334.542	123.12
334.771	129.12
334.999	116.12
335.227	125.12
335.455	132.12
335.684	124.12
335.912	118.12
336.14	102.12
336.369	117.12
336.597	121.12
336.825	111.12
337.053	124.12
337.281	119.12
337.51	121.12
337.738	117.12
337.966	109.12
338.194	122.12
338.422	118.12
338.65	119.12
338.878	118.12
339.106	120.12
339.334	118.12
339.562	116.12
339.79	121.12
340.018	115.12
340.246	121.12
340.474	84.12
340.702	105.12
340.93	112.12
341.158	111.12
341.386	104.12
341.614	119.12
341.842	117.12
342.07	104.12
342.298	109.12
342.526	110.12
342.754	103.12
342.981	111.12
343.209	108.12
343.437	111.12
343.665	106.12
343.893	107.12
344.12	124.12
344.348	121.12
344.576	120.12
344.804	111.12
345.031	108.12
345.259	111.12
345.487	108.12
345.714	119.12
345.942	107.12
346.17	106.12
346.397	118.12
346.625	116.12
346.853	121.12
347.08	106.12
347.308	124.12
347.535	94.12
347.763	112.12
347.99	113.12
348.218	119.12
348.445	117.12
348.673	117.12
348.9	123.12
349.128	118.12
349.355	116.12
349.583	119.12
349.81	110.12
350.037	122.12
350.265	111.12
350.492	125.12
350.72	118.12
350.947	110.12
351.174	117.12
351.402	115.12
351.629	107.12
351.856	110.12
352.083	117.12
352.311	96.12
352.538	89.12
352.765	109.12
352.992	121.12
353.22	104.12
353.447	110.12
353.674	127.12
353.901	102.12
354.128	121.12
354.355	96.12
354.583	117.12
354.81	105.12
355.037	111.12
355.264	103.12
355.491	112.12
355.718	110.12
355.945	103.12
356.172	110.12
356.399	119.12
356.626	112.12
356.853	95.12
357.08	120.12
357.307	113.12
357.534	96.12
357.761	99.12
357.988	112.12
358.215	100.12
358.441	100.12
358.668	93.12
358.895	106.12
359.122	96.12
359.349	120.12
359.576	112.12
359.802	106.12
360.029	103.12
360.256	127.12
360.483	111.12
360.709	122.12
360.936	128.12
361.163	105.12
361.39	107.12
361.616	115.12
361.843	115.12
362.07	102.12
362.296	126.12
362.523	125.12
362.749	113.12
362.976	104.12
363.203	120.12
363.429	100.12
363.656	110.12
363.882	107.12
364.109	119.12
364.335	120.12
364.562	84.12
364.788	102.12
365.015	125.12
365.241	134.12
365.468	193.12
365.694	228.12
365.92	197.12
366.147	116.12
366.373	98.12
366.599	94.12
366.826	104.12
367.052	110.12
367.278	89.12
367.505	108.12
367.731	103.12
367.957	106.12
368.184	115.12
368.41	116.12
368.636	117.12
368.862	103.12
369.089	104.12
369.315	97.12
369.541	111.12
369.767	104.12
369.993	100.12
370.219	101.12
370.445	95.12
370.672	120.12
370.898	103.12
371.124	105.12
371.35	106.12
371.576	115.12
371.802	109.12
372.028	107.12
372.254	121.12
372.48	128.12
372.706	111.12
372.932	107.12
373.158	112.12
373.384	115.12
373.61	112.12
373.835	124.12
374.061	99.12
374.287	119.12
374.513	103.12
374.739	123.12
374.965	98.12
375.191	125.12
375.416	104.12
375.642	109.12
375.868	116.12
376.094	111.12
376.319	105.12
376.545	121.12
376.771	107.12
376.997	112.12
377.222	104.12
377.448	110.12
377.674	111.12
377.899	118.12
378.125	108.12
378.35	102.12
378.576	119.12
378.802	125.12
379.027	121.12
379.253	131.12
379.478	165.12
379.704	289.12
379.929	689.12
380.155	1366.12
380.38	1407.12
380.606	481.12
380.831	184.12
381.057	140.12
381.282	111.12
381.507	114.12
381.733	115.12
381.958	105.12
382.184	105.12
382.409	108.12
382.634	103.12
382.86	108.12
383.085	113.12
383.31	112.12
383.535	108.12
383.761	109.12
383.986	103.12
384.211	106.12
384.436	112.12
384.662	116.12
384.887	109.12
385.112	105.12
385.337	108.12
385.562	94.12
385.787	109.12
386.013	111.12
386.238	108.12
386.463	103.12
386.688	108.12
386.913	111.12
387.138	98.12
387.363	103.12
387.588	111.12
387.813	113.12
388.038	101.12
388.263	98.12
388.488	105.12
388.713	100.12
388.938	106.12
389.163	103.12
389.387	98.12
389.612	105.12
389.837	107.12
390.062	118.12
390.287	99.12
390.512	97.12
390.736	112.12
390.961	105.12
391.186	108.12
391.411	106.12
391.636	99.12
391.86	103.12
392.085	96.12
392.31	107.12
392.534	107.12
392.759	100.12
392.984	109.12
393.208	118.12
393.433	115.12
393.658	133.12
393.882	102.12
394.107	88.12
394.331	94.12
394.556	99.12
394.78	110.12
395.005	112.12
395.229	105.12
395.454	105.12
395.678	97.12
395.903	104.12
396.127	105.12
396.352	102.12
396.576	102.12
396.801	107.12
397.025	118.12
397.249	116.12
397.474	108.12
397.698	103.12
397.922	101.12
398.147	97.12
398.371	104.12
398.595	88.12
398.82	99.12
399.044	104.12
399.268	96.12
399.492	90.12
399.717	94.12
399.941	86.12
400.165	92.12
400.389	96.12
400.613	98.12
400.837	107.12
401.062	108.12
401.286	101.12
401.51	96.12
401.734	99.12
401.958	94.12
402.182	99.12
402.406	116.12
402.63	107.12
402.854	87.12
403.078	108.12
403.302	98.12
403.526	96.12
403.75	88.12
403.974	91.12
404.198	97.12
404.422	118.12
404.645	121.12
404.869	105.12
405.093	94.12
405.317	110.12
405.541	104.12
405.765	134.12
405.988	139.12
406.212	127.12
406.436	104.12
406.66	104.12
406.883	105.12
407.107	106.12
407.331	93.12
407.555	97.12
407.778	100.12
408.002	95.12
408.226	97.12
408.449	103.12
408.673	121.12
408.896	109.12
409.12	103.12
409.344	98.12
409.567	115.12
409.791	104.12
410.014	92.12
410.238	101.12
410.461	113.12
410.685	101.12
410.908	108.12
411.132	95.12
411.355	95.12
411.578	87.12
411.802	99.12
412.025	96.12
412.249	99.12
412.472	103.12
412.695	108.12
412.919	90.12
413.142	98.12
413.365	99.12
413.589	83.12
413.812	97.12
414.035	111.12
414.258	107.12
414.482	97.12
414.705	101.12
414.928	110.12
415.151	94.12
415.374	113.12
415.597	101.12
415.821	100.12
416.044	107.12
416.267	103.12
416.49	89.12
416.713	99.12
416.936	99.12
417.159	85.12
417.382	99.12
417.605	97.12
417.828	120.12
418.051	91.12
418.274	115.12
418.497	104.12
418.72	115.12
418.943	101.12
419.166	107.12
419.389	109.12
419.611	107.12
419.834	110.12
420.057	107.12
420.28	109.12
420.503	104.12
420.726	103.12
420.948	97.12
421.171	95.12
421.394	102.12
421.617	91.12
421.839	96.12
422.062	94.12
422.285	101.12
422.507	88.12
422.73	120.12
422.953	126.12
423.175	116.12
423.398	108.12
423.621	104.12
423.843	111.12
424.066	101.12
424.288	98.12
424.511	108.12
424.733	123.12
424.956	88.12
425.178	87.12
425.401	96.12
425.623	91.12
425.846	92.12
426.068	108.12
426.291	111.12
426.513	100.12
426.735	112.12
426.958	96.12
427.18	87.12
427.402	97.12
427.625	87.12
427.847	98.12
428.069	100.12
428.292	91.12
428.514	96.12
428.736	103.12
428.958	88.12
429.181	93.12
429.403	103.12
429.625	96.12
429.847	88.12
430.069	108.12
430.292	108.12
430.514	94.12
430.736	112.12
430.958	106.12
431.18	100.12
431.402	100.12
431.624	81.12
431.846	99.12
432.068	93.12
432.29	96.12
432.512	106.12
432.734	93.12
432.956	94.12
433.178	107.12
433.4	94.12
433.622	99.12
433.844	102.12
434.066	85.12
434.287	92.12
434.509	95.12
434.731	93.12
434.953	104.12
435.175	78.12
435.397	90.12
435.618	100.12
435.84	89.12
436.062	99.12
436.284	87.12
436.505	92.12
436.727	89.12
436.949	95.12
437.17	88.12
437.392	96.12
437.614	87.12
437.835	96.12
438.057	99.12
438.278	106.12
438.5	100.12
438.721	100.12
438.943	115.12
439.165	105.12
439.386	115.12
439.608	100.12
439.829	95.12
440.05	125.12
440.272	128.12
440.493	112.12
440.715	100.12
440.936	112.12
441.158	95.12
441.379	89.12
441.6	94.12
441.822	109.12
442.043	118.12
442.264	120.12
442.486	127.12
442.707	105.12
442.928	115.12
443.149	87.12
443.371	96.12
443.592	88.12
443.813	99.12
444.034	96.12
444.255	99.12
444.476	108.12
444.698	112.12
444.919	100.12
445.14	209.12
445.361	146.12
445.582	102.12
445.803	95.12
446.024	93.12
446.245	105.12
446.466	107.12
446.687	110.12
446.908	97.12
447.129	96.12
447.35	93.12
447.571	107.12
447.792	100.12
448.013	107.12
448.234	121.12
448.455	93.12
448.675	93.12
448.896	94.12
449.117	105.12
449.338	141.12
449.559	156.12
449.779	123.12
450	112.12
450.221	119.12
450.442	112.12
450.662	127.12
450.883	110.12
451.104	107.12
451.324	134.12
451.545	107.12
451.766	109.12
451.986	125.12
452.207	198.12
452.428	491.12
452.648	1152.12
452.869	672.12
453.089	198.12
453.31	123.12
453.53	126.12
453.751	142.12
453.971	170.12
454.192	151.12
454.412	115.12
454.633	104.12
454.853	90.12
455.073	82.12
455.294	89.12
455.514	91.12
455.734	109.12
455.955	95.12
456.175	95.12
456.395	94.12
456.616	89.12
456.836	95.12
457.056	102.12
457.276	100.12
457.497	125.12
457.717	125.12
457.937	97.12
458.157	81.12
458.377	96.12
458.598	93.12
458.818	95.12
459.038	93.12
459.258	94.12
459.478	99.12
459.698	105.12
459.918	102.12
460.138	101.12
460.358	95.12
460.578	95.12
460.798	106.12
461.018	81.12
461.238	82.12
461.458	77.12
461.678	88.12
461.898	95.12
462.118	110.12
462.338	96.12
462.558	100.12
462.777	99.12
462.997	106.12
463.217	110.12
463.437	118.12
463.657	171.12
463.876	156.12
464.096	118.12
464.316	113.12
464.536	99.12
464.755	94.12
464.975	89.12
465.195	97.12
465.414	103.12
465.634	92.12
465.854	105.12
466.073	105.12
466.293	101.12
466.512	100.12
466.732	117.12
466.951	101.12
467.171	145.12
467.391	131.12
467.61	103.12
467.829	93.12
468.049	102.12
468.268	88.12
468.488	90.12
468.707	108.12
468.927	83.12
469.146	103.12
469.365	117.12
469.585	99.12
469.804	103.12
470.023	96.12
470.243	102.12
470.462	95.12
470.681	101.12
470.901	134.12
471.12	195.12
471.339	206.12
471.558	133.12
471.777	111.12
471.997	107.12
472.216	87.12
472.435	106.12
472.654	103.12
472.873	93.12
473.092	108.12
473.311	114.12
473.53	105.12
473.749	102.12
473.968	110.12
474.187	97.12
474.406	84.12
474.625	89.12
474.844	91.12
475.063	97.12
475.282	94.12
475.501	93.12
475.72	110.12
475.939	102.12
476.158	95.12
476.377	109.12
476.596	90.12
476.814	96.12
477.033	87.12
477.252	107.12
477.471	109.12
477.69	88.12
477.908	112.12
478.127	116.12
478.346	101.12
478.564	84.12
478.783	98.12
479.002	108.12
479.22	102.12
479.439	102.12
479.658	98.12
479.876	95.12
480.095	88.12
480.313	88.12
480.532	91.12
480.751	104.12
480.969	88.12
481.188	95.12
481.406	102.12
481.624	118.12
481.843	128.12
482.061	109.12
482.28	94.12
482.498	98.12
482.717	93.12
482.935	91.12
483.153	100.12
483.372	108.12
483.59	107.12
483.808	94.12
484.027	102.12
484.245	137.12
484.463	179.12
484.681	217.12
484.9	146.12
485.118	119.12
485.336	105.12
485.554	110.12
485.772	129.12
485.99	177.12
486.209	239.12
486.427	145.12
486.645	123.12
486.863	93.12
487.081	100.12
487.299	101.12
487.517	98.12
487.735	104.12
487.953	94.12
488.171	96.12
488.389	108.12
488.607	101.12
488.825	110.12
489.043	97.12
489.261	112.12
489.479	97.12
489.696	99.12
489.914	113.12
490.132	100.12
490.35	105.12
490.568	105.12
490.786	99.12
491.003	103.12
491.221	122.12
491.439	105.12
491.657	97.12
491.874	106.12
492.092	111.12
492.31	104.12
492.527	108.12
492.745	86.12
492.963	122.12
493.18	113.12
493.398	104.12
493.615	119.12
493.833	103.12
494.05	107.12
494.268	103.12
494.485	107.12
494.703	91.12
494.92	100.12
495.138	109.12
495.355	118.12
495.573	123.12
495.79	114.12
496.008	115.12
496.225	128.12
496.442	99.12
496.66	121.12
496.877	148.12
497.094	155.12
497.312	116.12
497.529	98.12
497.746	104.12
497.963	117.12
498.181	120.12
498.398	104.12
498.615	105.12
498.832	108.12
499.049	110.12
499.267	142.12
499.484	174.12
499.701	120.12
499.918	103.12
500.135	97.12
500.352	109.12
500.569	105.12
500.786	108.12
501.003	109.12
501.22	104.12
501.437	96.12
501.654	102.12
501.871	107.12
502.088	104.12
502.305	112.12
502.522	94.12
502.739	96.12
502.956	108.12
503.172	97.12
503.389	108.12
503.606	96.12
503.823	105.12
504.04	86.12
504.256	106.12
504.473	95.12
504.69	102.12
504.907	102.12
505.123	104.12
505.34	95.12
505.557	95.12
505.773	120.12
505.99	103.12
506.207	95.12
506.423	116.12
506.64	109.12
506.856	110.12
507.073	108.12
507.289	94.12
