Data from SnStandardFlinnAPT0064_LampEnergy5.5_LIBS07252019.E.O._I.C._HRD10591_15-15-05-491.txt Node
Date: Thu Jul 25 15:15:05 EDT 2019
User: cochatt
Spectrometer: HR+D1059
Trigger mode: 1
Integration Time (sec): 1.000000E-1
Scans to average: 1
Electric dark correction enabled: true
Nonlinearity correction enabled: false
Boxcar width: 0
XAxis mode: Wavelengths
Number of Pixels in Spectrum: 2048
>>>>>Begin Spectral Data<<<<<
223.165	-16.31
223.4	-16.31
223.635	-16.31
223.869	-19.31
224.104	-25.31
224.338	-4.31
224.573	-11.31
224.808	-15.31
225.042	-8.31
225.277	2.69
225.511	-1.31
225.746	5.69
225.98	-1.31
226.215	2.69
226.449	13.69
226.683	27.69
226.918	26.69
227.152	23.69
227.387	41.69
227.621	43.69
227.856	44.69
228.09	44.69
228.324	50.69
228.559	64.69
228.793	76.69
229.027	130.69
229.262	150.69
229.496	133.69
229.73	135.69
229.964	158.69
230.199	146.69
230.433	156.69
230.667	147.69
230.901	154.69
231.136	183.69
231.37	165.69
231.604	187.69
231.838	190.69
232.072	217.69
232.306	220.69
232.541	204.69
232.775	175.69
233.009	171.69
233.243	189.69
233.477	190.69
233.711	216.69
233.945	242.69
234.179	220.69
234.413	188.69
234.647	199.69
234.881	203.69
235.115	210.69
235.349	244.69
235.583	286.69
235.817	361.69
236.051	359.69
236.285	246.69
236.519	211.69
236.753	216.69
236.987	215.69
237.221	244.69
237.455	219.69
237.689	213.69
237.922	210.69
238.156	217.69
238.39	223.69
238.624	226.69
238.858	220.69
239.091	231.69
239.325	204.69
239.559	223.69
239.793	222.69
240.027	238.69
240.26	229.69
240.494	263.69
240.728	254.69
240.961	240.69
241.195	269.69
241.429	268.69
241.662	270.69
241.896	292.69
242.13	338.69
242.363	425.69
242.597	537.69
242.83	536.69
243.064	543.69
243.298	617.69
243.531	520.69
243.765	348.69
243.998	312.69
244.232	297.69
244.465	295.69
244.699	277.69
244.932	287.69
245.166	263.69
245.399	278.69
245.633	289.69
245.866	274.69
246.099	276.69
246.333	290.69
246.566	278.69
246.8	277.69
247.033	273.69
247.266	271.69
247.5	269.69
247.733	299.69
247.966	303.69
248.2	322.69
248.433	346.69
248.666	378.69
248.899	370.69
249.133	349.69
249.366	341.69
249.599	356.69
249.832	371.69
250.066	400.69
250.299	333.69
250.532	346.69
250.765	312.69
250.998	311.69
251.231	318.69
251.465	326.69
251.698	317.69
251.931	297.69
252.164	302.69
252.397	330.69
252.63	324.69
252.863	322.69
253.096	318.69
253.329	319.69
253.562	318.69
253.795	321.69
254.028	330.69
254.261	351.69
254.494	338.69
254.727	419.69
254.96	458.69
255.193	440.69
255.426	375.69
255.659	353.69
255.892	349.69
256.124	373.69
256.357	341.69
256.59	349.69
256.823	367.69
257.056	392.69
257.289	474.69
257.521	504.69
257.754	436.69
257.987	380.69
258.22	368.69
258.452	364.69
258.685	376.69
258.918	402.69
259.151	394.69
259.383	427.69
259.616	439.69
259.849	455.69
260.081	424.69
260.314	424.69
260.547	397.69
260.779	404.69
261.012	411.69
261.244	380.69
261.477	408.69
261.71	420.69
261.942	402.69
262.175	419.69
262.407	438.69
262.64	451.69
262.872	427.69
263.105	470.69
263.337	494.69
263.57	518.69
263.802	515.69
264.035	516.69
264.267	556.69
264.499	550.69
264.732	587.69
264.964	594.69
265.197	583.69
265.429	587.69
265.661	606.69
265.894	627.69
266.126	686.69
266.358	735.69
266.591	725.69
266.823	628.69
267.055	582.69
267.287	584.69
267.52	560.69
267.752	518.69
267.984	519.69
268.216	519.69
268.448	523.69
268.681	505.69
268.913	498.69
269.145	499.69
269.377	506.69
269.609	495.69
269.841	511.69
270.073	523.69
270.306	603.69
270.538	784.69
270.77	1078.69
271.002	1298.69
271.234	934.69
271.466	689.69
271.698	570.69
271.93	552.69
272.162	547.69
272.394	538.69
272.626	494.69
272.858	516.69
273.09	506.69
273.322	511.69
273.553	475.69
273.785	499.69
274.017	501.69
274.249	483.69
274.481	489.69
274.713	498.69
274.945	481.69
275.176	500.69
275.408	505.69
275.64	493.69
275.872	495.69
276.104	516.69
276.335	479.69
276.567	501.69
276.799	512.69
277.031	532.69
277.262	532.69
277.494	531.69
277.726	575.69
277.957	653.69
278.189	680.69
278.421	631.69
278.652	604.69
278.884	579.69
279.115	574.69
279.347	567.69
279.579	538.69
279.81	558.69
280.042	533.69
280.273	552.69
280.505	584.69
280.736	566.69
280.968	595.69
281.199	641.69
281.431	691.69
281.662	700.69
281.894	635.69
282.125	617.69
282.356	632.69
282.588	626.69
282.819	646.69
283.051	677.69
283.282	739.69
283.513	900.69
283.745	1219.69
283.976	1828.69
284.207	2572.69
284.439	2309.69
284.67	1484.69
284.901	1182.69
285.132	1176.69
285.364	1100.69
285.595	924.69
285.826	837.69
286.057	968.69
286.288	1280.69
286.52	1643.69
286.751	1554.69
286.982	1006.69
287.213	827.69
287.444	756.69
287.675	712.69
287.906	693.69
288.138	680.69
288.369	680.69
288.6	647.69
288.831	658.69
289.062	643.69
289.293	656.69
289.524	650.69
289.755	673.69
289.986	681.69
290.217	662.69
290.448	645.69
290.679	676.69
290.91	684.69
291.141	674.69
291.371	713.69
291.602	690.69
291.833	674.69
292.064	671.69
292.295	661.69
292.526	635.69
292.757	615.69
292.987	642.69
293.218	635.69
293.449	631.69
293.68	619.69
293.91	624.69
294.141	618.69
294.372	617.69
294.603	597.69
294.833	618.69
295.064	624.69
295.295	588.69
295.525	624.69
295.756	633.69
295.987	614.69
296.217	628.69
296.448	639.69
296.679	622.69
296.909	620.69
297.14	617.69
297.37	650.69
297.601	642.69
297.831	660.69
298.062	646.69
298.292	654.69
298.523	649.69
298.753	681.69
298.984	652.69
299.214	640.69
299.445	678.69
299.675	694.69
299.905	705.69
300.136	711.69
300.366	801.69
300.597	945.69
300.827	1236.69
301.057	1615.69
301.288	1623.69
301.518	1109.69
301.748	898.69
301.979	843.69
302.209	827.69
302.439	860.69
302.669	881.69
302.9	998.69
303.13	1302.69
303.36	1858.69
303.59	2422.69
303.82	2174.69
304.051	1362.69
304.281	1043.69
304.511	914.69
304.741	857.69
304.971	828.69
305.201	784.69
305.431	758.69
305.661	744.69
305.891	736.69
306.121	713.69
306.352	726.69
306.582	706.69
306.812	717.69
307.042	705.69
307.272	694.69
307.502	697.69
307.731	704.69
307.961	717.69
308.191	720.69
308.421	702.69
308.651	706.69
308.881	732.69
309.111	714.69
309.341	713.69
309.571	731.69
309.8	730.69
310.03	734.69
310.26	722.69
310.49	720.69
310.72	745.69
310.949	736.69
311.179	739.69
311.409	730.69
311.639	757.69
311.868	744.69
312.098	754.69
312.328	761.69
312.557	776.69
312.787	774.69
313.017	776.69
313.246	769.69
313.476	783.69
313.706	774.69
313.935	850.69
314.165	869.69
314.394	885.69
314.624	879.69
314.853	835.69
315.083	827.69
315.312	817.69
315.542	824.69
315.771	826.69
316.001	850.69
316.23	889.69
316.46	891.69
316.689	975.69
316.919	1130.69
317.148	1520.69
317.377	2282.69
317.607	3261.69
317.836	3346.69
318.065	2062.69
318.295	1411.69
318.524	1145.69
318.753	1043.69
318.983	972.69
319.212	940.69
319.441	926.69
319.67	909.69
319.9	911.69
320.129	912.69
320.358	930.69
320.587	896.69
320.816	907.69
321.046	900.69
321.275	899.69
321.504	898.69
321.733	911.69
321.962	936.69
322.191	959.69
322.42	961.69
322.649	937.69
322.878	927.69
323.108	933.69
323.337	937.69
323.566	948.69
323.795	982.69
324.024	973.69
324.253	998.69
324.482	1055.69
324.71	1066.69
324.939	1134.69
325.168	1138.69
325.397	1174.69
325.626	1368.69
325.855	1860.69
326.084	2730.69
326.313	3977.69
326.542	4244.69
326.77	2818.69
326.999	1924.69
327.228	1696.69
327.457	1628.69
327.686	1664.69
327.914	1740.69
328.143	1974.69
328.372	2259.69
328.6	2418.69
328.829	2258.69
329.058	2034.69
329.287	1840.69
329.515	1680.69
329.744	1556.69
329.972	1454.69
330.201	1444.69
330.43	1388.69
330.658	1374.69
330.887	1329.69
331.115	1287.69
331.344	1286.69
331.572	1248.69
331.801	1312.69
332.03	1315.69
332.258	1330.69
332.486	1385.69
332.715	1491.69
332.943	1779.69
333.172	2109.69
333.4	2100.69
333.629	1710.69
333.857	1600.69
334.085	1630.69
334.314	1711.69
334.542	1806.69
334.771	2091.69
334.999	2457.69
335.227	2938.69
335.455	3300.69
335.684	3042.69
335.912	2639.69
336.14	2323.69
336.369	2059.69
336.597	1957.69
336.825	1797.69
337.053	1644.69
337.281	1563.69
337.51	1510.69
337.738	1411.69
337.966	1383.69
338.194	1350.69
338.422	1296.69
338.65	1283.69
338.878	1256.69
339.106	1254.69
339.334	1238.69
339.562	1185.69
339.79	1175.69
340.018	1182.69
340.246	1179.69
340.474	1166.69
340.702	1160.69
340.93	1195.69
341.158	1176.69
341.386	1135.69
341.614	1129.69
341.842	1117.69
342.07	1119.69
342.298	1080.69
342.526	1075.69
342.754	1090.69
342.981	1030.69
343.209	1066.69
343.437	1080.69
343.665	1110.69
343.893	1094.69
344.12	1098.69
344.348	1072.69
344.576	1057.69
344.804	1046.69
345.031	1043.69
345.259	1044.69
345.487	1013.69
345.714	1017.69
345.942	990.69
346.17	1015.69
346.397	977.69
346.625	976.69
346.853	985.69
347.08	956.69
347.308	966.69
347.535	969.69
347.763	942.69
347.99	958.69
348.218	951.69
348.445	940.69
348.673	982.69
348.9	958.69
349.128	960.69
349.355	970.69
349.583	942.69
349.81	961.69
350.037	958.69
350.265	971.69
350.492	952.69
350.72	946.69
350.947	961.69
351.174	938.69
351.402	953.69
351.629	952.69
351.856	934.69
352.083	926.69
352.311	926.69
352.538	944.69
352.765	934.69
352.992	966.69
353.22	930.69
353.447	958.69
353.674	946.69
353.901	939.69
354.128	932.69
354.355	934.69
354.583	918.69
354.81	934.69
355.037	975.69
355.264	969.69
355.491	954.69
355.718	954.69
355.945	954.69
356.172	970.69
356.399	965.69
356.626	975.69
356.853	990.69
357.08	987.69
357.307	980.69
357.534	989.69
357.761	974.69
357.988	1020.69
358.215	1013.69
358.441	991.69
358.668	985.69
358.895	984.69
359.122	1012.69
359.349	999.69
359.576	978.69
359.802	1001.69
360.029	1014.69
360.256	980.69
360.483	996.69
360.709	991.69
360.936	1018.69
361.163	1022.69
361.39	1028.69
361.616	1003.69
361.843	999.69
362.07	1000.69
362.296	995.69
362.523	986.69
362.749	1018.69
362.976	991.69
363.203	994.69
363.429	960.69
363.656	1002.69
363.882	996.69
364.109	987.69
364.335	963.69
364.562	990.69
364.788	1013.69
365.015	999.69
365.241	1018.69
365.468	1036.69
365.694	1074.69
365.92	1047.69
366.147	1008.69
366.373	1026.69
366.599	1033.69
366.826	1019.69
367.052	1006.69
367.278	1013.69
367.505	1006.69
367.731	1060.69
367.957	1026.69
368.184	1031.69
368.41	1073.69
368.636	1034.69
368.862	1018.69
369.089	1074.69
369.315	1028.69
369.541	1046.69
369.767	1044.69
369.993	1023.69
370.219	1011.69
370.445	1047.69
370.672	1034.69
370.898	1028.69
371.124	1035.69
371.35	1070.69
371.576	1089.69
371.802	1092.69
372.028	1092.69
372.254	1091.69
372.48	1086.69
372.706	1083.69
372.932	1098.69
373.158	1103.69
373.384	1086.69
373.61	1095.69
373.835	1092.69
374.061	1112.69
374.287	1127.69
374.513	1084.69
374.739	1141.69
374.965	1131.69
375.191	1112.69
375.416	1165.69
375.642	1125.69
375.868	1150.69
376.094	1097.69
376.319	1072.69
376.545	1115.69
376.771	1098.69
376.997	1092.69
377.222	1102.69
377.448	1080.69
377.674	1071.69
377.899	1088.69
378.125	1095.69
378.35	1081.69
378.576	1091.69
378.802	1064.69
379.027	1131.69
379.253	1123.69
379.478	1143.69
379.704	1330.69
379.929	1686.69
380.155	2404.69
380.38	2586.69
380.606	1727.69
380.831	1336.69
381.057	1186.69
381.282	1155.69
381.507	1103.69
381.733	1085.69
381.958	1086.69
382.184	1075.69
382.409	1077.69
382.634	1086.69
382.86	1075.69
383.085	1046.69
383.31	1056.69
383.535	1091.69
383.761	1080.69
383.986	1071.69
384.211	1057.69
384.436	1115.69
384.662	1102.69
384.887	1096.69
385.112	1097.69
385.337	1094.69
385.562	1106.69
385.787	1092.69
386.013	1109.69
386.238	1111.69
386.463	1118.69
386.688	1117.69
386.913	1088.69
387.138	1105.69
387.363	1120.69
387.588	1099.69
387.813	1079.69
388.038	1083.69
388.263	1084.69
388.488	1096.69
388.713	1065.69
388.938	1100.69
389.163	1069.69
389.387	1086.69
389.612	1090.69
389.837	1097.69
390.062	1105.69
390.287	1102.69
390.512	1127.69
390.736	1114.69
390.961	1156.69
391.186	1129.69
391.411	1159.69
391.636	1164.69
391.86	1140.69
392.085	1171.69
392.31	1152.69
392.534	1154.69
392.759	1168.69
392.984	1109.69
393.208	1110.69
393.433	1127.69
393.658	1109.69
393.882	1123.69
394.107	1113.69
394.331	1138.69
394.556	1111.69
394.78	1125.69
395.005	1142.69
395.229	1120.69
395.454	1129.69
395.678	1158.69
395.903	1131.69
396.127	1166.69
396.352	1129.69
396.576	1121.69
396.801	1131.69
397.025	1167.69
397.249	1180.69
397.474	1170.69
397.698	1186.69
397.922	1179.69
398.147	1175.69
398.371	1215.69
398.595	1239.69
398.82	1238.69
399.044	1257.69
399.268	1311.69
399.492	1404.69
399.717	1458.69
399.941	1484.69
400.165	1452.69
400.389	1337.69
400.613	1288.69
400.837	1289.69
401.062	1282.69
401.286	1268.69
401.51	1232.69
401.734	1222.69
401.958	1208.69
402.182	1237.69
402.406	1203.69
402.63	1240.69
402.854	1261.69
403.078	1264.69
403.302	1289.69
403.526	1307.69
403.75	1274.69
403.974	1298.69
404.198	1288.69
404.422	1283.69
404.645	1277.69
404.869	1277.69
405.093	1282.69
405.317	1277.69
405.541	1284.69
405.765	1314.69
405.988	1266.69
406.212	1324.69
406.436	1276.69
406.66	1321.69
406.883	1316.69
407.107	1375.69
407.331	1352.69
407.555	1405.69
407.778	1366.69
408.002	1358.69
408.226	1340.69
408.449	1354.69
408.673	1306.69
408.896	1280.69
409.12	1284.69
409.344	1290.69
409.567	1294.69
409.791	1271.69
410.014	1284.69
410.238	1248.69
410.461	1258.69
410.685	1287.69
410.908	1259.69
411.132	1268.69
411.355	1225.69
411.578	1239.69
411.802	1216.69
412.025	1236.69
412.249	1267.69
412.472	1238.69
412.695	1209.69
412.919	1208.69
413.142	1197.69
413.365	1200.69
413.589	1215.69
413.812	1183.69
414.035	1234.69
414.258	1224.69
414.482	1216.69
414.705	1216.69
414.928	1193.69
415.151	1196.69
415.374	1165.69
415.597	1206.69
415.821	1175.69
416.044	1128.69
416.267	1157.69
416.49	1165.69
416.713	1146.69
416.936	1172.69
417.159	1154.69
417.382	1168.69
417.605	1115.69
417.828	1161.69
418.051	1186.69
418.274	1178.69
418.497	1202.69
418.72	1191.69
418.943	1189.69
419.166	1244.69
419.389	1287.69
419.611	1248.69
419.834	1221.69
420.057	1213.69
420.28	1169.69
420.503	1181.69
420.726	1194.69
420.948	1178.69
421.171	1160.69
421.394	1188.69
421.617	1149.69
421.839	1183.69
422.062	1153.69
422.285	1158.69
422.507	1131.69
422.73	1164.69
422.953	1212.69
423.175	1211.69
423.398	1190.69
423.621	1178.69
423.843	1194.69
424.066	1154.69
424.288	1176.69
424.511	1164.69
424.733	1154.69
424.956	1156.69
425.178	1146.69
425.401	1182.69
425.623	1184.69
425.846	1103.69
426.068	1132.69
426.291	1136.69
426.513	1138.69
426.735	1119.69
426.958	1113.69
427.18	1078.69
427.402	1106.69
427.625	1092.69
427.847	1091.69
428.069	1092.69
428.292	1119.69
428.514	1067.69
428.736	1096.69
428.958	1081.69
429.181	1076.69
429.403	1037.69
429.625	1072.69
429.847	1110.69
430.069	1098.69
430.292	1104.69
430.514	1158.69
430.736	1126.69
430.958	1090.69
431.18	1081.69
431.402	1058.69
431.624	1055.69
431.846	1054.69
432.068	1055.69
432.29	1066.69
432.512	1022.69
432.734	1080.69
432.956	1074.69
433.178	1093.69
433.4	1059.69
433.622	1059.69
433.844	1111.69
434.066	1064.69
434.287	1068.69
434.509	1086.69
434.731	1089.69
434.953	1094.69
435.175	1119.69
435.397	1126.69
435.618	1062.69
435.84	1087.69
436.062	1061.69
436.284	1090.69
436.505	1064.69
436.727	1093.69
436.949	1076.69
437.17	1035.69
437.392	1072.69
437.614	1056.69
437.835	1004.69
438.057	1046.69
438.278	1018.69
438.5	1021.69
438.721	1096.69
438.943	1080.69
439.165	1108.69
439.386	1122.69
439.608	1089.69
439.829	1135.69
440.05	1121.69
440.272	1142.69
440.493	1127.69
440.715	1104.69
440.936	1123.69
441.158	1143.69
441.379	1154.69
441.6	1182.69
441.822	1188.69
442.043	1249.69
442.264	1253.69
442.486	1170.69
442.707	1163.69
442.928	1166.69
443.149	1156.69
443.371	1186.69
443.592	1142.69
443.813	1123.69
444.034	1155.69
444.255	1180.69
444.476	1217.69
444.698	1231.69
444.919	1267.69
445.14	1324.69
445.361	1224.69
445.582	1195.69
445.803	1174.69
446.024	1128.69
446.245	1140.69
446.466	1164.69
446.687	1155.69
446.908	1128.69
447.129	1105.69
447.35	1088.69
447.571	1103.69
447.792	1084.69
448.013	1064.69
448.234	1074.69
448.455	1084.69
448.675	1041.69
448.896	1083.69
449.117	1103.69
449.338	1159.69
449.559	1194.69
449.779	1120.69
450	1056.69
450.221	1040.69
450.442	1041.69
450.662	1041.69
450.883	1009.69
451.104	1012.69
451.324	994.69
451.545	1034.69
451.766	1038.69
451.986	1033.69
452.207	1086.69
452.428	1250.69
452.648	1695.69
452.869	1429.69
453.089	1144.69
453.31	1117.69
453.53	1121.69
453.751	1132.69
453.971	1173.69
454.192	1157.69
454.412	1031.69
454.633	999.69
454.853	1001.69
455.073	1035.69
455.294	996.69
455.514	973.69
455.734	1022.69
455.955	962.69
456.175	980.69
456.395	975.69
456.616	975.69
456.836	973.69
457.056	1006.69
457.276	992.69
457.497	1024.69
457.717	1050.69
457.937	1036.69
458.157	1036.69
458.377	1038.69
458.598	1057.69
458.818	1052.69
459.038	1047.69
459.258	1056.69
459.478	1022.69
459.698	1079.69
459.918	1092.69
460.138	1108.69
460.358	1141.69
460.578	1146.69
460.798	1150.69
461.018	1166.69
461.238	1160.69
461.458	1159.69
461.678	1190.69
461.898	1216.69
462.118	1182.69
462.338	1225.69
462.558	1243.69
462.777	1238.69
462.997	1289.69
463.217	1328.69
463.437	1356.69
463.657	1366.69
463.876	1357.69
464.096	1305.69
464.316	1283.69
464.536	1242.69
464.755	1251.69
464.975	1220.69
465.195	1164.69
465.414	1160.69
465.634	1100.69
465.854	1110.69
466.073	1104.69
466.293	1096.69
466.512	1108.69
466.732	1061.69
466.951	1139.69
467.171	1143.69
467.391	1188.69
467.61	1078.69
467.829	1087.69
468.049	1055.69
468.268	1032.69
468.488	1043.69
468.707	1036.69
468.927	1088.69
469.146	1054.69
469.365	1070.69
469.585	1046.69
469.804	1065.69
470.023	1093.69
470.243	1117.69
470.462	1131.69
470.681	1202.69
470.901	1269.69
471.12	1412.69
471.339	1426.69
471.558	1229.69
471.777	1154.69
471.997	1114.69
472.216	1075.69
472.435	1034.69
472.654	1042.69
472.873	1054.69
473.092	1079.69
473.311	1066.69
473.53	1044.69
473.749	1094.69
473.968	1087.69
474.187	1078.69
474.406	1047.69
474.625	1074.69
474.844	1072.69
475.063	1060.69
475.282	1058.69
475.501	1051.69
475.72	1095.69
475.939	1050.69
476.158	1102.69
476.377	1122.69
476.596	1123.69
476.814	1123.69
477.033	1110.69
477.252	1121.69
477.471	1168.69
477.69	1155.69
477.908	1188.69
478.127	1216.69
478.346	1180.69
478.564	1255.69
478.783	1236.69
479.002	1254.69
479.22	1290.69
479.439	1244.69
479.658	1253.69
479.876	1223.69
480.095	1251.69
480.313	1283.69
480.532	1311.69
480.751	1302.69
480.969	1234.69
481.188	1229.69
481.406	1218.69
481.624	1232.69
481.843	1254.69
482.061	1259.69
482.28	1250.69
482.498	1279.69
482.717	1253.69
482.935	1251.69
483.153	1280.69
483.372	1334.69
483.59	1327.69
483.808	1351.69
484.027	1355.69
484.245	1378.69
484.463	1511.69
484.681	1618.69
484.9	1515.69
485.118	1422.69
485.336	1420.69
485.554	1451.69
485.772	1497.69
485.99	1651.69
486.209	1808.69
486.427	1573.69
486.645	1414.69
486.863	1391.69
487.081	1371.69
487.299	1342.69
487.517	1384.69
487.735	1374.69
487.953	1364.69
488.171	1381.69
488.389	1366.69
488.607	1359.69
488.825	1317.69
489.043	1313.69
489.261	1283.69
489.479	1302.69
489.696	1305.69
489.914	1305.69
490.132	1276.69
490.35	1326.69
490.568	1360.69
490.786	1355.69
491.003	1362.69
491.221	1390.69
491.439	1420.69
491.657	1439.69
491.874	1416.69
492.092	1417.69
492.31	1476.69
