Data from SnStandardFlinnAPT0064_LampEnergy10_LIBS07252019.E.O._I.C._HRD10591_15-19-32-493.txt Node
Date: Thu Jul 25 15:19:32 EDT 2019
User: cochatt
Spectrometer: HR+D1059
Trigger mode: 1
Integration Time (sec): 1.000000E-1
Scans to average: 1
Electric dark correction enabled: true
Nonlinearity correction enabled: false
Boxcar width: 0
XAxis mode: Wavelengths
Number of Pixels in Spectrum: 2048
>>>>>Begin Spectral Data<<<<<
223.165	-15.31
223.4	-15.31
223.635	-15.31
223.869	-2.31
224.104	-28.31
224.338	-23.31
224.573	-17.31
224.808	-10.31
225.042	-12.31
225.277	2.69
225.511	6.69
225.746	1.69
225.98	1.69
226.215	4.69
226.449	17.69
226.683	8.69
226.918	22.69
227.152	42.69
227.387	34.69
227.621	40.69
227.856	40.69
228.09	32.69
228.324	40.69
228.559	60.69
228.793	124.69
229.027	324.69
229.262	339.69
229.496	308.69
229.73	280.69
229.964	333.69
230.199	298.69
230.433	318.69
230.667	331.69
230.901	345.69
231.136	310.69
231.37	361.69
231.604	397.69
231.838	441.69
232.072	547.69
232.306	590.69
232.541	490.69
232.775	453.69
233.009	440.69
233.243	439.69
233.477	459.69
233.711	556.69
233.945	612.69
234.179	537.69
234.413	479.69
234.647	455.69
234.881	501.69
235.115	554.69
235.349	649.69
235.583	838.69
235.817	1036.69
236.051	1032.69
236.285	688.69
236.519	568.69
236.753	547.69
236.987	541.69
237.221	538.69
237.455	542.69
237.689	492.69
237.922	472.69
238.156	472.69
238.39	506.69
238.624	523.69
238.858	505.69
239.091	504.69
239.325	510.69
239.559	521.69
239.793	531.69
240.027	549.69
240.26	557.69
240.494	589.69
240.728	597.69
240.961	624.69
241.195	702.69
241.429	718.69
241.662	760.69
241.896	838.69
242.13	1034.69
242.363	1314.69
242.597	1710.69
242.83	1674.69
243.064	1639.69
243.298	1943.69
243.531	1550.69
243.765	1003.69
243.998	806.69
244.232	748.69
244.465	678.69
244.699	654.69
244.932	671.69
245.166	694.69
245.399	698.69
245.633	710.69
245.866	718.69
246.099	683.69
246.333	642.69
246.566	662.69
246.8	645.69
247.033	660.69
247.266	639.69
247.5	680.69
247.733	708.69
247.966	719.69
248.2	780.69
248.433	904.69
248.666	1061.69
248.899	989.69
249.133	847.69
249.366	891.69
249.599	1001.69
249.832	1121.69
250.066	1111.69
250.299	887.69
250.532	817.69
250.765	777.69
250.998	788.69
251.231	770.69
251.465	740.69
251.698	727.69
251.931	753.69
252.164	776.69
252.397	787.69
252.63	807.69
252.863	814.69
253.096	810.69
253.329	802.69
253.562	797.69
253.795	774.69
254.028	816.69
254.261	838.69
254.494	898.69
254.727	1036.69
254.96	1317.69
255.193	1298.69
255.426	1030.69
255.659	902.69
255.892	878.69
256.124	900.69
256.357	909.69
256.59	926.69
256.823	1036.69
257.056	1160.69
257.289	1397.69
257.521	1594.69
257.754	1248.69
257.987	1000.69
258.22	931.69
258.452	953.69
258.685	968.69
258.918	940.69
259.151	1054.69
259.383	1113.69
259.616	1280.69
259.849	1319.69
260.081	1128.69
260.314	984.69
260.547	949.69
260.779	955.69
261.012	961.69
261.244	965.69
261.477	976.69
261.71	959.69
261.942	1008.69
262.175	1018.69
262.407	1045.69
262.64	1040.69
262.872	1104.69
263.105	1149.69
263.337	1158.69
263.57	1245.69
263.802	1284.69
264.035	1267.69
264.267	1326.69
264.499	1380.69
264.732	1376.69
264.964	1423.69
265.197	1398.69
265.429	1396.69
265.661	1426.69
265.894	1562.69
266.126	1732.69
266.358	1920.69
266.591	1954.69
266.823	1602.69
267.055	1451.69
267.287	1352.69
267.52	1307.69
267.752	1278.69
267.984	1247.69
268.216	1237.69
268.448	1227.69
268.681	1248.69
268.913	1241.69
269.145	1249.69
269.377	1253.69
269.609	1249.69
269.841	1313.69
270.073	1368.69
270.306	1658.69
270.538	2236.69
270.77	3370.69
271.002	4089.69
271.234	2956.69
271.466	1992.69
271.698	1592.69
271.93	1460.69
272.162	1391.69
272.394	1317.69
272.626	1296.69
272.858	1273.69
273.09	1238.69
273.322	1242.69
273.553	1209.69
273.785	1222.69
274.017	1210.69
274.249	1207.69
274.481	1217.69
274.713	1186.69
274.945	1233.69
275.176	1246.69
275.408	1220.69
275.64	1223.69
275.872	1226.69
276.104	1265.69
276.335	1284.69
276.567	1293.69
276.799	1296.69
277.031	1300.69
277.262	1353.69
277.494	1420.69
277.726	1604.69
277.957	1928.69
278.189	2194.69
278.421	2078.69
278.652	1820.69
278.884	1737.69
279.115	1530.69
279.347	1452.69
279.579	1437.69
279.81	1415.69
280.042	1443.69
280.273	1402.69
280.505	1491.69
280.736	1520.69
280.968	1621.69
281.199	1851.69
281.431	2132.69
281.662	2184.69
281.894	1876.69
282.125	1678.69
282.356	1704.69
282.588	1694.69
282.819	1778.69
283.051	1897.69
283.282	2121.69
283.513	2585.69
283.745	3780.69
283.976	5963.69
284.207	8393.69
284.439	7760.69
284.67	4898.69
284.901	4013.69
285.132	4034.69
285.364	3881.69
285.595	2907.69
285.826	2573.69
286.057	3013.69
286.288	4075.69
286.52	5477.69
286.751	5134.69
286.982	3302.69
287.213	2427.69
287.444	2115.69
287.675	1937.69
287.906	1867.69
288.138	1782.69
288.369	1742.69
288.6	1712.69
288.831	1717.69
289.062	1708.69
289.293	1694.69
289.524	1670.69
289.755	1693.69
289.986	1725.69
290.217	1716.69
290.448	1759.69
290.679	1728.69
290.91	1848.69
291.141	1945.69
291.371	2084.69
291.602	2172.69
291.833	1972.69
292.064	1772.69
292.295	1732.69
292.526	1727.69
292.757	1640.69
292.987	1602.69
293.218	1610.69
293.449	1609.69
293.68	1609.69
293.91	1604.69
294.141	1584.69
294.372	1576.69
294.603	1587.69
294.833	1572.69
295.064	1552.69
295.295	1523.69
295.525	1564.69
295.756	1594.69
295.987	1548.69
296.217	1588.69
296.448	1580.69
296.679	1554.69
296.909	1586.69
297.14	1615.69
297.37	1645.69
297.601	1656.69
297.831	1658.69
298.062	1671.69
298.292	1656.69
298.523	1671.69
298.753	1713.69
298.984	1730.69
299.214	1765.69
299.445	1762.69
299.675	1765.69
299.905	1859.69
300.136	1992.69
300.366	2184.69
300.597	2828.69
300.827	4012.69
301.057	5552.69
301.288	5516.69
301.518	3614.69
301.748	2761.69
301.979	2498.69
302.209	2372.69
302.439	2389.69
302.669	2577.69
302.9	3076.69
303.13	4357.69
303.36	6461.69
303.59	8674.69
303.82	7604.69
304.051	4565.69
304.281	3269.69
304.511	2696.69
304.741	2448.69
304.971	2306.69
305.201	2139.69
305.431	2076.69
305.661	2048.69
305.891	1968.69
306.121	1877.69
306.352	1898.69
306.582	1874.69
306.812	1822.69
307.042	1872.69
307.272	1860.69
307.502	1869.69
307.731	1851.69
307.961	1851.69
308.191	1850.69
308.421	1813.69
308.651	1810.69
308.881	1818.69
309.111	1818.69
309.341	1789.69
309.571	1836.69
309.8	1822.69
310.03	1835.69
310.26	1833.69
310.49	1869.69
310.72	1869.69
310.949	1897.69
311.179	1892.69
311.409	1877.69
311.639	1938.69
311.868	1945.69
312.098	1907.69
312.328	1918.69
312.557	1995.69
312.787	1982.69
313.017	1962.69
313.246	1988.69
313.476	2027.69
313.706	2087.69
313.935	2234.69
314.165	2416.69
314.394	2551.69
314.624	2451.69
314.853	2241.69
315.083	2138.69
315.312	2192.69
315.542	2238.69
315.771	2237.69
316.001	2326.69
316.23	2393.69
316.46	2529.69
316.689	2729.69
316.919	3388.69
317.148	4892.69
317.377	7382.69
317.607	10858.69
317.836	11369.69
318.065	7156.69
318.295	4579.69
318.524	3650.69
318.753	3117.69
318.983	2890.69
319.212	2638.69
319.441	2582.69
319.67	2515.69
319.9	2448.69
320.129	2382.69
320.358	2432.69
320.587	2390.69
320.816	2382.69
321.046	2409.69
321.275	2400.69
321.504	2404.69
321.733	2496.69
321.962	2564.69
322.191	2533.69
322.42	2559.69
322.649	2496.69
322.878	2566.69
323.108	2560.69
323.337	2578.69
323.566	2601.69
323.795	2692.69
324.024	2740.69
324.253	2809.69
324.482	2884.69
324.71	3045.69
324.939	3273.69
325.168	3426.69
325.397	3547.69
325.626	4200.69
325.855	5858.69
326.084	9160.69
326.313	13189.69
326.542	13885.69
326.77	9784.69
326.999	6419.69
327.228	5331.69
327.457	5005.69
327.686	5021.69
327.914	5336.69
328.143	6213.69
328.372	7500.69
328.6	8097.69
328.829	7273.69
329.058	6012.69
329.287	5237.69
329.515	4760.69
329.744	4414.69
329.972	4141.69
330.201	3921.69
330.43	3780.69
330.658	3691.69
330.887	3640.69
331.115	3561.69
331.344	3533.69
331.572	3550.69
331.801	3560.69
332.03	3534.69
332.258	3593.69
332.486	3792.69
332.715	4392.69
332.943	5521.69
333.172	6874.69
333.4	6818.69
333.629	5181.69
333.857	4626.69
334.085	4599.69
334.314	4790.69
334.542	5286.69
334.771	6215.69
334.999	7664.69
335.227	9530.69
335.455	10723.69
335.684	9744.69
335.912	7954.69
336.14	6683.69
336.369	5856.69
336.597	5370.69
336.825	4884.69
337.053	4618.69
337.281	4360.69
337.51	4018.69
337.738	3854.69
337.966	3707.69
338.194	3592.69
338.422	3519.69
338.65	3411.69
338.878	3309.69
339.106	3243.69
339.334	3195.69
339.562	3125.69
339.79	3103.69
340.018	3072.69
340.246	3048.69
340.474	3082.69
340.702	3016.69
340.93	3022.69
341.158	3012.69
341.386	2984.69
341.614	2962.69
341.842	2902.69
342.07	2867.69
342.298	2843.69
342.526	2709.69
342.754	2727.69
342.981	2726.69
343.209	2706.69
343.437	2690.69
343.665	2746.69
343.893	2794.69
344.12	2833.69
344.348	2752.69
344.576	2729.69
344.804	2714.69
345.031	2590.69
345.259	2580.69
345.487	2613.69
345.714	2592.69
345.942	2520.69
346.17	2592.69
346.397	2520.69
346.625	2564.69
346.853	2518.69
347.08	2502.69
347.308	2499.69
347.535	2511.69
347.763	2497.69
347.99	2460.69
348.218	2488.69
348.445	2454.69
348.673	2456.69
348.9	2469.69
349.128	2460.69
349.355	2405.69
349.583	2446.69
349.81	2444.69
350.037	2395.69
350.265	2421.69
350.492	2360.69
350.72	2410.69
350.947	2412.69
351.174	2391.69
351.402	2377.69
351.629	2389.69
351.856	2364.69
352.083	2439.69
352.311	2354.69
352.538	2399.69
352.765	2375.69
352.992	2355.69
353.22	2373.69
353.447	2370.69
353.674	2397.69
353.901	2376.69
354.128	2395.69
354.355	2374.69
354.583	2426.69
354.81	2404.69
355.037	2407.69
355.264	2439.69
355.491	2428.69
355.718	2443.69
355.945	2453.69
356.172	2430.69
356.399	2463.69
356.626	2485.69
356.853	2548.69
357.08	2518.69
357.307	2507.69
357.534	2568.69
357.761	2606.69
357.988	2578.69
358.215	2533.69
358.441	2530.69
358.668	2517.69
358.895	2494.69
359.122	2484.69
359.349	2529.69
359.576	2515.69
359.802	2496.69
360.029	2503.69
360.256	2555.69
360.483	2540.69
360.709	2530.69
360.936	2531.69
361.163	2542.69
361.39	2570.69
361.616	2529.69
361.843	2564.69
362.07	2558.69
362.296	2560.69
362.523	2552.69
362.749	2514.69
362.976	2547.69
363.203	2556.69
363.429	2496.69
363.656	2551.69
363.882	2510.69
364.109	2537.69
364.335	2521.69
364.562	2528.69
364.788	2540.69
365.015	2562.69
365.241	2621.69
365.468	2787.69
365.694	3000.69
365.92	2882.69
366.147	2610.69
366.373	2569.69
366.599	2616.69
366.826	2559.69
367.052	2568.69
367.278	2634.69
367.505	2611.69
367.731	2620.69
367.957	2617.69
368.184	2655.69
368.41	2696.69
368.636	2649.69
368.862	2631.69
369.089	2643.69
369.315	2638.69
369.541	2640.69
369.767	2620.69
369.993	2576.69
370.219	2566.69
370.445	2638.69
370.672	2679.69
370.898	2619.69
371.124	2621.69
371.35	2663.69
371.576	2695.69
371.802	2707.69
372.028	2733.69
372.254	2698.69
372.48	2732.69
372.706	2761.69
372.932	2750.69
373.158	2723.69
373.384	2736.69
373.61	2717.69
373.835	2783.69
374.061	2746.69
374.287	2776.69
374.513	2781.69
374.739	2820.69
374.965	2882.69
375.191	2854.69
375.416	2821.69
375.642	2732.69
375.868	2790.69
376.094	2786.69
376.319	2808.69
376.545	2767.69
376.771	2686.69
376.997	2679.69
377.222	2681.69
377.448	2680.69
377.674	2624.69
377.899	2688.69
378.125	2721.69
378.35	2685.69
378.576	2700.69
378.802	2752.69
379.027	2805.69
379.253	2880.69
379.478	3054.69
379.704	3630.69
379.929	5282.69
380.155	8256.69
380.38	9004.69
380.606	5543.69
380.831	3838.69
381.057	3312.69
381.282	3021.69
381.507	2919.69
381.733	2781.69
381.958	2755.69
382.184	2740.69
382.409	2678.69
382.634	2702.69
382.86	2725.69
383.085	2666.69
383.31	2662.69
383.535	2664.69
383.761	2679.69
383.986	2661.69
384.211	2713.69
384.436	2744.69
384.662	2699.69
384.887	2794.69
385.112	2702.69
385.337	2746.69
385.562	2751.69
385.787	2742.69
386.013	2786.69
386.238	2768.69
386.463	2784.69
386.688	2758.69
386.913	2719.69
387.138	2657.69
387.363	2670.69
387.588	2712.69
387.813	2715.69
388.038	2676.69
388.263	2702.69
388.488	2736.69
388.713	2766.69
388.938	2721.69
389.163	2731.69
389.387	2778.69
389.612	2740.69
389.837	2785.69
390.062	2706.69
390.287	2722.69
390.512	2749.69
390.736	2778.69
390.961	2860.69
391.186	2859.69
391.411	2825.69
391.636	2843.69
391.86	2894.69
392.085	2900.69
392.31	2849.69
392.534	2804.69
392.759	2848.69
392.984	2785.69
393.208	2842.69
393.433	2841.69
393.658	2877.69
393.882	2747.69
394.107	2765.69
394.331	2766.69
394.556	2762.69
394.78	2813.69
395.005	2773.69
395.229	2766.69
395.454	2816.69
395.678	2819.69
395.903	2890.69
396.127	2853.69
396.352	2837.69
396.576	2856.69
396.801	2857.69
397.025	2938.69
397.249	2880.69
397.474	2823.69
397.698	2888.69
397.922	2939.69
398.147	2893.69
398.371	2922.69
398.595	3004.69
398.82	3036.69
399.044	3148.69
399.268	3364.69
399.492	3422.69
399.717	3529.69
399.941	3596.69
400.165	3454.69
400.389	3304.69
400.613	3189.69
400.837	3116.69
401.062	3070.69
401.286	3035.69
401.51	3065.69
401.734	2968.69
401.958	3090.69
402.182	3065.69
402.406	3029.69
402.63	3012.69
402.854	3045.69
403.078	3085.69
403.302	3101.69
403.526	3147.69
403.75	3120.69
403.974	3186.69
404.198	3105.69
404.422	3112.69
404.645	3092.69
404.869	3141.69
405.093	3165.69
405.317	3122.69
405.541	3172.69
405.765	3225.69
405.988	3294.69
406.212	3218.69
406.436	3219.69
406.66	3227.69
406.883	3203.69
407.107	3339.69
407.331	3410.69
407.555	3426.69
407.778	3445.69
408.002	3376.69
408.226	3353.69
408.449	3377.69
408.673	3343.69
408.896	3204.69
409.12	3195.69
409.344	3221.69
409.567	3168.69
409.791	3158.69
410.014	3127.69
410.238	3098.69
410.461	3106.69
410.685	3137.69
410.908	3103.69
411.132	3014.69
411.355	3044.69
411.578	3029.69
411.802	3002.69
412.025	3015.69
412.249	3024.69
412.472	3024.69
412.695	2993.69
412.919	2917.69
413.142	2948.69
413.365	2967.69
413.589	2960.69
413.812	3000.69
414.035	2920.69
414.258	2992.69
414.482	2940.69
414.705	3007.69
414.928	2937.69
415.151	2921.69
415.374	2890.69
415.597	2917.69
415.821	2850.69
416.044	2824.69
416.267	2865.69
416.49	2853.69
416.713	2784.69
416.936	2808.69
417.159	2822.69
417.382	2826.69
417.605	2780.69
417.828	2800.69
418.051	2846.69
418.274	2891.69
418.497	2902.69
418.72	2923.69
418.943	2872.69
419.166	3053.69
419.389	3156.69
419.611	3112.69
419.834	3040.69
420.057	2930.69
420.28	2878.69
420.503	2834.69
420.726	2832.69
420.948	2894.69
421.171	2848.69
421.394	2812.69
421.617	2774.69
421.839	2824.69
422.062	2875.69
422.285	2778.69
422.507	2904.69
422.73	2896.69
422.953	2924.69
423.175	2936.69
423.398	2973.69
423.621	2873.69
423.843	2852.69
424.066	2872.69
424.288	2834.69
424.511	2882.69
424.733	2869.69
424.956	2777.69
425.178	2801.69
425.401	2792.69
425.623	2827.69
425.846	2771.69
426.068	2708.69
426.291	2736.69
426.513	2706.69
426.735	2675.69
426.958	2727.69
427.18	2675.69
427.402	2698.69
427.625	2726.69
427.847	2667.69
428.069	2708.69
428.292	2690.69
428.514	2668.69
428.736	2616.69
428.958	2683.69
429.181	2586.69
429.403	2572.69
429.625	2618.69
429.847	2639.69
430.069	2680.69
430.292	2786.69
430.514	2846.69
430.736	2820.69
430.958	2720.69
431.18	2630.69
431.402	2627.69
431.624	2614.69
431.846	2584.69
432.068	2597.69
432.29	2647.69
432.512	2613.69
432.734	2600.69
432.956	2605.69
433.178	2596.69
433.4	2610.69
433.622	2632.69
433.844	2673.69
434.066	2626.69
434.287	2650.69
434.509	2674.69
434.731	2712.69
434.953	2717.69
435.175	2749.69
435.397	2735.69
435.618	2654.69
435.84	2628.69
436.062	2584.69
436.284	2638.69
436.505	2604.69
436.727	2647.69
436.949	2616.69
437.17	2603.69
437.392	2530.69
437.614	2574.69
437.835	2469.69
438.057	2523.69
438.278	2520.69
438.5	2516.69
438.721	2576.69
438.943	2668.69
439.165	2740.69
439.386	2759.69
439.608	2704.69
439.829	2719.69
440.05	2830.69
440.272	2876.69
440.493	2725.69
440.715	2706.69
440.936	2673.69
441.158	2741.69
441.379	2767.69
441.6	2824.69
441.822	2952.69
442.043	3041.69
442.264	3140.69
442.486	3010.69
442.707	2891.69
442.928	2824.69
443.149	2747.69
443.371	2748.69
443.592	2811.69
443.813	2790.69
444.034	2828.69
444.255	2880.69
444.476	2939.69
444.698	2913.69
444.919	2968.69
445.14	3005.69
445.361	2950.69
445.582	2885.69
445.803	2806.69
446.024	2779.69
446.245	2804.69
446.466	2797.69
446.687	2751.69
446.908	2725.69
447.129	2665.69
447.35	2664.69
447.571	2677.69
447.792	2592.69
448.013	2592.69
448.234	2589.69
448.455	2599.69
448.675	2615.69
448.896	2712.69
449.117	2816.69
449.338	3041.69
449.559	3127.69
449.779	2826.69
450	2608.69
450.221	2588.69
450.442	2588.69
450.662	2562.69
450.883	2544.69
451.104	2553.69
451.324	2544.69
451.545	2533.69
451.766	2574.69
451.986	2595.69
452.207	2802.69
452.428	3692.69
452.648	5644.69
452.869	4798.69
453.089	3236.69
453.31	3014.69
453.53	3008.69
453.751	3117.69
453.971	3232.69
454.192	3101.69
454.412	2760.69
454.633	2608.69
454.853	2563.69
455.073	2457.69
455.294	2456.69
455.514	2417.69
455.734	2411.69
455.955	2348.69
456.175	2378.69
456.395	2388.69
456.616	2429.69
456.836	2496.69
457.056	2501.69
457.276	2465.69
457.497	2643.69
457.717	2665.69
457.937	2554.69
458.157	2554.69
458.377	2607.69
458.598	2594.69
458.818	2590.69
459.038	2615.69
459.258	2621.69
459.478	2632.69
459.698	2645.69
459.918	2683.69
460.138	2737.69
460.358	2823.69
460.578	2836.69
460.798	2829.69
461.018	2816.69
461.238	2846.69
461.458	2892.69
461.678	2918.69
461.898	2963.69
462.118	2976.69
462.338	3042.69
462.558	3042.69
462.777	3076.69
462.997	3280.69
463.217	3353.69
463.437	3495.69
463.657	3600.69
463.876	3566.69
464.096	3394.69
464.316	3186.69
464.536	3195.69
464.755	3023.69
464.975	3022.69
465.195	2897.69
465.414	2891.69
465.634	2754.69
465.854	2770.69
466.073	2692.69
466.293	2710.69
466.512	2638.69
466.732	2698.69
466.951	2854.69
467.171	2998.69
467.391	2948.69
467.61	2718.69
467.829	2648.69
468.049	2618.69
468.268	2554.69
468.488	2578.69
468.707	2565.69
468.927	2573.69
469.146	2618.69
469.365	2653.69
469.585	2613.69
469.804	2686.69
470.023	2779.69
470.243	2772.69
470.462	2923.69
470.681	3025.69
470.901	3378.69
471.12	3826.69
471.339	3789.69
471.558	3209.69
471.777	2965.69
471.997	2793.69
472.216	2693.69
472.435	2622.69
472.654	2613.69
472.873	2566.69
473.092	2625.69
473.311	2582.69
473.53	2612.69
473.749	2696.69
473.968	2800.69
474.187	2666.69
474.406	2549.69
474.625	2626.69
474.844	2585.69
475.063	2600.69
475.282	2619.69
475.501	2592.69
475.72	2652.69
475.939	2661.69
476.158	2714.69
476.377	2805.69
476.596	2762.69
476.814	2732.69
477.033	2746.69
477.252	2775.69
477.471	2825.69
477.69	2898.69
477.908	2888.69
478.127	2972.69
478.346	2948.69
478.564	3067.69
478.783	3064.69
479.002	3092.69
479.22	3047.69
479.439	3112.69
479.658	3076.69
479.876	3124.69
480.095	3133.69
480.313	3212.69
480.532	3240.69
480.751	3204.69
480.969	3156.69
481.188	3168.69
481.406	3137.69
481.624	3140.69
481.843	3189.69
482.061	3214.69
482.28	3219.69
482.498	3190.69
482.717	3128.69
482.935	3186.69
483.153	3217.69
483.372	3240.69
483.59	3360.69
483.808	3428.69
484.027	3465.69
484.245	3643.69
484.463	4150.69
484.681	4588.69
484.9	4214.69
485.118	3894.69
485.336	3768.69
485.554	3841.69
485.772	4145.69
485.99	4550.69
486.209	4891.69
486.427	4224.69
486.645	3708.69
486.863	3559.69
487.081	3463.69
487.299	3458.69
487.517	3372.69
487.735	3396.69
