Data from SnStandardFlinnAPT0064_LampEnergy10_LIBS07252019.E.O._I.C._HRD10591_15-21-55-494.txt Node
Date: Thu Jul 25 15:21:55 EDT 2019
User: cochatt
Spectrometer: HR+D1059
Trigger mode: 1
Integration Time (sec): 1.000000E-1
Scans to average: 1
Electric dark correction enabled: true
Nonlinearity correction enabled: false
Boxcar width: 0
XAxis mode: Wavelengths
Number of Pixels in Spectrum: 2048
>>>>>Begin Spectral Data<<<<<
223.165	-6.81
223.4	-6.81
223.635	-6.81
223.869	-26.81
224.104	-12.81
224.338	-0.81
224.573	-23.81
224.808	-16.81
225.042	-10.81
225.277	-10.81
225.511	-8.81
225.746	2.19
225.98	4.19
226.215	11.19
226.449	10.19
226.683	19.19
226.918	44.19
227.152	27.19
227.387	35.19
227.621	27.19
227.856	47.19
228.09	33.19
228.324	43.19
228.559	66.19
228.793	121.19
229.027	296.19
229.262	332.19
229.496	288.19
229.73	277.19
229.964	282.19
230.199	291.19
230.433	291.19
230.667	310.19
230.901	303.19
231.136	340.19
231.37	334.19
231.604	391.19
231.838	462.19
232.072	533.19
232.306	579.19
232.541	461.19
232.775	416.19
233.009	403.19
233.243	400.19
233.477	435.19
233.711	489.19
233.945	581.19
234.179	513.19
234.413	437.19
234.647	434.19
234.881	442.19
235.115	509.19
235.349	592.19
235.583	756.19
235.817	1004.19
236.051	1030.19
236.285	644.19
236.519	527.19
236.753	489.19
236.987	498.19
237.221	532.19
237.455	523.19
237.689	467.19
237.922	447.19
238.156	443.19
238.39	448.19
238.624	482.19
238.858	463.19
239.091	457.19
239.325	484.19
239.559	481.19
239.793	499.19
240.027	515.19
240.26	532.19
240.494	554.19
240.728	560.19
240.961	603.19
241.195	649.19
241.429	653.19
241.662	692.19
241.896	764.19
242.13	913.19
242.363	1267.19
242.597	1656.19
242.83	1519.19
243.064	1510.19
243.298	1838.19
243.531	1552.19
243.765	963.19
243.998	721.19
244.232	703.19
244.465	636.19
244.699	650.19
244.932	642.19
245.166	649.19
245.399	659.19
245.633	663.19
245.866	683.19
246.099	651.19
246.333	648.19
246.566	639.19
246.8	604.19
247.033	637.19
247.266	607.19
247.5	615.19
247.733	641.19
247.966	688.19
248.2	744.19
248.433	853.19
248.666	964.19
248.899	927.19
249.133	831.19
249.366	836.19
249.599	945.19
249.832	1081.19
250.066	1042.19
250.299	856.19
250.532	724.19
250.765	735.19
250.998	732.19
251.231	729.19
251.465	709.19
251.698	710.19
251.931	767.19
252.164	730.19
252.397	727.19
252.63	762.19
252.863	799.19
253.096	750.19
253.329	776.19
253.562	764.19
253.795	755.19
254.028	776.19
254.261	819.19
254.494	887.19
254.727	993.19
254.96	1262.19
255.193	1225.19
255.426	960.19
255.659	838.19
255.892	864.19
256.124	851.19
256.357	841.19
256.59	883.19
256.823	932.19
257.056	1123.19
257.289	1315.19
257.521	1495.19
257.754	1173.19
257.987	952.19
258.22	901.19
258.452	896.19
258.685	904.19
258.918	929.19
259.151	989.19
259.383	1079.19
259.616	1203.19
259.849	1248.19
260.081	1062.19
260.314	1001.19
260.547	943.19
260.779	935.19
261.012	934.19
261.244	947.19
261.477	963.19
261.71	962.19
261.942	998.19
262.175	976.19
262.407	1023.19
262.64	1051.19
262.872	1071.19
263.105	1138.19
263.337	1163.19
263.57	1247.19
263.802	1255.19
264.035	1263.19
264.267	1323.19
264.499	1357.19
264.732	1395.19
264.964	1391.19
265.197	1447.19
265.429	1394.19
265.661	1432.19
265.894	1553.19
266.126	1726.19
266.358	1947.19
266.591	1864.19
266.823	1603.19
267.055	1439.19
267.287	1386.19
267.52	1307.19
267.752	1279.19
267.984	1253.19
268.216	1264.19
268.448	1239.19
268.681	1213.19
268.913	1225.19
269.145	1208.19
269.377	1219.19
269.609	1248.19
269.841	1291.19
270.073	1389.19
270.306	1576.19
270.538	2120.19
270.77	3188.19
271.002	4005.19
271.234	2767.19
271.466	1805.19
271.698	1513.19
271.93	1354.19
272.162	1306.19
272.394	1234.19
272.626	1226.19
272.858	1195.19
273.09	1209.19
273.322	1186.19
273.553	1199.19
273.785	1173.19
274.017	1180.19
274.249	1205.19
274.481	1207.19
274.713	1189.19
274.945	1205.19
275.176	1195.19
275.408	1228.19
275.64	1216.19
275.872	1180.19
276.104	1235.19
276.335	1242.19
276.567	1245.19
276.799	1256.19
277.031	1297.19
277.262	1287.19
277.494	1352.19
277.726	1525.19
277.957	1799.19
278.189	2078.19
278.421	1913.19
278.652	1718.19
278.884	1606.19
279.115	1457.19
279.347	1388.19
279.579	1367.19
279.81	1375.19
280.042	1356.19
280.273	1395.19
280.505	1416.19
280.736	1453.19
280.968	1580.19
281.199	1756.19
281.431	1977.19
281.662	2020.19
281.894	1754.19
282.125	1617.19
282.356	1583.19
282.588	1623.19
282.819	1655.19
283.051	1788.19
283.282	1960.19
283.513	2392.19
283.745	3618.19
283.976	5803.19
284.207	8283.19
284.439	7417.19
284.67	4435.19
284.901	3584.19
285.132	3673.19
285.364	3519.19
285.595	2639.19
285.826	2345.19
286.057	2844.19
286.288	3937.19
286.52	5355.19
286.751	4954.19
286.982	2989.19
287.213	2221.19
287.444	1937.19
287.675	1828.19
287.906	1734.19
288.138	1674.19
288.369	1680.19
288.6	1644.19
288.831	1628.19
289.062	1635.19
289.293	1666.19
289.524	1657.19
289.755	1670.19
289.986	1662.19
290.217	1681.19
290.448	1647.19
290.679	1648.19
290.91	1734.19
291.141	1778.19
291.371	1973.19
291.602	2066.19
291.833	1879.19
292.064	1724.19
292.295	1612.19
292.526	1631.19
292.757	1591.19
292.987	1554.19
293.218	1571.19
293.449	1585.19
293.68	1571.19
293.91	1543.19
294.141	1535.19
294.372	1524.19
294.603	1515.19
294.833	1567.19
295.064	1524.19
295.295	1531.19
295.525	1498.19
295.756	1555.19
295.987	1555.19
296.217	1549.19
296.448	1526.19
296.679	1533.19
296.909	1584.19
297.14	1587.19
297.37	1592.19
297.601	1578.19
297.831	1597.19
298.062	1576.19
298.292	1638.19
298.523	1682.19
298.753	1695.19
298.984	1663.19
299.214	1707.19
299.445	1717.19
299.675	1710.19
299.905	1812.19
300.136	1898.19
300.366	2148.19
300.597	2712.19
300.827	3865.19
301.057	5305.19
301.288	5315.19
301.518	3274.19
301.748	2527.19
301.979	2284.19
302.209	2197.19
302.439	2235.19
302.669	2392.19
302.9	2906.19
303.13	4113.19
303.36	6195.19
303.59	8379.19
303.82	7188.19
304.051	4119.19
304.281	2897.19
304.511	2487.19
304.741	2266.19
304.971	2183.19
305.201	2015.19
305.431	1933.19
305.661	1917.19
305.891	1880.19
306.121	1826.19
306.352	1819.19
306.582	1809.19
306.812	1768.19
307.042	1797.19
307.272	1797.19
307.502	1784.19
307.731	1803.19
307.961	1769.19
308.191	1764.19
308.421	1809.19
308.651	1751.19
308.881	1738.19
309.111	1785.19
309.341	1812.19
309.571	1815.19
309.8	1813.19
310.03	1874.19
310.26	1850.19
310.49	1828.19
310.72	1860.19
310.949	1792.19
311.179	1855.19
311.409	1866.19
311.639	1863.19
311.868	1908.19
312.098	1879.19
312.328	1958.19
312.557	1921.19
312.787	1927.19
313.017	1947.19
313.246	1965.19
313.476	1984.19
313.706	2030.19
313.935	2140.19
314.165	2293.19
314.394	2389.19
314.624	2279.19
314.853	2167.19
315.083	2112.19
315.312	2118.19
315.542	2163.19
315.771	2153.19
316.001	2245.19
316.23	2252.19
316.46	2351.19
316.689	2588.19
316.919	3131.19
317.148	4663.19
317.377	7184.19
317.607	10706.19
317.836	11103.19
318.065	6436.19
318.295	4065.19
318.524	3255.19
318.753	2859.19
318.983	2639.19
319.212	2512.19
319.441	2425.19
319.67	2391.19
319.9	2348.19
320.129	2307.19
320.358	2297.19
320.587	2276.19
320.816	2315.19
321.046	2295.19
321.275	2272.19
321.504	2363.19
321.733	2399.19
321.962	2455.19
322.191	2489.19
322.42	2489.19
322.649	2454.19
322.878	2447.19
323.108	2435.19
323.337	2516.19
323.566	2525.19
323.795	2536.19
324.024	2566.19
324.253	2698.19
324.482	2733.19
324.71	2940.19
324.939	3083.19
325.168	3156.19
325.397	3351.19
325.626	3997.19
325.855	5621.19
326.084	8872.19
326.313	12969.19
326.542	13696.19
326.77	8895.19
326.999	5765.19
327.228	4826.19
327.457	4571.19
327.686	4627.19
327.914	4949.19
328.143	5854.19
328.372	7079.19
328.6	7699.19
328.829	6764.19
329.058	5569.19
329.287	4948.19
329.515	4553.19
329.744	4163.19
329.972	3888.19
330.201	3767.19
330.43	3674.19
330.658	3539.19
330.887	3482.19
331.115	3413.19
331.344	3395.19
331.572	3348.19
331.801	3411.19
332.03	3413.19
332.258	3489.19
332.486	3699.19
332.715	4179.19
332.943	5244.19
333.172	6458.19
333.4	6419.19
333.629	4810.19
333.857	4385.19
334.085	4356.19
334.314	4608.19
334.542	5034.19
334.771	5860.19
334.999	7249.19
335.227	9150.19
335.455	10331.19
335.684	9143.19
335.912	7404.19
336.14	6228.19
336.369	5461.19
336.597	5087.19
336.825	4661.19
337.053	4392.19
337.281	4114.19
337.51	3923.19
337.738	3769.19
337.966	3661.19
338.194	3559.19
338.422	3396.19
338.65	3347.19
338.878	3282.19
339.106	3172.19
339.334	3152.19
339.562	3133.19
339.79	3044.19
340.018	3046.19
340.246	3005.19
340.474	2963.19
340.702	3009.19
340.93	2942.19
341.158	2959.19
341.386	2921.19
341.614	2931.19
341.842	2844.19
342.07	2809.19
342.298	2789.19
342.526	2778.19
342.754	2727.19
342.981	2724.19
343.209	2666.19
343.437	2715.19
343.665	2727.19
343.893	2783.19
344.12	2787.19
344.348	2722.19
344.576	2693.19
344.804	2687.19
345.031	2560.19
345.259	2595.19
345.487	2544.19
345.714	2562.19
345.942	2500.19
346.17	2528.19
346.397	2522.19
346.625	2507.19
346.853	2501.19
347.08	2489.19
347.308	2464.19
347.535	2487.19
347.763	2489.19
347.99	2446.19
348.218	2435.19
348.445	2448.19
348.673	2440.19
348.9	2449.19
349.128	2430.19
349.355	2412.19
349.583	2419.19
349.81	2362.19
350.037	2366.19
350.265	2377.19
350.492	2372.19
350.72	2356.19
350.947	2423.19
351.174	2385.19
351.402	2409.19
351.629	2423.19
351.856	2319.19
352.083	2387.19
352.311	2293.19
352.538	2344.19
352.765	2299.19
352.992	2330.19
353.22	2364.19
353.447	2313.19
353.674	2352.19
353.901	2407.19
354.128	2350.19
354.355	2362.19
354.583	2436.19
354.81	2417.19
355.037	2432.19
355.264	2410.19
355.491	2387.19
355.718	2416.19
355.945	2466.19
356.172	2417.19
356.399	2427.19
356.626	2461.19
356.853	2501.19
357.08	2472.19
357.307	2505.19
357.534	2577.19
357.761	2622.19
357.988	2566.19
358.215	2520.19
358.441	2505.19
358.668	2522.19
358.895	2502.19
359.122	2506.19
359.349	2509.19
359.576	2512.19
359.802	2473.19
360.029	2481.19
360.256	2543.19
360.483	2566.19
360.709	2455.19
360.936	2490.19
361.163	2580.19
361.39	2492.19
361.616	2474.19
361.843	2522.19
362.07	2522.19
362.296	2532.19
362.523	2533.19
362.749	2532.19
362.976	2492.19
363.203	2462.19
363.429	2543.19
363.656	2532.19
363.882	2492.19
364.109	2475.19
364.335	2457.19
364.562	2511.19
364.788	2498.19
365.015	2547.19
365.241	2585.19
365.468	2748.19
365.694	2908.19
365.92	2760.19
366.147	2512.19
366.373	2547.19
366.599	2567.19
366.826	2609.19
367.052	2573.19
367.278	2586.19
367.505	2561.19
367.731	2582.19
367.957	2565.19
368.184	2557.19
368.41	2644.19
368.636	2640.19
368.862	2608.19
369.089	2611.19
369.315	2593.19
369.541	2611.19
369.767	2656.19
369.993	2598.19
370.219	2637.19
370.445	2583.19
370.672	2671.19
370.898	2675.19
371.124	2684.19
371.35	2679.19
371.576	2753.19
371.802	2713.19
372.028	2715.19
372.254	2719.19
372.48	2771.19
372.706	2755.19
372.932	2752.19
373.158	2736.19
373.384	2753.19
373.61	2733.19
373.835	2765.19
374.061	2820.19
374.287	2807.19
374.513	2793.19
374.739	2867.19
374.965	2885.19
375.191	2890.19
375.416	2843.19
375.642	2833.19
375.868	2794.19
376.094	2795.19
376.319	2746.19
376.545	2731.19
376.771	2699.19
376.997	2668.19
377.222	2673.19
377.448	2659.19
377.674	2702.19
377.899	2705.19
378.125	2703.19
378.35	2680.19
378.576	2707.19
378.802	2715.19
379.027	2819.19
379.253	2859.19
379.478	2981.19
379.704	3530.19
379.929	5061.19
380.155	7864.19
380.38	8604.19
380.606	5098.19
380.831	3622.19
381.057	3166.19
381.282	2900.19
381.507	2772.19
381.733	2779.19
381.958	2745.19
382.184	2697.19
382.409	2711.19
382.634	2687.19
382.86	2643.19
383.085	2685.19
383.31	2690.19
383.535	2636.19
383.761	2691.19
383.986	2697.19
384.211	2719.19
384.436	2768.19
384.662	2708.19
384.887	2748.19
385.112	2723.19
385.337	2693.19
385.562	2757.19
385.787	2741.19
386.013	2782.19
386.238	2739.19
386.463	2750.19
386.688	2771.19
386.913	2677.19
387.138	2695.19
387.363	2730.19
387.588	2680.19
387.813	2742.19
388.038	2684.19
388.263	2737.19
388.488	2751.19
388.713	2724.19
388.938	2753.19
389.163	2693.19
389.387	2760.19
389.612	2735.19
389.837	2743.19
390.062	2693.19
390.287	2774.19
390.512	2799.19
390.736	2821.19
390.961	2844.19
391.186	2854.19
391.411	2881.19
391.636	2845.19
391.86	2900.19
392.085	2876.19
392.31	2860.19
392.534	2852.19
392.759	2847.19
392.984	2752.19
393.208	2815.19
393.433	2823.19
393.658	2834.19
393.882	2788.19
394.107	2775.19
394.331	2754.19
394.556	2753.19
394.78	2803.19
395.005	2801.19
395.229	2760.19
395.454	2869.19
395.678	2888.19
395.903	2833.19
396.127	2845.19
396.352	2793.19
396.576	2864.19
396.801	2881.19
397.025	2854.19
397.249	2912.19
397.474	2947.19
397.698	2963.19
397.922	2959.19
398.147	2940.19
398.371	2964.19
398.595	3024.19
398.82	3016.19
399.044	3206.19
399.268	3275.19
399.492	3511.19
399.717	3583.19
399.941	3594.19
400.165	3496.19
400.389	3382.19
400.613	3215.19
400.837	3131.19
401.062	3120.19
401.286	3037.19
401.51	3018.19
401.734	3027.19
401.958	3048.19
402.182	3026.19
402.406	3022.19
402.63	3052.19
402.854	3048.19
403.078	3030.19
403.302	3153.19
403.526	3107.19
403.75	3112.19
403.974	3127.19
404.198	3099.19
404.422	3141.19
404.645	3137.19
404.869	3155.19
405.093	3178.19
405.317	3125.19
405.541	3151.19
405.765	3220.19
405.988	3227.19
406.212	3238.19
406.436	3236.19
406.66	3233.19
406.883	3298.19
407.107	3298.19
407.331	3426.19
407.555	3443.19
407.778	3396.19
408.002	3423.19
408.226	3338.19
408.449	3424.19
408.673	3300.19
408.896	3223.19
409.12	3143.19
409.344	3210.19
409.567	3133.19
409.791	3175.19
410.014	3196.19
410.238	3123.19
410.461	3141.19
410.685	3089.19
410.908	3061.19
411.132	3067.19
411.355	2982.19
411.578	3008.19
411.802	3001.19
412.025	3027.19
412.249	2949.19
412.472	3009.19
412.695	2988.19
412.919	2938.19
413.142	2993.19
413.365	2969.19
413.589	2994.19
413.812	2973.19
414.035	2976.19
414.258	2994.19
414.482	2945.19
414.705	2991.19
414.928	2946.19
415.151	2957.19
415.374	2883.19
415.597	2911.19
415.821	2878.19
416.044	2842.19
416.267	2877.19
416.49	2795.19
416.713	2835.19
416.936	2850.19
417.159	2838.19
417.382	2772.19
417.605	2809.19
417.828	2785.19
418.051	2888.19
418.274	2882.19
418.497	2839.19
418.72	2950.19
418.943	2875.19
419.166	3020.19
419.389	3174.19
419.611	3124.19
419.834	3004.19
420.057	2973.19
420.28	2873.19
420.503	2831.19
420.726	2829.19
420.948	2807.19
421.171	2809.19
421.394	2863.19
421.617	2827.19
421.839	2898.19
422.062	2836.19
422.285	2824.19
422.507	2924.19
422.73	2915.19
422.953	2902.19
423.175	2965.19
423.398	2957.19
423.621	2877.19
423.843	2885.19
424.066	2867.19
424.288	2871.19
424.511	2843.19
424.733	2856.19
424.956	2801.19
425.178	2809.19
425.401	2803.19
425.623	2819.19
425.846	2711.19
426.068	2760.19
426.291	2694.19
426.513	2719.19
426.735	2752.19
426.958	2654.19
427.18	2661.19
427.402	2705.19
427.625	2699.19
427.847	2632.19
428.069	2641.19
428.292	2701.19
428.514	2617.19
428.736	2687.19
428.958	2625.19
429.181	2600.19
429.403	2611.19
429.625	2593.19
429.847	2589.19
430.069	2684.19
430.292	2717.19
430.514	2855.19
430.736	2817.19
430.958	2672.19
431.18	2651.19
431.402	2637.19
431.624	2565.19
431.846	2561.19
432.068	2561.19
432.29	2653.19
432.512	2540.19
432.734	2644.19
432.956	2612.19
433.178	2635.19
433.4	2597.19
433.622	2557.19
433.844	2639.19
434.066	2643.19
434.287	2621.19
434.509	2656.19
434.731	2658.19
434.953	2753.19
435.175	2751.19
435.397	2719.19
435.618	2702.19
435.84	2631.19
436.062	2599.19
436.284	2596.19
436.505	2548.19
436.727	2559.19
436.949	2597.19
437.17	2577.19
437.392	2557.19
437.614	2543.19
437.835	2503.19
438.057	2526.19
438.278	2513.19
438.5	2579.19
438.721	2531.19
438.943	2636.19
439.165	2675.19
439.386	2693.19
439.608	2670.19
439.829	2710.19
440.05	2783.19
440.272	2851.19
440.493	2693.19
440.715	2658.19
440.936	2661.19
441.158	2712.19
441.379	2759.19
441.6	2834.19
441.822	2889.19
442.043	3113.19
442.264	3201.19
442.486	2976.19
442.707	2857.19
442.928	2764.19
443.149	2796.19
443.371	2748.19
443.592	2843.19
443.813	2825.19
444.034	2845.19
444.255	2871.19
444.476	2892.19
444.698	2924.19
444.919	2991.19
445.14	2995.19
445.361	2898.19
445.582	2877.19
445.803	2835.19
446.024	2784.19
446.245	2773.19
446.466	2730.19
446.687	2722.19
446.908	2727.19
447.129	2660.19
447.35	2625.19
447.571	2661.19
447.792	2576.19
448.013	2559.19
448.234	2539.19
448.455	2564.19
448.675	2563.19
448.896	2608.19
449.117	2747.19
449.338	2985.19
449.559	3202.19
449.779	2744.19
450	2577.19
450.221	2511.19
450.442	2489.19
450.662	2463.19
450.883	2481.19
451.104	2499.19
451.324	2538.19
451.545	2500.19
451.766	2536.19
451.986	2575.19
452.207	2774.19
452.428	3487.19
452.648	5253.19
452.869	4404.19
453.089	3114.19
453.31	2922.19
453.53	2938.19
453.751	3003.19
453.971	3211.19
454.192	3148.19
454.412	2691.19
454.633	2506.19
454.853	2458.19
455.073	2410.19
455.294	2416.19
455.514	2400.19
455.734	2345.19
455.955	2390.19
456.175	2424.19
456.395	2403.19
456.616	2435.19
456.836	2430.19
457.056	2455.19
457.276	2438.19
457.497	2675.19
457.717	2610.19
457.937	2538.19
458.157	2487.19
458.377	2555.19
458.598	2540.19
458.818	2573.19
459.038	2601.19
459.258	2580.19
459.478	2624.19
459.698	2655.19
459.918	2689.19
460.138	2721.19
460.358	2785.19
460.578	2764.19
460.798	2873.19
461.018	2854.19
461.238	2860.19
461.458	2813.19
461.678	2878.19
461.898	2963.19
462.118	2980.19
462.338	3053.19
462.558	3081.19
462.777	3111.19
462.997	3202.19
463.217	3316.19
463.437	3479.19
463.657	3495.19
463.876	3569.19
464.096	3308.19
464.316	3127.19
464.536	3119.19
464.755	3048.19
464.975	2996.19
465.195	2882.19
465.414	2818.19
465.634	2711.19
465.854	2650.19
466.073	2682.19
466.293	2601.19
466.512	2621.19
466.732	2684.19
466.951	2854.19
467.171	3031.19
467.391	2931.19
467.61	2638.19
467.829	2579.19
468.049	2587.19
468.268	2565.19
468.488	2516.19
468.707	2554.19
468.927	2560.19
469.146	2533.19
469.365	2596.19
469.585	2552.19
469.804	2643.19
470.023	2681.19
470.243	2717.19
470.462	2820.19
470.681	2985.19
470.901	3283.19
471.12	3896.19
471.339	3875.19
471.558	3135.19
471.777	2827.19
471.997	2716.19
472.216	2642.19
472.435	2609.19
472.654	2606.19
472.873	2586.19
473.092	2597.19
473.311	2597.19
473.53	2579.19
473.749	2641.19
473.968	2783.19
474.187	2621.19
474.406	2521.19
474.625	2594.19
474.844	2578.19
475.063	2604.19
475.282	2616.19
475.501	2571.19
475.72	2603.19
475.939	2696.19
476.158	2657.19
476.377	2772.19
476.596	2718.19
476.814	2746.19
477.033	2668.19
477.252	2703.19
477.471	2735.19
477.69	2840.19
477.908	2885.19
478.127	2919.19
478.346	2947.19
478.564	2963.19
478.783	3014.19
479.002	3030.19
479.22	3027.19
479.439	3065.19
479.658	3051.19
479.876	3073.19
480.095	3092.19
480.313	3135.19
480.532	3164.19
480.751	3186.19
480.969	3135.19
481.188	3130.19
481.406	3153.19
481.624	3084.19
481.843	3090.19
482.061	3097.19
482.28	3055.19
482.498	3089.19
482.717	3107.19
482.935	3142.19
483.153	3168.19
483.372	3185.19
483.59	3257.19
483.808	3296.19
484.027	3382.19
484.245	3573.19
484.463	4122.19
484.681	4597.19
484.9	4100.19
485.118	3787.19
485.336	3706.19
485.554	3732.19
485.772	3981.19
485.99	4561.19
486.209	4972.19
486.427	4059.19
486.645	3628.19
486.863	3481.19
487.081	3383.19
487.299	3322.19
487.517	3371.19
487.735	3386.19
