Data from SnStandardFlinnAPT0064_LampEnergy10_LIBS07252019.E.O._I.C._HRD10591_15-21-00-494.txt Node
Date: Thu Jul 25 15:21:00 EDT 2019
User: cochatt
Spectrometer: HR+D1059
Trigger mode: 1
Integration Time (sec): 1.000000E-1
Scans to average: 1
Electric dark correction enabled: true
Nonlinearity correction enabled: false
Boxcar width: 0
XAxis mode: Wavelengths
Number of Pixels in Spectrum: 2048
>>>>>Begin Spectral Data<<<<<
223.165	-22.19
223.4	-22.19
223.635	-22.19
223.869	-25.19
224.104	-17.19
224.338	-9.19
224.573	-7.19
224.808	-17.19
225.042	-11.19
225.277	8.81
225.511	-2.19
225.746	13.81
225.98	-9.19
226.215	-5.19
226.449	14.81
226.683	21.81
226.918	31.81
227.152	34.81
227.387	30.81
227.621	40.81
227.856	51.81
228.09	40.81
228.324	52.81
228.559	59.81
228.793	123.81
229.027	330.81
229.262	326.81
229.496	310.81
229.73	296.81
229.964	308.81
230.199	301.81
230.433	294.81
230.667	301.81
230.901	323.81
231.136	352.81
231.37	350.81
231.604	377.81
231.838	466.81
232.072	516.81
232.306	568.81
232.541	469.81
232.775	442.81
233.009	420.81
233.243	423.81
233.477	472.81
233.711	523.81
233.945	582.81
234.179	518.81
234.413	459.81
234.647	457.81
234.881	478.81
235.115	524.81
235.349	625.81
235.583	757.81
235.817	980.81
236.051	956.81
236.285	674.81
236.519	550.81
236.753	506.81
236.987	503.81
237.221	552.81
237.455	515.81
237.689	475.81
237.922	468.81
238.156	493.81
238.39	468.81
238.624	490.81
238.858	485.81
239.091	493.81
239.325	502.81
239.559	512.81
239.793	532.81
240.027	522.81
240.26	544.81
240.494	554.81
240.728	586.81
240.961	616.81
241.195	659.81
241.429	677.81
241.662	711.81
241.896	790.81
242.13	950.81
242.363	1219.81
242.597	1546.81
242.83	1497.81
243.064	1527.81
243.298	1757.81
243.531	1479.81
243.765	975.81
243.998	815.81
244.232	716.81
244.465	664.81
244.699	652.81
244.932	663.81
245.166	661.81
245.399	691.81
245.633	686.81
245.866	700.81
246.099	656.81
246.333	662.81
246.566	644.81
246.8	631.81
247.033	666.81
247.266	662.81
247.5	662.81
247.733	677.81
247.966	746.81
248.2	781.81
248.433	894.81
248.666	982.81
248.899	949.81
249.133	864.81
249.366	883.81
249.599	951.81
249.832	1103.81
250.066	1053.81
250.299	854.81
250.532	787.81
250.765	749.81
250.998	752.81
251.231	735.81
251.465	731.81
251.698	743.81
251.931	748.81
252.164	784.81
252.397	792.81
252.63	796.81
252.863	810.81
253.096	801.81
253.329	820.81
253.562	803.81
253.795	783.81
254.028	832.81
254.261	836.81
254.494	886.81
254.727	1038.81
254.96	1225.81
255.193	1196.81
255.426	970.81
255.659	878.81
255.892	880.81
256.124	883.81
256.357	891.81
256.59	917.81
256.823	986.81
257.056	1136.81
257.289	1341.81
257.521	1511.81
257.754	1234.81
257.987	1015.81
258.22	952.81
258.452	941.81
258.685	935.81
258.918	980.81
259.151	1017.81
259.383	1120.81
259.616	1229.81
259.849	1258.81
260.081	1088.81
260.314	1010.81
260.547	944.81
260.779	981.81
261.012	968.81
261.244	976.81
261.477	989.81
261.71	1021.81
261.942	1018.81
262.175	1028.81
262.407	1051.81
262.64	1067.81
262.872	1122.81
263.105	1169.81
263.337	1189.81
263.57	1282.81
263.802	1298.81
264.035	1363.81
264.267	1346.81
264.499	1423.81
264.732	1442.81
264.964	1485.81
265.197	1456.81
265.429	1451.81
265.661	1466.81
265.894	1606.81
266.126	1756.81
266.358	2011.81
266.591	1915.81
266.823	1623.81
267.055	1445.81
267.287	1421.81
267.52	1359.81
267.752	1284.81
267.984	1294.81
268.216	1272.81
268.448	1207.81
268.681	1254.81
268.913	1230.81
269.145	1246.81
269.377	1255.81
269.609	1259.81
269.841	1296.81
270.073	1392.81
270.306	1580.81
270.538	2151.81
270.77	3159.81
271.002	3855.81
271.234	2790.81
271.466	1909.81
271.698	1517.81
271.93	1423.81
272.162	1321.81
272.394	1327.81
272.626	1255.81
272.858	1272.81
273.09	1248.81
273.322	1228.81
273.553	1234.81
273.785	1222.81
274.017	1207.81
274.249	1206.81
274.481	1227.81
274.713	1232.81
274.945	1204.81
275.176	1221.81
275.408	1223.81
275.64	1224.81
275.872	1238.81
276.104	1251.81
276.335	1286.81
276.567	1307.81
276.799	1284.81
277.031	1328.81
277.262	1340.81
277.494	1422.81
277.726	1562.81
277.957	1852.81
278.189	2126.81
278.421	1958.81
278.652	1782.81
278.884	1716.81
279.115	1532.81
279.347	1431.81
279.579	1434.81
279.81	1415.81
280.042	1435.81
280.273	1423.81
280.505	1440.81
280.736	1483.81
280.968	1604.81
281.199	1775.81
281.431	2010.81
281.662	2116.81
281.894	1802.81
282.125	1645.81
282.356	1686.81
282.588	1702.81
282.819	1701.81
283.051	1816.81
283.282	2029.81
283.513	2472.81
283.745	3555.81
283.976	5483.81
284.207	7781.81
284.439	7111.81
284.67	4509.81
284.901	3689.81
285.132	3770.81
285.364	3557.81
285.595	2730.81
285.826	2430.81
286.057	2857.81
286.288	3833.81
286.52	5127.81
286.751	4786.81
286.982	3035.81
287.213	2276.81
287.444	2031.81
287.675	1896.81
287.906	1806.81
288.138	1750.81
288.369	1726.81
288.6	1652.81
288.831	1704.81
289.062	1695.81
289.293	1690.81
289.524	1717.81
289.755	1753.81
289.986	1739.81
290.217	1705.81
290.448	1735.81
290.679	1755.81
290.91	1835.81
291.141	1942.81
291.371	2043.81
291.602	2128.81
291.833	1935.81
292.064	1748.81
292.295	1684.81
292.526	1639.81
292.757	1639.81
292.987	1634.81
293.218	1631.81
293.449	1645.81
293.68	1616.81
293.91	1616.81
294.141	1586.81
294.372	1593.81
294.603	1598.81
294.833	1578.81
295.064	1595.81
295.295	1575.81
295.525	1576.81
295.756	1616.81
295.987	1573.81
296.217	1582.81
296.448	1572.81
296.679	1567.81
296.909	1597.81
297.14	1592.81
297.37	1639.81
297.601	1674.81
297.831	1670.81
298.062	1633.81
298.292	1654.81
298.523	1683.81
298.753	1721.81
298.984	1723.81
299.214	1715.81
299.445	1716.81
299.675	1786.81
299.905	1869.81
300.136	1928.81
300.366	2170.81
300.597	2677.81
300.827	3770.81
301.057	5173.81
301.288	5124.81
301.518	3412.81
301.748	2635.81
301.979	2386.81
302.209	2311.81
302.439	2315.81
302.669	2484.81
302.9	2960.81
303.13	4155.81
303.36	6015.81
303.59	8040.81
303.82	6950.81
304.051	4221.81
304.281	3066.81
304.511	2542.81
304.741	2342.81
304.971	2235.81
305.201	2104.81
305.431	2105.81
305.661	1974.81
305.891	1934.81
306.121	1870.81
306.352	1900.81
306.582	1807.81
306.812	1855.81
307.042	1876.81
307.272	1856.81
307.502	1842.81
307.731	1849.81
307.961	1816.81
308.191	1808.81
308.421	1872.81
308.651	1831.81
308.881	1828.81
309.111	1843.81
309.341	1819.81
309.571	1832.81
309.8	1868.81
310.03	1875.81
310.26	1887.81
310.49	1851.81
310.72	1918.81
310.949	1878.81
311.179	1916.81
311.409	1928.81
311.639	1937.81
311.868	1949.81
312.098	1950.81
312.328	1988.81
312.557	1977.81
312.787	1988.81
313.017	1942.81
313.246	1990.81
313.476	2026.81
313.706	2098.81
313.935	2265.81
314.165	2407.81
314.394	2470.81
314.624	2390.81
314.853	2198.81
315.083	2179.81
315.312	2217.81
315.542	2222.81
315.771	2223.81
316.001	2297.81
316.23	2347.81
316.46	2454.81
316.689	2699.81
316.919	3228.81
317.148	4601.81
317.377	6938.81
317.607	10109.81
317.836	10500.81
318.065	6604.81
318.295	4270.81
318.524	3488.81
318.753	3053.81
318.983	2772.81
319.212	2605.81
319.441	2493.81
319.67	2457.81
319.9	2389.81
320.129	2406.81
320.358	2385.81
320.587	2350.81
320.816	2360.81
321.046	2354.81
321.275	2347.81
321.504	2374.81
321.733	2474.81
321.962	2520.81
322.191	2566.81
322.42	2534.81
322.649	2543.81
322.878	2508.81
323.108	2504.81
323.337	2573.81
323.566	2573.81
323.795	2646.81
324.024	2671.81
324.253	2746.81
324.482	2857.81
324.71	2966.81
324.939	3257.81
325.168	3293.81
325.397	3456.81
325.626	4006.81
325.855	5570.81
326.084	8595.81
326.313	12391.81
326.542	13245.81
326.77	8991.81
326.999	5988.81
327.228	5031.81
327.457	4767.81
327.686	4821.81
327.914	5162.81
328.143	6019.81
328.372	7156.81
328.6	7721.81
328.829	7012.81
329.058	5892.81
329.287	5132.81
329.515	4682.81
329.744	4368.81
329.972	4150.81
330.201	3919.81
330.43	3756.81
330.658	3668.81
330.887	3572.81
331.115	3522.81
331.344	3494.81
331.572	3495.81
331.801	3561.81
332.03	3563.81
332.258	3573.81
332.486	3788.81
332.715	4299.81
332.943	5292.81
333.172	6541.81
333.4	6590.81
333.629	5007.81
333.857	4474.81
334.085	4519.81
334.314	4716.81
334.542	5130.81
334.771	6029.81
334.999	7359.81
335.227	9255.81
335.455	10390.81
335.684	9343.81
335.912	7708.81
336.14	6546.81
336.369	5717.81
336.597	5327.81
336.825	4905.81
337.053	4600.81
337.281	4270.81
337.51	4059.81
337.738	3971.81
337.966	3749.81
338.194	3589.81
338.422	3510.81
338.65	3386.81
338.878	3356.81
339.106	3261.81
339.334	3232.81
339.562	3208.81
339.79	3112.81
340.018	3086.81
340.246	3073.81
340.474	3063.81
340.702	2972.81
340.93	3038.81
341.158	3004.81
341.386	3059.81
341.614	2982.81
341.842	2946.81
342.07	2857.81
342.298	2861.81
342.526	2788.81
342.754	2762.81
342.981	2764.81
343.209	2745.81
343.437	2760.81
343.665	2855.81
343.893	2854.81
344.12	2863.81
344.348	2854.81
344.576	2742.81
344.804	2722.81
345.031	2697.81
345.259	2662.81
345.487	2661.81
345.714	2568.81
345.942	2566.81
346.17	2579.81
346.397	2527.81
346.625	2607.81
346.853	2533.81
347.08	2552.81
347.308	2563.81
347.535	2555.81
347.763	2535.81
347.99	2510.81
348.218	2502.81
348.445	2468.81
348.673	2496.81
348.9	2462.81
349.128	2473.81
349.355	2462.81
349.583	2447.81
349.81	2437.81
350.037	2430.81
350.265	2454.81
350.492	2473.81
350.72	2452.81
350.947	2398.81
351.174	2404.81
351.402	2393.81
351.629	2386.81
351.856	2433.81
352.083	2464.81
352.311	2428.81
352.538	2429.81
352.765	2419.81
352.992	2378.81
353.22	2386.81
353.447	2407.81
353.674	2317.81
353.901	2375.81
354.128	2406.81
354.355	2404.81
354.583	2444.81
354.81	2422.81
355.037	2430.81
355.264	2401.81
355.491	2508.81
355.718	2500.81
355.945	2471.81
356.172	2468.81
356.399	2499.81
356.626	2460.81
356.853	2546.81
357.08	2531.81
357.307	2569.81
357.534	2582.81
357.761	2592.81
357.988	2583.81
358.215	2572.81
358.441	2595.81
358.668	2562.81
358.895	2565.81
359.122	2535.81
359.349	2518.81
359.576	2524.81
359.802	2550.81
360.029	2537.81
360.256	2570.81
360.483	2630.81
360.709	2597.81
360.936	2628.81
361.163	2588.81
361.39	2571.81
361.616	2573.81
361.843	2590.81
362.07	2616.81
362.296	2572.81
362.523	2574.81
362.749	2603.81
362.976	2589.81
363.203	2585.81
363.429	2494.81
363.656	2576.81
363.882	2571.81
364.109	2520.81
364.335	2508.81
364.562	2525.81
364.788	2572.81
365.015	2601.81
365.241	2678.81
365.468	2823.81
365.694	2961.81
365.92	2856.81
366.147	2683.81
366.373	2663.81
366.599	2630.81
366.826	2631.81
367.052	2577.81
367.278	2680.81
367.505	2662.81
367.731	2675.81
367.957	2634.81
368.184	2682.81
368.41	2674.81
368.636	2700.81
368.862	2677.81
369.089	2723.81
369.315	2708.81
369.541	2668.81
369.767	2582.81
369.993	2666.81
370.219	2630.81
370.445	2674.81
370.672	2707.81
370.898	2725.81
371.124	2722.81
371.35	2714.81
371.576	2723.81
371.802	2699.81
372.028	2825.81
372.254	2789.81
372.48	2748.81
372.706	2811.81
372.932	2774.81
373.158	2822.81
373.384	2799.81
373.61	2860.81
373.835	2767.81
374.061	2787.81
374.287	2890.81
374.513	2878.81
374.739	2906.81
374.965	2952.81
375.191	2923.81
375.416	2904.81
375.642	2898.81
375.868	2874.81
376.094	2877.81
376.319	2839.81
376.545	2802.81
376.771	2771.81
376.997	2810.81
377.222	2762.81
377.448	2719.81
377.674	2776.81
377.899	2712.81
378.125	2727.81
378.35	2725.81
378.576	2760.81
378.802	2806.81
379.027	2809.81
379.253	2907.81
379.478	3058.81
379.704	3590.81
379.929	5096.81
380.155	7819.81
380.38	8514.81
380.606	5293.81
380.831	3758.81
381.057	3250.81
381.282	3013.81
381.507	2931.81
381.733	2839.81
381.958	2791.81
382.184	2759.81
382.409	2693.81
382.634	2723.81
382.86	2700.81
383.085	2692.81
383.31	2698.81
383.535	2719.81
383.761	2719.81
383.986	2739.81
384.211	2791.81
384.436	2759.81
384.662	2763.81
384.887	2795.81
385.112	2841.81
385.337	2769.81
385.562	2773.81
385.787	2789.81
386.013	2756.81
386.238	2821.81
386.463	2771.81
386.688	2776.81
386.913	2726.81
387.138	2840.81
387.363	2748.81
387.588	2746.81
387.813	2804.81
388.038	2780.81
388.263	2798.81
388.488	2753.81
388.713	2808.81
388.938	2761.81
389.163	2775.81
389.387	2818.81
389.612	2743.81
389.837	2797.81
390.062	2783.81
390.287	2837.81
390.512	2874.81
390.736	2852.81
390.961	2855.81
391.186	2903.81
391.411	2918.81
391.636	2915.81
391.86	2963.81
392.085	2983.81
392.31	2947.81
392.534	2915.81
392.759	2866.81
392.984	2868.81
393.208	2847.81
393.433	2814.81
393.658	2854.81
393.882	2825.81
394.107	2800.81
394.331	2785.81
394.556	2844.81
394.78	2790.81
395.005	2874.81
395.229	2889.81
395.454	2912.81
395.678	2900.81
395.903	2944.81
396.127	2942.81
396.352	2885.81
396.576	2880.81
396.801	2883.81
397.025	2943.81
397.249	2930.81
397.474	2908.81
397.698	2952.81
397.922	2978.81
398.147	2956.81
398.371	2984.81
398.595	3011.81
398.82	3092.81
399.044	3214.81
399.268	3388.81
399.492	3518.81
399.717	3694.81
399.941	3654.81
400.165	3596.81
400.389	3380.81
400.613	3270.81
400.837	3159.81
401.062	3138.81
401.286	3094.81
401.51	3053.81
401.734	3050.81
401.958	3138.81
402.182	3052.81
402.406	3068.81
402.63	3071.81
402.854	3149.81
403.078	3130.81
403.302	3192.81
403.526	3167.81
403.75	3138.81
403.974	3157.81
404.198	3149.81
404.422	3212.81
404.645	3209.81
404.869	3161.81
405.093	3219.81
405.317	3171.81
405.541	3229.81
405.765	3248.81
405.988	3362.81
406.212	3276.81
406.436	3240.81
406.66	3331.81
406.883	3302.81
407.107	3436.81
407.331	3454.81
407.555	3544.81
407.778	3441.81
408.002	3452.81
408.226	3415.81
408.449	3395.81
408.673	3353.81
408.896	3291.81
409.12	3260.81
409.344	3216.81
409.567	3236.81
409.791	3259.81
410.014	3173.81
410.238	3169.81
410.461	3133.81
410.685	3133.81
410.908	3142.81
411.132	3085.81
411.355	3005.81
411.578	3082.81
411.802	3048.81
412.025	3079.81
412.249	3085.81
412.472	3032.81
412.695	3086.81
412.919	2988.81
413.142	2979.81
413.365	2985.81
413.589	3039.81
413.812	3024.81
414.035	3044.81
414.258	3041.81
414.482	3080.81
414.705	3054.81
414.928	2950.81
415.151	3028.81
415.374	2993.81
415.597	2940.81
415.821	2904.81
416.044	2900.81
416.267	2924.81
416.49	2889.81
416.713	2871.81
416.936	2851.81
417.159	2925.81
417.382	2875.81
417.605	2846.81
417.828	2895.81
418.051	2898.81
418.274	2895.81
418.497	2947.81
418.72	2995.81
418.943	2938.81
419.166	3058.81
419.389	3234.81
419.611	3204.81
419.834	3082.81
420.057	2990.81
420.28	2960.81
420.503	2886.81
420.726	2854.81
420.948	2893.81
421.171	2912.81
421.394	2922.81
421.617	2882.81
421.839	2880.81
422.062	2922.81
422.285	2871.81
422.507	2960.81
422.73	2953.81
422.953	2987.81
423.175	3020.81
423.398	2969.81
423.621	2882.81
423.843	2964.81
424.066	2903.81
424.288	2894.81
424.511	2874.81
424.733	2900.81
424.956	2851.81
425.178	2849.81
425.401	2777.81
425.623	2843.81
425.846	2787.81
426.068	2808.81
426.291	2798.81
426.513	2782.81
426.735	2743.81
426.958	2779.81
427.18	2685.81
427.402	2745.81
427.625	2710.81
427.847	2687.81
428.069	2708.81
428.292	2694.81
428.514	2695.81
428.736	2708.81
428.958	2733.81
429.181	2636.81
429.403	2649.81
429.625	2661.81
429.847	2692.81
430.069	2757.81
430.292	2824.81
430.514	2848.81
430.736	2884.81
430.958	2718.81
431.18	2658.81
431.402	2686.81
431.624	2648.81
431.846	2636.81
432.068	2595.81
432.29	2636.81
432.512	2582.81
432.734	2681.81
432.956	2682.81
433.178	2645.81
433.4	2628.81
433.622	2678.81
433.844	2674.81
434.066	2674.81
434.287	2678.81
434.509	2716.81
434.731	2771.81
434.953	2752.81
435.175	2757.81
435.397	2786.81
435.618	2666.81
435.84	2692.81
436.062	2607.81
436.284	2684.81
436.505	2632.81
436.727	2641.81
436.949	2586.81
437.17	2682.81
437.392	2582.81
437.614	2603.81
437.835	2556.81
438.057	2583.81
438.278	2549.81
438.5	2595.81
438.721	2626.81
438.943	2621.81
439.165	2771.81
439.386	2728.81
439.608	2744.81
439.829	2720.81
440.05	2826.81
440.272	2862.81
440.493	2813.81
440.715	2720.81
440.936	2743.81
441.158	2791.81
441.379	2829.81
441.6	2828.81
441.822	2914.81
442.043	3062.81
442.264	3164.81
442.486	2998.81
442.707	2904.81
442.928	2837.81
443.149	2863.81
443.371	2854.81
443.592	2863.81
443.813	2833.81
444.034	2866.81
444.255	2888.81
444.476	2926.81
444.698	3029.81
444.919	3042.81
445.14	3064.81
445.361	3025.81
445.582	2923.81
445.803	2851.81
446.024	2825.81
446.245	2783.81
446.466	2827.81
446.687	2773.81
446.908	2783.81
447.129	2695.81
447.35	2740.81
447.571	2694.81
447.792	2615.81
448.013	2637.81
448.234	2586.81
448.455	2642.81
448.675	2676.81
448.896	2710.81
449.117	2811.81
449.338	3020.81
449.559	3117.81
449.779	2761.81
450	2668.81
450.221	2594.81
450.442	2590.81
450.662	2590.81
450.883	2515.81
451.104	2543.81
451.324	2538.81
451.545	2579.81
451.766	2635.81
451.986	2591.81
452.207	2795.81
452.428	3602.81
452.648	5502.81
452.869	4606.81
453.089	3226.81
453.31	3011.81
453.53	2956.81
453.751	3032.81
453.971	3230.81
454.192	3116.81
454.412	2726.81
454.633	2614.81
454.853	2468.81
455.073	2470.81
455.294	2501.81
455.514	2461.81
455.734	2440.81
455.955	2436.81
456.175	2462.81
456.395	2452.81
456.616	2425.81
456.836	2513.81
457.056	2499.81
457.276	2546.81
457.497	2634.81
457.717	2688.81
457.937	2604.81
458.157	2580.81
458.377	2582.81
458.598	2637.81
458.818	2665.81
459.038	2607.81
459.258	2632.81
459.478	2676.81
459.698	2700.81
459.918	2730.81
460.138	2780.81
460.358	2823.81
460.578	2840.81
460.798	2926.81
461.018	2847.81
461.238	2858.81
461.458	2926.81
461.678	2922.81
461.898	2991.81
462.118	2972.81
462.338	3047.81
462.558	3090.81
462.777	3148.81
462.997	3228.81
463.217	3378.81
463.437	3501.81
463.657	3546.81
463.876	3543.81
464.096	3386.81
464.316	3224.81
464.536	3182.81
464.755	3103.81
464.975	3023.81
465.195	2903.81
465.414	2851.81
465.634	2744.81
465.854	2709.81
466.073	2706.81
466.293	2641.81
466.512	2729.81
466.732	2684.81
466.951	2840.81
467.171	2991.81
467.391	2959.81
467.61	2754.81
467.829	2639.81
468.049	2641.81
468.268	2573.81
468.488	2593.81
468.707	2574.81
468.927	2604.81
469.146	2603.81
469.365	2631.81
469.585	2652.81
469.804	2726.81
470.023	2764.81
470.243	2789.81
470.462	2866.81
470.681	2996.81
470.901	3289.81
471.12	3784.81
471.339	3775.81
471.558	3168.81
471.777	2860.81
471.997	2799.81
472.216	2759.81
472.435	2706.81
472.654	2610.81
472.873	2586.81
473.092	2626.81
473.311	2662.81
473.53	2615.81
473.749	2677.81
473.968	2774.81
474.187	2658.81
474.406	2595.81
474.625	2623.81
474.844	2602.81
475.063	2628.81
475.282	2661.81
475.501	2639.81
475.72	2634.81
475.939	2636.81
476.158	2712.81
476.377	2780.81
476.596	2762.81
476.814	2784.81
477.033	2750.81
477.252	2798.81
477.471	2874.81
477.69	2946.81
477.908	2933.81
478.127	2969.81
478.346	3006.81
478.564	3021.81
478.783	3080.81
479.002	3099.81
479.22	3123.81
479.439	3094.81
479.658	3110.81
479.876	3119.81
480.095	3181.81
480.313	3220.81
480.532	3274.81
480.751	3264.81
480.969	3220.81
481.188	3193.81
481.406	3144.81
481.624	3183.81
481.843	3225.81
482.061	3187.81
482.28	3194.81
482.498	3198.81
482.717	3201.81
482.935	3240.81
483.153	3268.81
483.372	3279.81
483.59	3340.81
483.808	3338.81
484.027	3449.81
484.245	3690.81
484.463	4012.81
484.681	4498.81
484.9	4054.81
485.118	3802.81
485.336	3699.81
485.554	3818.81
485.772	4039.81
485.99	4450.81
486.209	4852.81
486.427	4158.81
486.645	3726.81
486.863	3563.81
487.081	3455.81
487.299	3373.81
487.517	3351.81
487.735	3338.81
