Data from SnStandardFlinnAPT0064_LampEnergy10_LIBS07252019.E.O._I.C._HRD10591_15-21-27-494.txt Node
Date: Thu Jul 25 15:21:27 EDT 2019
User: cochatt
Spectrometer: HR+D1059
Trigger mode: 1
Integration Time (sec): 1.000000E-1
Scans to average: 1
Electric dark correction enabled: true
Nonlinearity correction enabled: false
Boxcar width: 0
XAxis mode: Wavelengths
Number of Pixels in Spectrum: 2048
>>>>>Begin Spectral Data<<<<<
223.165	-22.81
223.4	-22.81
223.635	-22.81
223.869	-22.81
224.104	-14.81
224.338	-22.81
224.573	-15.81
224.808	-13.81
225.042	-7.81
225.277	5.19
225.511	2.19
225.746	12.19
225.98	1.19
226.215	14.19
226.449	7.19
226.683	18.19
226.918	24.19
227.152	36.19
227.387	34.19
227.621	51.19
227.856	50.19
228.09	35.19
228.324	40.19
228.559	48.19
228.793	123.19
229.027	326.19
229.262	337.19
229.496	306.19
229.73	302.19
229.964	311.19
230.199	287.19
230.433	313.19
230.667	294.19
230.901	316.19
231.136	334.19
231.37	361.19
231.604	376.19
231.838	430.19
232.072	519.19
232.306	545.19
232.541	470.19
232.775	405.19
233.009	413.19
233.243	424.19
233.477	453.19
233.711	498.19
233.945	574.19
234.179	489.19
234.413	437.19
234.647	459.19
234.881	463.19
235.115	515.19
235.349	602.19
235.583	763.19
235.817	976.19
236.051	968.19
236.285	646.19
236.519	548.19
236.753	506.19
236.987	508.19
237.221	517.19
237.455	522.19
237.689	455.19
237.922	452.19
238.156	466.19
238.39	461.19
238.624	487.19
238.858	481.19
239.091	479.19
239.325	500.19
239.559	494.19
239.793	501.19
240.027	527.19
240.26	552.19
240.494	551.19
240.728	546.19
240.961	614.19
241.195	663.19
241.429	670.19
241.662	705.19
241.896	774.19
242.13	929.19
242.363	1217.19
242.597	1606.19
242.83	1544.19
243.064	1553.19
243.298	1799.19
243.531	1466.19
243.765	945.19
243.998	762.19
244.232	686.19
244.465	686.19
244.699	661.19
244.932	665.19
245.166	670.19
245.399	677.19
245.633	664.19
245.866	676.19
246.099	668.19
246.333	658.19
246.566	639.19
246.8	636.19
247.033	655.19
247.266	644.19
247.5	662.19
247.733	662.19
247.966	712.19
248.2	767.19
248.433	848.19
248.666	975.19
248.899	953.19
249.133	824.19
249.366	850.19
249.599	959.19
249.832	1061.19
250.066	1080.19
250.299	863.19
250.532	755.19
250.765	742.19
250.998	782.19
251.231	735.19
251.465	730.19
251.698	764.19
251.931	727.19
252.164	734.19
252.397	755.19
252.63	776.19
252.863	811.19
253.096	780.19
253.329	788.19
253.562	785.19
253.795	795.19
254.028	792.19
254.261	828.19
254.494	864.19
254.727	984.19
254.96	1212.19
255.193	1208.19
255.426	963.19
255.659	893.19
255.892	876.19
256.124	891.19
256.357	870.19
256.59	908.19
256.823	987.19
257.056	1112.19
257.289	1333.19
257.521	1463.19
257.754	1175.19
257.987	990.19
258.22	927.19
258.452	898.19
258.685	951.19
258.918	947.19
259.151	996.19
259.383	1103.19
259.616	1180.19
259.849	1260.19
260.081	1081.19
260.314	990.19
260.547	946.19
260.779	924.19
261.012	961.19
261.244	982.19
261.477	994.19
261.71	1006.19
261.942	990.19
262.175	1030.19
262.407	1039.19
262.64	1050.19
262.872	1123.19
263.105	1184.19
263.337	1217.19
263.57	1252.19
263.802	1322.19
264.035	1351.19
264.267	1363.19
264.499	1414.19
264.732	1419.19
264.964	1478.19
265.197	1447.19
265.429	1414.19
265.661	1504.19
265.894	1587.19
266.126	1772.19
266.358	1988.19
266.591	1934.19
266.823	1654.19
267.055	1460.19
267.287	1431.19
267.52	1320.19
267.752	1313.19
267.984	1283.19
268.216	1251.19
268.448	1247.19
268.681	1237.19
268.913	1242.19
269.145	1238.19
269.377	1258.19
269.609	1266.19
269.841	1304.19
270.073	1350.19
270.306	1631.19
270.538	2094.19
270.77	3145.19
271.002	3844.19
271.234	2745.19
271.466	1902.19
271.698	1520.19
271.93	1378.19
272.162	1343.19
272.394	1276.19
272.626	1267.19
272.858	1231.19
273.09	1222.19
273.322	1211.19
273.553	1211.19
273.785	1202.19
274.017	1218.19
274.249	1224.19
274.481	1214.19
274.713	1183.19
274.945	1216.19
275.176	1241.19
275.408	1243.19
275.64	1237.19
275.872	1220.19
276.104	1232.19
276.335	1276.19
276.567	1266.19
276.799	1318.19
277.031	1326.19
277.262	1332.19
277.494	1397.19
277.726	1539.19
277.957	1840.19
278.189	2046.19
278.421	1890.19
278.652	1710.19
278.884	1669.19
279.115	1511.19
279.347	1409.19
279.579	1397.19
279.81	1389.19
280.042	1391.19
280.273	1425.19
280.505	1458.19
280.736	1470.19
280.968	1554.19
281.199	1743.19
281.431	2031.19
281.662	2031.19
281.894	1791.19
282.125	1632.19
282.356	1680.19
282.588	1657.19
282.819	1716.19
283.051	1809.19
283.282	1987.19
283.513	2445.19
283.745	3548.19
283.976	5608.19
284.207	7849.19
284.439	7192.19
284.67	4486.19
284.901	3598.19
285.132	3639.19
285.364	3476.19
285.595	2647.19
285.826	2420.19
286.057	2782.19
286.288	3809.19
286.52	5122.19
286.751	4806.19
286.982	3002.19
287.213	2275.19
287.444	1972.19
287.675	1882.19
287.906	1794.19
288.138	1751.19
288.369	1707.19
288.6	1692.19
288.831	1663.19
289.062	1662.19
289.293	1674.19
289.524	1690.19
289.755	1720.19
289.986	1716.19
290.217	1699.19
290.448	1714.19
290.679	1730.19
290.91	1770.19
291.141	1868.19
291.371	1981.19
291.602	2142.19
291.833	1928.19
292.064	1783.19
292.295	1717.19
292.526	1684.19
292.757	1624.19
292.987	1609.19
293.218	1589.19
293.449	1616.19
293.68	1600.19
293.91	1562.19
294.141	1610.19
294.372	1513.19
294.603	1565.19
294.833	1562.19
295.064	1599.19
295.295	1546.19
295.525	1572.19
295.756	1579.19
295.987	1573.19
296.217	1586.19
296.448	1597.19
296.679	1615.19
296.909	1574.19
297.14	1604.19
297.37	1621.19
297.601	1642.19
297.831	1636.19
298.062	1599.19
298.292	1632.19
298.523	1700.19
298.753	1714.19
298.984	1693.19
299.214	1689.19
299.445	1750.19
299.675	1775.19
299.905	1847.19
300.136	1911.19
300.366	2104.19
300.597	2711.19
300.827	3733.19
301.057	5110.19
301.288	5150.19
301.518	3282.19
301.748	2549.19
301.979	2394.19
302.209	2264.19
302.439	2273.19
302.669	2431.19
302.9	2904.19
303.13	4070.19
303.36	6020.19
303.59	7956.19
303.82	7012.19
304.051	4153.19
304.281	2997.19
304.511	2527.19
304.741	2332.19
304.971	2184.19
305.201	2082.19
305.431	2020.19
305.661	1978.19
305.891	1929.19
306.121	1874.19
306.352	1884.19
306.582	1837.19
306.812	1853.19
307.042	1862.19
307.272	1835.19
307.502	1824.19
307.731	1839.19
307.961	1844.19
308.191	1814.19
308.421	1846.19
308.651	1816.19
308.881	1840.19
309.111	1815.19
309.341	1810.19
309.571	1861.19
309.8	1857.19
310.03	1871.19
310.26	1868.19
310.49	1842.19
310.72	1843.19
310.949	1858.19
311.179	1910.19
311.409	1915.19
311.639	1950.19
311.868	1922.19
312.098	1927.19
312.328	1924.19
312.557	1972.19
312.787	1976.19
313.017	2000.19
313.246	1998.19
313.476	2020.19
313.706	2112.19
313.935	2170.19
314.165	2349.19
314.394	2440.19
314.624	2346.19
314.853	2166.19
315.083	2114.19
315.312	2186.19
315.542	2185.19
315.771	2238.19
316.001	2269.19
316.23	2326.19
316.46	2430.19
316.689	2651.19
316.919	3118.19
317.148	4503.19
317.377	6886.19
317.607	10083.19
317.836	10512.19
318.065	6484.19
318.295	4196.19
318.524	3396.19
318.753	2940.19
318.983	2705.19
319.212	2555.19
319.441	2502.19
319.67	2453.19
319.9	2414.19
320.129	2368.19
320.358	2339.19
320.587	2315.19
320.816	2375.19
321.046	2336.19
321.275	2345.19
321.504	2431.19
321.733	2458.19
321.962	2527.19
322.191	2499.19
322.42	2501.19
322.649	2523.19
322.878	2476.19
323.108	2508.19
323.337	2530.19
323.566	2541.19
323.795	2603.19
324.024	2643.19
324.253	2740.19
324.482	2845.19
324.71	3014.19
324.939	3178.19
325.168	3237.19
325.397	3355.19
325.626	4020.19
325.855	5548.19
326.084	8551.19
326.313	12475.19
326.542	13187.19
326.77	8973.19
326.999	5870.19
327.228	4952.19
327.457	4765.19
327.686	4786.19
327.914	5163.19
328.143	6096.19
328.372	7235.19
328.6	7942.19
328.829	7059.19
329.058	5836.19
329.287	5063.19
329.515	4619.19
329.744	4264.19
329.972	4052.19
330.201	3838.19
330.43	3729.19
330.658	3659.19
330.887	3573.19
331.115	3520.19
331.344	3543.19
331.572	3470.19
331.801	3532.19
332.03	3532.19
332.258	3589.19
332.486	3782.19
332.715	4298.19
332.943	5196.19
333.172	6475.19
333.4	6389.19
333.629	4939.19
333.857	4508.19
334.085	4503.19
334.314	4701.19
334.542	5161.19
334.771	6102.19
334.999	7594.19
335.227	9571.19
335.455	10635.19
335.684	9502.19
335.912	7730.19
336.14	6528.19
336.369	5790.19
336.597	5238.19
336.825	4860.19
337.053	4481.19
337.281	4248.19
337.51	4036.19
337.738	3896.19
337.966	3689.19
338.194	3624.19
338.422	3539.19
338.65	3407.19
338.878	3333.19
339.106	3267.19
339.334	3231.19
339.562	3206.19
339.79	3069.19
340.018	3140.19
340.246	3058.19
340.474	3036.19
340.702	3004.19
340.93	3079.19
341.158	3016.19
341.386	3020.19
341.614	2987.19
341.842	2975.19
342.07	2898.19
342.298	2860.19
342.526	2787.19
342.754	2795.19
342.981	2726.19
343.209	2714.19
343.437	2785.19
343.665	2785.19
343.893	2835.19
344.12	2869.19
344.348	2809.19
344.576	2724.19
344.804	2713.19
345.031	2712.19
345.259	2600.19
345.487	2603.19
345.714	2555.19
345.942	2538.19
346.17	2604.19
346.397	2506.19
346.625	2588.19
346.853	2557.19
347.08	2514.19
347.308	2566.19
347.535	2533.19
347.763	2573.19
347.99	2550.19
348.218	2474.19
348.445	2448.19
348.673	2453.19
348.9	2514.19
349.128	2505.19
349.355	2492.19
349.583	2448.19
349.81	2434.19
350.037	2444.19
350.265	2420.19
350.492	2419.19
350.72	2401.19
350.947	2393.19
351.174	2387.19
351.402	2433.19
351.629	2435.19
351.856	2444.19
352.083	2394.19
352.311	2406.19
352.538	2388.19
352.765	2411.19
352.992	2400.19
353.22	2351.19
353.447	2379.19
353.674	2377.19
353.901	2379.19
354.128	2434.19
354.355	2452.19
354.583	2397.19
354.81	2420.19
355.037	2454.19
355.264	2481.19
355.491	2460.19
355.718	2450.19
355.945	2502.19
356.172	2492.19
356.399	2463.19
356.626	2509.19
356.853	2500.19
357.08	2537.19
357.307	2627.19
357.534	2618.19
357.761	2598.19
357.988	2606.19
358.215	2553.19
358.441	2578.19
358.668	2588.19
358.895	2523.19
359.122	2532.19
359.349	2528.19
359.576	2555.19
359.802	2600.19
360.029	2585.19
360.256	2567.19
360.483	2543.19
360.709	2584.19
360.936	2561.19
361.163	2603.19
361.39	2608.19
361.616	2611.19
361.843	2591.19
362.07	2567.19
362.296	2643.19
362.523	2634.19
362.749	2575.19
362.976	2567.19
363.203	2603.19
363.429	2547.19
363.656	2500.19
363.882	2606.19
364.109	2569.19
364.335	2572.19
364.562	2588.19
364.788	2585.19
365.015	2604.19
365.241	2636.19
365.468	2780.19
365.694	2891.19
365.92	2857.19
366.147	2661.19
366.373	2671.19
366.599	2630.19
366.826	2603.19
367.052	2615.19
367.278	2600.19
367.505	2622.19
367.731	2621.19
367.957	2638.19
368.184	2640.19
368.41	2699.19
368.636	2661.19
368.862	2616.19
369.089	2627.19
369.315	2672.19
369.541	2665.19
369.767	2678.19
369.993	2675.19
370.219	2668.19
370.445	2639.19
370.672	2634.19
370.898	2702.19
371.124	2663.19
371.35	2774.19
371.576	2746.19
371.802	2750.19
372.028	2761.19
372.254	2804.19
372.48	2790.19
372.706	2816.19
372.932	2808.19
373.158	2839.19
373.384	2803.19
373.61	2800.19
373.835	2821.19
374.061	2834.19
374.287	2858.19
374.513	2837.19
374.739	2915.19
374.965	2903.19
375.191	2931.19
375.416	2929.19
375.642	2891.19
375.868	2880.19
376.094	2805.19
376.319	2783.19
376.545	2817.19
376.771	2773.19
376.997	2786.19
377.222	2716.19
377.448	2757.19
377.674	2763.19
377.899	2769.19
378.125	2758.19
378.35	2735.19
378.576	2747.19
378.802	2765.19
379.027	2814.19
379.253	2895.19
379.478	2987.19
379.704	3577.19
379.929	5136.19
380.155	7642.19
380.38	8290.19
380.606	5217.19
380.831	3687.19
381.057	3208.19
381.282	3003.19
381.507	2866.19
381.733	2855.19
381.958	2754.19
382.184	2732.19
382.409	2751.19
382.634	2728.19
382.86	2643.19
383.085	2690.19
383.31	2714.19
383.535	2694.19
383.761	2730.19
383.986	2724.19
384.211	2756.19
384.436	2766.19
384.662	2792.19
384.887	2808.19
385.112	2734.19
385.337	2786.19
385.562	2807.19
385.787	2792.19
386.013	2778.19
386.238	2796.19
386.463	2820.19
386.688	2756.19
386.913	2687.19
387.138	2731.19
387.363	2818.19
387.588	2806.19
387.813	2791.19
388.038	2732.19
388.263	2798.19
388.488	2788.19
388.713	2777.19
388.938	2798.19
389.163	2785.19
389.387	2800.19
389.612	2786.19
389.837	2756.19
390.062	2792.19
390.287	2840.19
390.512	2785.19
390.736	2852.19
390.961	2875.19
391.186	2870.19
391.411	2888.19
391.636	2933.19
391.86	2934.19
392.085	2950.19
392.31	2918.19
392.534	2889.19
392.759	2886.19
392.984	2891.19
393.208	2863.19
393.433	2876.19
393.658	2862.19
393.882	2825.19
394.107	2820.19
394.331	2816.19
394.556	2837.19
394.78	2870.19
395.005	2872.19
395.229	2849.19
395.454	2866.19
395.678	2902.19
395.903	2919.19
396.127	2892.19
396.352	2866.19
396.576	2916.19
396.801	2868.19
397.025	2975.19
397.249	2936.19
397.474	2938.19
397.698	2970.19
397.922	2937.19
398.147	2928.19
398.371	3015.19
398.595	3074.19
398.82	3091.19
399.044	3248.19
399.268	3389.19
399.492	3520.19
399.717	3698.19
399.941	3710.19
400.165	3544.19
400.389	3400.19
400.613	3284.19
400.837	3228.19
401.062	3109.19
401.286	3102.19
401.51	3135.19
401.734	3012.19
401.958	3093.19
402.182	3064.19
402.406	3026.19
402.63	3092.19
402.854	3084.19
403.078	3127.19
403.302	3131.19
403.526	3175.19
403.75	3211.19
403.974	3198.19
404.198	3141.19
404.422	3232.19
404.645	3170.19
404.869	3185.19
405.093	3211.19
405.317	3198.19
405.541	3243.19
405.765	3266.19
405.988	3275.19
406.212	3258.19
406.436	3293.19
406.66	3346.19
406.883	3275.19
407.107	3430.19
407.331	3435.19
407.555	3463.19
407.778	3475.19
408.002	3352.19
408.226	3410.19
408.449	3432.19
408.673	3339.19
408.896	3251.19
409.12	3247.19
409.344	3283.19
409.567	3202.19
409.791	3194.19
410.014	3159.19
410.238	3197.19
410.461	3194.19
410.685	3133.19
410.908	3132.19
411.132	3107.19
411.355	2995.19
411.578	3092.19
411.802	3011.19
412.025	3033.19
412.249	3081.19
412.472	3081.19
412.695	3044.19
412.919	2990.19
413.142	3084.19
413.365	2987.19
413.589	3055.19
413.812	3046.19
414.035	3000.19
414.258	2993.19
414.482	3021.19
414.705	3036.19
414.928	3020.19
415.151	3002.19
415.374	2977.19
415.597	2965.19
415.821	2891.19
416.044	2917.19
416.267	2888.19
416.49	2880.19
416.713	2834.19
416.936	2913.19
417.159	2874.19
417.382	2893.19
417.605	2837.19
417.828	2843.19
418.051	2896.19
418.274	2900.19
418.497	2938.19
418.72	3029.19
418.943	2891.19
419.166	3035.19
419.389	3234.19
419.611	3177.19
419.834	3136.19
420.057	3068.19
420.28	2950.19
420.503	2894.19
420.726	2862.19
420.948	2856.19
421.171	2863.19
421.394	2891.19
421.617	2948.19
421.839	2944.19
422.062	2960.19
422.285	2906.19
422.507	2930.19
422.73	2970.19
422.953	3003.19
423.175	2933.19
423.398	2926.19
423.621	2882.19
423.843	2920.19
424.066	2846.19
424.288	2870.19
424.511	2885.19
424.733	2916.19
424.956	2881.19
425.178	2870.19
425.401	2853.19
425.623	2846.19
425.846	2757.19
426.068	2872.19
426.291	2748.19
426.513	2790.19
426.735	2802.19
426.958	2784.19
427.18	2747.19
427.402	2725.19
427.625	2730.19
427.847	2692.19
428.069	2640.19
428.292	2695.19
428.514	2678.19
428.736	2699.19
428.958	2677.19
429.181	2598.19
429.403	2614.19
429.625	2649.19
429.847	2665.19
430.069	2726.19
430.292	2801.19
430.514	2861.19
430.736	2874.19
430.958	2680.19
431.18	2651.19
431.402	2616.19
431.624	2643.19
431.846	2628.19
432.068	2655.19
432.29	2661.19
432.512	2646.19
432.734	2666.19
432.956	2657.19
433.178	2629.19
433.4	2675.19
433.622	2700.19
433.844	2665.19
434.066	2643.19
434.287	2681.19
434.509	2689.19
434.731	2744.19
434.953	2730.19
435.175	2736.19
435.397	2746.19
435.618	2751.19
435.84	2692.19
436.062	2626.19
436.284	2608.19
436.505	2631.19
436.727	2708.19
436.949	2591.19
437.17	2600.19
437.392	2576.19
437.614	2546.19
437.835	2499.19
438.057	2564.19
438.278	2536.19
438.5	2638.19
438.721	2602.19
438.943	2715.19
439.165	2700.19
439.386	2740.19
439.608	2737.19
439.829	2739.19
440.05	2810.19
440.272	2866.19
440.493	2701.19
440.715	2730.19
440.936	2784.19
441.158	2772.19
441.379	2775.19
441.6	2897.19
441.822	2987.19
442.043	3103.19
442.264	3184.19
442.486	2930.19
442.707	2882.19
442.928	2822.19
443.149	2811.19
443.371	2793.19
443.592	2840.19
443.813	2904.19
444.034	2859.19
444.255	2916.19
444.476	2961.19
444.698	2978.19
444.919	2982.19
445.14	3115.19
445.361	2994.19
445.582	2923.19
445.803	2835.19
446.024	2818.19
446.245	2783.19
446.466	2791.19
446.687	2793.19
446.908	2722.19
447.129	2690.19
447.35	2690.19
447.571	2675.19
447.792	2595.19
448.013	2640.19
448.234	2626.19
448.455	2613.19
448.675	2649.19
448.896	2678.19
449.117	2769.19
449.338	3012.19
449.559	3140.19
449.779	2808.19
450	2618.19
450.221	2590.19
450.442	2553.19
450.662	2533.19
450.883	2531.19
451.104	2516.19
451.324	2524.19
451.545	2537.19
451.766	2526.19
451.986	2558.19
452.207	2831.19
452.428	3492.19
452.648	5278.19
452.869	4457.19
453.089	3126.19
453.31	2996.19
453.53	2987.19
453.751	2999.19
453.971	3154.19
454.192	3076.19
454.412	2691.19
454.633	2584.19
454.853	2528.19
455.073	2466.19
455.294	2467.19
455.514	2387.19
455.734	2465.19
455.955	2410.19
456.175	2393.19
456.395	2399.19
456.616	2423.19
456.836	2466.19
457.056	2470.19
457.276	2502.19
457.497	2654.19
457.717	2707.19
457.937	2571.19
458.157	2568.19
458.377	2539.19
458.598	2610.19
458.818	2621.19
459.038	2588.19
459.258	2635.19
459.478	2684.19
459.698	2702.19
459.918	2716.19
460.138	2756.19
460.358	2835.19
460.578	2836.19
460.798	2878.19
461.018	2834.19
461.238	2875.19
461.458	2929.19
461.678	2904.19
461.898	3011.19
462.118	3010.19
462.338	3070.19
462.558	3149.19
462.777	3208.19
462.997	3284.19
463.217	3371.19
463.437	3481.19
463.657	3541.19
463.876	3528.19
464.096	3335.19
464.316	3164.19
464.536	3164.19
464.755	3109.19
464.975	2979.19
465.195	2945.19
465.414	2853.19
465.634	2771.19
465.854	2764.19
466.073	2696.19
466.293	2761.19
466.512	2664.19
466.732	2685.19
466.951	2808.19
467.171	3011.19
467.391	2936.19
467.61	2731.19
467.829	2618.19
468.049	2638.19
468.268	2587.19
468.488	2570.19
468.707	2560.19
468.927	2631.19
469.146	2582.19
469.365	2592.19
469.585	2610.19
469.804	2656.19
470.023	2763.19
470.243	2717.19
470.462	2852.19
470.681	2972.19
470.901	3274.19
471.12	3770.19
471.339	3743.19
471.558	3163.19
471.777	2894.19
471.997	2840.19
472.216	2683.19
472.435	2608.19
472.654	2636.19
472.873	2567.19
473.092	2612.19
473.311	2636.19
473.53	2610.19
473.749	2684.19
473.968	2783.19
474.187	2641.19
474.406	2606.19
474.625	2683.19
474.844	2611.19
475.063	2606.19
475.282	2590.19
475.501	2622.19
475.72	2688.19
475.939	2719.19
476.158	2712.19
476.377	2763.19
476.596	2772.19
476.814	2794.19
477.033	2772.19
477.252	2795.19
477.471	2846.19
477.69	2897.19
477.908	2921.19
478.127	2964.19
478.346	2984.19
478.564	3047.19
478.783	3070.19
479.002	3027.19
479.22	3120.19
479.439	3182.19
479.658	3108.19
479.876	3178.19
480.095	3151.19
480.313	3193.19
480.532	3264.19
480.751	3224.19
480.969	3169.19
481.188	3238.19
481.406	3137.19
481.624	3152.19
481.843	3174.19
482.061	3199.19
482.28	3152.19
482.498	3173.19
482.717	3227.19
482.935	3209.19
483.153	3255.19
483.372	3261.19
483.59	3352.19
483.808	3376.19
484.027	3451.19
484.245	3611.19
484.463	4066.19
484.681	4460.19
484.9	4155.19
485.118	3864.19
485.336	3756.19
485.554	3796.19
485.772	4077.19
485.99	4477.19
486.209	4850.19
486.427	4144.19
486.645	3623.19
486.863	3528.19
487.081	3478.19
487.299	3381.19
487.517	3417.19
487.735	3355.19
