Data from SnStandardFlinnAPT0064_LampEnergy5.5_LIBS07252019.E.O._I.C._HRD10591_15-17-15-492.txt Node
Date: Thu Jul 25 15:17:15 EDT 2019
User: cochatt
Spectrometer: HR+D1059
Trigger mode: 1
Integration Time (sec): 1.000000E-1
Scans to average: 1
Electric dark correction enabled: true
Nonlinearity correction enabled: false
Boxcar width: 0
XAxis mode: Wavelengths
Number of Pixels in Spectrum: 2048
>>>>>Begin Spectral Data<<<<<
223.165	-6.94
223.4	-6.94
223.635	-6.94
223.869	-18.94
224.104	-10.94
224.338	-18.94
224.573	-2.94
224.808	-14.94
225.042	-10.94
225.277	-4.94
225.511	-13.94
225.746	2.06
225.98	18.06
226.215	5.06
226.449	22.06
226.683	5.06
226.918	28.06
227.152	23.06
227.387	38.06
227.621	35.06
227.856	41.06
228.09	27.06
228.324	72.06
228.559	60.06
228.793	86.06
229.027	164.06
229.262	161.06
229.496	170.06
229.73	167.06
229.964	162.06
230.199	160.06
230.433	152.06
230.667	167.06
230.901	151.06
231.136	168.06
231.37	177.06
231.604	197.06
231.838	209.06
232.072	244.06
232.306	251.06
232.541	227.06
232.775	218.06
233.009	207.06
233.243	207.06
233.477	228.06
233.711	275.06
233.945	268.06
234.179	263.06
234.413	226.06
234.647	213.06
234.881	223.06
235.115	244.06
235.349	279.06
235.583	363.06
235.817	462.06
236.051	439.06
236.285	313.06
236.519	253.06
236.753	237.06
236.987	240.06
237.221	246.06
237.455	243.06
237.689	224.06
237.922	227.06
238.156	228.06
238.39	218.06
238.624	235.06
238.858	217.06
239.091	224.06
239.325	230.06
239.559	223.06
239.793	240.06
240.027	261.06
240.26	233.06
240.494	275.06
240.728	277.06
240.961	263.06
241.195	296.06
241.429	291.06
241.662	319.06
241.896	363.06
242.13	406.06
242.363	527.06
242.597	664.06
242.83	648.06
243.064	658.06
243.298	785.06
243.531	657.06
243.765	419.06
243.998	331.06
244.232	303.06
244.465	312.06
244.699	310.06
244.932	312.06
245.166	293.06
245.399	285.06
245.633	311.06
245.866	311.06
246.099	322.06
246.333	305.06
246.566	293.06
246.8	292.06
247.033	273.06
247.266	288.06
247.5	311.06
247.733	317.06
247.966	313.06
248.2	340.06
248.433	370.06
248.666	424.06
248.899	409.06
249.133	358.06
249.366	371.06
249.599	411.06
249.832	462.06
250.066	473.06
250.299	393.06
250.532	366.06
250.765	333.06
250.998	356.06
251.231	336.06
251.465	331.06
251.698	342.06
251.931	346.06
252.164	337.06
252.397	341.06
252.63	361.06
252.863	365.06
253.096	369.06
253.329	351.06
253.562	363.06
253.795	369.06
254.028	374.06
254.261	383.06
254.494	397.06
254.727	456.06
254.96	533.06
255.193	528.06
255.426	425.06
255.659	388.06
255.892	375.06
256.124	393.06
256.357	382.06
256.59	395.06
256.823	430.06
257.056	479.06
257.289	559.06
257.521	611.06
257.754	513.06
257.987	437.06
258.22	406.06
258.452	395.06
258.685	423.06
258.918	427.06
259.151	437.06
259.383	459.06
259.616	510.06
259.849	547.06
260.081	482.06
260.314	443.06
260.547	431.06
260.779	441.06
261.012	416.06
261.244	437.06
261.477	442.06
261.71	441.06
261.942	449.06
262.175	457.06
262.407	465.06
262.64	473.06
262.872	509.06
263.105	509.06
263.337	554.06
263.57	567.06
263.802	567.06
264.035	586.06
264.267	619.06
264.499	613.06
264.732	648.06
264.964	649.06
265.197	621.06
265.429	651.06
265.661	634.06
265.894	676.06
266.126	759.06
266.358	826.06
266.591	797.06
266.823	691.06
267.055	620.06
267.287	622.06
267.52	599.06
267.752	575.06
267.984	575.06
268.216	570.06
268.448	574.06
268.681	553.06
268.913	559.06
269.145	561.06
269.377	549.06
269.609	553.06
269.841	571.06
270.073	603.06
270.306	722.06
270.538	932.06
270.77	1363.06
271.002	1627.06
271.234	1144.06
271.466	753.06
271.698	633.06
271.93	612.06
272.162	577.06
272.394	553.06
272.626	550.06
272.858	531.06
273.09	519.06
273.322	535.06
273.553	553.06
273.785	548.06
274.017	542.06
274.249	520.06
274.481	513.06
274.713	532.06
274.945	565.06
275.176	527.06
275.408	538.06
275.64	545.06
275.872	565.06
276.104	589.06
276.335	561.06
276.567	563.06
276.799	555.06
277.031	570.06
277.262	590.06
277.494	632.06
277.726	665.06
277.957	735.06
278.189	855.06
278.421	806.06
278.652	725.06
278.884	687.06
279.115	633.06
279.347	635.06
279.579	600.06
279.81	616.06
280.042	597.06
280.273	598.06
280.505	634.06
280.736	635.06
280.968	682.06
281.199	721.06
281.431	801.06
281.662	863.06
281.894	733.06
282.125	705.06
282.356	713.06
282.588	699.06
282.819	730.06
283.051	758.06
283.282	836.06
283.513	1040.06
283.745	1493.06
283.976	2421.06
284.207	3375.06
284.439	3032.06
284.67	1793.06
284.901	1461.06
285.132	1437.06
285.364	1410.06
285.595	1094.06
285.826	988.06
286.057	1167.06
286.288	1612.06
286.52	2162.06
286.751	2008.06
286.982	1227.06
287.213	914.06
287.444	817.06
287.675	767.06
287.906	762.06
288.138	721.06
288.369	713.06
288.6	733.06
288.831	727.06
289.062	729.06
289.293	719.06
289.524	715.06
289.755	717.06
289.986	713.06
290.217	721.06
290.448	743.06
290.679	744.06
290.91	767.06
291.141	783.06
291.371	822.06
291.602	866.06
291.833	797.06
292.064	753.06
292.295	704.06
292.526	702.06
292.757	697.06
292.987	680.06
293.218	679.06
293.449	684.06
293.68	689.06
293.91	685.06
294.141	694.06
294.372	702.06
294.603	678.06
294.833	700.06
295.064	678.06
295.295	683.06
295.525	654.06
295.756	671.06
295.987	677.06
296.217	672.06
296.448	663.06
296.679	668.06
296.909	657.06
297.14	687.06
297.37	698.06
297.601	696.06
297.831	704.06
298.062	709.06
298.292	691.06
298.523	731.06
298.753	732.06
298.984	737.06
299.214	755.06
299.445	738.06
299.675	742.06
299.905	741.06
300.136	793.06
300.366	899.06
300.597	1149.06
300.827	1560.06
301.057	2183.06
301.288	2133.06
301.518	1346.06
301.748	1039.06
301.979	975.06
302.209	926.06
302.439	945.06
302.669	975.06
302.9	1234.06
303.13	1717.06
303.36	2477.06
303.59	3332.06
303.82	2863.06
304.051	1611.06
304.281	1224.06
304.511	1023.06
304.741	973.06
304.971	867.06
305.201	845.06
305.431	827.06
305.661	854.06
305.891	818.06
306.121	803.06
306.352	802.06
306.582	787.06
306.812	799.06
307.042	763.06
307.272	760.06
307.502	781.06
307.731	786.06
307.961	789.06
308.191	806.06
308.421	762.06
308.651	756.06
308.881	753.06
309.111	790.06
309.341	780.06
309.571	797.06
309.8	798.06
310.03	786.06
310.26	799.06
310.49	803.06
310.72	821.06
310.949	794.06
311.179	814.06
311.409	829.06
311.639	808.06
311.868	851.06
312.098	847.06
312.328	860.06
312.557	842.06
312.787	855.06
313.017	868.06
313.246	856.06
313.476	829.06
313.706	905.06
313.935	914.06
314.165	977.06
314.394	1006.06
314.624	996.06
314.853	918.06
315.083	922.06
315.312	910.06
315.542	905.06
315.771	941.06
316.001	952.06
316.23	960.06
316.46	1012.06
316.689	1116.06
316.919	1344.06
317.148	1928.06
317.377	3007.06
317.607	4421.06
317.836	4514.06
318.065	2581.06
318.295	1657.06
318.524	1333.06
318.753	1159.06
318.983	1096.06
319.212	1027.06
319.441	1013.06
319.67	1015.06
319.9	979.06
320.129	986.06
320.358	988.06
320.587	996.06
320.816	981.06
321.046	994.06
321.275	997.06
321.504	999.06
321.733	1024.06
321.962	1043.06
322.191	1063.06
322.42	1060.06
322.649	1028.06
322.878	1039.06
323.108	1032.06
323.337	1069.06
323.566	1109.06
323.795	1126.06
324.024	1123.06
324.253	1134.06
324.482	1188.06
324.71	1250.06
324.939	1281.06
325.168	1321.06
325.397	1370.06
325.626	1630.06
325.855	2257.06
326.084	3580.06
326.313	5361.06
326.542	5762.06
326.77	3563.06
326.999	2267.06
327.228	1909.06
327.457	1833.06
327.686	1835.06
327.914	1943.06
328.143	2217.06
328.372	2532.06
328.6	2777.06
328.829	2526.06
329.058	2251.06
329.287	2019.06
329.515	1803.06
329.744	1719.06
329.972	1674.06
330.201	1535.06
330.43	1512.06
330.658	1453.06
330.887	1431.06
331.115	1426.06
331.344	1433.06
331.572	1394.06
331.801	1413.06
332.03	1451.06
332.258	1425.06
332.486	1501.06
332.715	1754.06
332.943	2121.06
333.172	2611.06
333.4	2564.06
333.629	1971.06
333.857	1793.06
334.085	1783.06
334.314	1846.06
334.542	2020.06
334.771	2333.06
334.999	2726.06
335.227	3307.06
335.455	3681.06
335.684	3416.06
335.912	2886.06
336.14	2482.06
336.369	2255.06
336.597	2097.06
336.825	1946.06
337.053	1810.06
337.281	1706.06
337.51	1655.06
337.738	1585.06
337.966	1511.06
338.194	1509.06
338.422	1418.06
338.65	1401.06
338.878	1363.06
339.106	1352.06
339.334	1356.06
339.562	1303.06
339.79	1269.06
340.018	1287.06
340.246	1279.06
340.474	1256.06
340.702	1250.06
340.93	1255.06
341.158	1274.06
341.386	1258.06
341.614	1249.06
341.842	1223.06
342.07	1241.06
342.298	1210.06
342.526	1169.06
342.754	1169.06
342.981	1147.06
343.209	1180.06
343.437	1181.06
343.665	1199.06
343.893	1182.06
344.12	1233.06
344.348	1166.06
344.576	1181.06
344.804	1146.06
345.031	1112.06
345.259	1100.06
345.487	1122.06
345.714	1117.06
345.942	1108.06
346.17	1089.06
346.397	1072.06
346.625	1074.06
346.853	1066.06
347.08	1075.06
347.308	1073.06
347.535	1066.06
347.763	1077.06
347.99	1041.06
348.218	1041.06
348.445	1084.06
348.673	1067.06
348.9	1058.06
349.128	1064.06
349.355	1060.06
349.583	1072.06
349.81	1048.06
350.037	1033.06
350.265	1027.06
350.492	1040.06
350.72	1040.06
350.947	1034.06
351.174	1041.06
351.402	1041.06
351.629	1023.06
351.856	1039.06
352.083	1027.06
352.311	1015.06
352.538	1045.06
352.765	1047.06
352.992	1042.06
353.22	1014.06
353.447	1033.06
353.674	1041.06
353.901	1026.06
354.128	1010.06
354.355	1021.06
354.583	1045.06
354.81	1032.06
355.037	1041.06
355.264	1034.06
355.491	1025.06
355.718	1023.06
355.945	1028.06
356.172	1054.06
356.399	1039.06
356.626	1043.06
356.853	1079.06
357.08	1091.06
357.307	1094.06
357.534	1059.06
357.761	1073.06
357.988	1077.06
358.215	1072.06
358.441	1073.06
358.668	1103.06
358.895	1122.06
359.122	1103.06
359.349	1080.06
359.576	1102.06
359.802	1097.06
360.029	1107.06
360.256	1085.06
360.483	1102.06
360.709	1082.06
360.936	1106.06
361.163	1075.06
361.39	1090.06
361.616	1099.06
361.843	1086.06
362.07	1089.06
362.296	1108.06
362.523	1091.06
362.749	1113.06
362.976	1087.06
363.203	1091.06
363.429	1087.06
363.656	1074.06
363.882	1050.06
364.109	1081.06
364.335	1062.06
364.562	1103.06
364.788	1073.06
365.015	1115.06
365.241	1124.06
365.468	1178.06
365.694	1217.06
365.92	1173.06
366.147	1131.06
366.373	1089.06
366.599	1129.06
366.826	1113.06
367.052	1121.06
367.278	1117.06
367.505	1116.06
367.731	1104.06
367.957	1131.06
368.184	1122.06
368.41	1161.06
368.636	1141.06
368.862	1126.06
369.089	1173.06
369.315	1122.06
369.541	1151.06
369.767	1145.06
369.993	1152.06
370.219	1131.06
370.445	1153.06
370.672	1166.06
370.898	1123.06
371.124	1143.06
371.35	1161.06
371.576	1169.06
371.802	1185.06
372.028	1152.06
372.254	1175.06
372.48	1201.06
372.706	1188.06
372.932	1184.06
373.158	1214.06
373.384	1215.06
373.61	1162.06
373.835	1205.06
374.061	1165.06
374.287	1223.06
374.513	1204.06
374.739	1221.06
374.965	1243.06
375.191	1236.06
375.416	1269.06
375.642	1202.06
375.868	1189.06
376.094	1205.06
376.319	1169.06
376.545	1197.06
376.771	1183.06
376.997	1186.06
377.222	1188.06
377.448	1169.06
377.674	1144.06
377.899	1186.06
378.125	1189.06
378.35	1177.06
378.576	1182.06
378.802	1186.06
379.027	1198.06
379.253	1226.06
379.478	1268.06
379.704	1494.06
379.929	2103.06
380.155	3237.06
380.38	3474.06
380.606	2153.06
380.831	1492.06
381.057	1317.06
381.282	1241.06
381.507	1234.06
381.733	1167.06
381.958	1177.06
382.184	1203.06
382.409	1158.06
382.634	1158.06
382.86	1160.06
383.085	1124.06
383.31	1151.06
383.535	1154.06
383.761	1130.06
383.986	1148.06
384.211	1198.06
384.436	1180.06
384.662	1189.06
384.887	1201.06
385.112	1203.06
385.337	1184.06
385.562	1181.06
385.787	1197.06
386.013	1183.06
386.238	1202.06
386.463	1190.06
386.688	1218.06
386.913	1210.06
387.138	1190.06
387.363	1263.06
387.588	1188.06
387.813	1216.06
388.038	1208.06
388.263	1198.06
388.488	1209.06
388.713	1189.06
388.938	1195.06
389.163	1186.06
389.387	1200.06
389.612	1199.06
389.837	1195.06
390.062	1177.06
390.287	1204.06
390.512	1193.06
390.736	1221.06
390.961	1231.06
391.186	1228.06
391.411	1238.06
391.636	1262.06
391.86	1244.06
392.085	1286.06
392.31	1261.06
392.534	1255.06
392.759	1244.06
392.984	1239.06
393.208	1249.06
393.433	1263.06
393.658	1238.06
393.882	1202.06
394.107	1221.06
394.331	1204.06
394.556	1173.06
394.78	1197.06
395.005	1247.06
395.229	1197.06
395.454	1239.06
395.678	1301.06
395.903	1244.06
396.127	1240.06
396.352	1224.06
396.576	1248.06
396.801	1264.06
397.025	1274.06
397.249	1245.06
397.474	1273.06
397.698	1279.06
397.922	1295.06
398.147	1279.06
398.371	1284.06
398.595	1322.06
398.82	1344.06
399.044	1385.06
399.268	1440.06
399.492	1577.06
399.717	1573.06
399.941	1598.06
400.165	1507.06
400.389	1461.06
400.613	1427.06
400.837	1407.06
401.062	1385.06
401.286	1331.06
401.51	1350.06
401.734	1333.06
401.958	1358.06
402.182	1327.06
402.406	1341.06
402.63	1335.06
402.854	1325.06
403.078	1337.06
403.302	1376.06
403.526	1350.06
403.75	1373.06
403.974	1401.06
404.198	1373.06
404.422	1373.06
404.645	1389.06
404.869	1384.06
405.093	1412.06
405.317	1396.06
405.541	1404.06
405.765	1386.06
405.988	1419.06
406.212	1416.06
406.436	1411.06
406.66	1419.06
406.883	1428.06
407.107	1476.06
407.331	1497.06
407.555	1501.06
407.778	1509.06
408.002	1491.06
408.226	1478.06
408.449	1479.06
408.673	1443.06
408.896	1445.06
409.12	1409.06
409.344	1402.06
409.567	1397.06
409.791	1367.06
410.014	1389.06
410.238	1386.06
410.461	1375.06
410.685	1347.06
410.908	1345.06
411.132	1326.06
411.355	1333.06
411.578	1332.06
411.802	1326.06
412.025	1297.06
412.249	1371.06
412.472	1346.06
412.695	1303.06
412.919	1297.06
413.142	1290.06
413.365	1300.06
413.589	1263.06
413.812	1301.06
414.035	1298.06
414.258	1316.06
414.482	1318.06
414.705	1352.06
414.928	1313.06
415.151	1302.06
415.374	1279.06
415.597	1289.06
415.821	1250.06
416.044	1246.06
416.267	1278.06
416.49	1283.06
416.713	1263.06
416.936	1265.06
417.159	1236.06
417.382	1240.06
417.605	1224.06
417.828	1235.06
418.051	1259.06
418.274	1278.06
418.497	1292.06
418.72	1278.06
418.943	1289.06
419.166	1337.06
419.389	1414.06
419.611	1407.06
419.834	1330.06
420.057	1297.06
420.28	1281.06
420.503	1266.06
420.726	1248.06
420.948	1290.06
421.171	1231.06
421.394	1287.06
421.617	1256.06
421.839	1263.06
422.062	1289.06
422.285	1255.06
422.507	1284.06
422.73	1287.06
422.953	1289.06
423.175	1318.06
423.398	1319.06
423.621	1286.06
423.843	1272.06
424.066	1272.06
424.288	1267.06
424.511	1252.06
424.733	1277.06
424.956	1242.06
425.178	1269.06
425.401	1277.06
425.623	1226.06
425.846	1214.06
426.068	1247.06
426.291	1222.06
426.513	1216.06
426.735	1207.06
426.958	1224.06
427.18	1185.06
427.402	1182.06
427.625	1180.06
427.847	1177.06
428.069	1155.06
428.292	1194.06
428.514	1186.06
428.736	1175.06
428.958	1190.06
429.181	1177.06
429.403	1167.06
429.625	1201.06
429.847	1166.06
430.069	1191.06
430.292	1224.06
430.514	1225.06
430.736	1269.06
430.958	1181.06
431.18	1182.06
431.402	1165.06
431.624	1137.06
431.846	1155.06
432.068	1120.06
432.29	1105.06
432.512	1139.06
432.734	1176.06
432.956	1174.06
433.178	1190.06
433.4	1139.06
433.622	1160.06
433.844	1173.06
434.066	1171.06
434.287	1177.06
434.509	1162.06
434.731	1155.06
434.953	1224.06
435.175	1193.06
435.397	1222.06
435.618	1194.06
435.84	1163.06
436.062	1163.06
436.284	1151.06
436.505	1149.06
436.727	1171.06
436.949	1161.06
437.17	1155.06
437.392	1153.06
437.614	1145.06
437.835	1117.06
438.057	1115.06
438.278	1099.06
438.5	1106.06
438.721	1130.06
438.943	1155.06
439.165	1187.06
439.386	1196.06
439.608	1224.06
439.829	1189.06
440.05	1238.06
440.272	1279.06
440.493	1224.06
440.715	1214.06
440.936	1205.06
441.158	1230.06
441.379	1231.06
441.6	1238.06
441.822	1289.06
442.043	1395.06
442.264	1387.06
442.486	1320.06
442.707	1246.06
442.928	1231.06
443.149	1235.06
443.371	1229.06
443.592	1254.06
443.813	1256.06
444.034	1259.06
444.255	1298.06
444.476	1279.06
444.698	1373.06
444.919	1389.06
445.14	1409.06
445.361	1359.06
445.582	1309.06
445.803	1246.06
446.024	1231.06
446.245	1226.06
446.466	1230.06
446.687	1231.06
446.908	1245.06
447.129	1167.06
447.35	1184.06
447.571	1171.06
447.792	1139.06
448.013	1163.06
448.234	1146.06
448.455	1139.06
448.675	1210.06
448.896	1194.06
449.117	1231.06
449.338	1322.06
449.559	1365.06
449.779	1245.06
450	1162.06
450.221	1134.06
450.442	1130.06
450.662	1099.06
450.883	1120.06
451.104	1137.06
451.324	1112.06
451.545	1105.06
451.766	1125.06
451.986	1097.06
452.207	1221.06
452.428	1474.06
452.648	2098.06
452.869	1759.06
453.089	1315.06
453.31	1266.06
453.53	1200.06
453.751	1264.06
453.971	1343.06
454.192	1287.06
454.412	1175.06
454.633	1090.06
454.853	1102.06
455.073	1049.06
455.294	1081.06
455.514	1047.06
455.734	1039.06
455.955	1058.06
456.175	1054.06
456.395	1031.06
456.616	1051.06
456.836	1098.06
457.056	1103.06
457.276	1066.06
457.497	1135.06
457.717	1152.06
457.937	1141.06
458.157	1087.06
458.377	1118.06
458.598	1159.06
458.818	1131.06
459.038	1139.06
459.258	1145.06
459.478	1158.06
459.698	1187.06
459.918	1172.06
460.138	1147.06
460.358	1240.06
460.578	1216.06
460.798	1187.06
461.018	1262.06
461.238	1257.06
461.458	1302.06
461.678	1238.06
461.898	1297.06
462.118	1287.06
462.338	1323.06
462.558	1326.06
462.777	1350.06
462.997	1422.06
463.217	1449.06
463.437	1502.06
463.657	1515.06
463.876	1518.06
464.096	1471.06
464.316	1385.06
464.536	1385.06
464.755	1351.06
464.975	1331.06
465.195	1273.06
465.414	1252.06
465.634	1192.06
465.854	1188.06
466.073	1164.06
466.293	1186.06
466.512	1156.06
466.732	1186.06
466.951	1252.06
467.171	1309.06
467.391	1290.06
467.61	1187.06
467.829	1159.06
468.049	1154.06
468.268	1116.06
468.488	1146.06
468.707	1139.06
468.927	1125.06
469.146	1135.06
469.365	1170.06
469.585	1130.06
469.804	1199.06
470.023	1198.06
470.243	1234.06
470.462	1241.06
470.681	1335.06
470.901	1446.06
471.12	1659.06
471.339	1645.06
471.558	1390.06
471.777	1272.06
471.997	1183.06
472.216	1154.06
472.435	1179.06
472.654	1142.06
472.873	1139.06
473.092	1140.06
473.311	1139.06
473.53	1128.06
473.749	1147.06
473.968	1209.06
474.187	1153.06
474.406	1153.06
474.625	1159.06
474.844	1173.06
475.063	1146.06
475.282	1151.06
475.501	1147.06
475.72	1157.06
475.939	1148.06
476.158	1189.06
476.377	1207.06
476.596	1195.06
476.814	1218.06
477.033	1214.06
477.252	1207.06
477.471	1193.06
477.69	1272.06
477.908	1259.06
478.127	1286.06
478.346	1281.06
478.564	1347.06
478.783	1307.06
479.002	1318.06
479.22	1361.06
479.439	1349.06
479.658	1350.06
479.876	1348.06
480.095	1354.06
480.313	1382.06
480.532	1420.06
480.751	1400.06
480.969	1375.06
481.188	1346.06
481.406	1335.06
481.624	1317.06
481.843	1362.06
482.061	1391.06
482.28	1337.06
482.498	1361.06
482.717	1381.06
482.935	1375.06
483.153	1379.06
483.372	1420.06
483.59	1451.06
483.808	1417.06
484.027	1469.06
484.245	1537.06
484.463	1748.06
484.681	1908.06
484.9	1721.06
485.118	1625.06
485.336	1556.06
485.554	1609.06
485.772	1697.06
485.99	1911.06
486.209	2104.06
486.427	1746.06
486.645	1579.06
486.863	1517.06
487.081	1533.06
487.299	1454.06
487.517	1402.06
487.735	1448.06
487.953	1488.06
488.171	1484.06
488.389	1450.06
488.607	1402.06
488.825	1432.06
489.043	1418.06
489.261	1384.06
489.479	1386.06
489.696	1416.06
489.914	1428.06
490.132	1464.06
490.35	1471.06
490.568	1463.06
490.786	1470.06
