Data from SnStandardFlinnAPT0064_QswitchEnergy10_LIBS07252019.E.O._I.C._HRD10591_15-28-13-974.txt Node
Date: Thu Jul 25 15:28:13 EDT 2019
User: cochatt
Spectrometer: HR+D1059
Trigger mode: 1
Integration Time (sec): 1.000000E-1
Scans to average: 1
Electric dark correction enabled: true
Nonlinearity correction enabled: false
Boxcar width: 0
XAxis mode: Wavelengths
Number of Pixels in Spectrum: 2048
>>>>>Begin Spectral Data<<<<<
223.165	-26.31
223.4	-26.31
223.635	-26.31
223.869	-6.31
224.104	-25.31
224.338	-15.31
224.573	-26.31
224.808	-13.31
225.042	-9.31
225.277	-5.31
225.511	1.69
225.746	2.69
225.98	16.69
226.215	9.69
226.449	15.69
226.683	16.69
226.918	37.69
227.152	26.69
227.387	37.69
227.621	40.69
227.856	36.69
228.09	49.69
228.324	57.69
228.559	63.69
228.793	63.69
229.027	75.69
229.262	87.69
229.496	79.69
229.73	70.69
229.964	81.69
230.199	73.69
230.433	69.69
230.667	66.69
230.901	75.69
231.136	71.69
231.37	79.69
231.604	94.69
231.838	93.69
232.072	115.69
232.306	108.69
232.541	98.69
232.775	85.69
233.009	93.69
233.243	90.69
233.477	80.69
233.711	95.69
233.945	100.69
234.179	94.69
234.413	94.69
234.647	76.69
234.881	90.69
235.115	94.69
235.349	104.69
235.583	99.69
235.817	122.69
236.051	121.69
236.285	91.69
236.519	80.69
236.753	74.69
236.987	85.69
237.221	81.69
237.455	74.69
237.689	63.69
237.922	81.69
238.156	79.69
238.39	85.69
238.624	83.69
238.858	89.69
239.091	96.69
239.325	77.69
239.559	76.69
239.793	89.69
240.027	76.69
240.26	85.69
240.494	69.69
240.728	87.69
240.961	84.69
241.195	76.69
241.429	100.69
241.662	89.69
241.896	89.69
242.13	98.69
242.363	133.69
242.597	159.69
242.83	126.69
243.064	123.69
243.298	165.69
243.531	141.69
243.765	96.69
243.998	77.69
244.232	88.69
244.465	77.69
244.699	75.69
244.932	81.69
245.166	73.69
245.399	86.69
245.633	88.69
245.866	80.69
246.099	85.69
246.333	81.69
246.566	85.69
246.8	80.69
247.033	78.69
247.266	73.69
247.5	78.69
247.733	84.69
247.966	86.69
248.2	79.69
248.433	102.69
248.666	120.69
248.899	96.69
249.133	91.69
249.366	99.69
249.599	106.69
249.832	106.69
250.066	128.69
250.299	92.69
250.532	94.69
250.765	81.69
250.998	71.69
251.231	72.69
251.465	87.69
251.698	80.69
251.931	79.69
252.164	91.69
252.397	79.69
252.63	90.69
252.863	100.69
253.096	78.69
253.329	89.69
253.562	87.69
253.795	85.69
254.028	85.69
254.261	98.69
254.494	91.69
254.727	104.69
254.96	120.69
255.193	137.69
255.426	80.69
255.659	94.69
255.892	82.69
256.124	89.69
256.357	85.69
256.59	97.69
256.823	99.69
257.056	113.69
257.289	146.69
257.521	166.69
257.754	133.69
257.987	82.69
258.22	80.69
258.452	82.69
258.685	81.69
258.918	87.69
259.151	78.69
259.383	98.69
259.616	139.69
259.849	146.69
260.081	102.69
260.314	94.69
260.547	81.69
260.779	82.69
261.012	81.69
261.244	78.69
261.477	75.69
261.71	84.69
261.942	94.69
262.175	90.69
262.407	95.69
262.64	88.69
262.872	84.69
263.105	82.69
263.337	82.69
263.57	94.69
263.802	104.69
264.035	94.69
264.267	88.69
264.499	83.69
264.732	85.69
264.964	85.69
265.197	79.69
265.429	84.69
265.661	83.69
265.894	90.69
266.126	131.69
266.358	145.69
266.591	146.69
266.823	94.69
267.055	95.69
267.287	83.69
267.52	88.69
267.752	85.69
267.984	95.69
268.216	89.69
268.448	80.69
268.681	88.69
268.913	84.69
269.145	77.69
269.377	88.69
269.609	105.69
269.841	98.69
270.073	106.69
270.306	116.69
270.538	183.69
270.77	285.69
271.002	359.69
271.234	180.69
271.466	79.69
271.698	93.69
271.93	83.69
272.162	93.69
272.394	94.69
272.626	86.69
272.858	89.69
273.09	94.69
273.322	83.69
273.553	92.69
273.785	82.69
274.017	69.69
274.249	75.69
274.481	92.69
274.713	75.69
274.945	87.69
275.176	85.69
275.408	100.69
275.64	89.69
275.872	102.69
276.104	100.69
276.335	100.69
276.567	97.69
276.799	92.69
277.031	81.69
277.262	96.69
277.494	102.69
277.726	120.69
277.957	166.69
278.189	231.69
278.421	199.69
278.652	169.69
278.884	166.69
279.115	121.69
279.347	89.69
279.579	89.69
279.81	94.69
280.042	93.69
280.273	94.69
280.505	87.69
280.736	100.69
280.968	121.69
281.199	146.69
281.431	212.69
281.662	239.69
281.894	152.69
282.125	109.69
282.356	100.69
282.588	99.69
282.819	114.69
283.051	111.69
283.282	147.69
283.513	184.69
283.745	304.69
283.976	510.69
284.207	733.69
284.439	538.69
284.67	244.69
284.901	229.69
285.132	306.69
285.364	339.69
285.595	205.69
285.826	159.69
286.057	241.69
286.288	369.69
286.52	558.69
286.751	450.69
286.982	170.69
287.213	102.69
287.444	109.69
287.675	99.69
287.906	95.69
288.138	98.69
288.369	93.69
288.6	87.69
288.831	80.69
289.062	86.69
289.293	91.69
289.524	90.69
289.755	88.69
289.986	101.69
290.217	84.69
290.448	97.69
290.679	104.69
290.91	99.69
291.141	150.69
291.371	209.69
291.602	253.69
291.833	160.69
292.064	112.69
292.295	105.69
292.526	94.69
292.757	88.69
292.987	102.69
293.218	103.69
293.449	81.69
293.68	98.69
293.91	76.69
294.141	102.69
294.372	100.69
294.603	87.69
294.833	101.69
295.064	96.69
295.295	87.69
295.525	82.69
295.756	78.69
295.987	92.69
296.217	99.69
296.448	95.69
296.679	104.69
296.909	110.69
297.14	110.69
297.37	103.69
297.601	105.69
297.831	87.69
298.062	95.69
298.292	87.69
298.523	96.69
298.753	100.69
298.984	89.69
299.214	113.69
299.445	102.69
299.675	115.69
299.905	121.69
300.136	122.69
300.366	159.69
300.597	240.69
300.827	406.69
301.057	649.69
301.288	571.69
301.518	243.69
301.748	158.69
301.979	125.69
302.209	121.69
302.439	119.69
302.669	154.69
302.9	230.69
303.13	427.69
303.36	803.69
303.59	1091.69
303.82	793.69
304.051	253.69
304.281	139.69
304.511	126.69
304.741	124.69
304.971	115.69
305.201	101.69
305.431	113.69
305.661	114.69
305.891	93.69
306.121	100.69
306.352	89.69
306.582	116.69
306.812	121.69
307.042	112.69
307.272	98.69
307.502	119.69
307.731	99.69
307.961	113.69
308.191	113.69
308.421	104.69
308.651	100.69
308.881	98.69
309.111	114.69
309.341	101.69
309.571	107.69
309.8	103.69
310.03	111.69
310.26	122.69
310.49	116.69
310.72	112.69
310.949	115.69
311.179	99.69
311.409	104.69
311.639	108.69
311.868	106.69
312.098	103.69
312.328	116.69
312.557	119.69
312.787	109.69
313.017	115.69
313.246	118.69
313.476	107.69
313.706	120.69
313.935	137.69
314.165	186.69
314.394	207.69
314.624	169.69
314.853	130.69
315.083	122.69
315.312	145.69
315.542	113.69
315.771	136.69
316.001	137.69
316.23	138.69
316.46	159.69
316.689	165.69
316.919	242.69
317.148	456.69
317.377	820.69
317.607	1354.69
317.836	1301.69
318.065	469.69
318.295	206.69
318.524	151.69
318.753	127.69
318.983	124.69
319.212	125.69
319.441	118.69
319.67	125.69
319.9	118.69
320.129	109.69
320.358	119.69
320.587	125.69
320.816	127.69
321.046	121.69
321.275	121.69
321.504	113.69
321.733	136.69
321.962	159.69
322.191	144.69
322.42	124.69
322.649	130.69
322.878	121.69
323.108	119.69
323.337	127.69
323.566	127.69
323.795	136.69
324.024	143.69
324.253	149.69
324.482	174.69
324.71	223.69
324.939	288.69
325.168	215.69
325.397	177.69
325.626	229.69
325.855	423.69
326.084	818.69
326.313	1427.69
326.542	1425.69
326.77	569.69
326.999	255.69
327.228	213.69
327.457	234.69
327.686	209.69
327.914	158.69
328.143	139.69
328.372	146.69
328.6	139.69
328.829	120.69
329.058	123.69
329.287	114.69
329.515	123.69
329.744	121.69
329.972	120.69
330.201	116.69
330.43	115.69
330.658	99.69
330.887	118.69
331.115	112.69
331.344	111.69
331.572	124.69
331.801	115.69
332.03	107.69
332.258	142.69
332.486	167.69
332.715	258.69
332.943	468.69
333.172	713.69
333.4	632.69
333.629	241.69
333.857	145.69
334.085	126.69
334.314	117.69
334.542	115.69
334.771	120.69
334.999	126.69
335.227	115.69
335.455	113.69
335.684	135.69
335.912	126.69
336.14	122.69
336.369	111.69
336.597	119.69
336.825	109.69
337.053	119.69
337.281	117.69
337.51	117.69
337.738	117.69
337.966	124.69
338.194	99.69
338.422	120.69
338.65	117.69
338.878	114.69
339.106	120.69
339.334	134.69
339.562	125.69
339.79	108.69
340.018	123.69
340.246	113.69
340.474	121.69
340.702	114.69
340.93	111.69
341.158	119.69
341.386	112.69
341.614	130.69
341.842	120.69
342.07	110.69
342.298	114.69
342.526	117.69
342.754	105.69
342.981	105.69
343.209	101.69
343.437	128.69
343.665	113.69
343.893	111.69
344.12	121.69
344.348	117.69
344.576	118.69
344.804	115.69
345.031	110.69
345.259	110.69
345.487	122.69
345.714	113.69
345.942	118.69
346.17	121.69
346.397	118.69
346.625	104.69
346.853	101.69
347.08	115.69
347.308	105.69
347.535	113.69
347.763	114.69
347.99	100.69
348.218	102.69
348.445	103.69
348.673	116.69
348.9	109.69
349.128	122.69
349.355	114.69
349.583	132.69
349.81	125.69
350.037	113.69
350.265	117.69
350.492	106.69
350.72	103.69
350.947	119.69
351.174	101.69
351.402	115.69
351.629	107.69
351.856	106.69
352.083	104.69
352.311	111.69
352.538	99.69
352.765	118.69
352.992	117.69
353.22	97.69
353.447	97.69
353.674	110.69
353.901	111.69
354.128	119.69
354.355	114.69
354.583	101.69
354.81	113.69
355.037	110.69
355.264	111.69
355.491	111.69
355.718	110.69
355.945	115.69
356.172	105.69
356.399	111.69
356.626	105.69
356.853	104.69
357.08	119.69
357.307	100.69
357.534	113.69
357.761	103.69
357.988	125.69
358.215	139.69
358.441	115.69
358.668	118.69
358.895	120.69
359.122	134.69
359.349	129.69
359.576	125.69
359.802	116.69
360.029	125.69
360.256	109.69
360.483	130.69
360.709	135.69
360.936	113.69
361.163	115.69
361.39	121.69
361.616	108.69
361.843	111.69
362.07	126.69
362.296	127.69
362.523	102.69
362.749	114.69
362.976	100.69
363.203	121.69
363.429	104.69
363.656	101.69
363.882	106.69
364.109	113.69
364.335	102.69
364.562	117.69
364.788	113.69
365.015	109.69
365.241	107.69
365.468	165.69
365.694	230.69
365.92	174.69
366.147	114.69
366.373	102.69
366.599	75.69
366.826	97.69
367.052	93.69
367.278	93.69
367.505	104.69
367.731	99.69
367.957	103.69
368.184	102.69
368.41	112.69
368.636	124.69
368.862	98.69
369.089	93.69
369.315	105.69
369.541	104.69
369.767	112.69
369.993	100.69
370.219	99.69
370.445	104.69
370.672	103.69
370.898	103.69
371.124	95.69
371.35	85.69
371.576	112.69
371.802	101.69
372.028	90.69
372.254	113.69
372.48	118.69
372.706	105.69
372.932	103.69
373.158	113.69
373.384	117.69
373.61	111.69
373.835	114.69
374.061	110.69
374.287	129.69
374.513	101.69
374.739	95.69
374.965	108.69
375.191	104.69
375.416	101.69
375.642	94.69
375.868	121.69
376.094	116.69
376.319	111.69
376.545	103.69
376.771	91.69
376.997	90.69
377.222	120.69
377.448	100.69
377.674	107.69
377.899	95.69
378.125	94.69
378.35	107.69
378.576	117.69
378.802	105.69
379.027	126.69
379.253	146.69
379.478	164.69
379.704	253.69
379.929	690.69
380.155	1380.69
380.38	1498.69
380.606	482.69
380.831	177.69
381.057	135.69
381.282	106.69
381.507	109.69
381.733	95.69
381.958	113.69
382.184	111.69
382.409	89.69
382.634	114.69
382.86	99.69
383.085	104.69
383.31	123.69
383.535	105.69
383.761	104.69
383.986	104.69
384.211	95.69
384.436	99.69
384.662	104.69
384.887	102.69
385.112	96.69
385.337	110.69
385.562	98.69
385.787	102.69
386.013	114.69
386.238	90.69
386.463	97.69
386.688	102.69
386.913	94.69
387.138	110.69
387.363	105.69
387.588	107.69
387.813	111.69
388.038	94.69
388.263	106.69
388.488	104.69
388.713	110.69
388.938	106.69
389.163	96.69
389.387	91.69
389.612	101.69
389.837	96.69
390.062	99.69
390.287	103.69
390.512	103.69
390.736	100.69
390.961	100.69
391.186	92.69
391.411	102.69
391.636	105.69
391.86	95.69
392.085	92.69
392.31	94.69
392.534	102.69
392.759	101.69
392.984	106.69
393.208	107.69
393.433	138.69
393.658	115.69
393.882	102.69
394.107	100.69
394.331	88.69
394.556	92.69
394.78	94.69
395.005	102.69
395.229	96.69
395.454	96.69
395.678	98.69
395.903	106.69
396.127	111.69
396.352	104.69
396.576	104.69
396.801	104.69
397.025	112.69
397.249	113.69
397.474	92.69
397.698	97.69
397.922	101.69
398.147	93.69
398.371	75.69
398.595	105.69
398.82	95.69
399.044	90.69
399.268	98.69
399.492	102.69
399.717	98.69
399.941	94.69
400.165	82.69
400.389	92.69
400.613	82.69
400.837	99.69
401.062	97.69
401.286	97.69
401.51	89.69
401.734	90.69
401.958	100.69
402.182	93.69
402.406	87.69
402.63	97.69
402.854	92.69
403.078	92.69
403.302	93.69
403.526	105.69
403.75	106.69
403.974	91.69
404.198	104.69
404.422	102.69
404.645	90.69
404.869	114.69
405.093	90.69
405.317	85.69
405.541	94.69
405.765	128.69
405.988	139.69
406.212	136.69
406.436	90.69
406.66	90.69
406.883	100.69
407.107	87.69
407.331	104.69
407.555	103.69
407.778	101.69
408.002	104.69
408.226	97.69
408.449	88.69
408.673	94.69
408.896	94.69
409.12	87.69
409.344	100.69
409.567	100.69
409.791	99.69
410.014	98.69
410.238	93.69
410.461	104.69
410.685	100.69
410.908	97.69
411.132	102.69
411.355	97.69
411.578	97.69
411.802	89.69
412.025	93.69
412.249	92.69
412.472	90.69
412.695	97.69
412.919	99.69
413.142	99.69
413.365	98.69
413.589	101.69
413.812	96.69
414.035	102.69
414.258	105.69
414.482	95.69
414.705	104.69
414.928	99.69
415.151	90.69
415.374	83.69
415.597	105.69
415.821	90.69
416.044	101.69
416.267	91.69
416.49	99.69
416.713	97.69
416.936	106.69
417.159	99.69
417.382	87.69
417.605	91.69
417.828	102.69
418.051	99.69
418.274	100.69
418.497	108.69
418.72	102.69
418.943	102.69
419.166	93.69
419.389	113.69
419.611	117.69
419.834	94.69
420.057	96.69
420.28	98.69
420.503	84.69
420.726	87.69
420.948	88.69
421.171	101.69
421.394	98.69
421.617	104.69
421.839	89.69
422.062	91.69
422.285	88.69
422.507	113.69
422.73	102.69
422.953	127.69
423.175	98.69
423.398	89.69
423.621	101.69
423.843	95.69
424.066	87.69
424.288	79.69
424.511	90.69
424.733	96.69
424.956	107.69
425.178	110.69
425.401	86.69
425.623	102.69
425.846	93.69
426.068	98.69
426.291	99.69
426.513	103.69
426.735	101.69
426.958	102.69
427.18	96.69
427.402	86.69
427.625	90.69
427.847	97.69
428.069	88.69
428.292	101.69
428.514	103.69
428.736	81.69
428.958	103.69
429.181	104.69
429.403	107.69
429.625	93.69
429.847	104.69
430.069	100.69
430.292	105.69
430.514	85.69
430.736	99.69
430.958	93.69
431.18	90.69
431.402	86.69
431.624	91.69
431.846	91.69
432.068	99.69
432.29	91.69
432.512	86.69
432.734	85.69
432.956	102.69
433.178	98.69
433.4	87.69
433.622	91.69
433.844	92.69
434.066	79.69
434.287	80.69
434.509	94.69
434.731	82.69
434.953	87.69
435.175	105.69
435.397	104.69
435.618	100.69
435.84	94.69
436.062	86.69
436.284	88.69
436.505	90.69
436.727	88.69
436.949	92.69
437.17	97.69
437.392	80.69
437.614	92.69
437.835	89.69
438.057	92.69
438.278	97.69
438.5	83.69
438.721	84.69
438.943	106.69
439.165	97.69
439.386	113.69
439.608	109.69
439.829	97.69
440.05	96.69
440.272	123.69
440.493	86.69
440.715	103.69
440.936	89.69
441.158	103.69
441.379	101.69
441.6	82.69
441.822	103.69
442.043	105.69
442.264	112.69
442.486	122.69
442.707	98.69
442.928	105.69
443.149	100.69
443.371	101.69
443.592	98.69
443.813	110.69
444.034	93.69
444.255	99.69
444.476	92.69
444.698	100.69
444.919	90.69
445.14	189.69
445.361	139.69
445.582	95.69
445.803	91.69
446.024	101.69
446.245	93.69
446.466	104.69
446.687	98.69
446.908	107.69
447.129	108.69
447.35	97.69
447.571	90.69
447.792	89.69
448.013	95.69
448.234	103.69
448.455	92.69
448.675	93.69
448.896	84.69
449.117	95.69
449.338	124.69
449.559	143.69
449.779	107.69
450	111.69
450.221	99.69
450.442	107.69
450.662	94.69
450.883	101.69
451.104	118.69
451.324	99.69
451.545	104.69
451.766	120.69
451.986	129.69
452.207	196.69
452.428	487.69
452.648	1135.69
452.869	659.69
453.089	175.69
453.31	113.69
453.53	119.69
453.751	128.69
453.971	149.69
454.192	139.69
454.412	107.69
454.633	98.69
454.853	100.69
455.073	85.69
455.294	92.69
455.514	98.69
455.734	91.69
455.955	84.69
456.175	85.69
456.395	90.69
456.616	101.69
456.836	84.69
457.056	96.69
457.276	82.69
457.497	113.69
457.717	117.69
457.937	107.69
458.157	87.69
458.377	89.69
458.598	87.69
458.818	87.69
459.038	95.69
459.258	86.69
459.478	95.69
459.698	76.69
459.918	95.69
460.138	80.69
460.358	88.69
460.578	85.69
460.798	94.69
461.018	79.69
461.238	101.69
461.458	82.69
461.678	88.69
461.898	95.69
462.118	83.69
462.338	111.69
462.558	92.69
462.777	97.69
462.997	98.69
463.217	98.69
463.437	131.69
463.657	161.69
463.876	168.69
464.096	98.69
464.316	103.69
464.536	89.69
464.755	87.69
464.975	99.69
465.195	93.69
465.414	87.69
465.634	97.69
465.854	94.69
466.073	87.69
466.293	80.69
466.512	93.69
466.732	94.69
466.951	88.69
467.171	133.69
467.391	137.69
467.61	100.69
467.829	97.69
468.049	97.69
468.268	106.69
468.488	90.69
468.707	99.69
468.927	82.69
469.146	106.69
469.365	89.69
469.585	101.69
469.804	93.69
470.023	97.69
470.243	105.69
470.462	93.69
470.681	96.69
470.901	134.69
471.12	179.69
471.339	202.69
471.558	131.69
471.777	105.69
471.997	91.69
472.216	99.69
472.435	100.69
472.654	93.69
472.873	95.69
473.092	95.69
473.311	93.69
473.53	93.69
473.749	102.69
473.968	100.69
474.187	103.69
474.406	95.69
474.625	83.69
474.844	87.69
475.063	90.69
475.282	95.69
475.501	97.69
475.72	83.69
475.939	101.69
476.158	93.69
476.377	102.69
476.596	114.69
476.814	94.69
477.033	89.69
477.252	104.69
477.471	74.69
477.69	88.69
477.908	104.69
478.127	99.69
478.346	92.69
478.564	101.69
478.783	88.69
479.002	103.69
479.22	95.69
479.439	85.69
479.658	84.69
479.876	79.69
480.095	91.69
480.313	87.69
480.532	93.69
480.751	109.69
480.969	96.69
481.188	101.69
481.406	99.69
481.624	101.69
481.843	107.69
482.061	103.69
482.28	81.69
482.498	89.69
482.717	100.69
482.935	110.69
483.153	106.69
483.372	98.69
483.59	105.69
483.808	106.69
484.027	90.69
484.245	109.69
484.463	165.69
484.681	208.69
484.9	142.69
485.118	96.69
485.336	88.69
485.554	114.69
485.772	126.69
485.99	166.69
486.209	239.69
486.427	161.69
486.645	107.69
486.863	105.69
487.081	98.69
487.299	89.69
487.517	86.69
487.735	91.69
487.953	100.69
488.171	105.69
488.389	104.69
488.607	93.69
488.825	87.69
489.043	101.69
489.261	88.69
489.479	106.69
489.696	91.69
489.914	93.69
490.132	89.69
490.35	86.69
490.568	86.69
490.786	91.69
491.003	104.69
491.221	111.69
491.439	115.69
491.657	110.69
491.874	100.69
492.092	124.69
492.31	100.69
492.527	97.69
492.745	114.69
492.963	99.69
493.18	97.69
493.398	98.69
493.615	83.69
493.833	86.69
494.05	104.69
494.268	92.69
494.485	101.69
494.703	97.69
494.92	98.69
495.138	99.69
495.355	110.69
495.573	96.69
495.79	93.69
496.008	98.69
496.225	95.69
496.442	106.69
496.66	116.69
496.877	132.69
497.094	143.69
497.312	110.69
497.529	109.69
497.746	98.69
497.963	92.69
498.181	106.69
498.398	113.69
498.615	117.69
498.832	93.69
499.049	85.69
499.267	134.69
499.484	149.69
499.701	105.69
499.918	96.69
500.135	101.69
500.352	110.69
500.569	109.69
500.786	105.69
501.003	111.69
501.22	100.69
501.437	102.69
501.654	105.69
501.871	93.69
502.088	93.69
502.305	93.69
502.522	103.69
502.739	89.69
502.956	75.69
503.172	90.69
503.389	91.69
503.606	97.69
503.823	96.69
504.04	93.69
504.256	94.69
504.473	97.69
504.69	88.69
504.907	117.69
505.123	102.69
505.34	106.69
505.557	110.69
505.773	91.69
505.99	80.69
506.207	112.69
506.423	101.69
506.64	101.69
506.856	104.69
507.073	90.69
507.289	89.69
507.506	102.69
507.722	82.69
507.939	109.69
508.155	106.69
508.372	97.69
508.588	95.69
508.805	93.69
509.021	99.69
509.238	113.69
