Data from SnStandardFlinnAPT0064_QswitchEnergy10_LIBS07252019.E.O._I.C._HRD10591_15-26-03-973.txt Node
Date: Thu Jul 25 15:26:03 EDT 2019
User: cochatt
Spectrometer: HR+D1059
Trigger mode: 1
Integration Time (sec): 1.000000E-1
Scans to average: 1
Electric dark correction enabled: true
Nonlinearity correction enabled: false
Boxcar width: 0
XAxis mode: Wavelengths
Number of Pixels in Spectrum: 2048
>>>>>Begin Spectral Data<<<<<
223.165	-16.5
223.4	-16.5
223.635	-16.5
223.869	-14.5
224.104	-13.5
224.338	-12.5
224.573	-13.5
224.808	-13.5
225.042	-4.5
225.277	-2.5
225.511	-10.5
225.746	15.5
225.98	0.5
226.215	15.5
226.449	-2.5
226.683	24.5
226.918	21.5
227.152	26.5
227.387	36.5
227.621	21.5
227.856	39.5
228.09	45.5
228.324	36.5
228.559	56.5
228.793	60.5
229.027	87.5
229.262	76.5
229.496	92.5
229.73	75.5
229.964	76.5
230.199	56.5
230.433	80.5
230.667	83.5
230.901	74.5
231.136	72.5
231.37	100.5
231.604	88.5
231.838	91.5
232.072	107.5
232.306	126.5
232.541	93.5
232.775	96.5
233.009	91.5
233.243	87.5
233.477	84.5
233.711	104.5
233.945	110.5
234.179	94.5
234.413	91.5
234.647	79.5
234.881	83.5
235.115	83.5
235.349	88.5
235.583	109.5
235.817	131.5
236.051	113.5
236.285	91.5
236.519	73.5
236.753	83.5
236.987	82.5
237.221	89.5
237.455	74.5
237.689	70.5
237.922	84.5
238.156	81.5
238.39	87.5
238.624	74.5
238.858	86.5
239.091	76.5
239.325	61.5
239.559	76.5
239.793	75.5
240.027	88.5
240.26	80.5
240.494	81.5
240.728	87.5
240.961	96.5
241.195	107.5
241.429	91.5
241.662	81.5
241.896	88.5
242.13	98.5
242.363	114.5
242.597	143.5
242.83	141.5
243.064	127.5
243.298	179.5
243.531	155.5
243.765	98.5
243.998	89.5
244.232	83.5
244.465	85.5
244.699	91.5
244.932	72.5
245.166	83.5
245.399	91.5
245.633	88.5
245.866	87.5
246.099	77.5
246.333	68.5
246.566	85.5
246.8	81.5
247.033	80.5
247.266	85.5
247.5	83.5
247.733	93.5
247.966	97.5
248.2	89.5
248.433	102.5
248.666	120.5
248.899	113.5
249.133	93.5
249.366	83.5
249.599	93.5
249.832	117.5
250.066	115.5
250.299	80.5
250.532	85.5
250.765	90.5
250.998	76.5
251.231	84.5
251.465	94.5
251.698	86.5
251.931	82.5
252.164	86.5
252.397	100.5
252.63	97.5
252.863	70.5
253.096	86.5
253.329	90.5
253.562	76.5
253.795	90.5
254.028	83.5
254.261	82.5
254.494	82.5
254.727	114.5
254.96	130.5
255.193	118.5
255.426	87.5
255.659	93.5
255.892	94.5
256.124	99.5
256.357	86.5
256.59	96.5
256.823	98.5
257.056	99.5
257.289	143.5
257.521	153.5
257.754	109.5
257.987	87.5
258.22	90.5
258.452	92.5
258.685	74.5
258.918	90.5
259.151	99.5
259.383	93.5
259.616	126.5
259.849	128.5
260.081	101.5
260.314	79.5
260.547	85.5
260.779	95.5
261.012	91.5
261.244	91.5
261.477	79.5
261.71	86.5
261.942	97.5
262.175	84.5
262.407	84.5
262.64	83.5
262.872	67.5
263.105	78.5
263.337	102.5
263.57	94.5
263.802	87.5
264.035	94.5
264.267	80.5
264.499	100.5
264.732	90.5
264.964	84.5
265.197	84.5
265.429	87.5
265.661	91.5
265.894	105.5
266.126	121.5
266.358	168.5
266.591	143.5
266.823	101.5
267.055	76.5
267.287	90.5
267.52	88.5
267.752	75.5
267.984	96.5
268.216	87.5
268.448	86.5
268.681	89.5
268.913	89.5
269.145	93.5
269.377	83.5
269.609	76.5
269.841	83.5
270.073	108.5
270.306	128.5
270.538	185.5
270.77	279.5
271.002	361.5
271.234	189.5
271.466	97.5
271.698	84.5
271.93	96.5
272.162	90.5
272.394	93.5
272.626	71.5
272.858	74.5
273.09	87.5
273.322	90.5
273.553	89.5
273.785	87.5
274.017	90.5
274.249	90.5
274.481	83.5
274.713	91.5
274.945	93.5
275.176	89.5
275.408	91.5
275.64	85.5
275.872	80.5
276.104	111.5
276.335	87.5
276.567	94.5
276.799	79.5
277.031	88.5
277.262	105.5
277.494	111.5
277.726	136.5
277.957	185.5
278.189	248.5
278.421	219.5
278.652	183.5
278.884	195.5
279.115	131.5
279.347	114.5
279.579	87.5
279.81	90.5
280.042	103.5
280.273	86.5
280.505	107.5
280.736	111.5
280.968	110.5
281.199	156.5
281.431	221.5
281.662	253.5
281.894	153.5
282.125	109.5
282.356	102.5
282.588	114.5
282.819	119.5
283.051	121.5
283.282	142.5
283.513	187.5
283.745	297.5
283.976	510.5
284.207	693.5
284.439	551.5
284.67	261.5
284.901	224.5
285.132	323.5
285.364	359.5
285.595	213.5
285.826	146.5
286.057	215.5
286.288	379.5
286.52	560.5
286.751	467.5
286.982	189.5
287.213	127.5
287.444	107.5
287.675	100.5
287.906	84.5
288.138	82.5
288.369	93.5
288.6	93.5
288.831	90.5
289.062	106.5
289.293	92.5
289.524	91.5
289.755	100.5
289.986	76.5
290.217	96.5
290.448	101.5
290.679	117.5
290.91	119.5
291.141	166.5
291.371	219.5
291.602	268.5
291.833	165.5
292.064	105.5
292.295	86.5
292.526	94.5
292.757	90.5
292.987	88.5
293.218	77.5
293.449	89.5
293.68	91.5
293.91	101.5
294.141	86.5
294.372	101.5
294.603	97.5
294.833	91.5
295.064	91.5
295.295	93.5
295.525	99.5
295.756	105.5
295.987	93.5
296.217	89.5
296.448	107.5
296.679	117.5
296.909	94.5
297.14	90.5
297.37	98.5
297.601	102.5
297.831	93.5
298.062	107.5
298.292	110.5
298.523	90.5
298.753	97.5
298.984	109.5
299.214	110.5
299.445	103.5
299.675	101.5
299.905	119.5
300.136	117.5
300.366	150.5
300.597	247.5
300.827	381.5
301.057	648.5
301.288	554.5
301.518	228.5
301.748	149.5
301.979	131.5
302.209	127.5
302.439	122.5
302.669	143.5
302.9	231.5
303.13	468.5
303.36	806.5
303.59	1110.5
303.82	786.5
304.051	286.5
304.281	155.5
304.511	135.5
304.741	99.5
304.971	116.5
305.201	115.5
305.431	112.5
305.661	115.5
305.891	108.5
306.121	102.5
306.352	92.5
306.582	102.5
306.812	101.5
307.042	113.5
307.272	109.5
307.502	103.5
307.731	103.5
307.961	105.5
308.191	100.5
308.421	102.5
308.651	116.5
308.881	94.5
309.111	110.5
309.341	112.5
309.571	103.5
309.8	102.5
310.03	120.5
310.26	101.5
310.49	115.5
310.72	115.5
310.949	99.5
311.179	112.5
311.409	112.5
311.639	106.5
311.868	108.5
312.098	112.5
312.328	99.5
312.557	120.5
312.787	109.5
313.017	117.5
313.246	95.5
313.476	117.5
313.706	125.5
313.935	163.5
314.165	182.5
314.394	211.5
314.624	173.5
314.853	131.5
315.083	107.5
315.312	118.5
315.542	138.5
315.771	134.5
316.001	136.5
316.23	122.5
316.46	139.5
316.689	183.5
316.919	263.5
317.148	445.5
317.377	852.5
317.607	1325.5
317.836	1259.5
318.065	491.5
318.295	202.5
318.524	148.5
318.753	127.5
318.983	125.5
319.212	130.5
319.441	119.5
319.67	119.5
319.9	104.5
320.129	109.5
320.358	111.5
320.587	121.5
320.816	111.5
321.046	133.5
321.275	115.5
321.504	109.5
321.733	143.5
321.962	162.5
322.191	162.5
322.42	134.5
322.649	129.5
322.878	119.5
323.108	123.5
323.337	117.5
323.566	112.5
323.795	120.5
324.024	127.5
324.253	131.5
324.482	157.5
324.71	203.5
324.939	258.5
325.168	225.5
325.397	183.5
325.626	239.5
325.855	445.5
326.084	877.5
326.313	1427.5
326.542	1403.5
326.77	559.5
326.999	236.5
327.228	202.5
327.457	195.5
327.686	201.5
327.914	153.5
328.143	137.5
328.372	132.5
328.6	133.5
328.829	111.5
329.058	125.5
329.287	119.5
329.515	113.5
329.744	117.5
329.972	125.5
330.201	103.5
330.43	114.5
330.658	119.5
330.887	105.5
331.115	109.5
331.344	115.5
331.572	108.5
331.801	107.5
332.03	113.5
332.258	127.5
332.486	152.5
332.715	266.5
332.943	445.5
333.172	689.5
333.4	610.5
333.629	242.5
333.857	143.5
334.085	129.5
334.314	120.5
334.542	114.5
334.771	124.5
334.999	110.5
335.227	103.5
335.455	118.5
335.684	109.5
335.912	120.5
336.14	134.5
336.369	94.5
336.597	114.5
336.825	115.5
337.053	109.5
337.281	100.5
337.51	94.5
337.738	106.5
337.966	109.5
338.194	119.5
338.422	102.5
338.65	109.5
338.878	114.5
339.106	123.5
339.334	122.5
339.562	116.5
339.79	97.5
340.018	111.5
340.246	114.5
340.474	102.5
340.702	88.5
340.93	103.5
341.158	129.5
341.386	116.5
341.614	126.5
341.842	120.5
342.07	123.5
342.298	103.5
342.526	129.5
342.754	121.5
342.981	110.5
343.209	106.5
343.437	94.5
343.665	96.5
343.893	103.5
344.12	99.5
344.348	102.5
344.576	110.5
344.804	109.5
345.031	106.5
345.259	96.5
345.487	103.5
345.714	99.5
345.942	114.5
346.17	120.5
346.397	111.5
346.625	96.5
346.853	101.5
347.08	121.5
347.308	112.5
347.535	90.5
347.763	115.5
347.99	102.5
348.218	109.5
348.445	103.5
348.673	96.5
348.9	118.5
349.128	121.5
349.355	129.5
349.583	131.5
349.81	107.5
350.037	111.5
350.265	116.5
350.492	106.5
350.72	105.5
350.947	117.5
351.174	114.5
351.402	104.5
351.629	117.5
351.856	113.5
352.083	106.5
352.311	117.5
352.538	128.5
352.765	119.5
352.992	107.5
353.22	102.5
353.447	93.5
353.674	117.5
353.901	112.5
354.128	101.5
354.355	111.5
354.583	99.5
354.81	90.5
355.037	96.5
355.264	98.5
355.491	110.5
355.718	112.5
355.945	107.5
356.172	99.5
356.399	98.5
356.626	100.5
356.853	94.5
357.08	94.5
357.307	114.5
357.534	103.5
357.761	102.5
357.988	95.5
358.215	103.5
358.441	105.5
358.668	109.5
358.895	112.5
359.122	113.5
359.349	109.5
359.576	106.5
359.802	99.5
360.029	107.5
360.256	100.5
360.483	96.5
360.709	116.5
360.936	117.5
361.163	105.5
361.39	92.5
361.616	118.5
361.843	109.5
362.07	115.5
362.296	119.5
362.523	103.5
362.749	95.5
362.976	82.5
363.203	95.5
363.429	97.5
363.656	104.5
363.882	104.5
364.109	118.5
364.335	113.5
364.562	86.5
364.788	102.5
365.015	106.5
365.241	121.5
365.468	164.5
365.694	230.5
365.92	185.5
366.147	119.5
366.373	95.5
366.599	96.5
366.826	99.5
367.052	78.5
367.278	97.5
367.505	103.5
367.731	103.5
367.957	93.5
368.184	105.5
368.41	125.5
368.636	129.5
368.862	118.5
369.089	97.5
369.315	109.5
369.541	94.5
369.767	110.5
369.993	101.5
370.219	96.5
370.445	96.5
370.672	98.5
370.898	110.5
371.124	98.5
371.35	105.5
371.576	107.5
371.802	107.5
372.028	99.5
372.254	122.5
372.48	110.5
372.706	107.5
372.932	105.5
373.158	101.5
373.384	101.5
373.61	114.5
373.835	104.5
374.061	104.5
374.287	119.5
374.513	112.5
374.739	117.5
374.965	106.5
375.191	113.5
375.416	112.5
375.642	101.5
375.868	100.5
376.094	102.5
376.319	103.5
376.545	109.5
376.771	122.5
376.997	98.5
377.222	101.5
377.448	110.5
377.674	113.5
377.899	98.5
378.125	121.5
378.35	114.5
378.576	111.5
378.802	122.5
379.027	121.5
379.253	133.5
379.478	159.5
379.704	297.5
379.929	688.5
380.155	1435.5
380.38	1448.5
380.606	481.5
380.831	201.5
381.057	125.5
381.282	112.5
381.507	110.5
381.733	110.5
381.958	107.5
382.184	119.5
382.409	99.5
382.634	108.5
382.86	97.5
383.085	109.5
383.31	110.5
383.535	105.5
383.761	114.5
383.986	113.5
384.211	99.5
384.436	95.5
384.662	106.5
384.887	104.5
385.112	104.5
385.337	98.5
385.562	105.5
385.787	98.5
386.013	107.5
386.238	103.5
386.463	91.5
386.688	111.5
386.913	99.5
387.138	89.5
387.363	96.5
387.588	95.5
387.813	105.5
388.038	96.5
388.263	109.5
388.488	105.5
388.713	101.5
388.938	93.5
389.163	97.5
389.387	99.5
389.612	90.5
389.837	120.5
390.062	99.5
390.287	89.5
390.512	97.5
390.736	109.5
390.961	101.5
391.186	91.5
391.411	90.5
391.636	79.5
391.86	85.5
392.085	100.5
392.31	112.5
392.534	100.5
392.759	103.5
392.984	99.5
393.208	124.5
393.433	148.5
393.658	150.5
393.882	102.5
394.107	84.5
394.331	102.5
394.556	94.5
394.78	102.5
395.005	98.5
395.229	105.5
395.454	115.5
395.678	112.5
395.903	107.5
396.127	107.5
396.352	90.5
396.576	99.5
396.801	125.5
397.025	143.5
397.249	114.5
397.474	96.5
397.698	104.5
397.922	94.5
398.147	94.5
398.371	94.5
398.595	92.5
398.82	91.5
399.044	89.5
399.268	102.5
399.492	106.5
399.717	95.5
399.941	94.5
400.165	102.5
400.389	113.5
400.613	104.5
400.837	98.5
401.062	105.5
401.286	98.5
401.51	103.5
401.734	91.5
401.958	103.5
402.182	93.5
402.406	100.5
402.63	97.5
402.854	92.5
403.078	97.5
403.302	107.5
403.526	96.5
403.75	104.5
403.974	90.5
404.198	92.5
404.422	99.5
404.645	93.5
404.869	94.5
405.093	95.5
405.317	104.5
405.541	103.5
405.765	129.5
405.988	131.5
406.212	108.5
406.436	87.5
406.66	93.5
406.883	96.5
407.107	96.5
407.331	87.5
407.555	110.5
407.778	98.5
408.002	102.5
408.226	87.5
408.449	102.5
408.673	117.5
408.896	96.5
409.12	90.5
409.344	97.5
409.567	91.5
409.791	109.5
410.014	118.5
410.238	105.5
410.461	120.5
410.685	95.5
410.908	119.5
411.132	89.5
411.355	88.5
411.578	96.5
411.802	93.5
412.025	93.5
412.249	94.5
412.472	94.5
412.695	100.5
412.919	98.5
413.142	86.5
413.365	103.5
413.589	95.5
413.812	96.5
414.035	93.5
414.258	104.5
414.482	109.5
414.705	100.5
414.928	97.5
415.151	98.5
415.374	101.5
415.597	94.5
415.821	84.5
416.044	95.5
416.267	103.5
416.49	103.5
416.713	97.5
416.936	94.5
417.159	97.5
417.382	99.5
417.605	96.5
417.828	87.5
418.051	106.5
418.274	100.5
418.497	94.5
418.72	102.5
418.943	95.5
419.166	99.5
419.389	99.5
419.611	100.5
419.834	96.5
420.057	110.5
420.28	89.5
420.503	97.5
420.726	78.5
420.948	100.5
421.171	86.5
421.394	95.5
421.617	93.5
421.839	101.5
422.062	96.5
422.285	78.5
422.507	106.5
422.73	120.5
422.953	142.5
423.175	122.5
423.398	105.5
423.621	87.5
423.843	103.5
424.066	86.5
424.288	86.5
424.511	96.5
424.733	97.5
424.956	99.5
425.178	87.5
425.401	110.5
425.623	112.5
425.846	112.5
426.068	79.5
426.291	85.5
426.513	91.5
426.735	99.5
426.958	98.5
427.18	105.5
427.402	101.5
427.625	89.5
427.847	89.5
428.069	97.5
428.292	86.5
428.514	92.5
428.736	93.5
428.958	97.5
429.181	79.5
429.403	93.5
429.625	104.5
429.847	110.5
430.069	108.5
430.292	96.5
430.514	93.5
430.736	94.5
430.958	96.5
431.18	89.5
431.402	101.5
431.624	111.5
431.846	74.5
432.068	102.5
432.29	95.5
432.512	93.5
432.734	78.5
432.956	84.5
433.178	95.5
433.4	99.5
433.622	90.5
433.844	90.5
434.066	83.5
434.287	100.5
434.509	82.5
434.731	97.5
434.953	94.5
435.175	106.5
435.397	95.5
435.618	91.5
435.84	97.5
436.062	92.5
436.284	93.5
436.505	92.5
436.727	87.5
436.949	96.5
437.17	89.5
437.392	83.5
437.614	97.5
437.835	93.5
438.057	89.5
438.278	88.5
438.5	81.5
438.721	94.5
438.943	89.5
439.165	101.5
439.386	99.5
439.608	98.5
439.829	90.5
440.05	124.5
440.272	106.5
440.493	100.5
440.715	93.5
440.936	104.5
441.158	94.5
441.379	89.5
441.6	88.5
441.822	110.5
442.043	129.5
442.264	121.5
442.486	117.5
442.707	107.5
442.928	88.5
443.149	100.5
443.371	89.5
443.592	87.5
443.813	83.5
444.034	90.5
444.255	116.5
444.476	101.5
444.698	89.5
444.919	103.5
445.14	219.5
445.361	149.5
445.582	116.5
445.803	101.5
446.024	110.5
446.245	106.5
446.466	107.5
446.687	121.5
446.908	113.5
447.129	106.5
447.35	94.5
447.571	96.5
447.792	91.5
448.013	88.5
448.234	83.5
448.455	78.5
448.675	104.5
448.896	84.5
449.117	94.5
449.338	121.5
449.559	141.5
449.779	123.5
450	110.5
450.221	97.5
450.442	118.5
450.662	101.5
450.883	105.5
451.104	103.5
451.324	111.5
451.545	116.5
451.766	112.5
451.986	130.5
452.207	214.5
452.428	526.5
452.648	1231.5
452.869	713.5
453.089	183.5
453.31	127.5
453.53	112.5
453.751	143.5
453.971	155.5
454.192	143.5
454.412	111.5
454.633	92.5
454.853	104.5
455.073	88.5
455.294	88.5
455.514	92.5
455.734	104.5
455.955	111.5
456.175	97.5
456.395	99.5
456.616	108.5
456.836	105.5
457.056	91.5
457.276	87.5
457.497	115.5
457.717	122.5
457.937	121.5
458.157	96.5
458.377	86.5
458.598	87.5
458.818	99.5
459.038	93.5
459.258	79.5
459.478	97.5
459.698	94.5
459.918	93.5
460.138	74.5
460.358	110.5
460.578	101.5
460.798	84.5
461.018	87.5
461.238	90.5
461.458	98.5
461.678	87.5
461.898	94.5
462.118	89.5
462.338	96.5
462.558	101.5
462.777	114.5
462.997	101.5
463.217	96.5
463.437	137.5
463.657	181.5
463.876	181.5
464.096	102.5
464.316	101.5
464.536	91.5
464.755	94.5
464.975	104.5
465.195	77.5
465.414	95.5
465.634	81.5
465.854	99.5
466.073	106.5
466.293	98.5
466.512	85.5
466.732	88.5
466.951	109.5
467.171	141.5
467.391	127.5
467.61	91.5
467.829	89.5
468.049	98.5
468.268	91.5
468.488	95.5
468.707	88.5
468.927	98.5
469.146	95.5
469.365	107.5
469.585	106.5
469.804	92.5
470.023	107.5
470.243	105.5
470.462	94.5
470.681	114.5
470.901	120.5
471.12	192.5
471.339	194.5
471.558	129.5
471.777	103.5
471.997	90.5
472.216	89.5
472.435	92.5
472.654	117.5
472.873	83.5
473.092	89.5
473.311	93.5
473.53	97.5
473.749	118.5
473.968	107.5
474.187	95.5
474.406	95.5
474.625	89.5
474.844	89.5
475.063	101.5
475.282	99.5
475.501	103.5
475.72	94.5
475.939	103.5
476.158	97.5
476.377	94.5
476.596	107.5
476.814	109.5
477.033	83.5
477.252	96.5
477.471	89.5
477.69	95.5
477.908	83.5
478.127	93.5
478.346	77.5
478.564	95.5
478.783	108.5
479.002	92.5
479.22	91.5
479.439	99.5
479.658	105.5
479.876	109.5
480.095	98.5
480.313	91.5
480.532	108.5
480.751	90.5
480.969	93.5
481.188	92.5
481.406	99.5
481.624	102.5
481.843	107.5
482.061	102.5
482.28	101.5
482.498	97.5
482.717	91.5
482.935	107.5
483.153	93.5
483.372	98.5
483.59	94.5
483.808	93.5
484.027	105.5
484.245	122.5
484.463	184.5
484.681	224.5
484.9	137.5
485.118	102.5
485.336	108.5
485.554	98.5
485.772	117.5
485.99	187.5
486.209	249.5
486.427	164.5
486.645	110.5
486.863	109.5
487.081	104.5
487.299	96.5
487.517	90.5
487.735	91.5
487.953	96.5
488.171	87.5
488.389	98.5
488.607	103.5
488.825	101.5
489.043	93.5
489.261	110.5
489.479	94.5
489.696	99.5
489.914	95.5
490.132	93.5
490.35	104.5
490.568	93.5
490.786	104.5
491.003	109.5
491.221	115.5
491.439	116.5
491.657	111.5
491.874	102.5
492.092	112.5
492.31	115.5
492.527	97.5
492.745	107.5
492.963	95.5
493.18	107.5
493.398	110.5
493.615	110.5
493.833	100.5
494.05	96.5
494.268	100.5
494.485	108.5
494.703	95.5
494.92	113.5
495.138	119.5
495.355	87.5
495.573	91.5
495.79	113.5
496.008	95.5
496.225	112.5
496.442	77.5
496.66	125.5
496.877	145.5
497.094	152.5
497.312	108.5
497.529	115.5
497.746	111.5
497.963	101.5
498.181	92.5
498.398	101.5
498.615	100.5
498.832	98.5
499.049	102.5
499.267	115.5
499.484	157.5
499.701	104.5
499.918	114.5
500.135	96.5
500.352	97.5
500.569	96.5
500.786	99.5
501.003	98.5
501.22	92.5
501.437	97.5
501.654	106.5
501.871	107.5
502.088	101.5
502.305	99.5
502.522	109.5
502.739	86.5
502.956	81.5
503.172	112.5
503.389	111.5
503.606	77.5
503.823	107.5
504.04	107.5
504.256	91.5
504.473	104.5
504.69	98.5
504.907	97.5
505.123	114.5
505.34	98.5
505.557	96.5
505.773	102.5
505.99	97.5
506.207	104.5
506.423	114.5
506.64	119.5
506.856	97.5
507.073	115.5
507.289	91.5
507.506	97.5
507.722	96.5
507.939	104.5
508.155	118.5
508.372	111.5
508.588	93.5
508.805	91.5
509.021	104.5
509.238	94.5
509.454	131.5
509.67	147.5
509.887	119.5
510.103	99.5
510.319	113.5
510.536	95.5
510.752	98.5
510.968	95.5
511.184	95.5
511.401	101.5
511.617	104.5
511.833	96.5
512.049	91.5
512.265	105.5
512.481	92.5
512.698	107.5
512.914	92.5
513.13	105.5
513.346	92.5
513.562	101.5
513.778	99.5
513.994	97.5
514.21	98.5
514.426	142.5
514.642	175.5
514.858	107.5
515.074	95.5
515.29	99.5
515.506	104.5
515.721	103.5
515.937	89.5
516.153	93.5
516.369	104.5
516.585	87.5
516.801	98.5
517.016	95.5
517.232	106.5
517.448	109.5
517.664	95.5
517.879	98.5
518.095	101.5
518.311	102.5
518.527	96.5
518.742	110.5
518.958	120.5
519.173	149.5
519.389	105.5
519.605	93.5
519.82	92.5
520.036	102.5
520.251	89.5
520.467	93.5
520.682	106.5
520.898	82.5
521.113	93.5
521.329	106.5
521.544	99.5
521.76	82.5
521.975	113.5
522.19	93.5
522.406	90.5
522.621	92.5
522.836	114.5
523.052	91.5
523.267	110.5
523.482	99.5
523.698	111.5
523.913	98.5
524.128	92.5
524.343	102.5
524.559	88.5
524.774	100.5
524.989	106.5
525.204	103.5
525.419	89.5
525.634	101.5
525.849	101.5
526.064	97.5
526.28	97.5
526.495	93.5
526.71	105.5
526.925	93.5
527.14	97.5
527.355	113.5
527.57	96.5
527.785	88.5
527.999	105.5
528.214	91.5
528.429	104.5
