Data from SnStandardFlinnAPT0064_QswitchEnergy10_LIBS07252019.E.O._I.C._HRD10591_15-27-24-974.txt Node
Date: Thu Jul 25 15:27:24 EDT 2019
User: cochatt
Spectrometer: HR+D1059
Trigger mode: 1
Integration Time (sec): 1.000000E-1
Scans to average: 1
Electric dark correction enabled: true
Nonlinearity correction enabled: false
Boxcar width: 0
XAxis mode: Wavelengths
Number of Pixels in Spectrum: 2048
>>>>>Begin Spectral Data<<<<<
223.165	-20.5
223.4	-20.5
223.635	-20.5
223.869	-21.5
224.104	-15.5
224.338	-16.5
224.573	-5.5
224.808	-19.5
225.042	4.5
225.277	-7.5
225.511	-9.5
225.746	5.5
225.98	5.5
226.215	20.5
226.449	1.5
226.683	26.5
226.918	11.5
227.152	40.5
227.387	24.5
227.621	44.5
227.856	41.5
228.09	39.5
228.324	49.5
228.559	53.5
228.793	67.5
229.027	76.5
229.262	75.5
229.496	57.5
229.73	77.5
229.964	80.5
230.199	71.5
230.433	84.5
230.667	83.5
230.901	72.5
231.136	80.5
231.37	83.5
231.604	90.5
231.838	115.5
232.072	109.5
232.306	109.5
232.541	83.5
232.775	80.5
233.009	83.5
233.243	95.5
233.477	90.5
233.711	91.5
233.945	104.5
234.179	99.5
234.413	90.5
234.647	89.5
234.881	85.5
235.115	75.5
235.349	96.5
235.583	103.5
235.817	118.5
236.051	131.5
236.285	89.5
236.519	86.5
236.753	86.5
236.987	90.5
237.221	68.5
237.455	81.5
237.689	87.5
237.922	86.5
238.156	62.5
238.39	81.5
238.624	69.5
238.858	76.5
239.091	82.5
239.325	75.5
239.559	85.5
239.793	83.5
240.027	74.5
240.26	86.5
240.494	101.5
240.728	88.5
240.961	90.5
241.195	98.5
241.429	60.5
241.662	77.5
241.896	90.5
242.13	90.5
242.363	124.5
242.597	160.5
242.83	131.5
243.064	133.5
243.298	166.5
243.531	156.5
243.765	88.5
243.998	78.5
244.232	92.5
244.465	87.5
244.699	98.5
244.932	68.5
245.166	95.5
245.399	76.5
245.633	88.5
245.866	91.5
246.099	82.5
246.333	75.5
246.566	73.5
246.8	60.5
247.033	72.5
247.266	71.5
247.5	90.5
247.733	82.5
247.966	98.5
248.2	107.5
248.433	112.5
248.666	133.5
248.899	130.5
249.133	90.5
249.366	81.5
249.599	99.5
249.832	120.5
250.066	129.5
250.299	87.5
250.532	69.5
250.765	78.5
250.998	88.5
251.231	75.5
251.465	78.5
251.698	86.5
251.931	89.5
252.164	79.5
252.397	78.5
252.63	82.5
252.863	91.5
253.096	95.5
253.329	93.5
253.562	100.5
253.795	77.5
254.028	73.5
254.261	78.5
254.494	107.5
254.727	121.5
254.96	139.5
255.193	135.5
255.426	89.5
255.659	83.5
255.892	96.5
256.124	81.5
256.357	93.5
256.59	98.5
256.823	99.5
257.056	120.5
257.289	159.5
257.521	165.5
257.754	111.5
257.987	88.5
258.22	74.5
258.452	79.5
258.685	87.5
258.918	86.5
259.151	101.5
259.383	112.5
259.616	139.5
259.849	133.5
260.081	115.5
260.314	88.5
260.547	84.5
260.779	73.5
261.012	94.5
261.244	92.5
261.477	96.5
261.71	81.5
261.942	87.5
262.175	81.5
262.407	85.5
262.64	80.5
262.872	81.5
263.105	98.5
263.337	72.5
263.57	81.5
263.802	89.5
264.035	82.5
264.267	79.5
264.499	97.5
264.732	89.5
264.964	96.5
265.197	93.5
265.429	83.5
265.661	82.5
265.894	107.5
266.126	126.5
266.358	158.5
266.591	148.5
266.823	105.5
267.055	96.5
267.287	87.5
267.52	85.5
267.752	82.5
267.984	94.5
268.216	89.5
268.448	81.5
268.681	86.5
268.913	81.5
269.145	93.5
269.377	97.5
269.609	90.5
269.841	98.5
270.073	97.5
270.306	123.5
270.538	196.5
270.77	303.5
271.002	349.5
271.234	188.5
271.466	132.5
271.698	96.5
271.93	98.5
272.162	97.5
272.394	87.5
272.626	93.5
272.858	88.5
273.09	63.5
273.322	81.5
273.553	90.5
273.785	97.5
274.017	84.5
274.249	89.5
274.481	72.5
274.713	95.5
274.945	94.5
275.176	88.5
275.408	96.5
275.64	95.5
275.872	88.5
276.104	88.5
276.335	93.5
276.567	76.5
276.799	81.5
277.031	101.5
277.262	97.5
277.494	105.5
277.726	134.5
277.957	182.5
278.189	246.5
278.421	221.5
278.652	183.5
278.884	190.5
279.115	127.5
279.347	104.5
279.579	97.5
279.81	102.5
280.042	93.5
280.273	101.5
280.505	91.5
280.736	99.5
280.968	121.5
281.199	151.5
281.431	239.5
281.662	245.5
281.894	155.5
282.125	107.5
282.356	115.5
282.588	93.5
282.819	109.5
283.051	123.5
283.282	141.5
283.513	194.5
283.745	290.5
283.976	511.5
284.207	735.5
284.439	539.5
284.67	269.5
284.901	262.5
285.132	327.5
285.364	350.5
285.595	211.5
285.826	172.5
286.057	259.5
286.288	404.5
286.52	586.5
286.751	468.5
286.982	195.5
287.213	126.5
287.444	103.5
287.675	105.5
287.906	107.5
288.138	95.5
288.369	113.5
288.6	98.5
288.831	108.5
289.062	108.5
289.293	99.5
289.524	96.5
289.755	96.5
289.986	87.5
290.217	97.5
290.448	105.5
290.679	95.5
290.91	119.5
291.141	163.5
291.371	221.5
291.602	262.5
291.833	187.5
292.064	119.5
292.295	87.5
292.526	93.5
292.757	90.5
292.987	85.5
293.218	78.5
293.449	99.5
293.68	102.5
293.91	76.5
294.141	97.5
294.372	83.5
294.603	89.5
294.833	88.5
295.064	88.5
295.295	98.5
295.525	89.5
295.756	88.5
295.987	85.5
296.217	96.5
296.448	107.5
296.679	100.5
296.909	90.5
297.14	90.5
297.37	97.5
297.601	107.5
297.831	98.5
298.062	97.5
298.292	90.5
298.523	102.5
298.753	92.5
298.984	104.5
299.214	108.5
299.445	110.5
299.675	107.5
299.905	98.5
300.136	132.5
300.366	159.5
300.597	255.5
300.827	412.5
301.057	646.5
301.288	590.5
301.518	235.5
301.748	149.5
301.979	135.5
302.209	129.5
302.439	139.5
302.669	177.5
302.9	273.5
303.13	472.5
303.36	834.5
303.59	1143.5
303.82	779.5
304.051	290.5
304.281	160.5
304.511	124.5
304.741	121.5
304.971	102.5
305.201	108.5
305.431	105.5
305.661	114.5
305.891	107.5
306.121	99.5
306.352	106.5
306.582	108.5
306.812	98.5
307.042	106.5
307.272	93.5
307.502	102.5
307.731	107.5
307.961	97.5
308.191	106.5
308.421	107.5
308.651	120.5
308.881	91.5
309.111	104.5
309.341	92.5
309.571	108.5
309.8	115.5
310.03	113.5
310.26	106.5
310.49	113.5
310.72	109.5
310.949	105.5
311.179	111.5
311.409	99.5
311.639	102.5
311.868	102.5
312.098	116.5
312.328	111.5
312.557	111.5
312.787	102.5
313.017	106.5
313.246	124.5
313.476	105.5
313.706	119.5
313.935	151.5
314.165	186.5
314.394	217.5
314.624	175.5
314.853	122.5
315.083	113.5
315.312	132.5
315.542	123.5
315.771	119.5
316.001	136.5
316.23	134.5
316.46	144.5
316.689	168.5
316.919	246.5
317.148	461.5
317.377	834.5
317.607	1364.5
317.836	1304.5
318.065	504.5
318.295	205.5
318.524	142.5
318.753	127.5
318.983	122.5
319.212	113.5
319.441	114.5
319.67	113.5
319.9	125.5
320.129	111.5
320.358	127.5
320.587	118.5
320.816	116.5
321.046	107.5
321.275	117.5
321.504	123.5
321.733	114.5
321.962	154.5
322.191	170.5
322.42	125.5
322.649	112.5
322.878	117.5
323.108	116.5
323.337	90.5
323.566	117.5
323.795	135.5
324.024	141.5
324.253	137.5
324.482	170.5
324.71	211.5
324.939	246.5
325.168	233.5
325.397	180.5
325.626	253.5
325.855	462.5
326.084	871.5
326.313	1460.5
326.542	1480.5
326.77	587.5
326.999	262.5
327.228	200.5
327.457	230.5
327.686	226.5
327.914	163.5
328.143	123.5
328.372	120.5
328.6	121.5
328.829	122.5
329.058	131.5
329.287	125.5
329.515	105.5
329.744	116.5
329.972	119.5
330.201	108.5
330.43	113.5
330.658	110.5
330.887	108.5
331.115	122.5
331.344	107.5
331.572	103.5
331.801	100.5
332.03	116.5
332.258	133.5
332.486	173.5
332.715	293.5
332.943	465.5
333.172	713.5
333.4	643.5
333.629	255.5
333.857	131.5
334.085	129.5
334.314	124.5
334.542	125.5
334.771	129.5
334.999	121.5
335.227	131.5
335.455	118.5
335.684	107.5
335.912	107.5
336.14	109.5
336.369	123.5
336.597	108.5
336.825	121.5
337.053	108.5
337.281	84.5
337.51	91.5
337.738	99.5
337.966	116.5
338.194	110.5
338.422	108.5
338.65	98.5
338.878	107.5
339.106	120.5
339.334	125.5
339.562	96.5
339.79	120.5
340.018	103.5
340.246	92.5
340.474	121.5
340.702	122.5
340.93	127.5
341.158	111.5
341.386	109.5
341.614	111.5
341.842	111.5
342.07	128.5
342.298	111.5
342.526	111.5
342.754	106.5
342.981	119.5
343.209	123.5
343.437	113.5
343.665	106.5
343.893	117.5
344.12	121.5
344.348	112.5
344.576	111.5
344.804	115.5
345.031	119.5
345.259	101.5
345.487	106.5
345.714	88.5
345.942	113.5
346.17	117.5
346.397	101.5
346.625	116.5
346.853	111.5
347.08	101.5
347.308	101.5
347.535	96.5
347.763	99.5
347.99	111.5
348.218	100.5
348.445	116.5
348.673	111.5
348.9	118.5
349.128	114.5
349.355	124.5
349.583	112.5
349.81	115.5
350.037	128.5
350.265	110.5
350.492	117.5
350.72	111.5
350.947	92.5
351.174	107.5
351.402	112.5
351.629	121.5
351.856	111.5
352.083	104.5
352.311	121.5
352.538	103.5
352.765	116.5
352.992	98.5
353.22	108.5
353.447	100.5
353.674	86.5
353.901	106.5
354.128	112.5
354.355	107.5
354.583	102.5
354.81	111.5
355.037	97.5
355.264	114.5
355.491	110.5
355.718	88.5
355.945	108.5
356.172	103.5
356.399	103.5
356.626	91.5
356.853	114.5
357.08	109.5
357.307	90.5
357.534	98.5
357.761	106.5
357.988	104.5
358.215	105.5
358.441	90.5
358.668	99.5
358.895	112.5
359.122	124.5
359.349	123.5
359.576	106.5
359.802	102.5
360.029	112.5
360.256	114.5
360.483	115.5
360.709	110.5
360.936	122.5
361.163	108.5
361.39	107.5
361.616	111.5
361.843	124.5
362.07	110.5
362.296	106.5
362.523	98.5
362.749	99.5
362.976	109.5
363.203	109.5
363.429	112.5
363.656	123.5
363.882	107.5
364.109	109.5
364.335	108.5
364.562	98.5
364.788	97.5
365.015	107.5
365.241	125.5
365.468	187.5
365.694	239.5
365.92	176.5
366.147	125.5
366.373	102.5
366.599	92.5
366.826	85.5
367.052	101.5
367.278	99.5
367.505	98.5
367.731	101.5
367.957	96.5
368.184	108.5
368.41	123.5
368.636	106.5
368.862	98.5
369.089	99.5
369.315	97.5
369.541	108.5
369.767	120.5
369.993	98.5
370.219	110.5
370.445	91.5
370.672	103.5
370.898	122.5
371.124	102.5
371.35	105.5
371.576	77.5
371.802	100.5
372.028	99.5
372.254	100.5
372.48	120.5
372.706	110.5
372.932	119.5
373.158	111.5
373.384	113.5
373.61	107.5
373.835	113.5
374.061	111.5
374.287	106.5
374.513	107.5
374.739	105.5
374.965	101.5
375.191	110.5
375.416	123.5
375.642	108.5
375.868	100.5
376.094	107.5
376.319	100.5
376.545	92.5
376.771	99.5
376.997	89.5
377.222	85.5
377.448	105.5
377.674	92.5
377.899	96.5
378.125	103.5
378.35	125.5
378.576	121.5
378.802	108.5
379.027	119.5
379.253	128.5
379.478	183.5
379.704	271.5
379.929	743.5
380.155	1463.5
380.38	1497.5
380.606	476.5
380.831	173.5
381.057	138.5
381.282	127.5
381.507	108.5
381.733	103.5
381.958	93.5
382.184	96.5
382.409	92.5
382.634	95.5
382.86	102.5
383.085	101.5
383.31	100.5
383.535	92.5
383.761	93.5
383.986	107.5
384.211	95.5
384.436	96.5
384.662	107.5
384.887	103.5
385.112	103.5
385.337	98.5
385.562	103.5
385.787	100.5
386.013	105.5
386.238	119.5
386.463	97.5
386.688	105.5
386.913	108.5
387.138	107.5
387.363	103.5
387.588	102.5
387.813	123.5
388.038	93.5
388.263	91.5
388.488	103.5
388.713	106.5
388.938	100.5
389.163	117.5
389.387	80.5
389.612	96.5
389.837	101.5
390.062	86.5
390.287	108.5
390.512	91.5
390.736	94.5
390.961	101.5
391.186	105.5
391.411	95.5
391.636	105.5
391.86	106.5
392.085	103.5
392.31	100.5
392.534	93.5
392.759	90.5
392.984	96.5
393.208	123.5
393.433	125.5
393.658	134.5
393.882	115.5
394.107	96.5
394.331	95.5
394.556	95.5
394.78	92.5
395.005	90.5
395.229	111.5
395.454	89.5
395.678	102.5
395.903	99.5
396.127	96.5
396.352	112.5
396.576	105.5
396.801	111.5
397.025	119.5
397.249	119.5
397.474	101.5
397.698	98.5
397.922	107.5
398.147	112.5
398.371	95.5
398.595	101.5
398.82	96.5
399.044	107.5
399.268	93.5
399.492	97.5
399.717	103.5
399.941	94.5
400.165	112.5
400.389	86.5
400.613	96.5
400.837	105.5
401.062	88.5
401.286	90.5
401.51	91.5
401.734	100.5
401.958	102.5
402.182	98.5
402.406	108.5
402.63	100.5
402.854	88.5
403.078	99.5
403.302	113.5
403.526	87.5
403.75	96.5
403.974	85.5
404.198	98.5
404.422	93.5
404.645	88.5
404.869	103.5
405.093	87.5
405.317	93.5
405.541	99.5
405.765	134.5
405.988	119.5
406.212	122.5
406.436	95.5
406.66	99.5
406.883	98.5
407.107	88.5
407.331	105.5
407.555	97.5
407.778	96.5
408.002	79.5
408.226	84.5
408.449	99.5
408.673	101.5
408.896	108.5
409.12	93.5
409.344	90.5
409.567	97.5
409.791	101.5
410.014	100.5
410.238	99.5
410.461	105.5
410.685	87.5
410.908	99.5
411.132	105.5
411.355	95.5
411.578	83.5
411.802	83.5
412.025	95.5
412.249	86.5
412.472	98.5
412.695	101.5
412.919	91.5
413.142	114.5
413.365	104.5
413.589	92.5
413.812	106.5
414.035	104.5
414.258	122.5
414.482	116.5
414.705	111.5
414.928	116.5
415.151	103.5
415.374	80.5
415.597	104.5
415.821	116.5
416.044	107.5
416.267	95.5
416.49	90.5
416.713	76.5
416.936	100.5
417.159	79.5
417.382	91.5
417.605	83.5
417.828	89.5
418.051	107.5
418.274	87.5
418.497	101.5
418.72	101.5
418.943	102.5
419.166	117.5
419.389	103.5
419.611	105.5
419.834	89.5
420.057	96.5
420.28	103.5
420.503	95.5
420.726	114.5
420.948	103.5
421.171	98.5
421.394	100.5
421.617	95.5
421.839	98.5
422.062	94.5
422.285	92.5
422.507	92.5
422.73	114.5
422.953	129.5
423.175	118.5
423.398	100.5
423.621	103.5
423.843	81.5
424.066	88.5
424.288	106.5
424.511	99.5
424.733	98.5
424.956	81.5
425.178	84.5
425.401	88.5
425.623	96.5
425.846	92.5
426.068	88.5
426.291	94.5
426.513	89.5
426.735	95.5
426.958	95.5
427.18	87.5
427.402	100.5
427.625	85.5
427.847	88.5
428.069	99.5
428.292	103.5
428.514	96.5
428.736	92.5
428.958	93.5
429.181	79.5
429.403	99.5
429.625	83.5
429.847	98.5
430.069	100.5
430.292	97.5
430.514	103.5
430.736	98.5
430.958	96.5
431.18	90.5
431.402	84.5
431.624	70.5
431.846	105.5
432.068	100.5
432.29	96.5
432.512	91.5
432.734	88.5
432.956	82.5
433.178	95.5
433.4	87.5
433.622	95.5
433.844	96.5
434.066	90.5
434.287	82.5
434.509	98.5
434.731	108.5
434.953	79.5
435.175	85.5
435.397	98.5
435.618	101.5
435.84	106.5
436.062	101.5
436.284	106.5
436.505	75.5
436.727	87.5
436.949	89.5
437.17	96.5
437.392	96.5
437.614	95.5
437.835	83.5
438.057	96.5
438.278	85.5
438.5	92.5
438.721	103.5
438.943	100.5
439.165	103.5
439.386	93.5
439.608	104.5
439.829	97.5
440.05	125.5
440.272	123.5
440.493	99.5
440.715	96.5
440.936	99.5
441.158	86.5
441.379	89.5
441.6	105.5
441.822	103.5
442.043	118.5
442.264	141.5
442.486	124.5
442.707	105.5
442.928	99.5
443.149	80.5
443.371	99.5
443.592	99.5
443.813	97.5
444.034	110.5
444.255	85.5
444.476	87.5
444.698	93.5
444.919	84.5
445.14	183.5
445.361	142.5
445.582	99.5
445.803	90.5
446.024	99.5
446.245	101.5
446.466	108.5
446.687	121.5
446.908	92.5
447.129	87.5
447.35	99.5
447.571	87.5
447.792	98.5
448.013	99.5
448.234	104.5
448.455	73.5
448.675	95.5
448.896	103.5
449.117	105.5
449.338	136.5
449.559	153.5
449.779	132.5
450	107.5
450.221	90.5
450.442	111.5
450.662	105.5
450.883	104.5
451.104	105.5
451.324	107.5
451.545	112.5
451.766	104.5
451.986	127.5
452.207	215.5
452.428	525.5
452.648	1217.5
452.869	697.5
453.089	193.5
453.31	112.5
453.53	127.5
453.751	133.5
453.971	158.5
454.192	154.5
454.412	104.5
454.633	104.5
454.853	97.5
455.073	121.5
455.294	97.5
455.514	97.5
455.734	106.5
455.955	93.5
456.175	95.5
456.395	100.5
456.616	104.5
456.836	86.5
457.056	80.5
457.276	98.5
457.497	104.5
457.717	125.5
457.937	102.5
458.157	92.5
458.377	86.5
458.598	78.5
458.818	83.5
459.038	106.5
459.258	94.5
459.478	90.5
459.698	103.5
459.918	72.5
460.138	92.5
460.358	96.5
460.578	102.5
460.798	99.5
461.018	93.5
461.238	94.5
461.458	89.5
461.678	91.5
461.898	85.5
462.118	92.5
462.338	104.5
462.558	88.5
462.777	96.5
462.997	97.5
463.217	110.5
463.437	121.5
463.657	178.5
463.876	192.5
464.096	132.5
464.316	116.5
464.536	95.5
464.755	92.5
464.975	96.5
465.195	97.5
465.414	87.5
465.634	97.5
465.854	83.5
466.073	93.5
466.293	96.5
466.512	89.5
466.732	111.5
466.951	117.5
467.171	131.5
467.391	130.5
467.61	109.5
467.829	108.5
468.049	109.5
468.268	101.5
468.488	77.5
468.707	91.5
468.927	95.5
469.146	107.5
469.365	117.5
469.585	108.5
469.804	103.5
470.023	95.5
470.243	106.5
470.462	107.5
470.681	115.5
470.901	128.5
471.12	182.5
471.339	204.5
471.558	124.5
471.777	109.5
471.997	106.5
472.216	104.5
472.435	74.5
472.654	88.5
472.873	92.5
473.092	91.5
473.311	91.5
473.53	88.5
473.749	100.5
473.968	94.5
474.187	103.5
474.406	100.5
474.625	98.5
474.844	103.5
475.063	89.5
475.282	99.5
475.501	100.5
475.72	96.5
475.939	96.5
476.158	95.5
476.377	92.5
476.596	105.5
476.814	101.5
477.033	108.5
477.252	91.5
477.471	104.5
477.69	85.5
477.908	89.5
478.127	97.5
478.346	106.5
478.564	93.5
478.783	95.5
479.002	97.5
479.22	82.5
479.439	87.5
479.658	104.5
479.876	98.5
480.095	89.5
480.313	90.5
480.532	85.5
480.751	99.5
480.969	98.5
481.188	91.5
481.406	88.5
481.624	108.5
481.843	114.5
482.061	111.5
482.28	98.5
482.498	92.5
482.717	91.5
482.935	101.5
483.153	103.5
483.372	109.5
483.59	95.5
483.808	98.5
484.027	107.5
484.245	111.5
484.463	165.5
484.681	225.5
484.9	146.5
485.118	120.5
485.336	110.5
485.554	96.5
485.772	127.5
485.99	184.5
486.209	259.5
486.427	159.5
486.645	124.5
486.863	107.5
487.081	104.5
487.299	99.5
487.517	90.5
487.735	93.5
487.953	103.5
488.171	107.5
488.389	101.5
488.607	92.5
488.825	92.5
489.043	101.5
489.261	97.5
489.479	93.5
489.696	88.5
489.914	97.5
490.132	111.5
490.35	105.5
490.568	96.5
490.786	100.5
491.003	102.5
491.221	117.5
491.439	101.5
491.657	103.5
491.874	100.5
492.092	99.5
492.31	84.5
492.527	105.5
492.745	102.5
492.963	91.5
493.18	109.5
493.398	97.5
493.615	95.5
493.833	100.5
494.05	89.5
494.268	107.5
494.485	97.5
494.703	94.5
494.92	102.5
495.138	97.5
495.355	96.5
495.573	94.5
495.79	88.5
496.008	98.5
496.225	113.5
496.442	119.5
496.66	132.5
496.877	157.5
497.094	157.5
497.312	105.5
497.529	84.5
497.746	88.5
497.963	107.5
498.181	97.5
498.398	101.5
498.615	95.5
498.832	97.5
499.049	104.5
499.267	121.5
499.484	153.5
499.701	105.5
499.918	106.5
500.135	85.5
500.352	92.5
500.569	91.5
500.786	101.5
501.003	98.5
501.22	91.5
501.437	99.5
501.654	103.5
501.871	87.5
502.088	99.5
502.305	89.5
502.522	106.5
502.739	106.5
502.956	103.5
503.172	84.5
503.389	89.5
503.606	100.5
503.823	98.5
504.04	104.5
504.256	102.5
504.473	96.5
504.69	107.5
504.907	106.5
505.123	119.5
505.34	93.5
505.557	95.5
505.773	100.5
505.99	107.5
506.207	108.5
506.423	101.5
506.64	117.5
506.856	103.5
507.073	87.5
507.289	86.5
507.506	99.5
507.722	92.5
507.939	80.5
508.155	111.5
508.372	90.5
508.588	96.5
508.805	113.5
509.021	108.5
509.238	98.5
509.454	125.5
509.67	153.5
509.887	107.5
510.103	98.5
510.319	88.5
510.536	85.5
510.752	109.5
510.968	104.5
511.184	98.5
511.401	103.5
511.617	102.5
511.833	97.5
512.049	100.5
512.265	99.5
512.481	99.5
512.698	100.5
512.914	91.5
513.13	106.5
513.346	99.5
513.562	101.5
513.778	90.5
513.994	105.5
514.21	115.5
514.426	151.5
514.642	175.5
514.858	111.5
515.074	97.5
515.29	93.5
515.506	102.5
515.721	98.5
515.937	93.5
516.153	95.5
516.369	99.5
516.585	102.5
516.801	88.5
517.016	95.5
517.232	95.5
517.448	107.5
517.664	103.5
517.879	100.5
518.095	119.5
518.311	96.5
518.527	87.5
518.742	102.5
518.958	108.5
519.173	151.5
519.389	111.5
519.605	95.5
519.82	95.5
520.036	94.5
520.251	108.5
520.467	103.5
520.682	91.5
520.898	96.5
521.113	95.5
521.329	106.5
521.544	94.5
521.76	96.5
521.975	116.5
522.19	120.5
522.406	99.5
522.621	96.5
522.836	97.5
523.052	105.5
523.267	95.5
523.482	92.5
523.698	86.5
523.913	105.5
524.128	111.5
524.343	88.5
524.559	101.5
524.774	103.5
524.989	90.5
525.204	98.5
525.419	77.5
525.634	83.5
525.849	108.5
526.064	102.5
526.28	80.5
526.495	83.5
526.71	87.5
526.925	85.5
527.14	111.5
527.355	101.5
527.57	106.5
527.785	97.5
527.999	104.5
528.214	87.5
528.429	97.5
