Data from SnStandardFlinnAPT0064_QswitchEnergy10_LIBS07252019.E.O._I.C._HRD10591_15-27-57-973.txt Node
Date: Thu Jul 25 15:27:57 EDT 2019
User: cochatt
Spectrometer: HR+D1059
Trigger mode: 1
Integration Time (sec): 1.000000E-1
Scans to average: 1
Electric dark correction enabled: true
Nonlinearity correction enabled: false
Boxcar width: 0
XAxis mode: Wavelengths
Number of Pixels in Spectrum: 2048
>>>>>Begin Spectral Data<<<<<
223.165	-12.19
223.4	-12.19
223.635	-12.19
223.869	-29.19
224.104	-6.19
224.338	-24.19
224.573	-14.19
224.808	-10.19
225.042	4.81
225.277	-11.19
225.511	1.81
225.746	-11.19
225.98	17.81
226.215	-0.19
226.449	8.81
226.683	19.81
226.918	25.81
227.152	39.81
227.387	35.81
227.621	21.81
227.856	35.81
228.09	42.81
228.324	48.81
228.559	45.81
228.793	63.81
229.027	74.81
229.262	73.81
229.496	63.81
229.73	74.81
229.964	79.81
230.199	64.81
230.433	72.81
230.667	91.81
230.901	88.81
231.136	86.81
231.37	79.81
231.604	97.81
231.838	92.81
232.072	110.81
232.306	127.81
232.541	106.81
232.775	89.81
233.009	86.81
233.243	78.81
233.477	94.81
233.711	96.81
233.945	103.81
234.179	92.81
234.413	85.81
234.647	82.81
234.881	78.81
235.115	100.81
235.349	88.81
235.583	94.81
235.817	129.81
236.051	131.81
236.285	101.81
236.519	83.81
236.753	73.81
236.987	94.81
237.221	90.81
237.455	80.81
237.689	70.81
237.922	71.81
238.156	70.81
238.39	73.81
238.624	71.81
238.858	84.81
239.091	73.81
239.325	68.81
239.559	78.81
239.793	63.81
240.027	87.81
240.26	94.81
240.494	66.81
240.728	100.81
240.961	77.81
241.195	93.81
241.429	93.81
241.662	75.81
241.896	84.81
242.13	89.81
242.363	134.81
242.597	158.81
242.83	139.81
243.064	153.81
243.298	175.81
243.531	141.81
243.765	95.81
243.998	89.81
244.232	87.81
244.465	79.81
244.699	85.81
244.932	68.81
245.166	75.81
245.399	80.81
245.633	82.81
245.866	84.81
246.099	79.81
246.333	82.81
246.566	76.81
246.8	82.81
247.033	82.81
247.266	79.81
247.5	98.81
247.733	95.81
247.966	80.81
248.2	90.81
248.433	102.81
248.666	114.81
248.899	114.81
249.133	89.81
249.366	111.81
249.599	97.81
249.832	107.81
250.066	126.81
250.299	69.81
250.532	86.81
250.765	82.81
250.998	78.81
251.231	87.81
251.465	74.81
251.698	77.81
251.931	92.81
252.164	83.81
252.397	78.81
252.63	106.81
252.863	91.81
253.096	87.81
253.329	95.81
253.562	105.81
253.795	93.81
254.028	96.81
254.261	96.81
254.494	95.81
254.727	111.81
254.96	138.81
255.193	136.81
255.426	90.81
255.659	85.81
255.892	81.81
256.124	97.81
256.357	94.81
256.59	86.81
256.823	91.81
257.056	123.81
257.289	145.81
257.521	171.81
257.754	129.81
257.987	85.81
258.22	87.81
258.452	86.81
258.685	84.81
258.918	93.81
259.151	83.81
259.383	97.81
259.616	121.81
259.849	136.81
260.081	103.81
260.314	89.81
260.547	87.81
260.779	89.81
261.012	86.81
261.244	91.81
261.477	88.81
261.71	88.81
261.942	85.81
262.175	88.81
262.407	84.81
262.64	79.81
262.872	77.81
263.105	91.81
263.337	82.81
263.57	87.81
263.802	78.81
264.035	86.81
264.267	85.81
264.499	82.81
264.732	94.81
264.964	69.81
265.197	96.81
265.429	94.81
265.661	91.81
265.894	98.81
266.126	140.81
266.358	163.81
266.591	151.81
266.823	107.81
267.055	80.81
267.287	82.81
267.52	92.81
267.752	76.81
267.984	78.81
268.216	76.81
268.448	77.81
268.681	88.81
268.913	71.81
269.145	76.81
269.377	103.81
269.609	78.81
269.841	82.81
270.073	102.81
270.306	128.81
270.538	179.81
270.77	315.81
271.002	371.81
271.234	203.81
271.466	117.81
271.698	97.81
271.93	90.81
272.162	75.81
272.394	90.81
272.626	87.81
272.858	96.81
273.09	90.81
273.322	81.81
273.553	90.81
273.785	98.81
274.017	79.81
274.249	84.81
274.481	90.81
274.713	103.81
274.945	97.81
275.176	77.81
275.408	85.81
275.64	81.81
275.872	96.81
276.104	93.81
276.335	86.81
276.567	98.81
276.799	79.81
277.031	81.81
277.262	87.81
277.494	95.81
277.726	126.81
277.957	171.81
278.189	264.81
278.421	241.81
278.652	207.81
278.884	189.81
279.115	128.81
279.347	112.81
279.579	95.81
279.81	87.81
280.042	102.81
280.273	101.81
280.505	109.81
280.736	122.81
280.968	116.81
281.199	194.81
281.431	247.81
281.662	250.81
281.894	150.81
282.125	111.81
282.356	103.81
282.588	98.81
282.819	114.81
283.051	104.81
283.282	138.81
283.513	176.81
283.745	306.81
283.976	540.81
284.207	825.81
284.439	596.81
284.67	280.81
284.901	264.81
285.132	347.81
285.364	387.81
285.595	229.81
285.826	179.81
286.057	246.81
286.288	419.81
286.52	630.81
286.751	480.81
286.982	199.81
287.213	115.81
287.444	93.81
287.675	117.81
287.906	91.81
288.138	98.81
288.369	93.81
288.6	95.81
288.831	99.81
289.062	89.81
289.293	89.81
289.524	91.81
289.755	86.81
289.986	85.81
290.217	99.81
290.448	114.81
290.679	110.81
290.91	125.81
291.141	154.81
291.371	235.81
291.602	296.81
291.833	196.81
292.064	112.81
292.295	94.81
292.526	109.81
292.757	98.81
292.987	95.81
293.218	91.81
293.449	88.81
293.68	90.81
293.91	88.81
294.141	93.81
294.372	89.81
294.603	92.81
294.833	100.81
295.064	101.81
295.295	109.81
295.525	92.81
295.756	98.81
295.987	108.81
296.217	89.81
296.448	90.81
296.679	102.81
296.909	89.81
297.14	106.81
297.37	91.81
297.601	111.81
297.831	109.81
298.062	104.81
298.292	104.81
298.523	98.81
298.753	109.81
298.984	111.81
299.214	106.81
299.445	100.81
299.675	103.81
299.905	123.81
300.136	143.81
300.366	155.81
300.597	273.81
300.827	457.81
301.057	684.81
301.288	621.81
301.518	281.81
301.748	167.81
301.979	130.81
302.209	132.81
302.439	151.81
302.669	167.81
302.9	264.81
303.13	507.81
303.36	899.81
303.59	1220.81
303.82	849.81
304.051	298.81
304.281	138.81
304.511	130.81
304.741	109.81
304.971	117.81
305.201	112.81
305.431	112.81
305.661	105.81
305.891	115.81
306.121	104.81
306.352	95.81
306.582	114.81
306.812	93.81
307.042	97.81
307.272	106.81
307.502	104.81
307.731	106.81
307.961	107.81
308.191	107.81
308.421	106.81
308.651	116.81
308.881	112.81
309.111	99.81
309.341	107.81
309.571	112.81
309.8	105.81
310.03	107.81
310.26	105.81
310.49	113.81
310.72	102.81
310.949	121.81
311.179	104.81
311.409	91.81
311.639	111.81
311.868	121.81
312.098	114.81
312.328	112.81
312.557	120.81
312.787	129.81
313.017	128.81
313.246	117.81
313.476	116.81
313.706	138.81
313.935	155.81
314.165	209.81
314.394	234.81
314.624	177.81
314.853	145.81
315.083	118.81
315.312	132.81
315.542	126.81
315.771	131.81
316.001	135.81
316.23	129.81
316.46	153.81
316.689	176.81
316.919	261.81
317.148	524.81
317.377	925.81
317.607	1485.81
317.836	1407.81
318.065	526.81
318.295	219.81
318.524	166.81
318.753	144.81
318.983	117.81
319.212	112.81
319.441	123.81
319.67	112.81
319.9	114.81
320.129	118.81
320.358	111.81
320.587	121.81
320.816	123.81
321.046	121.81
321.275	141.81
321.504	138.81
321.733	144.81
321.962	177.81
322.191	160.81
322.42	129.81
322.649	140.81
322.878	123.81
323.108	130.81
323.337	124.81
323.566	121.81
323.795	130.81
324.024	133.81
324.253	148.81
324.482	173.81
324.71	235.81
324.939	302.81
325.168	245.81
325.397	182.81
325.626	258.81
325.855	485.81
326.084	935.81
326.313	1586.81
326.542	1581.81
326.77	618.81
326.999	265.81
327.228	228.81
327.457	256.81
327.686	233.81
327.914	160.81
328.143	137.81
328.372	132.81
328.6	124.81
328.829	115.81
329.058	129.81
329.287	110.81
329.515	125.81
329.744	134.81
329.972	117.81
330.201	119.81
330.43	110.81
330.658	119.81
330.887	128.81
331.115	107.81
331.344	114.81
331.572	119.81
331.801	122.81
332.03	122.81
332.258	124.81
332.486	200.81
332.715	305.81
332.943	495.81
333.172	786.81
333.4	680.81
333.629	247.81
333.857	145.81
334.085	123.81
334.314	117.81
334.542	113.81
334.771	112.81
334.999	121.81
335.227	121.81
335.455	130.81
335.684	135.81
335.912	111.81
336.14	106.81
336.369	112.81
336.597	125.81
336.825	113.81
337.053	121.81
337.281	112.81
337.51	104.81
337.738	126.81
337.966	110.81
338.194	110.81
338.422	103.81
338.65	114.81
338.878	122.81
339.106	125.81
339.334	125.81
339.562	122.81
339.79	107.81
340.018	97.81
340.246	120.81
340.474	127.81
340.702	115.81
340.93	104.81
341.158	117.81
341.386	109.81
341.614	119.81
341.842	115.81
342.07	134.81
342.298	125.81
342.526	121.81
342.754	112.81
342.981	94.81
343.209	112.81
343.437	115.81
343.665	121.81
343.893	101.81
344.12	111.81
344.348	123.81
344.576	115.81
344.804	114.81
345.031	120.81
345.259	119.81
345.487	106.81
345.714	117.81
345.942	97.81
346.17	103.81
346.397	106.81
346.625	113.81
346.853	110.81
347.08	107.81
347.308	111.81
347.535	99.81
347.763	104.81
347.99	103.81
348.218	107.81
348.445	112.81
348.673	114.81
348.9	121.81
349.128	120.81
349.355	118.81
349.583	112.81
349.81	113.81
350.037	114.81
350.265	112.81
350.492	113.81
350.72	113.81
350.947	109.81
351.174	119.81
351.402	114.81
351.629	102.81
351.856	101.81
352.083	101.81
352.311	104.81
352.538	108.81
352.765	111.81
352.992	106.81
353.22	98.81
353.447	95.81
353.674	112.81
353.901	98.81
354.128	100.81
354.355	117.81
354.583	98.81
354.81	92.81
355.037	113.81
355.264	108.81
355.491	125.81
355.718	115.81
355.945	98.81
356.172	103.81
356.399	110.81
356.626	102.81
356.853	105.81
357.08	110.81
357.307	95.81
357.534	107.81
357.761	102.81
357.988	94.81
358.215	97.81
358.441	119.81
358.668	113.81
358.895	120.81
359.122	122.81
359.349	110.81
359.576	131.81
359.802	105.81
360.029	109.81
360.256	113.81
360.483	103.81
360.709	106.81
360.936	102.81
361.163	110.81
361.39	103.81
361.616	110.81
361.843	107.81
362.07	114.81
362.296	106.81
362.523	105.81
362.749	98.81
362.976	113.81
363.203	117.81
363.429	116.81
363.656	113.81
363.882	114.81
364.109	118.81
364.335	110.81
364.562	97.81
364.788	105.81
365.015	122.81
365.241	125.81
365.468	190.81
365.694	243.81
365.92	212.81
366.147	123.81
366.373	106.81
366.599	112.81
366.826	107.81
367.052	95.81
367.278	105.81
367.505	90.81
367.731	107.81
367.957	90.81
368.184	97.81
368.41	112.81
368.636	125.81
368.862	112.81
369.089	103.81
369.315	100.81
369.541	110.81
369.767	107.81
369.993	106.81
370.219	117.81
370.445	111.81
370.672	100.81
370.898	107.81
371.124	100.81
371.35	96.81
371.576	102.81
371.802	125.81
372.028	119.81
372.254	109.81
372.48	108.81
372.706	98.81
372.932	123.81
373.158	102.81
373.384	125.81
373.61	126.81
373.835	115.81
374.061	102.81
374.287	115.81
374.513	109.81
374.739	90.81
374.965	110.81
375.191	104.81
375.416	104.81
375.642	102.81
375.868	128.81
376.094	119.81
376.319	96.81
376.545	116.81
376.771	102.81
376.997	106.81
377.222	100.81
377.448	100.81
377.674	107.81
377.899	117.81
378.125	112.81
378.35	109.81
378.576	118.81
378.802	114.81
379.027	138.81
379.253	140.81
379.478	185.81
379.704	326.81
379.929	823.81
380.155	1574.81
380.38	1641.81
380.606	517.81
380.831	197.81
381.057	122.81
381.282	114.81
381.507	124.81
381.733	101.81
381.958	117.81
382.184	101.81
382.409	104.81
382.634	105.81
382.86	114.81
383.085	99.81
383.31	101.81
383.535	105.81
383.761	122.81
383.986	113.81
384.211	114.81
384.436	103.81
384.662	97.81
384.887	99.81
385.112	92.81
385.337	101.81
385.562	93.81
385.787	99.81
386.013	109.81
386.238	101.81
386.463	105.81
386.688	107.81
386.913	99.81
387.138	121.81
387.363	110.81
387.588	110.81
387.813	112.81
388.038	103.81
388.263	121.81
388.488	115.81
388.713	103.81
388.938	103.81
389.163	84.81
389.387	95.81
389.612	101.81
389.837	107.81
390.062	105.81
390.287	104.81
390.512	102.81
390.736	90.81
390.961	94.81
391.186	93.81
391.411	118.81
391.636	90.81
391.86	93.81
392.085	94.81
392.31	101.81
392.534	103.81
392.759	106.81
392.984	107.81
393.208	131.81
393.433	158.81
393.658	139.81
393.882	104.81
394.107	96.81
394.331	104.81
394.556	96.81
394.78	110.81
395.005	100.81
395.229	98.81
395.454	101.81
395.678	83.81
395.903	95.81
396.127	117.81
396.352	105.81
396.576	124.81
396.801	133.81
397.025	133.81
397.249	114.81
397.474	100.81
397.698	93.81
397.922	94.81
398.147	95.81
398.371	96.81
398.595	105.81
398.82	109.81
399.044	102.81
399.268	85.81
399.492	101.81
399.717	97.81
399.941	93.81
400.165	101.81
400.389	104.81
400.613	95.81
400.837	95.81
401.062	104.81
401.286	93.81
401.51	100.81
401.734	90.81
401.958	93.81
402.182	100.81
402.406	91.81
402.63	98.81
402.854	98.81
403.078	100.81
403.302	98.81
403.526	104.81
403.75	93.81
403.974	106.81
404.198	111.81
404.422	95.81
404.645	100.81
404.869	99.81
405.093	104.81
405.317	104.81
405.541	121.81
405.765	127.81
405.988	153.81
406.212	107.81
406.436	89.81
406.66	100.81
406.883	106.81
407.107	91.81
407.331	95.81
407.555	89.81
407.778	102.81
408.002	97.81
408.226	103.81
408.449	99.81
408.673	105.81
408.896	97.81
409.12	112.81
409.344	99.81
409.567	96.81
409.791	112.81
410.014	111.81
410.238	112.81
410.461	101.81
410.685	106.81
410.908	94.81
411.132	103.81
411.355	109.81
411.578	107.81
411.802	83.81
412.025	91.81
412.249	110.81
412.472	91.81
412.695	99.81
412.919	108.81
413.142	103.81
413.365	96.81
413.589	86.81
413.812	101.81
414.035	85.81
414.258	111.81
414.482	109.81
414.705	96.81
414.928	93.81
415.151	105.81
415.374	112.81
415.597	102.81
415.821	102.81
416.044	105.81
416.267	98.81
416.49	98.81
416.713	69.81
416.936	86.81
417.159	99.81
417.382	83.81
417.605	87.81
417.828	77.81
418.051	93.81
418.274	97.81
418.497	96.81
418.72	104.81
418.943	101.81
419.166	114.81
419.389	114.81
419.611	96.81
419.834	102.81
420.057	103.81
420.28	99.81
420.503	105.81
420.726	101.81
420.948	94.81
421.171	95.81
421.394	99.81
421.617	99.81
421.839	94.81
422.062	73.81
422.285	98.81
422.507	103.81
422.73	131.81
422.953	136.81
423.175	125.81
423.398	92.81
423.621	102.81
423.843	79.81
424.066	97.81
424.288	93.81
424.511	93.81
424.733	100.81
424.956	100.81
425.178	94.81
425.401	96.81
425.623	82.81
425.846	101.81
426.068	77.81
426.291	89.81
426.513	89.81
426.735	91.81
426.958	95.81
427.18	83.81
427.402	98.81
427.625	94.81
427.847	105.81
428.069	99.81
428.292	112.81
428.514	99.81
428.736	88.81
428.958	79.81
429.181	101.81
429.403	88.81
429.625	92.81
429.847	95.81
430.069	102.81
430.292	113.81
430.514	111.81
430.736	97.81
430.958	105.81
431.18	106.81
431.402	105.81
431.624	97.81
431.846	107.81
432.068	92.81
432.29	90.81
432.512	89.81
432.734	103.81
432.956	104.81
433.178	85.81
433.4	93.81
433.622	102.81
433.844	82.81
434.066	96.81
434.287	96.81
434.509	96.81
434.731	96.81
434.953	104.81
435.175	91.81
435.397	81.81
435.618	90.81
435.84	78.81
436.062	96.81
436.284	106.81
436.505	92.81
436.727	81.81
436.949	87.81
437.17	97.81
437.392	93.81
437.614	90.81
437.835	88.81
438.057	71.81
438.278	90.81
438.5	95.81
438.721	104.81
438.943	110.81
439.165	114.81
439.386	112.81
439.608	105.81
439.829	97.81
440.05	105.81
440.272	126.81
440.493	100.81
440.715	104.81
440.936	97.81
441.158	99.81
441.379	102.81
441.6	95.81
441.822	119.81
442.043	117.81
442.264	130.81
442.486	124.81
442.707	112.81
442.928	100.81
443.149	89.81
443.371	110.81
443.592	97.81
443.813	89.81
444.034	91.81
444.255	112.81
444.476	97.81
444.698	102.81
444.919	101.81
445.14	183.81
445.361	141.81
445.582	107.81
445.803	100.81
446.024	103.81
446.245	90.81
446.466	111.81
446.687	90.81
446.908	93.81
447.129	99.81
447.35	81.81
447.571	88.81
447.792	106.81
448.013	96.81
448.234	97.81
448.455	83.81
448.675	98.81
448.896	100.81
449.117	106.81
449.338	138.81
449.559	142.81
449.779	115.81
450	103.81
450.221	103.81
450.442	126.81
450.662	137.81
450.883	111.81
451.104	117.81
451.324	117.81
451.545	111.81
451.766	118.81
451.986	143.81
452.207	221.81
452.428	577.81
452.648	1399.81
452.869	764.81
453.089	205.81
453.31	125.81
453.53	120.81
453.751	152.81
453.971	160.81
454.192	160.81
454.412	119.81
454.633	102.81
454.853	95.81
455.073	89.81
455.294	94.81
455.514	70.81
455.734	84.81
455.955	98.81
456.175	91.81
456.395	88.81
456.616	100.81
456.836	95.81
457.056	88.81
457.276	96.81
457.497	112.81
457.717	126.81
457.937	106.81
458.157	93.81
458.377	91.81
458.598	90.81
458.818	87.81
459.038	97.81
459.258	104.81
459.478	107.81
459.698	87.81
459.918	97.81
460.138	78.81
460.358	91.81
460.578	92.81
460.798	99.81
461.018	87.81
461.238	91.81
461.458	104.81
461.678	89.81
461.898	89.81
462.118	93.81
462.338	83.81
462.558	88.81
462.777	90.81
462.997	106.81
463.217	107.81
463.437	133.81
463.657	177.81
463.876	195.81
464.096	130.81
464.316	116.81
464.536	110.81
464.755	102.81
464.975	91.81
465.195	90.81
465.414	79.81
465.634	92.81
465.854	98.81
466.073	97.81
466.293	85.81
466.512	95.81
466.732	100.81
466.951	114.81
467.171	140.81
467.391	142.81
467.61	102.81
467.829	81.81
468.049	103.81
468.268	100.81
468.488	96.81
468.707	101.81
468.927	91.81
469.146	96.81
469.365	82.81
469.585	84.81
469.804	98.81
470.023	84.81
470.243	107.81
470.462	88.81
470.681	108.81
470.901	124.81
471.12	194.81
471.339	220.81
471.558	131.81
471.777	106.81
471.997	102.81
472.216	93.81
472.435	109.81
472.654	81.81
472.873	97.81
473.092	80.81
473.311	85.81
473.53	86.81
473.749	107.81
473.968	85.81
474.187	97.81
474.406	96.81
474.625	87.81
474.844	95.81
475.063	90.81
475.282	103.81
475.501	82.81
475.72	93.81
475.939	97.81
476.158	95.81
476.377	115.81
476.596	97.81
476.814	102.81
477.033	88.81
477.252	88.81
477.471	95.81
477.69	89.81
477.908	88.81
478.127	104.81
478.346	96.81
478.564	98.81
478.783	85.81
479.002	93.81
479.22	96.81
479.439	92.81
479.658	99.81
479.876	93.81
480.095	95.81
480.313	112.81
480.532	97.81
480.751	81.81
480.969	106.81
481.188	109.81
481.406	91.81
481.624	100.81
481.843	117.81
482.061	114.81
482.28	114.81
482.498	106.81
482.717	97.81
482.935	102.81
483.153	72.81
483.372	112.81
483.59	107.81
483.808	102.81
484.027	98.81
484.245	115.81
484.463	173.81
484.681	239.81
484.9	150.81
485.118	117.81
485.336	93.81
485.554	113.81
485.772	125.81
485.99	190.81
486.209	265.81
486.427	157.81
486.645	109.81
486.863	106.81
487.081	107.81
487.299	88.81
487.517	90.81
487.735	91.81
487.953	95.81
488.171	103.81
488.389	113.81
488.607	109.81
488.825	98.81
489.043	100.81
489.261	89.81
489.479	98.81
489.696	103.81
489.914	88.81
490.132	101.81
490.35	90.81
490.568	91.81
490.786	93.81
491.003	112.81
491.221	109.81
491.439	102.81
491.657	93.81
491.874	115.81
492.092	98.81
492.31	107.81
492.527	90.81
492.745	113.81
492.963	103.81
493.18	89.81
493.398	112.81
493.615	102.81
493.833	94.81
494.05	93.81
494.268	97.81
494.485	86.81
494.703	98.81
494.92	99.81
495.138	108.81
495.355	101.81
495.573	101.81
495.79	96.81
496.008	94.81
496.225	112.81
496.442	99.81
496.66	115.81
496.877	153.81
497.094	166.81
497.312	114.81
497.529	113.81
497.746	103.81
497.963	106.81
498.181	121.81
498.398	98.81
498.615	95.81
498.832	95.81
499.049	113.81
499.267	155.81
499.484	154.81
499.701	102.81
499.918	93.81
500.135	106.81
500.352	104.81
500.569	99.81
500.786	90.81
501.003	92.81
501.22	91.81
501.437	99.81
501.654	103.81
501.871	106.81
502.088	92.81
502.305	99.81
502.522	105.81
502.739	89.81
502.956	95.81
503.172	102.81
503.389	98.81
503.606	93.81
503.823	91.81
504.04	101.81
504.256	102.81
504.473	102.81
504.69	97.81
504.907	114.81
505.123	117.81
505.34	94.81
505.557	85.81
505.773	92.81
505.99	93.81
506.207	101.81
506.423	103.81
506.64	113.81
506.856	101.81
507.073	101.81
507.289	104.81
507.506	75.81
507.722	99.81
507.939	91.81
508.155	79.81
508.372	94.81
508.588	88.81
