Data from SnStandardFlinnAPT0064_QswitchEnergy10_LIBS07252019.E.O._I.C._HRD10591_15-27-51-974.txt Node
Date: Thu Jul 25 15:27:51 EDT 2019
User: cochatt
Spectrometer: HR+D1059
Trigger mode: 1
Integration Time (sec): 1.000000E-1
Scans to average: 1
Electric dark correction enabled: true
Nonlinearity correction enabled: false
Boxcar width: 0
XAxis mode: Wavelengths
Number of Pixels in Spectrum: 2048
>>>>>Begin Spectral Data<<<<<
223.165	-9.88
223.4	-9.88
223.635	-9.88
223.869	-27.88
224.104	-16.88
224.338	-2.88
224.573	-8.88
224.808	-9.88
225.042	-7.88
225.277	-16.88
225.511	-18.88
225.746	6.12
225.98	-0.88
226.215	19.12
226.449	16.12
226.683	18.12
226.918	33.12
227.152	28.12
227.387	44.12
227.621	37.12
227.856	45.12
228.09	42.12
228.324	39.12
228.559	44.12
228.793	48.12
229.027	63.12
229.262	76.12
229.496	69.12
229.73	75.12
229.964	57.12
230.199	80.12
230.433	75.12
230.667	86.12
230.901	75.12
231.136	85.12
231.37	73.12
231.604	100.12
231.838	93.12
232.072	113.12
232.306	101.12
232.541	88.12
232.775	89.12
233.009	80.12
233.243	97.12
233.477	95.12
233.711	99.12
233.945	114.12
234.179	102.12
234.413	99.12
234.647	76.12
234.881	75.12
235.115	86.12
235.349	86.12
235.583	111.12
235.817	129.12
236.051	124.12
236.285	87.12
236.519	79.12
236.753	76.12
236.987	85.12
237.221	75.12
237.455	79.12
237.689	77.12
237.922	79.12
238.156	66.12
238.39	87.12
238.624	84.12
238.858	83.12
239.091	72.12
239.325	72.12
239.559	79.12
239.793	81.12
240.027	88.12
240.26	72.12
240.494	85.12
240.728	88.12
240.961	87.12
241.195	104.12
241.429	94.12
241.662	87.12
241.896	100.12
242.13	95.12
242.363	120.12
242.597	156.12
242.83	133.12
243.064	149.12
243.298	160.12
243.531	144.12
243.765	97.12
243.998	84.12
244.232	83.12
244.465	87.12
244.699	77.12
244.932	67.12
245.166	86.12
245.399	61.12
245.633	83.12
245.866	95.12
246.099	81.12
246.333	86.12
246.566	82.12
246.8	81.12
247.033	63.12
247.266	85.12
247.5	92.12
247.733	96.12
247.966	78.12
248.2	93.12
248.433	115.12
248.666	125.12
248.899	98.12
249.133	106.12
249.366	86.12
249.599	89.12
249.832	125.12
250.066	125.12
250.299	93.12
250.532	83.12
250.765	76.12
250.998	93.12
251.231	81.12
251.465	81.12
251.698	88.12
251.931	94.12
252.164	98.12
252.397	93.12
252.63	89.12
252.863	97.12
253.096	113.12
253.329	91.12
253.562	92.12
253.795	101.12
254.028	78.12
254.261	92.12
254.494	86.12
254.727	124.12
254.96	141.12
255.193	123.12
255.426	91.12
255.659	90.12
255.892	86.12
256.124	98.12
256.357	84.12
256.59	93.12
256.823	94.12
257.056	109.12
257.289	144.12
257.521	177.12
257.754	124.12
257.987	96.12
258.22	91.12
258.452	68.12
258.685	91.12
258.918	92.12
259.151	94.12
259.383	118.12
259.616	138.12
259.849	155.12
260.081	104.12
260.314	64.12
260.547	80.12
260.779	68.12
261.012	83.12
261.244	95.12
261.477	86.12
261.71	93.12
261.942	74.12
262.175	83.12
262.407	90.12
262.64	84.12
262.872	68.12
263.105	91.12
263.337	97.12
263.57	86.12
263.802	88.12
264.035	86.12
264.267	80.12
264.499	84.12
264.732	82.12
264.964	81.12
265.197	86.12
265.429	88.12
265.661	102.12
265.894	106.12
266.126	115.12
266.358	146.12
266.591	146.12
266.823	104.12
267.055	76.12
267.287	80.12
267.52	82.12
267.752	88.12
267.984	92.12
268.216	78.12
268.448	85.12
268.681	86.12
268.913	104.12
269.145	82.12
269.377	96.12
269.609	99.12
269.841	92.12
270.073	92.12
270.306	137.12
270.538	185.12
270.77	307.12
271.002	370.12
271.234	184.12
271.466	121.12
271.698	94.12
271.93	77.12
272.162	101.12
272.394	86.12
272.626	87.12
272.858	80.12
273.09	92.12
273.322	87.12
273.553	77.12
273.785	78.12
274.017	78.12
274.249	86.12
274.481	91.12
274.713	88.12
274.945	84.12
275.176	89.12
275.408	77.12
275.64	93.12
275.872	99.12
276.104	101.12
276.335	104.12
276.567	84.12
276.799	91.12
277.031	100.12
277.262	111.12
277.494	103.12
277.726	127.12
277.957	180.12
278.189	235.12
278.421	233.12
278.652	209.12
278.884	173.12
279.115	139.12
279.347	102.12
279.579	90.12
279.81	98.12
280.042	101.12
280.273	94.12
280.505	89.12
280.736	107.12
280.968	119.12
281.199	147.12
281.431	234.12
281.662	259.12
281.894	141.12
282.125	111.12
282.356	120.12
282.588	97.12
282.819	119.12
283.051	133.12
283.282	137.12
283.513	170.12
283.745	293.12
283.976	522.12
284.207	770.12
284.439	566.12
284.67	268.12
284.901	257.12
285.132	341.12
285.364	358.12
285.595	204.12
285.826	165.12
286.057	256.12
286.288	390.12
286.52	601.12
286.751	464.12
286.982	207.12
287.213	113.12
287.444	106.12
287.675	95.12
287.906	102.12
288.138	94.12
288.369	115.12
288.6	95.12
288.831	85.12
289.062	106.12
289.293	86.12
289.524	107.12
289.755	100.12
289.986	90.12
290.217	98.12
290.448	97.12
290.679	89.12
290.91	130.12
291.141	177.12
291.371	234.12
291.602	274.12
291.833	183.12
292.064	118.12
292.295	103.12
292.526	93.12
292.757	99.12
292.987	110.12
293.218	89.12
293.449	87.12
293.68	100.12
293.91	97.12
294.141	92.12
294.372	82.12
294.603	93.12
294.833	92.12
295.064	88.12
295.295	87.12
295.525	105.12
295.756	98.12
295.987	86.12
296.217	89.12
296.448	83.12
296.679	97.12
296.909	89.12
297.14	99.12
297.37	100.12
297.601	105.12
297.831	90.12
298.062	106.12
298.292	101.12
298.523	101.12
298.753	98.12
298.984	93.12
299.214	109.12
299.445	122.12
299.675	103.12
299.905	100.12
300.136	120.12
300.366	159.12
300.597	266.12
300.827	439.12
301.057	663.12
301.288	588.12
301.518	232.12
301.748	150.12
301.979	126.12
302.209	124.12
302.439	131.12
302.669	153.12
302.9	257.12
303.13	472.12
303.36	871.12
303.59	1149.12
303.82	784.12
304.051	278.12
304.281	153.12
304.511	135.12
304.741	110.12
304.971	109.12
305.201	129.12
305.431	115.12
305.661	114.12
305.891	103.12
306.121	97.12
306.352	114.12
306.582	97.12
306.812	124.12
307.042	114.12
307.272	106.12
307.502	123.12
307.731	119.12
307.961	102.12
308.191	87.12
308.421	105.12
308.651	93.12
308.881	103.12
309.111	97.12
309.341	93.12
309.571	102.12
309.8	108.12
310.03	97.12
310.26	115.12
310.49	108.12
310.72	120.12
310.949	115.12
311.179	104.12
311.409	97.12
311.639	99.12
311.868	117.12
312.098	106.12
312.328	113.12
312.557	101.12
312.787	117.12
313.017	108.12
313.246	133.12
313.476	112.12
313.706	127.12
313.935	161.12
314.165	190.12
314.394	217.12
314.624	182.12
314.853	144.12
315.083	131.12
315.312	123.12
315.542	114.12
315.771	124.12
316.001	130.12
316.23	149.12
316.46	147.12
316.689	162.12
316.919	254.12
317.148	484.12
317.377	858.12
317.607	1414.12
317.836	1377.12
318.065	519.12
318.295	199.12
318.524	147.12
318.753	121.12
318.983	124.12
319.212	112.12
319.441	139.12
319.67	127.12
319.9	122.12
320.129	111.12
320.358	110.12
320.587	104.12
320.816	129.12
321.046	127.12
321.275	136.12
321.504	127.12
321.733	143.12
321.962	156.12
322.191	148.12
322.42	135.12
322.649	115.12
322.878	136.12
323.108	117.12
323.337	130.12
323.566	123.12
323.795	124.12
324.024	112.12
324.253	139.12
324.482	167.12
324.71	216.12
324.939	268.12
325.168	220.12
325.397	188.12
325.626	237.12
325.855	482.12
326.084	909.12
326.313	1507.12
326.542	1523.12
326.77	593.12
326.999	267.12
327.228	215.12
327.457	246.12
327.686	216.12
327.914	173.12
328.143	141.12
328.372	121.12
328.6	127.12
328.829	119.12
329.058	122.12
329.287	122.12
329.515	121.12
329.744	114.12
329.972	117.12
330.201	108.12
330.43	119.12
330.658	121.12
330.887	109.12
331.115	124.12
331.344	105.12
331.572	103.12
331.801	111.12
332.03	124.12
332.258	130.12
332.486	163.12
332.715	297.12
332.943	480.12
333.172	727.12
333.4	645.12
333.629	253.12
333.857	138.12
334.085	131.12
334.314	131.12
334.542	129.12
334.771	119.12
334.999	113.12
335.227	127.12
335.455	130.12
335.684	127.12
335.912	125.12
336.14	120.12
336.369	120.12
336.597	143.12
336.825	122.12
337.053	111.12
337.281	97.12
337.51	106.12
337.738	112.12
337.966	107.12
338.194	117.12
338.422	99.12
338.65	115.12
338.878	122.12
339.106	126.12
339.334	123.12
339.562	118.12
339.79	124.12
340.018	109.12
340.246	119.12
340.474	113.12
340.702	117.12
340.93	107.12
341.158	115.12
341.386	115.12
341.614	119.12
341.842	123.12
342.07	121.12
342.298	115.12
342.526	122.12
342.754	108.12
342.981	103.12
343.209	111.12
343.437	103.12
343.665	104.12
343.893	104.12
344.12	99.12
344.348	99.12
344.576	115.12
344.804	118.12
345.031	117.12
345.259	123.12
345.487	106.12
345.714	103.12
345.942	119.12
346.17	107.12
346.397	115.12
346.625	109.12
346.853	99.12
347.08	111.12
347.308	107.12
347.535	96.12
347.763	108.12
347.99	112.12
348.218	107.12
348.445	119.12
348.673	124.12
348.9	128.12
349.128	119.12
349.355	127.12
349.583	118.12
349.81	111.12
350.037	106.12
350.265	112.12
350.492	123.12
350.72	115.12
350.947	120.12
351.174	115.12
351.402	97.12
351.629	115.12
351.856	108.12
352.083	108.12
352.311	112.12
352.538	109.12
352.765	115.12
352.992	95.12
353.22	113.12
353.447	110.12
353.674	97.12
353.901	111.12
354.128	119.12
354.355	99.12
354.583	111.12
354.81	111.12
355.037	102.12
355.264	104.12
355.491	93.12
355.718	106.12
355.945	100.12
356.172	104.12
356.399	104.12
356.626	96.12
356.853	116.12
357.08	98.12
357.307	109.12
357.534	116.12
357.761	116.12
357.988	102.12
358.215	112.12
358.441	107.12
358.668	117.12
358.895	124.12
359.122	122.12
359.349	108.12
359.576	135.12
359.802	97.12
360.029	105.12
360.256	120.12
360.483	106.12
360.709	94.12
360.936	120.12
361.163	113.12
361.39	111.12
361.616	114.12
361.843	95.12
362.07	117.12
362.296	113.12
362.523	107.12
362.749	119.12
362.976	104.12
363.203	111.12
363.429	109.12
363.656	105.12
363.882	118.12
364.109	118.12
364.335	115.12
364.562	99.12
364.788	85.12
365.015	122.12
365.241	147.12
365.468	193.12
365.694	255.12
365.92	211.12
366.147	118.12
366.373	97.12
366.599	103.12
366.826	98.12
367.052	95.12
367.278	88.12
367.505	99.12
367.731	106.12
367.957	96.12
368.184	112.12
368.41	134.12
368.636	119.12
368.862	103.12
369.089	111.12
369.315	100.12
369.541	117.12
369.767	123.12
369.993	110.12
370.219	119.12
370.445	112.12
370.672	108.12
370.898	103.12
371.124	111.12
371.35	119.12
371.576	112.12
371.802	93.12
372.028	115.12
372.254	107.12
372.48	134.12
372.706	123.12
372.932	114.12
373.158	116.12
373.384	107.12
373.61	127.12
373.835	113.12
374.061	117.12
374.287	121.12
374.513	104.12
374.739	119.12
374.965	115.12
375.191	98.12
375.416	115.12
375.642	117.12
375.868	110.12
376.094	102.12
376.319	108.12
376.545	119.12
376.771	107.12
376.997	113.12
377.222	113.12
377.448	125.12
377.674	100.12
377.899	111.12
378.125	116.12
378.35	116.12
378.576	130.12
378.802	139.12
379.027	115.12
379.253	135.12
379.478	175.12
379.704	303.12
379.929	752.12
380.155	1507.12
380.38	1559.12
380.606	515.12
380.831	184.12
381.057	143.12
381.282	119.12
381.507	113.12
381.733	126.12
381.958	100.12
382.184	109.12
382.409	115.12
382.634	101.12
382.86	117.12
383.085	100.12
383.31	100.12
383.535	110.12
383.761	101.12
383.986	95.12
384.211	104.12
384.436	99.12
384.662	107.12
384.887	103.12
385.112	96.12
385.337	97.12
385.562	99.12
385.787	107.12
386.013	102.12
386.238	112.12
386.463	111.12
386.688	89.12
386.913	106.12
387.138	97.12
387.363	115.12
387.588	115.12
387.813	119.12
388.038	111.12
388.263	105.12
388.488	110.12
388.713	118.12
388.938	98.12
389.163	88.12
389.387	112.12
389.612	115.12
389.837	103.12
390.062	106.12
390.287	107.12
390.512	96.12
390.736	115.12
390.961	119.12
391.186	106.12
391.411	106.12
391.636	107.12
391.86	94.12
392.085	96.12
392.31	106.12
392.534	95.12
392.759	108.12
392.984	108.12
393.208	131.12
393.433	138.12
393.658	131.12
393.882	109.12
394.107	84.12
394.331	102.12
394.556	102.12
394.78	90.12
395.005	103.12
395.229	98.12
395.454	98.12
395.678	104.12
395.903	94.12
396.127	119.12
396.352	116.12
396.576	99.12
396.801	103.12
397.025	136.12
397.249	119.12
397.474	97.12
397.698	92.12
397.922	99.12
398.147	103.12
398.371	86.12
398.595	101.12
398.82	105.12
399.044	109.12
399.268	90.12
399.492	110.12
399.717	103.12
399.941	117.12
400.165	89.12
400.389	85.12
400.613	86.12
400.837	91.12
401.062	106.12
401.286	93.12
401.51	95.12
401.734	93.12
401.958	98.12
402.182	107.12
402.406	100.12
402.63	87.12
402.854	90.12
403.078	102.12
403.302	99.12
403.526	100.12
403.75	96.12
403.974	102.12
404.198	104.12
404.422	88.12
404.645	107.12
404.869	79.12
405.093	88.12
405.317	107.12
405.541	119.12
405.765	118.12
405.988	154.12
406.212	109.12
406.436	103.12
406.66	104.12
406.883	87.12
407.107	104.12
407.331	94.12
407.555	103.12
407.778	88.12
408.002	112.12
408.226	108.12
408.449	97.12
408.673	103.12
408.896	90.12
409.12	93.12
409.344	102.12
409.567	102.12
409.791	92.12
410.014	104.12
410.238	110.12
410.461	105.12
410.685	103.12
410.908	97.12
411.132	101.12
411.355	103.12
411.578	114.12
411.802	99.12
412.025	102.12
412.249	96.12
412.472	103.12
412.695	106.12
412.919	102.12
413.142	97.12
413.365	93.12
413.589	102.12
413.812	90.12
414.035	111.12
414.258	99.12
414.482	108.12
414.705	106.12
414.928	106.12
415.151	95.12
415.374	105.12
415.597	99.12
415.821	87.12
416.044	98.12
416.267	101.12
416.49	98.12
416.713	100.12
416.936	103.12
417.159	105.12
417.382	99.12
417.605	94.12
417.828	94.12
418.051	99.12
418.274	72.12
418.497	96.12
418.72	96.12
418.943	113.12
419.166	102.12
419.389	117.12
419.611	100.12
419.834	112.12
420.057	102.12
420.28	97.12
420.503	112.12
420.726	104.12
420.948	88.12
421.171	103.12
421.394	103.12
421.617	112.12
421.839	99.12
422.062	107.12
422.285	102.12
422.507	102.12
422.73	112.12
422.953	149.12
423.175	94.12
423.398	101.12
423.621	121.12
423.843	99.12
424.066	106.12
424.288	105.12
424.511	86.12
424.733	93.12
424.956	96.12
425.178	104.12
425.401	105.12
425.623	99.12
425.846	88.12
426.068	84.12
426.291	89.12
426.513	106.12
426.735	98.12
426.958	108.12
427.18	109.12
427.402	88.12
427.625	91.12
427.847	93.12
428.069	102.12
428.292	103.12
428.514	110.12
428.736	100.12
428.958	91.12
429.181	90.12
429.403	100.12
429.625	97.12
429.847	81.12
430.069	108.12
430.292	112.12
430.514	105.12
430.736	90.12
430.958	97.12
431.18	93.12
431.402	83.12
431.624	96.12
431.846	84.12
432.068	90.12
432.29	97.12
432.512	106.12
432.734	107.12
432.956	83.12
433.178	101.12
433.4	96.12
433.622	97.12
433.844	91.12
434.066	99.12
434.287	89.12
434.509	89.12
434.731	98.12
434.953	96.12
435.175	98.12
435.397	97.12
435.618	97.12
435.84	93.12
436.062	97.12
436.284	89.12
436.505	95.12
436.727	83.12
436.949	92.12
437.17	90.12
437.392	103.12
437.614	92.12
437.835	85.12
438.057	107.12
438.278	100.12
438.5	77.12
438.721	93.12
438.943	108.12
439.165	106.12
439.386	100.12
439.608	123.12
439.829	86.12
440.05	119.12
440.272	131.12
440.493	101.12
440.715	100.12
440.936	94.12
441.158	98.12
441.379	101.12
441.6	107.12
441.822	92.12
442.043	122.12
442.264	133.12
442.486	106.12
442.707	111.12
442.928	101.12
443.149	103.12
443.371	94.12
443.592	94.12
443.813	104.12
444.034	106.12
444.255	96.12
444.476	84.12
444.698	78.12
444.919	93.12
445.14	195.12
445.361	131.12
445.582	96.12
445.803	99.12
446.024	96.12
446.245	106.12
446.466	117.12
446.687	103.12
446.908	103.12
447.129	104.12
447.35	107.12
447.571	105.12
447.792	106.12
448.013	112.12
448.234	99.12
448.455	105.12
448.675	105.12
448.896	112.12
449.117	108.12
449.338	121.12
449.559	161.12
449.779	114.12
450	89.12
450.221	95.12
450.442	103.12
450.662	96.12
450.883	119.12
451.104	109.12
451.324	121.12
451.545	112.12
451.766	122.12
451.986	140.12
452.207	209.12
452.428	541.12
452.648	1312.12
452.869	733.12
453.089	196.12
453.31	122.12
453.53	120.12
453.751	170.12
453.971	145.12
454.192	163.12
454.412	106.12
454.633	94.12
454.853	99.12
455.073	94.12
455.294	106.12
455.514	94.12
455.734	91.12
455.955	96.12
456.175	90.12
456.395	91.12
456.616	87.12
456.836	93.12
457.056	108.12
457.276	104.12
457.497	127.12
457.717	122.12
457.937	89.12
458.157	92.12
458.377	95.12
458.598	104.12
458.818	89.12
459.038	101.12
459.258	92.12
459.478	96.12
459.698	82.12
459.918	84.12
460.138	103.12
460.358	92.12
460.578	111.12
460.798	93.12
461.018	101.12
461.238	88.12
461.458	102.12
461.678	98.12
461.898	89.12
462.118	90.12
462.338	88.12
462.558	95.12
462.777	95.12
462.997	91.12
463.217	97.12
463.437	139.12
463.657	180.12
463.876	177.12
464.096	114.12
464.316	114.12
464.536	92.12
464.755	101.12
464.975	96.12
465.195	91.12
465.414	82.12
465.634	84.12
465.854	91.12
466.073	96.12
466.293	97.12
466.512	104.12
466.732	98.12
466.951	109.12
467.171	123.12
467.391	133.12
467.61	100.12
467.829	95.12
468.049	103.12
468.268	107.12
468.488	96.12
468.707	102.12
468.927	102.12
469.146	97.12
469.365	90.12
469.585	106.12
469.804	97.12
470.023	88.12
470.243	107.12
470.462	95.12
470.681	111.12
470.901	123.12
471.12	191.12
471.339	208.12
471.558	131.12
471.777	111.12
471.997	93.12
472.216	112.12
472.435	101.12
472.654	89.12
472.873	106.12
473.092	90.12
473.311	100.12
473.53	95.12
473.749	97.12
473.968	106.12
474.187	100.12
474.406	92.12
474.625	89.12
474.844	104.12
475.063	95.12
475.282	87.12
475.501	94.12
475.72	94.12
475.939	100.12
476.158	101.12
476.377	106.12
476.596	89.12
476.814	107.12
477.033	113.12
477.252	105.12
477.471	87.12
477.69	104.12
477.908	103.12
478.127	94.12
478.346	94.12
478.564	100.12
478.783	103.12
479.002	104.12
479.22	76.12
479.439	103.12
479.658	103.12
479.876	94.12
480.095	102.12
480.313	106.12
480.532	100.12
480.751	94.12
480.969	92.12
481.188	91.12
481.406	99.12
481.624	98.12
481.843	120.12
482.061	114.12
482.28	110.12
482.498	105.12
482.717	99.12
482.935	86.12
483.153	91.12
483.372	103.12
483.59	102.12
483.808	106.12
484.027	99.12
484.245	124.12
484.463	179.12
484.681	232.12
484.9	143.12
485.118	113.12
485.336	101.12
485.554	122.12
485.772	120.12
485.99	173.12
486.209	220.12
486.427	162.12
486.645	112.12
486.863	111.12
487.081	104.12
487.299	85.12
487.517	100.12
487.735	106.12
487.953	113.12
488.171	101.12
488.389	91.12
488.607	93.12
488.825	98.12
489.043	101.12
489.261	86.12
489.479	97.12
489.696	100.12
489.914	97.12
490.132	96.12
490.35	87.12
490.568	95.12
490.786	105.12
491.003	97.12
491.221	109.12
491.439	103.12
491.657	107.12
491.874	119.12
492.092	111.12
492.31	121.12
492.527	115.12
492.745	120.12
492.963	109.12
493.18	120.12
493.398	120.12
493.615	116.12
493.833	105.12
494.05	112.12
494.268	108.12
494.485	100.12
494.703	111.12
494.92	104.12
495.138	119.12
495.355	111.12
495.573	99.12
495.79	124.12
496.008	96.12
496.225	115.12
496.442	97.12
496.66	134.12
496.877	156.12
497.094	152.12
497.312	112.12
497.529	117.12
497.746	95.12
497.963	113.12
498.181	111.12
498.398	95.12
498.615	115.12
498.832	104.12
499.049	118.12
499.267	135.12
499.484	150.12
499.701	112.12
499.918	101.12
500.135	113.12
500.352	93.12
500.569	102.12
500.786	92.12
501.003	97.12
501.22	99.12
501.437	109.12
501.654	100.12
501.871	101.12
502.088	100.12
502.305	103.12
502.522	102.12
502.739	112.12
502.956	97.12
503.172	105.12
503.389	112.12
503.606	111.12
503.823	94.12
504.04	96.12
504.256	83.12
504.473	94.12
504.69	111.12
504.907	120.12
505.123	107.12
505.34	120.12
505.557	91.12
505.773	111.12
505.99	118.12
506.207	114.12
506.423	110.12
506.64	107.12
506.856	98.12
507.073	102.12
507.289	100.12
507.506	103.12
507.722	99.12
507.939	98.12
508.155	96.12
