Data from SnStandardFlinnAPT0064_LampEnergy5.5_LIBS07252019.E.O._I.C._HRD10591_15-16-47-492.txt Node
Date: Thu Jul 25 15:16:47 EDT 2019
User: cochatt
Spectrometer: HR+D1059
Trigger mode: 1
Integration Time (sec): 1.000000E-1
Scans to average: 1
Electric dark correction enabled: true
Nonlinearity correction enabled: false
Boxcar width: 0
XAxis mode: Wavelengths
Number of Pixels in Spectrum: 2048
>>>>>Begin Spectral Data<<<<<
223.165	-8.31
223.4	-8.31
223.635	-8.31
223.869	-24.31
224.104	-12.31
224.338	-16.31
224.573	-20.31
224.808	-15.31
225.042	0.69
225.277	-17.31
225.511	-5.31
225.746	3.69
225.98	7.69
226.215	19.69
226.449	16.69
226.683	24.69
226.918	23.69
227.152	22.69
227.387	34.69
227.621	51.69
227.856	27.69
228.09	28.69
228.324	62.69
228.559	58.69
228.793	70.69
229.027	148.69
229.262	167.69
229.496	153.69
229.73	133.69
229.964	147.69
230.199	140.69
230.433	151.69
230.667	167.69
230.901	169.69
231.136	172.69
231.37	183.69
231.604	185.69
231.838	205.69
232.072	241.69
232.306	247.69
232.541	205.69
232.775	215.69
233.009	204.69
233.243	207.69
233.477	219.69
233.711	242.69
233.945	272.69
234.179	240.69
234.413	221.69
234.647	203.69
234.881	217.69
235.115	240.69
235.349	279.69
235.583	368.69
235.817	433.69
236.051	428.69
236.285	309.69
236.519	241.69
236.753	225.69
236.987	241.69
237.221	253.69
237.455	233.69
237.689	225.69
237.922	223.69
238.156	219.69
238.39	235.69
238.624	238.69
238.858	224.69
239.091	225.69
239.325	240.69
239.559	236.69
239.793	238.69
240.027	233.69
240.26	247.69
240.494	253.69
240.728	249.69
240.961	269.69
241.195	286.69
241.429	300.69
241.662	321.69
241.896	340.69
242.13	404.69
242.363	537.69
242.597	668.69
242.83	625.69
243.064	631.69
243.298	753.69
243.531	655.69
243.765	413.69
243.998	352.69
244.232	315.69
244.465	296.69
244.699	292.69
244.932	283.69
245.166	284.69
245.399	312.69
245.633	301.69
245.866	282.69
246.099	296.69
246.333	297.69
246.566	283.69
246.8	303.69
247.033	291.69
247.266	297.69
247.5	312.69
247.733	305.69
247.966	308.69
248.2	327.69
248.433	349.69
248.666	391.69
248.899	406.69
249.133	343.69
249.366	370.69
249.599	403.69
249.832	445.69
250.066	463.69
250.299	365.69
250.532	358.69
250.765	341.69
250.998	338.69
251.231	327.69
251.465	318.69
251.698	335.69
251.931	335.69
252.164	347.69
252.397	355.69
252.63	353.69
252.863	355.69
253.096	343.69
253.329	352.69
253.562	334.69
253.795	351.69
254.028	363.69
254.261	371.69
254.494	381.69
254.727	443.69
254.96	522.69
255.193	521.69
255.426	397.69
255.659	379.69
255.892	379.69
256.124	372.69
256.357	360.69
256.59	384.69
256.823	428.69
257.056	465.69
257.289	569.69
257.521	617.69
257.754	489.69
257.987	421.69
258.22	422.69
258.452	421.69
258.685	412.69
258.918	425.69
259.151	438.69
259.383	475.69
259.616	507.69
259.849	524.69
260.081	467.69
260.314	438.69
260.547	415.69
260.779	430.69
261.012	421.69
261.244	421.69
261.477	438.69
261.71	457.69
261.942	438.69
262.175	457.69
262.407	443.69
262.64	444.69
262.872	516.69
263.105	498.69
263.337	531.69
263.57	556.69
263.802	558.69
264.035	590.69
264.267	589.69
264.499	607.69
264.732	608.69
264.964	633.69
265.197	617.69
265.429	613.69
265.661	645.69
265.894	674.69
266.126	778.69
266.358	809.69
266.591	797.69
266.823	684.69
267.055	634.69
267.287	598.69
267.52	587.69
267.752	557.69
267.984	575.69
268.216	596.69
268.448	559.69
268.681	559.69
268.913	555.69
269.145	555.69
269.377	546.69
269.609	555.69
269.841	556.69
270.073	600.69
270.306	666.69
270.538	909.69
270.77	1312.69
271.002	1599.69
271.234	1113.69
271.466	779.69
271.698	634.69
271.93	592.69
272.162	556.69
272.394	530.69
272.626	521.69
272.858	547.69
273.09	555.69
273.322	528.69
273.553	524.69
273.785	539.69
274.017	559.69
274.249	534.69
274.481	541.69
274.713	517.69
274.945	521.69
275.176	522.69
275.408	531.69
275.64	549.69
275.872	534.69
276.104	546.69
276.335	548.69
276.567	540.69
276.799	578.69
277.031	553.69
277.262	563.69
277.494	567.69
277.726	658.69
277.957	750.69
278.189	835.69
278.421	803.69
278.652	690.69
278.884	674.69
279.115	641.69
279.347	630.69
279.579	606.69
279.81	593.69
280.042	593.69
280.273	603.69
280.505	626.69
280.736	622.69
280.968	645.69
281.199	726.69
281.431	804.69
281.662	848.69
281.894	731.69
282.125	681.69
282.356	665.69
282.588	712.69
282.819	724.69
283.051	750.69
283.282	853.69
283.513	1047.69
283.745	1484.69
283.976	2339.69
284.207	3347.69
284.439	2969.69
284.67	1734.69
284.901	1409.69
285.132	1358.69
285.364	1337.69
285.595	1067.69
285.826	965.69
286.057	1147.69
286.288	1591.69
286.52	2128.69
286.751	1951.69
286.982	1195.69
287.213	924.69
287.444	801.69
287.675	765.69
287.906	708.69
288.138	703.69
288.369	722.69
288.6	713.69
288.831	678.69
289.062	717.69
289.293	708.69
289.524	693.69
289.755	732.69
289.986	710.69
290.217	718.69
290.448	727.69
290.679	757.69
290.91	752.69
291.141	765.69
291.371	829.69
291.602	818.69
291.833	777.69
292.064	740.69
292.295	733.69
292.526	705.69
292.757	688.69
292.987	688.69
293.218	692.69
293.449	702.69
293.68	704.69
293.91	656.69
294.141	688.69
294.372	677.69
294.603	655.69
294.833	658.69
295.064	650.69
295.295	695.69
295.525	665.69
295.756	659.69
295.987	671.69
296.217	666.69
296.448	647.69
296.679	678.69
296.909	693.69
297.14	676.69
297.37	701.69
297.601	707.69
297.831	670.69
298.062	665.69
298.292	719.69
298.523	712.69
298.753	708.69
298.984	724.69
299.214	732.69
299.445	726.69
299.675	741.69
299.905	752.69
300.136	783.69
300.366	891.69
300.597	1131.69
300.827	1568.69
301.057	2116.69
301.288	2119.69
301.518	1312.69
301.748	1021.69
301.979	943.69
302.209	908.69
302.439	944.69
302.669	965.69
302.9	1188.69
303.13	1660.69
303.36	2466.69
303.59	3273.69
303.82	2839.69
304.051	1606.69
304.281	1169.69
304.511	983.69
304.741	927.69
304.971	895.69
305.201	838.69
305.431	823.69
305.661	814.69
305.891	793.69
306.121	796.69
306.352	780.69
306.582	796.69
306.812	776.69
307.042	785.69
307.272	774.69
307.502	780.69
307.731	781.69
307.961	778.69
308.191	775.69
308.421	761.69
308.651	767.69
308.881	771.69
309.111	765.69
309.341	770.69
309.571	762.69
309.8	801.69
310.03	797.69
310.26	768.69
310.49	796.69
310.72	823.69
310.949	776.69
311.179	818.69
311.409	803.69
311.639	834.69
311.868	851.69
312.098	822.69
312.328	826.69
312.557	842.69
312.787	834.69
313.017	847.69
313.246	861.69
313.476	846.69
313.706	899.69
313.935	895.69
314.165	960.69
314.394	1009.69
314.624	1015.69
314.853	901.69
315.083	873.69
315.312	925.69
315.542	923.69
315.771	886.69
316.001	957.69
316.23	960.69
316.46	1008.69
316.689	1108.69
316.919	1304.69
317.148	1839.69
317.377	2913.69
317.607	4295.69
317.836	4406.69
318.065	2554.69
318.295	1665.69
318.524	1303.69
318.753	1127.69
318.983	1100.69
319.212	1065.69
319.441	1016.69
319.67	978.69
319.9	977.69
320.129	983.69
320.358	977.69
320.587	973.69
320.816	984.69
321.046	981.69
321.275	988.69
321.504	999.69
321.733	1016.69
321.962	1008.69
322.191	1028.69
322.42	1021.69
322.649	1033.69
322.878	1020.69
323.108	1046.69
323.337	1047.69
323.566	1061.69
323.795	1074.69
324.024	1096.69
324.253	1127.69
324.482	1159.69
324.71	1203.69
324.939	1287.69
325.168	1288.69
325.397	1354.69
325.626	1582.69
325.855	2249.69
326.084	3541.69
326.313	5260.69
326.542	5657.69
326.77	3459.69
326.999	2253.69
327.228	1876.69
327.457	1808.69
327.686	1812.69
327.914	1931.69
328.143	2203.69
328.372	2581.69
328.6	2770.69
328.829	2543.69
329.058	2267.69
329.287	2040.69
329.515	1843.69
329.744	1709.69
329.972	1600.69
330.201	1508.69
330.43	1492.69
330.658	1446.69
330.887	1405.69
331.115	1455.69
331.344	1405.69
331.572	1417.69
331.801	1411.69
332.03	1414.69
332.258	1431.69
332.486	1510.69
332.715	1735.69
332.943	2103.69
333.172	2516.69
333.4	2505.69
333.629	1932.69
333.857	1756.69
334.085	1769.69
334.314	1888.69
334.542	2011.69
334.771	2271.69
334.999	2770.69
335.227	3277.69
335.455	3728.69
335.684	3448.69
335.912	2889.69
336.14	2508.69
336.369	2253.69
336.597	2069.69
336.825	1902.69
337.053	1791.69
337.281	1728.69
337.51	1597.69
337.738	1552.69
337.966	1539.69
338.194	1431.69
338.422	1386.69
338.65	1381.69
338.878	1357.69
339.106	1354.69
339.334	1300.69
339.562	1329.69
339.79	1288.69
340.018	1281.69
340.246	1260.69
340.474	1278.69
340.702	1243.69
340.93	1270.69
341.158	1227.69
341.386	1264.69
341.614	1211.69
341.842	1210.69
342.07	1203.69
342.298	1180.69
342.526	1173.69
342.754	1137.69
342.981	1137.69
343.209	1159.69
343.437	1152.69
343.665	1185.69
343.893	1199.69
344.12	1196.69
344.348	1167.69
344.576	1129.69
344.804	1125.69
345.031	1124.69
345.259	1109.69
345.487	1112.69
345.714	1125.69
345.942	1086.69
346.17	1075.69
346.397	1066.69
346.625	1095.69
346.853	1055.69
347.08	1047.69
347.308	1056.69
347.535	1076.69
347.763	1077.69
347.99	1064.69
348.218	1044.69
348.445	1052.69
348.673	1044.69
348.9	1042.69
349.128	1049.69
349.355	1046.69
349.583	1061.69
349.81	1023.69
350.037	1031.69
350.265	1024.69
350.492	1032.69
350.72	1029.69
350.947	1035.69
351.174	1046.69
351.402	1051.69
351.629	1017.69
351.856	1037.69
352.083	1046.69
352.311	1019.69
352.538	1012.69
352.765	990.69
352.992	997.69
353.22	1014.69
353.447	1015.69
353.674	992.69
353.901	1007.69
354.128	1041.69
354.355	1022.69
354.583	1008.69
354.81	1009.69
355.037	1038.69
355.264	1037.69
355.491	1043.69
355.718	1036.69
355.945	1071.69
356.172	1052.69
356.399	1035.69
356.626	1040.69
356.853	1051.69
357.08	1064.69
357.307	1039.69
357.534	1058.69
357.761	1079.69
357.988	1088.69
358.215	1085.69
358.441	1086.69
358.668	1064.69
358.895	1097.69
359.122	1084.69
359.349	1070.69
359.576	1046.69
359.802	1074.69
360.029	1067.69
360.256	1092.69
360.483	1083.69
360.709	1064.69
360.936	1085.69
361.163	1074.69
361.39	1096.69
361.616	1094.69
361.843	1074.69
362.07	1084.69
362.296	1091.69
362.523	1096.69
362.749	1105.69
362.976	1083.69
363.203	1077.69
363.429	1075.69
363.656	1093.69
363.882	1063.69
364.109	1073.69
364.335	1061.69
364.562	1058.69
364.788	1070.69
365.015	1098.69
365.241	1120.69
365.468	1183.69
365.694	1213.69
365.92	1171.69
366.147	1093.69
366.373	1112.69
366.599	1116.69
366.826	1113.69
367.052	1101.69
367.278	1114.69
367.505	1085.69
367.731	1116.69
367.957	1092.69
368.184	1124.69
368.41	1132.69
368.636	1129.69
368.862	1118.69
369.089	1145.69
369.315	1125.69
369.541	1149.69
369.767	1115.69
369.993	1107.69
370.219	1127.69
370.445	1126.69
370.672	1110.69
370.898	1139.69
371.124	1132.69
371.35	1152.69
371.576	1136.69
371.802	1168.69
372.028	1168.69
372.254	1156.69
372.48	1139.69
372.706	1187.69
372.932	1198.69
373.158	1190.69
373.384	1162.69
373.61	1160.69
373.835	1198.69
374.061	1155.69
374.287	1175.69
374.513	1239.69
374.739	1210.69
374.965	1222.69
375.191	1237.69
375.416	1227.69
375.642	1190.69
375.868	1213.69
376.094	1185.69
376.319	1167.69
376.545	1161.69
376.771	1152.69
376.997	1144.69
377.222	1147.69
377.448	1148.69
377.674	1157.69
377.899	1181.69
378.125	1155.69
378.35	1160.69
378.576	1206.69
378.802	1149.69
379.027	1219.69
379.253	1232.69
379.478	1268.69
379.704	1465.69
379.929	2085.69
380.155	3165.69
380.38	3421.69
380.606	2077.69
380.831	1491.69
381.057	1285.69
381.282	1219.69
381.507	1180.69
381.733	1183.69
381.958	1147.69
382.184	1183.69
382.409	1177.69
382.634	1177.69
382.86	1152.69
383.085	1142.69
383.31	1167.69
383.535	1138.69
383.761	1157.69
383.986	1161.69
384.211	1156.69
384.436	1206.69
384.662	1188.69
384.887	1212.69
385.112	1149.69
385.337	1205.69
385.562	1173.69
385.787	1210.69
386.013	1220.69
386.238	1235.69
386.463	1197.69
386.688	1175.69
386.913	1166.69
387.138	1182.69
387.363	1215.69
387.588	1190.69
387.813	1185.69
388.038	1198.69
388.263	1199.69
388.488	1196.69
388.713	1209.69
388.938	1160.69
389.163	1155.69
389.387	1190.69
389.612	1180.69
389.837	1159.69
390.062	1205.69
390.287	1230.69
390.512	1189.69
390.736	1242.69
390.961	1253.69
391.186	1256.69
391.411	1215.69
391.636	1243.69
391.86	1242.69
392.085	1255.69
392.31	1237.69
392.534	1215.69
392.759	1223.69
392.984	1238.69
393.208	1251.69
393.433	1260.69
393.658	1263.69
393.882	1230.69
394.107	1212.69
394.331	1212.69
394.556	1192.69
394.78	1204.69
395.005	1207.69
395.229	1232.69
395.454	1263.69
395.678	1239.69
395.903	1231.69
396.127	1220.69
396.352	1242.69
396.576	1221.69
396.801	1251.69
397.025	1303.69
397.249	1296.69
397.474	1287.69
397.698	1306.69
397.922	1245.69
398.147	1289.69
398.371	1301.69
398.595	1329.69
398.82	1303.69
399.044	1367.69
399.268	1456.69
399.492	1520.69
399.717	1575.69
399.941	1570.69
400.165	1488.69
400.389	1461.69
400.613	1385.69
400.837	1360.69
401.062	1345.69
401.286	1350.69
401.51	1319.69
401.734	1325.69
401.958	1341.69
402.182	1340.69
402.406	1317.69
402.63	1344.69
402.854	1356.69
403.078	1362.69
403.302	1353.69
403.526	1359.69
403.75	1403.69
403.974	1368.69
404.198	1378.69
404.422	1409.69
404.645	1373.69
404.869	1389.69
405.093	1362.69
405.317	1345.69
405.541	1347.69
405.765	1374.69
405.988	1424.69
406.212	1407.69
406.436	1384.69
406.66	1405.69
406.883	1427.69
407.107	1459.69
407.331	1476.69
407.555	1501.69
407.778	1478.69
408.002	1471.69
408.226	1475.69
408.449	1464.69
408.673	1429.69
408.896	1401.69
409.12	1420.69
409.344	1400.69
409.567	1416.69
409.791	1395.69
410.014	1379.69
410.238	1335.69
410.461	1328.69
410.685	1348.69
410.908	1350.69
411.132	1366.69
411.355	1317.69
411.578	1309.69
411.802	1294.69
412.025	1337.69
412.249	1347.69
412.472	1316.69
412.695	1318.69
412.919	1304.69
413.142	1311.69
413.365	1307.69
413.589	1303.69
413.812	1286.69
414.035	1320.69
414.258	1289.69
414.482	1311.69
414.705	1336.69
414.928	1331.69
415.151	1325.69
415.374	1332.69
415.597	1283.69
415.821	1283.69
416.044	1246.69
416.267	1263.69
416.49	1266.69
416.713	1265.69
416.936	1261.69
417.159	1246.69
417.382	1233.69
417.605	1205.69
417.828	1239.69
418.051	1240.69
418.274	1259.69
418.497	1268.69
418.72	1283.69
418.943	1250.69
419.166	1313.69
419.389	1416.69
419.611	1359.69
419.834	1345.69
420.057	1280.69
420.28	1289.69
420.503	1255.69
420.726	1275.69
420.948	1236.69
421.171	1235.69
421.394	1271.69
421.617	1250.69
421.839	1266.69
422.062	1282.69
422.285	1250.69
422.507	1292.69
422.73	1288.69
422.953	1301.69
423.175	1279.69
423.398	1289.69
423.621	1265.69
423.843	1261.69
424.066	1290.69
424.288	1247.69
424.511	1254.69
424.733	1253.69
424.956	1243.69
425.178	1229.69
425.401	1259.69
425.623	1267.69
425.846	1225.69
426.068	1231.69
426.291	1223.69
426.513	1197.69
426.735	1226.69
426.958	1221.69
427.18	1195.69
427.402	1183.69
427.625	1175.69
427.847	1147.69
428.069	1168.69
428.292	1203.69
428.514	1170.69
428.736	1172.69
428.958	1178.69
429.181	1126.69
429.403	1141.69
429.625	1154.69
429.847	1171.69
430.069	1187.69
430.292	1200.69
430.514	1200.69
430.736	1222.69
430.958	1183.69
431.18	1127.69
431.402	1169.69
431.624	1119.69
431.846	1131.69
432.068	1154.69
432.29	1128.69
432.512	1124.69
432.734	1148.69
432.956	1157.69
433.178	1161.69
433.4	1159.69
433.622	1180.69
433.844	1167.69
434.066	1165.69
434.287	1141.69
434.509	1144.69
434.731	1183.69
434.953	1183.69
435.175	1231.69
435.397	1231.69
435.618	1166.69
435.84	1158.69
436.062	1145.69
436.284	1147.69
436.505	1176.69
436.727	1153.69
436.949	1143.69
437.17	1162.69
437.392	1137.69
437.614	1123.69
437.835	1073.69
438.057	1115.69
438.278	1113.69
438.5	1099.69
438.721	1137.69
438.943	1166.69
439.165	1190.69
439.386	1222.69
439.608	1204.69
439.829	1199.69
440.05	1249.69
440.272	1282.69
440.493	1215.69
440.715	1189.69
440.936	1198.69
441.158	1214.69
441.379	1217.69
441.6	1256.69
441.822	1297.69
442.043	1333.69
442.264	1370.69
442.486	1296.69
442.707	1228.69
442.928	1227.69
443.149	1245.69
443.371	1229.69
443.592	1239.69
443.813	1281.69
444.034	1263.69
444.255	1286.69
444.476	1264.69
444.698	1304.69
444.919	1351.69
445.14	1425.69
445.361	1344.69
445.582	1286.69
445.803	1233.69
446.024	1205.69
446.245	1256.69
446.466	1241.69
446.687	1193.69
446.908	1220.69
447.129	1217.69
447.35	1183.69
447.571	1172.69
447.792	1131.69
448.013	1115.69
448.234	1155.69
448.455	1160.69
448.675	1167.69
448.896	1175.69
449.117	1210.69
449.338	1327.69
449.559	1356.69
449.779	1206.69
450	1143.69
450.221	1112.69
450.442	1118.69
450.662	1101.69
450.883	1118.69
451.104	1165.69
451.324	1111.69
451.545	1111.69
451.766	1111.69
451.986	1116.69
452.207	1203.69
452.428	1461.69
452.648	2047.69
452.869	1788.69
453.089	1294.69
453.31	1261.69
453.53	1219.69
453.751	1275.69
453.971	1335.69
454.192	1325.69
454.412	1137.69
454.633	1094.69
454.853	1111.69
455.073	1051.69
455.294	1049.69
455.514	1044.69
455.734	1061.69
455.955	1032.69
456.175	1077.69
456.395	1077.69
456.616	1059.69
456.836	1092.69
457.056	1063.69
457.276	1093.69
457.497	1129.69
457.717	1121.69
457.937	1102.69
458.157	1096.69
458.377	1118.69
458.598	1112.69
458.818	1151.69
459.038	1106.69
459.258	1105.69
459.478	1137.69
459.698	1156.69
459.918	1190.69
460.138	1198.69
460.358	1259.69
460.578	1247.69
460.798	1242.69
461.018	1237.69
461.238	1239.69
461.458	1230.69
461.678	1258.69
461.898	1296.69
462.118	1329.69
462.338	1318.69
462.558	1313.69
462.777	1341.69
462.997	1391.69
463.217	1445.69
463.437	1494.69
463.657	1553.69
463.876	1531.69
464.096	1420.69
464.316	1364.69
464.536	1334.69
464.755	1373.69
464.975	1300.69
465.195	1260.69
465.414	1220.69
465.634	1173.69
465.854	1156.69
466.073	1171.69
466.293	1177.69
466.512	1145.69
466.732	1142.69
466.951	1250.69
467.171	1307.69
467.391	1278.69
467.61	1195.69
467.829	1136.69
468.049	1157.69
468.268	1124.69
468.488	1093.69
468.707	1131.69
468.927	1147.69
469.146	1128.69
469.365	1183.69
469.585	1150.69
469.804	1127.69
470.023	1192.69
470.243	1186.69
470.462	1252.69
470.681	1311.69
470.901	1372.69
471.12	1647.69
471.339	1599.69
471.558	1331.69
471.777	1240.69
471.997	1201.69
472.216	1152.69
472.435	1140.69
472.654	1141.69
472.873	1110.69
473.092	1139.69
473.311	1121.69
473.53	1172.69
473.749	1187.69
473.968	1184.69
474.187	1158.69
474.406	1137.69
474.625	1141.69
474.844	1167.69
475.063	1115.69
475.282	1170.69
475.501	1150.69
475.72	1149.69
475.939	1148.69
476.158	1176.69
476.377	1204.69
476.596	1177.69
476.814	1165.69
477.033	1186.69
477.252	1231.69
477.471	1241.69
477.69	1262.69
477.908	1291.69
478.127	1275.69
478.346	1312.69
478.564	1331.69
478.783	1325.69
479.002	1355.69
479.22	1335.69
479.439	1350.69
479.658	1320.69
479.876	1335.69
480.095	1349.69
480.313	1376.69
480.532	1407.69
480.751	1379.69
480.969	1375.69
481.188	1348.69
481.406	1332.69
481.624	1309.69
481.843	1346.69
482.061	1348.69
482.28	1358.69
482.498	1331.69
482.717	1334.69
482.935	1353.69
483.153	1381.69
483.372	1446.69
483.59	1441.69
483.808	1443.69
484.027	1472.69
484.245	1542.69
484.463	1752.69
484.681	1889.69
484.9	1741.69
485.118	1593.69
485.336	1583.69
485.554	1617.69
485.772	1648.69
485.99	1878.69
486.209	2072.69
486.427	1755.69
486.645	1558.69
486.863	1510.69
487.081	1435.69
487.299	1447.69
487.517	1462.69
487.735	1465.69
487.953	1494.69
488.171	1459.69
488.389	1445.69
488.607	1436.69
488.825	1413.69
489.043	1350.69
489.261	1355.69
489.479	1394.69
489.696	1440.69
489.914	1437.69
490.132	1415.69
490.35	1437.69
490.568	1443.69
490.786	1475.69
491.003	1468.69
