Data from SnStandardFlinnAPT0064_LampEnergy10_LIBS07252019.E.O._I.C._HRD10591_15-20-58-493.txt Node
Date: Thu Jul 25 15:20:58 EDT 2019
User: cochatt
Spectrometer: HR+D1059
Trigger mode: 1
Integration Time (sec): 1.000000E-1
Scans to average: 1
Electric dark correction enabled: true
Nonlinearity correction enabled: false
Boxcar width: 0
XAxis mode: Wavelengths
Number of Pixels in Spectrum: 2048
>>>>>Begin Spectral Data<<<<<
223.165	-10.12
223.4	-10.12
223.635	-10.12
223.869	-18.12
224.104	-21.12
224.338	-22.12
224.573	-25.12
224.808	-12.12
225.042	11.88
225.277	-9.12
225.511	-2.12
225.746	5.88
225.98	13.88
226.215	16.88
226.449	2.88
226.683	11.88
226.918	20.88
227.152	35.88
227.387	41.88
227.621	40.88
227.856	44.88
228.09	34.88
228.324	51.88
228.559	58.88
228.793	124.88
229.027	315.88
229.262	351.88
229.496	300.88
229.73	314.88
229.964	321.88
230.199	298.88
230.433	313.88
230.667	320.88
230.901	319.88
231.136	332.88
231.37	354.88
231.604	373.88
231.838	438.88
232.072	507.88
232.306	563.88
232.541	479.88
232.775	430.88
233.009	396.88
233.243	420.88
233.477	438.88
233.711	498.88
233.945	559.88
234.179	518.88
234.413	460.88
234.647	439.88
234.881	472.88
235.115	506.88
235.349	600.88
235.583	768.88
235.817	972.88
236.051	946.88
236.285	654.88
236.519	505.88
236.753	486.88
236.987	489.88
237.221	534.88
237.455	516.88
237.689	466.88
237.922	447.88
238.156	472.88
238.39	475.88
238.624	505.88
238.858	499.88
239.091	478.88
239.325	481.88
239.559	497.88
239.793	519.88
240.027	548.88
240.26	540.88
240.494	559.88
240.728	604.88
240.961	611.88
241.195	638.88
241.429	706.88
241.662	729.88
241.896	780.88
242.13	942.88
242.363	1232.88
242.597	1540.88
242.83	1469.88
243.064	1468.88
243.298	1732.88
243.531	1420.88
243.765	955.88
243.998	776.88
244.232	700.88
244.465	681.88
244.699	656.88
244.932	677.88
245.166	656.88
245.399	678.88
245.633	686.88
245.866	677.88
246.099	678.88
246.333	689.88
246.566	628.88
246.8	651.88
247.033	660.88
247.266	665.88
247.5	644.88
247.733	674.88
247.966	704.88
248.2	759.88
248.433	898.88
248.666	1003.88
248.899	932.88
249.133	849.88
249.366	874.88
249.599	946.88
249.832	1082.88
250.066	1096.88
250.299	871.88
250.532	794.88
250.765	741.88
250.998	728.88
251.231	747.88
251.465	738.88
251.698	725.88
251.931	731.88
252.164	727.88
252.397	752.88
252.63	768.88
252.863	778.88
253.096	787.88
253.329	782.88
253.562	778.88
253.795	780.88
254.028	793.88
254.261	807.88
254.494	882.88
254.727	1014.88
254.96	1223.88
255.193	1198.88
255.426	969.88
255.659	868.88
255.892	846.88
256.124	844.88
256.357	899.88
256.59	909.88
256.823	978.88
257.056	1107.88
257.289	1331.88
257.521	1464.88
257.754	1160.88
257.987	954.88
258.22	896.88
258.452	900.88
258.685	928.88
258.918	958.88
259.151	966.88
259.383	1080.88
259.616	1225.88
259.849	1272.88
260.081	1072.88
260.314	999.88
260.547	950.88
260.779	945.88
261.012	967.88
261.244	954.88
261.477	986.88
261.71	994.88
261.942	982.88
262.175	994.88
262.407	1009.88
262.64	1051.88
262.872	1093.88
263.105	1146.88
263.337	1214.88
263.57	1251.88
263.802	1282.88
264.035	1296.88
264.267	1340.88
264.499	1375.88
264.732	1429.88
264.964	1447.88
265.197	1451.88
265.429	1442.88
265.661	1486.88
265.894	1540.88
266.126	1753.88
266.358	1979.88
266.591	1876.88
266.823	1560.88
267.055	1431.88
267.287	1393.88
267.52	1341.88
267.752	1306.88
267.984	1251.88
268.216	1240.88
268.448	1249.88
268.681	1224.88
268.913	1248.88
269.145	1216.88
269.377	1256.88
269.609	1244.88
269.841	1270.88
270.073	1356.88
270.306	1588.88
270.538	2127.88
270.77	3031.88
271.002	3730.88
271.234	2731.88
271.466	1866.88
271.698	1511.88
271.93	1433.88
272.162	1328.88
272.394	1308.88
272.626	1283.88
272.858	1224.88
273.09	1241.88
273.322	1239.88
273.553	1191.88
273.785	1190.88
274.017	1210.88
274.249	1212.88
274.481	1216.88
274.713	1193.88
274.945	1238.88
275.176	1233.88
275.408	1214.88
275.64	1255.88
275.872	1234.88
276.104	1232.88
276.335	1263.88
276.567	1278.88
276.799	1247.88
277.031	1290.88
277.262	1324.88
277.494	1402.88
277.726	1560.88
277.957	1792.88
278.189	2106.88
278.421	1946.88
278.652	1735.88
278.884	1666.88
279.115	1489.88
279.347	1368.88
279.579	1394.88
279.81	1394.88
280.042	1368.88
280.273	1399.88
280.505	1451.88
280.736	1448.88
280.968	1590.88
281.199	1733.88
281.431	2042.88
281.662	2062.88
281.894	1753.88
282.125	1623.88
282.356	1655.88
282.588	1649.88
282.819	1710.88
283.051	1804.88
283.282	2026.88
283.513	2439.88
283.745	3473.88
283.976	5420.88
284.207	7676.88
284.439	7065.88
284.67	4464.88
284.901	3705.88
285.132	3738.88
285.364	3478.88
285.595	2704.88
285.826	2435.88
286.057	2832.88
286.288	3755.88
286.52	5026.88
286.751	4726.88
286.982	3058.88
287.213	2280.88
287.444	1998.88
287.675	1864.88
287.906	1774.88
288.138	1700.88
288.369	1680.88
288.6	1675.88
288.831	1664.88
289.062	1673.88
289.293	1655.88
289.524	1664.88
289.755	1682.88
289.986	1683.88
290.217	1727.88
290.448	1680.88
290.679	1722.88
290.91	1752.88
291.141	1850.88
291.371	2027.88
291.602	2115.88
291.833	1916.88
292.064	1730.88
292.295	1660.88
292.526	1646.88
292.757	1631.88
292.987	1605.88
293.218	1577.88
293.449	1604.88
293.68	1566.88
293.91	1547.88
294.141	1565.88
294.372	1550.88
294.603	1596.88
294.833	1574.88
295.064	1578.88
295.295	1562.88
295.525	1562.88
295.756	1551.88
295.987	1562.88
296.217	1575.88
296.448	1533.88
296.679	1586.88
296.909	1599.88
297.14	1586.88
297.37	1602.88
297.601	1656.88
297.831	1604.88
298.062	1609.88
298.292	1646.88
298.523	1654.88
298.753	1692.88
298.984	1724.88
299.214	1708.88
299.445	1718.88
299.675	1780.88
299.905	1830.88
300.136	1908.88
300.366	2132.88
300.597	2698.88
300.827	3743.88
301.057	4990.88
301.288	5090.88
301.518	3380.88
301.748	2609.88
301.979	2397.88
302.209	2292.88
302.439	2307.88
302.669	2491.88
302.9	2921.88
303.13	4025.88
303.36	5806.88
303.59	7750.88
303.82	6864.88
304.051	4172.88
304.281	3084.88
304.511	2559.88
304.741	2360.88
304.971	2184.88
305.201	2051.88
305.431	1974.88
305.661	1931.88
305.891	1882.88
306.121	1880.88
306.352	1905.88
306.582	1865.88
306.812	1819.88
307.042	1863.88
307.272	1812.88
307.502	1819.88
307.731	1791.88
307.961	1822.88
308.191	1824.88
308.421	1771.88
308.651	1810.88
308.881	1794.88
309.111	1790.88
309.341	1814.88
309.571	1861.88
309.8	1830.88
310.03	1828.88
310.26	1860.88
310.49	1849.88
310.72	1867.88
310.949	1873.88
311.179	1884.88
311.409	1903.88
311.639	1964.88
311.868	1941.88
312.098	1913.88
312.328	1897.88
312.557	1938.88
312.787	1942.88
313.017	1941.88
313.246	1975.88
313.476	1997.88
313.706	2061.88
313.935	2206.88
314.165	2342.88
314.394	2457.88
314.624	2362.88
314.853	2169.88
315.083	2169.88
315.312	2138.88
315.542	2214.88
315.771	2193.88
316.001	2276.88
316.23	2325.88
316.46	2430.88
316.689	2642.88
316.919	3157.88
317.148	4507.88
317.377	6842.88
317.607	9942.88
317.836	10491.88
318.065	6422.88
318.295	4224.88
318.524	3367.88
318.753	2970.88
318.983	2742.88
319.212	2563.88
319.441	2495.88
319.67	2412.88
319.9	2380.88
320.129	2368.88
320.358	2347.88
320.587	2340.88
320.816	2375.88
321.046	2355.88
321.275	2311.88
321.504	2378.88
321.733	2453.88
321.962	2486.88
322.191	2503.88
322.42	2496.88
322.649	2479.88
322.878	2488.88
323.108	2499.88
323.337	2577.88
323.566	2527.88
323.795	2634.88
324.024	2647.88
324.253	2730.88
324.482	2874.88
324.71	3040.88
324.939	3229.88
325.168	3226.88
325.397	3386.88
325.626	3948.88
325.855	5480.88
326.084	8398.88
326.313	12089.88
326.542	12968.88
326.77	8862.88
326.999	5911.88
327.228	4958.88
327.457	4782.88
327.686	4789.88
327.914	5049.88
328.143	5857.88
328.372	6986.88
328.6	7572.88
328.829	6797.88
329.058	5752.88
329.287	5103.88
329.515	4642.88
329.744	4299.88
329.972	4051.88
330.201	3850.88
330.43	3724.88
330.658	3636.88
330.887	3539.88
331.115	3482.88
331.344	3483.88
331.572	3447.88
331.801	3450.88
332.03	3528.88
332.258	3533.88
332.486	3745.88
332.715	4285.88
332.943	5225.88
333.172	6452.88
333.4	6539.88
333.629	4962.88
333.857	4532.88
334.085	4449.88
334.314	4766.88
334.542	5050.88
334.771	5954.88
334.999	7290.88
335.227	9112.88
335.455	10123.88
335.684	9170.88
335.912	7577.88
336.14	6420.88
336.369	5720.88
336.597	5223.88
336.825	4774.88
337.053	4520.88
337.281	4276.88
337.51	4011.88
337.738	3898.88
337.966	3611.88
338.194	3528.88
338.422	3402.88
338.65	3359.88
338.878	3263.88
339.106	3200.88
339.334	3198.88
339.562	3184.88
339.79	3091.88
340.018	3115.88
340.246	2967.88
340.474	3022.88
340.702	3043.88
340.93	2986.88
341.158	3064.88
341.386	2981.88
341.614	2957.88
341.842	2931.88
342.07	2825.88
342.298	2785.88
342.526	2728.88
342.754	2802.88
342.981	2719.88
343.209	2723.88
343.437	2759.88
343.665	2814.88
343.893	2795.88
344.12	2843.88
344.348	2828.88
344.576	2743.88
344.804	2705.88
345.031	2598.88
345.259	2632.88
345.487	2610.88
345.714	2542.88
345.942	2515.88
346.17	2562.88
346.397	2526.88
346.625	2485.88
346.853	2514.88
347.08	2531.88
347.308	2479.88
347.535	2488.88
347.763	2516.88
347.99	2545.88
348.218	2471.88
348.445	2438.88
348.673	2468.88
348.9	2468.88
349.128	2428.88
349.355	2402.88
349.583	2423.88
349.81	2386.88
350.037	2372.88
350.265	2414.88
350.492	2403.88
350.72	2422.88
350.947	2432.88
351.174	2401.88
351.402	2432.88
351.629	2382.88
351.856	2356.88
352.083	2367.88
352.311	2385.88
352.538	2343.88
352.765	2368.88
352.992	2369.88
353.22	2403.88
353.447	2373.88
353.674	2392.88
353.901	2390.88
354.128	2357.88
354.355	2371.88
354.583	2386.88
354.81	2410.88
355.037	2390.88
355.264	2394.88
355.491	2445.88
355.718	2440.88
355.945	2427.88
356.172	2473.88
356.399	2452.88
356.626	2495.88
356.853	2503.88
357.08	2507.88
357.307	2543.88
357.534	2614.88
357.761	2594.88
357.988	2555.88
358.215	2548.88
358.441	2547.88
358.668	2563.88
358.895	2521.88
359.122	2506.88
359.349	2522.88
359.576	2515.88
359.802	2513.88
360.029	2546.88
360.256	2532.88
360.483	2527.88
360.709	2614.88
360.936	2545.88
361.163	2540.88
361.39	2543.88
361.616	2574.88
361.843	2499.88
362.07	2571.88
362.296	2510.88
362.523	2563.88
362.749	2527.88
362.976	2562.88
363.203	2539.88
363.429	2488.88
363.656	2505.88
363.882	2527.88
364.109	2512.88
364.335	2517.88
364.562	2515.88
364.788	2564.88
365.015	2552.88
365.241	2612.88
365.468	2767.88
365.694	2936.88
365.92	2870.88
366.147	2608.88
366.373	2579.88
366.599	2635.88
366.826	2625.88
367.052	2580.88
367.278	2622.88
367.505	2586.88
367.731	2620.88
367.957	2628.88
368.184	2616.88
368.41	2701.88
368.636	2638.88
368.862	2661.88
369.089	2620.88
369.315	2631.88
369.541	2578.88
369.767	2683.88
369.993	2611.88
370.219	2652.88
370.445	2652.88
370.672	2650.88
370.898	2726.88
371.124	2701.88
371.35	2664.88
371.576	2749.88
371.802	2740.88
372.028	2771.88
372.254	2751.88
372.48	2731.88
372.706	2804.88
372.932	2791.88
373.158	2739.88
373.384	2752.88
373.61	2757.88
373.835	2772.88
374.061	2788.88
374.287	2806.88
374.513	2848.88
374.739	2896.88
374.965	2906.88
375.191	2906.88
375.416	2838.88
375.642	2864.88
375.868	2874.88
376.094	2805.88
376.319	2749.88
376.545	2782.88
376.771	2723.88
376.997	2690.88
377.222	2708.88
377.448	2697.88
377.674	2679.88
377.899	2753.88
378.125	2724.88
378.35	2701.88
378.576	2750.88
378.802	2796.88
379.027	2845.88
379.253	2900.88
379.478	3019.88
379.704	3560.88
379.929	5083.88
380.155	7646.88
380.38	8312.88
380.606	5295.88
380.831	3754.88
381.057	3214.88
381.282	2991.88
381.507	2832.88
381.733	2810.88
381.958	2775.88
382.184	2728.88
382.409	2726.88
382.634	2714.88
382.86	2664.88
383.085	2698.88
383.31	2698.88
383.535	2670.88
383.761	2722.88
383.986	2747.88
384.211	2699.88
384.436	2776.88
384.662	2746.88
384.887	2822.88
385.112	2780.88
385.337	2788.88
385.562	2793.88
385.787	2793.88
386.013	2805.88
386.238	2791.88
386.463	2758.88
386.688	2772.88
386.913	2732.88
387.138	2787.88
387.363	2726.88
387.588	2755.88
387.813	2768.88
388.038	2729.88
388.263	2740.88
388.488	2766.88
388.713	2782.88
388.938	2729.88
389.163	2762.88
389.387	2759.88
389.612	2696.88
389.837	2776.88
390.062	2787.88
390.287	2800.88
390.512	2750.88
390.736	2843.88
390.961	2904.88
391.186	2844.88
391.411	2895.88
391.636	2912.88
391.86	2934.88
392.085	2866.88
392.31	2858.88
392.534	2885.88
392.759	2888.88
392.984	2816.88
393.208	2832.88
393.433	2804.88
393.658	2837.88
393.882	2801.88
394.107	2752.88
394.331	2795.88
394.556	2828.88
394.78	2849.88
395.005	2843.88
395.229	2849.88
395.454	2831.88
395.678	2853.88
395.903	2884.88
396.127	2859.88
396.352	2818.88
396.576	2840.88
396.801	2840.88
397.025	2934.88
397.249	2903.88
397.474	2982.88
397.698	2935.88
397.922	2998.88
398.147	2966.88
398.371	3023.88
398.595	3009.88
398.82	3091.88
399.044	3192.88
399.268	3365.88
399.492	3586.88
399.717	3638.88
399.941	3663.88
400.165	3556.88
400.389	3369.88
400.613	3287.88
400.837	3157.88
401.062	3125.88
401.286	3072.88
401.51	3059.88
401.734	3026.88
401.958	3059.88
402.182	3088.88
402.406	3081.88
402.63	3072.88
402.854	3109.88
403.078	3129.88
403.302	3107.88
403.526	3171.88
403.75	3151.88
403.974	3215.88
404.198	3188.88
404.422	3216.88
404.645	3169.88
404.869	3183.88
405.093	3226.88
405.317	3180.88
405.541	3198.88
405.765	3272.88
405.988	3274.88
406.212	3271.88
406.436	3226.88
406.66	3284.88
406.883	3287.88
407.107	3383.88
407.331	3432.88
407.555	3446.88
407.778	3430.88
408.002	3450.88
408.226	3406.88
408.449	3375.88
408.673	3307.88
408.896	3253.88
409.12	3199.88
409.344	3264.88
409.567	3247.88
409.791	3223.88
410.014	3148.88
410.238	3104.88
410.461	3171.88
410.685	3158.88
410.908	3096.88
411.132	3074.88
411.355	3054.88
411.578	3024.88
411.802	3046.88
412.025	3012.88
412.249	3080.88
412.472	3074.88
412.695	3015.88
412.919	2940.88
413.142	2980.88
413.365	2977.88
413.589	3038.88
413.812	3039.88
414.035	2990.88
414.258	3002.88
414.482	2959.88
414.705	3003.88
414.928	2985.88
415.151	2954.88
415.374	3000.88
415.597	2935.88
415.821	2861.88
416.044	2898.88
416.267	2896.88
416.49	2818.88
416.713	2868.88
416.936	2904.88
417.159	2810.88
417.382	2835.88
417.605	2849.88
417.828	2840.88
418.051	2934.88
418.274	2883.88
418.497	2880.88
418.72	3033.88
418.943	2873.88
419.166	3083.88
419.389	3274.88
419.611	3193.88
419.834	3070.88
420.057	2975.88
420.28	2876.88
420.503	2862.88
420.726	2840.88
420.948	2869.88
421.171	2888.88
421.394	2877.88
421.617	2804.88
421.839	2887.88
422.062	2898.88
422.285	2855.88
422.507	2905.88
422.73	2922.88
422.953	2927.88
423.175	2970.88
423.398	2945.88
423.621	2876.88
423.843	2916.88
424.066	2926.88
424.288	2881.88
424.511	2852.88
424.733	2887.88
424.956	2850.88
425.178	2819.88
425.401	2836.88
425.623	2855.88
425.846	2741.88
426.068	2792.88
426.291	2755.88
426.513	2745.88
426.735	2746.88
426.958	2694.88
427.18	2668.88
427.402	2722.88
427.625	2722.88
427.847	2654.88
428.069	2675.88
428.292	2690.88
428.514	2670.88
428.736	2620.88
428.958	2687.88
429.181	2636.88
429.403	2647.88
429.625	2655.88
429.847	2690.88
430.069	2696.88
430.292	2818.88
430.514	2806.88
430.736	2838.88
430.958	2689.88
431.18	2612.88
431.402	2663.88
431.624	2591.88
431.846	2574.88
432.068	2598.88
432.29	2610.88
432.512	2558.88
432.734	2669.88
432.956	2626.88
433.178	2580.88
433.4	2628.88
433.622	2688.88
433.844	2678.88
434.066	2651.88
434.287	2636.88
434.509	2703.88
434.731	2725.88
434.953	2719.88
435.175	2774.88
435.397	2782.88
435.618	2694.88
435.84	2644.88
436.062	2603.88
436.284	2613.88
436.505	2589.88
436.727	2682.88
436.949	2599.88
437.17	2636.88
437.392	2600.88
437.614	2564.88
437.835	2487.88
438.057	2535.88
438.278	2524.88
438.5	2533.88
438.721	2608.88
438.943	2670.88
439.165	2726.88
439.386	2769.88
439.608	2730.88
439.829	2737.88
440.05	2764.88
440.272	2838.88
440.493	2729.88
440.715	2718.88
440.936	2761.88
441.158	2775.88
441.379	2767.88
441.6	2887.88
441.822	2954.88
442.043	3056.88
442.264	3138.88
442.486	2919.88
442.707	2882.88
442.928	2859.88
443.149	2865.88
443.371	2835.88
443.592	2805.88
443.813	2800.88
444.034	2852.88
444.255	2924.88
444.476	2904.88
444.698	2922.88
444.919	3059.88
445.14	3134.88
445.361	2951.88
445.582	2868.88
445.803	2874.88
446.024	2805.88
446.245	2834.88
446.466	2786.88
446.687	2763.88
446.908	2784.88
447.129	2645.88
447.35	2655.88
447.571	2648.88
447.792	2600.88
448.013	2615.88
448.234	2587.88
448.455	2565.88
448.675	2624.88
448.896	2703.88
449.117	2727.88
449.338	2990.88
449.559	3024.88
449.779	2751.88
450	2595.88
450.221	2594.88
450.442	2583.88
450.662	2494.88
450.883	2489.88
451.104	2542.88
451.324	2548.88
451.545	2563.88
451.766	2548.88
451.986	2634.88
452.207	2754.88
452.428	3581.88
452.648	5360.88
452.869	4526.88
453.089	3210.88
453.31	2944.88
453.53	2911.88
453.751	2974.88
453.971	3112.88
454.192	3034.88
454.412	2724.88
454.633	2552.88
454.853	2491.88
455.073	2433.88
455.294	2472.88
455.514	2416.88
455.734	2406.88
455.955	2425.88
456.175	2426.88
456.395	2402.88
456.616	2486.88
456.836	2516.88
457.056	2450.88
457.276	2471.88
457.497	2617.88
457.717	2690.88
457.937	2554.88
458.157	2520.88
458.377	2585.88
458.598	2562.88
458.818	2580.88
459.038	2581.88
459.258	2610.88
459.478	2663.88
459.698	2648.88
459.918	2698.88
460.138	2774.88
460.358	2824.88
460.578	2838.88
460.798	2891.88
461.018	2880.88
461.238	2905.88
461.458	2879.88
461.678	2933.88
461.898	3027.88
462.118	2986.88
462.338	3014.88
462.558	3062.88
462.777	3166.88
462.997	3225.88
463.217	3372.88
463.437	3500.88
463.657	3537.88
463.876	3475.88
464.096	3359.88
464.316	3199.88
464.536	3191.88
464.755	3022.88
464.975	2946.88
465.195	2921.88
465.414	2849.88
465.634	2755.88
465.854	2751.88
466.073	2700.88
466.293	2665.88
466.512	2687.88
466.732	2648.88
466.951	2759.88
467.171	2987.88
467.391	2905.88
467.61	2722.88
467.829	2620.88
468.049	2598.88
468.268	2606.88
468.488	2570.88
468.707	2533.88
468.927	2571.88
469.146	2600.88
469.365	2586.88
469.585	2633.88
469.804	2639.88
470.023	2740.88
470.243	2770.88
470.462	2888.88
470.681	2970.88
470.901	3250.88
471.12	3676.88
471.339	3611.88
471.558	3126.88
471.777	2878.88
471.997	2776.88
472.216	2744.88
472.435	2686.88
472.654	2630.88
472.873	2583.88
473.092	2583.88
473.311	2655.88
473.53	2619.88
473.749	2653.88
473.968	2769.88
474.187	2672.88
474.406	2584.88
474.625	2627.88
474.844	2618.88
475.063	2664.88
475.282	2631.88
475.501	2607.88
475.72	2647.88
475.939	2647.88
476.158	2756.88
476.377	2762.88
476.596	2704.88
476.814	2754.88
477.033	2728.88
477.252	2753.88
477.471	2827.88
477.69	2856.88
477.908	2929.88
478.127	2962.88
478.346	2956.88
478.564	3012.88
478.783	2972.88
479.002	3104.88
479.22	3113.88
479.439	3139.88
479.658	3145.88
479.876	3160.88
480.095	3082.88
480.313	3222.88
480.532	3225.88
480.751	3222.88
480.969	3154.88
481.188	3194.88
481.406	3163.88
481.624	3150.88
481.843	3173.88
482.061	3202.88
482.28	3145.88
482.498	3093.88
482.717	3084.88
482.935	3154.88
483.153	3204.88
483.372	3247.88
483.59	3267.88
483.808	3319.88
484.027	3449.88
484.245	3638.88
484.463	4008.88
484.681	4375.88
484.9	4102.88
485.118	3783.88
485.336	3728.88
485.554	3730.88
485.772	3985.88
485.99	4446.88
486.209	4744.88
486.427	4046.88
486.645	3732.88
486.863	3552.88
487.081	3430.88
487.299	3389.88
487.517	3340.88
487.735	3314.88
