Data from SnStandardFlinnAPT0064_LampEnergy5.5_LIBS07252019.E.O._I.C._HRD10591_15-15-54-491.txt Node
Date: Thu Jul 25 15:15:54 EDT 2019
User: cochatt
Spectrometer: HR+D1059
Trigger mode: 1
Integration Time (sec): 1.000000E-1
Scans to average: 1
Electric dark correction enabled: true
Nonlinearity correction enabled: false
Boxcar width: 0
XAxis mode: Wavelengths
Number of Pixels in Spectrum: 2048
>>>>>Begin Spectral Data<<<<<
223.165	-12.88
223.4	-12.88
223.635	-12.88
223.869	-6.88
224.104	-17.88
224.338	-11.88
224.573	-16.88
224.808	-14.88
225.042	-10.88
225.277	0.12
225.511	3.12
225.746	2.12
225.98	-0.88
226.215	14.12
226.449	-0.88
226.683	18.12
226.918	19.12
227.152	37.12
227.387	29.12
227.621	45.12
227.856	36.12
228.09	32.12
228.324	45.12
228.559	69.12
228.793	61.12
229.027	147.12
229.262	159.12
229.496	136.12
229.73	132.12
229.964	147.12
230.199	138.12
230.433	154.12
230.667	174.12
230.901	166.12
231.136	177.12
231.37	184.12
231.604	181.12
231.838	186.12
232.072	232.12
232.306	220.12
232.541	185.12
232.775	205.12
233.009	200.12
233.243	191.12
233.477	200.12
233.711	211.12
233.945	232.12
234.179	210.12
234.413	211.12
234.647	219.12
234.881	218.12
235.115	242.12
235.349	252.12
235.583	319.12
235.817	392.12
236.051	394.12
236.285	276.12
236.519	241.12
236.753	225.12
236.987	240.12
237.221	252.12
237.455	238.12
237.689	217.12
237.922	223.12
238.156	204.12
238.39	222.12
238.624	218.12
238.858	211.12
239.091	207.12
239.325	232.12
239.559	214.12
239.793	241.12
240.027	246.12
240.26	210.12
240.494	253.12
240.728	256.12
240.961	241.12
241.195	270.12
241.429	273.12
241.662	283.12
241.896	320.12
242.13	377.12
242.363	472.12
242.597	583.12
242.83	581.12
243.064	576.12
243.298	658.12
243.531	550.12
243.765	388.12
243.998	327.12
244.232	309.12
244.465	301.12
244.699	282.12
244.932	292.12
245.166	302.12
245.399	284.12
245.633	291.12
245.866	291.12
246.099	285.12
246.333	291.12
246.566	276.12
246.8	280.12
247.033	282.12
247.266	284.12
247.5	282.12
247.733	301.12
247.966	297.12
248.2	311.12
248.433	368.12
248.666	389.12
248.899	370.12
249.133	341.12
249.366	350.12
249.599	374.12
249.832	409.12
250.066	416.12
250.299	328.12
250.532	338.12
250.765	323.12
250.998	313.12
251.231	323.12
251.465	336.12
251.698	323.12
251.931	331.12
252.164	321.12
252.397	326.12
252.63	333.12
252.863	341.12
253.096	327.12
253.329	340.12
253.562	345.12
253.795	339.12
254.028	355.12
254.261	359.12
254.494	381.12
254.727	430.12
254.96	489.12
255.193	470.12
255.426	406.12
255.659	365.12
255.892	367.12
256.124	359.12
256.357	360.12
256.59	377.12
256.823	392.12
257.056	426.12
257.289	494.12
257.521	551.12
257.754	455.12
257.987	409.12
258.22	399.12
258.452	386.12
258.685	391.12
258.918	384.12
259.151	430.12
259.383	441.12
259.616	475.12
259.849	485.12
260.081	445.12
260.314	419.12
260.547	399.12
260.779	401.12
261.012	405.12
261.244	401.12
261.477	413.12
261.71	441.12
261.942	431.12
262.175	431.12
262.407	467.12
262.64	439.12
262.872	464.12
263.105	471.12
263.337	529.12
263.57	541.12
263.802	554.12
264.035	567.12
264.267	590.12
264.499	595.12
264.732	605.12
264.964	605.12
265.197	610.12
265.429	601.12
265.661	611.12
265.894	647.12
266.126	715.12
266.358	775.12
266.591	726.12
266.823	665.12
267.055	599.12
267.287	591.12
267.52	574.12
267.752	539.12
267.984	535.12
268.216	532.12
268.448	525.12
268.681	506.12
268.913	501.12
269.145	519.12
269.377	539.12
269.609	534.12
269.841	552.12
270.073	576.12
270.306	645.12
270.538	825.12
270.77	1152.12
271.002	1400.12
271.234	992.12
271.466	703.12
271.698	597.12
271.93	582.12
272.162	550.12
272.394	527.12
272.626	522.12
272.858	491.12
273.09	506.12
273.322	509.12
273.553	509.12
273.785	521.12
274.017	487.12
274.249	514.12
274.481	507.12
274.713	508.12
274.945	506.12
275.176	512.12
275.408	521.12
275.64	513.12
275.872	501.12
276.104	524.12
276.335	522.12
276.567	522.12
276.799	523.12
277.031	543.12
277.262	564.12
277.494	559.12
277.726	609.12
277.957	687.12
278.189	732.12
278.421	709.12
278.652	649.12
278.884	615.12
279.115	582.12
279.347	574.12
279.579	576.12
279.81	560.12
280.042	579.12
280.273	581.12
280.505	574.12
280.736	594.12
280.968	628.12
281.199	651.12
281.431	736.12
281.662	734.12
281.894	685.12
282.125	645.12
282.356	676.12
282.588	642.12
282.819	682.12
283.051	707.12
283.282	762.12
283.513	937.12
283.745	1325.12
283.976	1983.12
284.207	2841.12
284.439	2569.12
284.67	1577.12
284.901	1284.12
285.132	1283.12
285.364	1192.12
285.595	966.12
285.826	907.12
286.057	1034.12
286.288	1399.12
286.52	1791.12
286.751	1676.12
286.982	1071.12
287.213	843.12
287.444	768.12
287.675	713.12
287.906	704.12
288.138	690.12
288.369	715.12
288.6	687.12
288.831	687.12
289.062	688.12
289.293	692.12
289.524	663.12
289.755	701.12
289.986	707.12
290.217	689.12
290.448	679.12
290.679	697.12
290.91	711.12
291.141	705.12
291.371	745.12
291.602	766.12
291.833	698.12
292.064	682.12
292.295	667.12
292.526	660.12
292.757	654.12
292.987	638.12
293.218	639.12
293.449	664.12
293.68	644.12
293.91	651.12
294.141	642.12
294.372	631.12
294.603	640.12
294.833	645.12
295.064	651.12
295.295	662.12
295.525	643.12
295.756	625.12
295.987	650.12
296.217	638.12
296.448	655.12
296.679	639.12
296.909	661.12
297.14	637.12
297.37	697.12
297.601	677.12
297.831	652.12
298.062	647.12
298.292	676.12
298.523	699.12
298.753	683.12
298.984	720.12
299.214	719.12
299.445	685.12
299.675	722.12
299.905	744.12
300.136	740.12
300.366	828.12
300.597	997.12
300.827	1337.12
301.057	1794.12
301.288	1827.12
301.518	1202.12
301.748	954.12
301.979	889.12
302.209	835.12
302.439	865.12
302.669	909.12
302.9	1079.12
303.13	1470.12
303.36	2057.12
303.59	2693.12
303.82	2379.12
304.051	1441.12
304.281	1063.12
304.511	943.12
304.741	866.12
304.971	850.12
305.201	792.12
305.431	780.12
305.661	791.12
305.891	802.12
306.121	741.12
306.352	754.12
306.582	744.12
306.812	738.12
307.042	755.12
307.272	753.12
307.502	745.12
307.731	744.12
307.961	725.12
308.191	719.12
308.421	726.12
308.651	721.12
308.881	724.12
309.111	745.12
309.341	739.12
309.571	736.12
309.8	754.12
310.03	777.12
310.26	743.12
310.49	746.12
310.72	774.12
310.949	758.12
311.179	759.12
311.409	781.12
311.639	777.12
311.868	742.12
312.098	790.12
312.328	807.12
312.557	809.12
312.787	805.12
313.017	801.12
313.246	801.12
313.476	816.12
313.706	826.12
313.935	857.12
314.165	885.12
314.394	921.12
314.624	895.12
314.853	874.12
315.083	872.12
315.312	894.12
315.542	866.12
315.771	872.12
316.001	896.12
316.23	920.12
316.46	950.12
316.689	1017.12
316.919	1209.12
317.148	1693.12
317.377	2473.12
317.607	3590.12
317.836	3664.12
318.065	2223.12
318.295	1485.12
318.524	1235.12
318.753	1125.12
318.983	1053.12
319.212	990.12
319.441	975.12
319.67	941.12
319.9	943.12
320.129	936.12
320.358	941.12
320.587	930.12
320.816	911.12
321.046	948.12
321.275	941.12
321.504	953.12
321.733	982.12
321.962	961.12
322.191	1023.12
322.42	991.12
322.649	1014.12
322.878	990.12
323.108	992.12
323.337	1024.12
323.566	990.12
323.795	999.12
324.024	1035.12
324.253	1034.12
324.482	1096.12
324.71	1128.12
324.939	1167.12
325.168	1220.12
325.397	1256.12
325.626	1460.12
325.855	2003.12
326.084	3003.12
326.313	4416.12
326.542	4677.12
326.77	3119.12
326.999	2073.12
327.228	1760.12
327.457	1691.12
327.686	1738.12
327.914	1797.12
328.143	2063.12
328.372	2377.12
328.6	2527.12
328.829	2382.12
329.058	2114.12
329.287	1874.12
329.515	1762.12
329.744	1593.12
329.972	1552.12
330.201	1450.12
330.43	1405.12
330.658	1412.12
330.887	1391.12
331.115	1357.12
331.344	1357.12
331.572	1363.12
331.801	1335.12
332.03	1361.12
332.258	1369.12
332.486	1413.12
332.715	1579.12
332.943	1895.12
333.172	2228.12
333.4	2238.12
333.629	1840.12
333.857	1661.12
334.085	1704.12
334.314	1781.12
334.542	1906.12
334.771	2180.12
334.999	2596.12
335.227	3076.12
335.455	3473.12
335.684	3153.12
335.912	2749.12
336.14	2413.12
336.369	2128.12
336.597	1994.12
336.825	1832.12
337.053	1739.12
337.281	1639.12
337.51	1579.12
337.738	1522.12
337.966	1483.12
338.194	1405.12
338.422	1401.12
338.65	1348.12
338.878	1313.12
339.106	1282.12
339.334	1245.12
339.562	1237.12
339.79	1232.12
340.018	1233.12
340.246	1226.12
340.474	1213.12
340.702	1159.12
340.93	1200.12
341.158	1178.12
341.386	1214.12
341.614	1181.12
341.842	1147.12
342.07	1142.12
342.298	1151.12
342.526	1105.12
342.754	1105.12
342.981	1108.12
343.209	1107.12
343.437	1107.12
343.665	1144.12
343.893	1178.12
344.12	1152.12
344.348	1136.12
344.576	1118.12
344.804	1087.12
345.031	1087.12
345.259	1047.12
345.487	1067.12
345.714	1051.12
345.942	1054.12
346.17	1045.12
346.397	1037.12
346.625	1027.12
346.853	1051.12
347.08	1006.12
347.308	1018.12
347.535	1005.12
347.763	1025.12
347.99	1028.12
348.218	1012.12
348.445	1024.12
348.673	985.12
348.9	1013.12
349.128	1005.12
349.355	992.12
349.583	961.12
349.81	995.12
350.037	998.12
350.265	986.12
350.492	983.12
350.72	990.12
350.947	970.12
351.174	980.12
351.402	976.12
351.629	1003.12
351.856	975.12
352.083	965.12
352.311	991.12
352.538	968.12
352.765	964.12
352.992	974.12
353.22	961.12
353.447	954.12
353.674	953.12
353.901	984.12
354.128	1009.12
354.355	963.12
354.583	962.12
354.81	1009.12
355.037	984.12
355.264	1013.12
355.491	978.12
355.718	998.12
355.945	975.12
356.172	989.12
356.399	1038.12
356.626	1014.12
356.853	1045.12
357.08	1023.12
357.307	1024.12
357.534	1046.12
357.761	1046.12
357.988	1048.12
358.215	1085.12
358.441	1033.12
358.668	1013.12
358.895	1043.12
359.122	1017.12
359.349	1040.12
359.576	1033.12
359.802	1066.12
360.029	1055.12
360.256	1045.12
360.483	1053.12
360.709	1039.12
360.936	1059.12
361.163	1038.12
361.39	1034.12
361.616	1021.12
361.843	1031.12
362.07	1056.12
362.296	1006.12
362.523	1066.12
362.749	1049.12
362.976	1057.12
363.203	1037.12
363.429	997.12
363.656	1053.12
363.882	1029.12
364.109	1047.12
364.335	1058.12
364.562	1063.12
364.788	1008.12
365.015	1043.12
365.241	1045.12
365.468	1109.12
365.694	1133.12
365.92	1125.12
366.147	1073.12
366.373	1105.12
366.599	1060.12
366.826	1054.12
367.052	1080.12
367.278	1045.12
367.505	1096.12
367.731	1114.12
367.957	1088.12
368.184	1101.12
368.41	1098.12
368.636	1089.12
368.862	1060.12
369.089	1059.12
369.315	1050.12
369.541	1070.12
369.767	1107.12
369.993	1066.12
370.219	1082.12
370.445	1094.12
370.672	1100.12
370.898	1113.12
371.124	1153.12
371.35	1131.12
371.576	1098.12
371.802	1140.12
372.028	1097.12
372.254	1136.12
372.48	1131.12
372.706	1111.12
372.932	1135.12
373.158	1161.12
373.384	1134.12
373.61	1136.12
373.835	1165.12
374.061	1128.12
374.287	1169.12
374.513	1165.12
374.739	1183.12
374.965	1193.12
375.191	1190.12
375.416	1201.12
375.642	1153.12
375.868	1168.12
376.094	1169.12
376.319	1133.12
376.545	1123.12
376.771	1141.12
376.997	1146.12
377.222	1144.12
377.448	1124.12
377.674	1118.12
377.899	1117.12
378.125	1118.12
378.35	1106.12
378.576	1097.12
378.802	1107.12
379.027	1138.12
379.253	1180.12
379.478	1201.12
379.704	1392.12
379.929	1835.12
380.155	2653.12
380.38	2825.12
380.606	1884.12
380.831	1402.12
381.057	1269.12
381.282	1203.12
381.507	1169.12
381.733	1143.12
381.958	1130.12
382.184	1127.12
382.409	1129.12
382.634	1099.12
382.86	1113.12
383.085	1107.12
383.31	1107.12
383.535	1117.12
383.761	1119.12
383.986	1144.12
384.211	1133.12
384.436	1136.12
384.662	1138.12
384.887	1130.12
385.112	1122.12
385.337	1143.12
385.562	1146.12
385.787	1174.12
386.013	1191.12
386.238	1166.12
386.463	1172.12
386.688	1159.12
386.913	1124.12
387.138	1146.12
387.363	1156.12
387.588	1121.12
387.813	1169.12
388.038	1128.12
388.263	1134.12
388.488	1148.12
388.713	1120.12
388.938	1137.12
389.163	1132.12
389.387	1141.12
389.612	1159.12
389.837	1169.12
390.062	1175.12
390.287	1199.12
390.512	1173.12
390.736	1165.12
390.961	1192.12
391.186	1187.12
391.411	1183.12
391.636	1208.12
391.86	1197.12
392.085	1214.12
392.31	1232.12
392.534	1192.12
392.759	1173.12
392.984	1187.12
393.208	1182.12
393.433	1179.12
393.658	1225.12
393.882	1162.12
394.107	1169.12
394.331	1164.12
394.556	1149.12
394.78	1149.12
395.005	1169.12
395.229	1170.12
395.454	1223.12
395.678	1177.12
395.903	1174.12
396.127	1205.12
396.352	1192.12
396.576	1156.12
396.801	1164.12
397.025	1209.12
397.249	1173.12
397.474	1198.12
397.698	1231.12
397.922	1251.12
398.147	1242.12
398.371	1248.12
398.595	1268.12
398.82	1277.12
399.044	1289.12
399.268	1385.12
399.492	1498.12
399.717	1563.12
399.941	1527.12
400.165	1464.12
400.389	1394.12
400.613	1344.12
400.837	1319.12
401.062	1318.12
401.286	1241.12
401.51	1263.12
401.734	1258.12
401.958	1287.12
402.182	1285.12
402.406	1256.12
402.63	1280.12
402.854	1297.12
403.078	1297.12
403.302	1279.12
403.526	1324.12
403.75	1341.12
403.974	1352.12
404.198	1316.12
404.422	1339.12
404.645	1322.12
404.869	1343.12
405.093	1335.12
405.317	1322.12
405.541	1359.12
405.765	1343.12
405.988	1360.12
406.212	1341.12
406.436	1337.12
406.66	1378.12
406.883	1343.12
407.107	1378.12
407.331	1423.12
407.555	1455.12
407.778	1425.12
408.002	1438.12
408.226	1425.12
408.449	1395.12
408.673	1364.12
408.896	1396.12
409.12	1316.12
409.344	1331.12
409.567	1350.12
409.791	1306.12
410.014	1343.12
410.238	1319.12
410.461	1291.12
410.685	1286.12
410.908	1291.12
411.132	1283.12
411.355	1260.12
411.578	1240.12
411.802	1287.12
412.025	1274.12
412.249	1301.12
412.472	1266.12
412.695	1257.12
412.919	1257.12
413.142	1272.12
413.365	1265.12
413.589	1271.12
413.812	1263.12
414.035	1274.12
414.258	1227.12
414.482	1233.12
414.705	1241.12
414.928	1278.12
415.151	1258.12
415.374	1252.12
415.597	1265.12
415.821	1205.12
416.044	1204.12
416.267	1217.12
416.49	1211.12
416.713	1191.12
416.936	1220.12
417.159	1209.12
417.382	1208.12
417.605	1183.12
417.828	1181.12
418.051	1224.12
418.274	1211.12
418.497	1189.12
418.72	1258.12
418.943	1214.12
419.166	1283.12
419.389	1329.12
419.611	1323.12
419.834	1308.12
420.057	1263.12
420.28	1206.12
420.503	1199.12
420.726	1186.12
420.948	1190.12
421.171	1232.12
421.394	1205.12
421.617	1210.12
421.839	1216.12
422.062	1215.12
422.285	1204.12
422.507	1236.12
422.73	1240.12
422.953	1222.12
423.175	1270.12
423.398	1228.12
423.621	1234.12
423.843	1209.12
424.066	1242.12
424.288	1197.12
424.511	1209.12
424.733	1226.12
424.956	1209.12
425.178	1188.12
425.401	1205.12
425.623	1205.12
425.846	1191.12
426.068	1193.12
426.291	1158.12
426.513	1129.12
426.735	1189.12
426.958	1151.12
427.18	1143.12
427.402	1163.12
427.625	1173.12
427.847	1133.12
428.069	1124.12
428.292	1156.12
428.514	1105.12
428.736	1139.12
428.958	1115.12
429.181	1139.12
429.403	1102.12
429.625	1101.12
429.847	1114.12
430.069	1122.12
430.292	1173.12
430.514	1190.12
430.736	1201.12
430.958	1153.12
431.18	1109.12
431.402	1098.12
431.624	1107.12
431.846	1093.12
432.068	1075.12
432.29	1107.12
432.512	1077.12
432.734	1120.12
432.956	1105.12
433.178	1104.12
433.4	1129.12
433.622	1137.12
433.844	1137.12
434.066	1090.12
434.287	1066.12
434.509	1106.12
434.731	1115.12
434.953	1173.12
435.175	1159.12
435.397	1148.12
435.618	1115.12
435.84	1131.12
436.062	1113.12
436.284	1120.12
436.505	1119.12
436.727	1110.12
436.949	1099.12
437.17	1092.12
437.392	1062.12
437.614	1079.12
437.835	1052.12
438.057	1066.12
438.278	1059.12
438.5	1073.12
438.721	1091.12
438.943	1156.12
439.165	1152.12
439.386	1174.12
439.608	1173.12
439.829	1147.12
440.05	1173.12
440.272	1202.12
440.493	1147.12
440.715	1141.12
440.936	1161.12
441.158	1164.12
441.379	1181.12
441.6	1225.12
441.822	1242.12
442.043	1294.12
442.264	1297.12
442.486	1230.12
442.707	1193.12
442.928	1224.12
443.149	1221.12
443.371	1205.12
443.592	1231.12
443.813	1192.12
444.034	1221.12
444.255	1222.12
444.476	1248.12
444.698	1252.12
444.919	1268.12
445.14	1354.12
445.361	1288.12
445.582	1222.12
445.803	1205.12
446.024	1199.12
446.245	1173.12
446.466	1181.12
446.687	1150.12
446.908	1190.12
447.129	1170.12
447.35	1115.12
447.571	1122.12
447.792	1124.12
448.013	1113.12
448.234	1128.12
448.455	1111.12
448.675	1111.12
448.896	1133.12
449.117	1154.12
449.338	1199.12
449.559	1280.12
449.779	1171.12
450	1104.12
450.221	1115.12
450.442	1100.12
450.662	1056.12
450.883	1061.12
451.104	1065.12
451.324	1085.12
451.545	1062.12
451.766	1096.12
451.986	1075.12
452.207	1132.12
452.428	1333.12
452.648	1732.12
452.869	1571.12
453.089	1206.12
453.31	1143.12
453.53	1186.12
453.751	1212.12
453.971	1222.12
454.192	1204.12
454.412	1110.12
454.633	1083.12
454.853	1055.12
455.073	1012.12
455.294	1039.12
455.514	1029.12
455.734	1023.12
455.955	1010.12
456.175	1037.12
456.395	1016.12
456.616	994.12
456.836	1020.12
457.056	1041.12
457.276	1031.12
457.497	1079.12
457.717	1112.12
457.937	1050.12
458.157	1082.12
458.377	1064.12
458.598	1073.12
458.818	1096.12
459.038	1086.12
459.258	1066.12
459.478	1103.12
459.698	1123.12
459.918	1143.12
460.138	1138.12
460.358	1184.12
460.578	1174.12
460.798	1187.12
461.018	1205.12
461.238	1213.12
461.458	1221.12
461.678	1214.12
461.898	1264.12
462.118	1254.12
462.338	1269.12
462.558	1258.12
462.777	1281.12
462.997	1368.12
463.217	1409.12
463.437	1433.12
463.657	1397.12
463.876	1449.12
464.096	1374.12
464.316	1331.12
464.536	1299.12
464.755	1284.12
464.975	1270.12
465.195	1221.12
465.414	1177.12
465.634	1118.12
465.854	1143.12
466.073	1122.12
466.293	1093.12
466.512	1103.12
466.732	1108.12
466.951	1149.12
467.171	1215.12
467.391	1208.12
467.61	1152.12
467.829	1108.12
468.049	1118.12
468.268	1089.12
468.488	1073.12
468.707	1096.12
468.927	1099.12
469.146	1058.12
469.365	1116.12
469.585	1126.12
469.804	1134.12
470.023	1139.12
470.243	1186.12
470.462	1197.12
470.681	1245.12
470.901	1314.12
471.12	1509.12
471.339	1463.12
471.558	1279.12
471.777	1167.12
471.997	1156.12
472.216	1119.12
472.435	1085.12
472.654	1077.12
472.873	1069.12
473.092	1089.12
473.311	1094.12
473.53	1118.12
473.749	1137.12
473.968	1125.12
474.187	1101.12
474.406	1087.12
474.625	1115.12
474.844	1098.12
475.063	1126.12
475.282	1111.12
475.501	1091.12
475.72	1091.12
475.939	1136.12
476.158	1161.12
476.377	1171.12
476.596	1111.12
476.814	1126.12
477.033	1172.12
477.252	1174.12
477.471	1203.12
477.69	1205.12
477.908	1216.12
478.127	1243.12
478.346	1235.12
478.564	1299.12
478.783	1322.12
479.002	1293.12
479.22	1306.12
479.439	1265.12
479.658	1304.12
479.876	1278.12
480.095	1311.12
480.313	1322.12
480.532	1340.12
480.751	1353.12
480.969	1325.12
481.188	1325.12
481.406	1277.12
481.624	1285.12
481.843	1313.12
482.061	1297.12
482.28	1307.12
482.498	1318.12
482.717	1295.12
482.935	1319.12
483.153	1346.12
483.372	1375.12
483.59	1369.12
483.808	1361.12
484.027	1384.12
484.245	1461.12
484.463	1599.12
484.681	1748.12
484.9	1590.12
485.118	1515.12
485.336	1526.12
485.554	1523.12
485.772	1610.12
485.99	1791.12
486.209	1907.12
486.427	1670.12
486.645	1512.12
486.863	1495.12
487.081	1411.12
487.299	1400.12
487.517	1424.12
487.735	1445.12
487.953	1444.12
488.171	1433.12
488.389	1440.12
488.607	1367.12
488.825	1376.12
489.043	1329.12
489.261	1347.12
489.479	1321.12
489.696	1375.12
489.914	1376.12
490.132	1361.12
490.35	1398.12
490.568	1377.12
490.786	1417.12
491.003	1429.12
491.221	1428.12
491.439	1444.12
