Data from SnStandardFlinnAPT0064_LampEnergy10_LIBS07252019.E.O._I.C._HRD10591_15-22-14-494.txt Node
Date: Thu Jul 25 15:22:14 EDT 2019
User: cochatt
Spectrometer: HR+D1059
Trigger mode: 1
Integration Time (sec): 1.000000E-1
Scans to average: 1
Electric dark correction enabled: true
Nonlinearity correction enabled: false
Boxcar width: 0
XAxis mode: Wavelengths
Number of Pixels in Spectrum: 2048
>>>>>Begin Spectral Data<<<<<
223.165	-32.25
223.4	-32.25
223.635	-32.25
223.869	-24.25
224.104	-13.25
224.338	-13.25
224.573	-21.25
224.808	-2.25
225.042	-9.25
225.277	7.75
225.511	-0.25
225.746	-7.25
225.98	10.75
226.215	10.75
226.449	6.75
226.683	33.75
226.918	26.75
227.152	26.75
227.387	37.75
227.621	38.75
227.856	47.75
228.09	30.75
228.324	50.75
228.559	52.75
228.793	129.75
229.027	305.75
229.262	325.75
229.496	291.75
229.73	294.75
229.964	302.75
230.199	288.75
230.433	299.75
230.667	297.75
230.901	318.75
231.136	332.75
231.37	344.75
231.604	386.75
231.838	440.75
232.072	531.75
232.306	559.75
232.541	478.75
232.775	407.75
233.009	402.75
233.243	418.75
233.477	417.75
233.711	491.75
233.945	567.75
234.179	513.75
234.413	458.75
234.647	458.75
234.881	466.75
235.115	508.75
235.349	585.75
235.583	761.75
235.817	942.75
236.051	975.75
236.285	635.75
236.519	521.75
236.753	491.75
236.987	513.75
237.221	534.75
237.455	498.75
237.689	472.75
237.922	455.75
238.156	461.75
238.39	467.75
238.624	485.75
238.858	490.75
239.091	487.75
239.325	484.75
239.559	490.75
239.793	510.75
240.027	520.75
240.26	535.75
240.494	545.75
240.728	600.75
240.961	617.75
241.195	637.75
241.429	666.75
241.662	674.75
241.896	799.75
242.13	934.75
242.363	1231.75
242.597	1547.75
242.83	1523.75
243.064	1444.75
243.298	1768.75
243.531	1461.75
243.765	931.75
243.998	773.75
244.232	691.75
244.465	631.75
244.699	639.75
244.932	649.75
245.166	634.75
245.399	679.75
245.633	641.75
245.866	667.75
246.099	653.75
246.333	637.75
246.566	634.75
246.8	635.75
247.033	632.75
247.266	636.75
247.5	655.75
247.733	662.75
247.966	707.75
248.2	738.75
248.433	858.75
248.666	977.75
248.899	938.75
249.133	815.75
249.366	820.75
249.599	942.75
249.832	1091.75
250.066	1031.75
250.299	860.75
250.532	786.75
250.765	733.75
250.998	734.75
251.231	730.75
251.465	714.75
251.698	736.75
251.931	727.75
252.164	707.75
252.397	741.75
252.63	770.75
252.863	797.75
253.096	773.75
253.329	786.75
253.562	780.75
253.795	765.75
254.028	780.75
254.261	805.75
254.494	889.75
254.727	1017.75
254.96	1225.75
255.193	1230.75
255.426	954.75
255.659	864.75
255.892	842.75
256.124	832.75
256.357	861.75
256.59	905.75
256.823	967.75
257.056	1110.75
257.289	1333.75
257.521	1454.75
257.754	1207.75
257.987	947.75
258.22	894.75
258.452	906.75
258.685	890.75
258.918	929.75
259.151	1000.75
259.383	1074.75
259.616	1179.75
259.849	1225.75
260.081	1081.75
260.314	992.75
260.547	948.75
260.779	923.75
261.012	938.75
261.244	972.75
261.477	978.75
261.71	975.75
261.942	972.75
262.175	1014.75
262.407	1069.75
262.64	1056.75
262.872	1096.75
263.105	1137.75
263.337	1192.75
263.57	1278.75
263.802	1273.75
264.035	1304.75
264.267	1359.75
264.499	1350.75
264.732	1406.75
264.964	1431.75
265.197	1433.75
265.429	1420.75
265.661	1473.75
265.894	1530.75
266.126	1777.75
266.358	1969.75
266.591	1908.75
266.823	1605.75
267.055	1438.75
267.287	1351.75
267.52	1309.75
267.752	1309.75
267.984	1269.75
268.216	1261.75
268.448	1255.75
268.681	1259.75
268.913	1222.75
269.145	1238.75
269.377	1233.75
269.609	1220.75
269.841	1285.75
270.073	1352.75
270.306	1574.75
270.538	2110.75
270.77	3133.75
271.002	3808.75
271.234	2671.75
271.466	1855.75
271.698	1488.75
271.93	1392.75
272.162	1320.75
272.394	1279.75
272.626	1239.75
272.858	1202.75
273.09	1218.75
273.322	1208.75
273.553	1184.75
273.785	1191.75
274.017	1192.75
274.249	1181.75
274.481	1209.75
274.713	1195.75
274.945	1209.75
275.176	1221.75
275.408	1219.75
275.64	1210.75
275.872	1226.75
276.104	1246.75
276.335	1232.75
276.567	1223.75
276.799	1263.75
277.031	1310.75
277.262	1297.75
277.494	1374.75
277.726	1523.75
277.957	1829.75
278.189	2051.75
278.421	1953.75
278.652	1715.75
278.884	1674.75
279.115	1491.75
279.347	1380.75
279.579	1380.75
279.81	1383.75
280.042	1350.75
280.273	1401.75
280.505	1427.75
280.736	1491.75
280.968	1582.75
281.199	1763.75
281.431	2033.75
281.662	2069.75
281.894	1759.75
282.125	1576.75
282.356	1636.75
282.588	1655.75
282.819	1657.75
283.051	1798.75
283.282	1914.75
283.513	2405.75
283.745	3513.75
283.976	5503.75
284.207	7819.75
284.439	7062.75
284.67	4393.75
284.901	3680.75
285.132	3655.75
285.364	3447.75
285.595	2624.75
285.826	2353.75
286.057	2791.75
286.288	3789.75
286.52	5168.75
286.751	4741.75
286.982	2967.75
287.213	2249.75
287.444	1958.75
287.675	1828.75
287.906	1759.75
288.138	1690.75
288.369	1688.75
288.6	1692.75
288.831	1631.75
289.062	1680.75
289.293	1652.75
289.524	1662.75
289.755	1681.75
289.986	1709.75
290.217	1730.75
290.448	1701.75
290.679	1754.75
290.91	1768.75
291.141	1879.75
291.371	1995.75
291.602	2081.75
291.833	1879.75
292.064	1729.75
292.295	1666.75
292.526	1602.75
292.757	1618.75
292.987	1596.75
293.218	1609.75
293.449	1614.75
293.68	1553.75
293.91	1563.75
294.141	1552.75
294.372	1489.75
294.603	1527.75
294.833	1556.75
295.064	1566.75
295.295	1530.75
295.525	1563.75
295.756	1536.75
295.987	1537.75
296.217	1548.75
296.448	1578.75
296.679	1589.75
296.909	1590.75
297.14	1590.75
297.37	1621.75
297.601	1643.75
297.831	1605.75
298.062	1593.75
298.292	1616.75
298.523	1626.75
298.753	1666.75
298.984	1738.75
299.214	1727.75
299.445	1726.75
299.675	1747.75
299.905	1804.75
300.136	1878.75
300.366	2096.75
300.597	2703.75
300.827	3790.75
301.057	5139.75
301.288	5078.75
301.518	3204.75
301.748	2545.75
301.979	2306.75
302.209	2249.75
302.439	2260.75
302.669	2405.75
302.9	2930.75
303.13	4089.75
303.36	5977.75
303.59	8034.75
303.82	6929.75
304.051	4069.75
304.281	2980.75
304.511	2481.75
304.741	2275.75
304.971	2168.75
305.201	2075.75
305.431	1960.75
305.661	1953.75
305.891	1878.75
306.121	1849.75
306.352	1853.75
306.582	1834.75
306.812	1834.75
307.042	1839.75
307.272	1815.75
307.502	1779.75
307.731	1801.75
307.961	1817.75
308.191	1783.75
308.421	1817.75
308.651	1787.75
308.881	1759.75
309.111	1778.75
309.341	1770.75
309.571	1829.75
309.8	1822.75
310.03	1822.75
310.26	1868.75
310.49	1861.75
310.72	1846.75
310.949	1809.75
311.179	1911.75
311.409	1914.75
311.639	1891.75
311.868	1925.75
312.098	1943.75
312.328	1928.75
312.557	1980.75
312.787	1927.75
313.017	1988.75
313.246	1969.75
313.476	2001.75
313.706	2073.75
313.935	2215.75
314.165	2315.75
314.394	2445.75
314.624	2349.75
314.853	2162.75
315.083	2135.75
315.312	2150.75
315.542	2170.75
315.771	2201.75
316.001	2203.75
316.23	2324.75
316.46	2399.75
316.689	2667.75
316.919	3158.75
317.148	4581.75
317.377	6947.75
317.607	10195.75
317.836	10603.75
318.065	6413.75
318.295	4143.75
318.524	3389.75
318.753	2952.75
318.983	2710.75
319.212	2530.75
319.441	2501.75
319.67	2389.75
319.9	2359.75
320.129	2326.75
320.358	2323.75
320.587	2279.75
320.816	2264.75
321.046	2320.75
321.275	2335.75
321.504	2380.75
321.733	2433.75
321.962	2429.75
322.191	2478.75
322.42	2497.75
322.649	2467.75
322.878	2458.75
323.108	2443.75
323.337	2483.75
323.566	2511.75
323.795	2593.75
324.024	2653.75
324.253	2703.75
324.482	2780.75
324.71	2942.75
324.939	3146.75
325.168	3161.75
325.397	3355.75
325.626	3961.75
325.855	5509.75
326.084	8575.75
326.313	12493.75
326.542	13180.75
326.77	8721.75
326.999	5769.75
327.228	4819.75
327.457	4629.75
327.686	4651.75
327.914	5066.75
328.143	5798.75
328.372	6958.75
328.6	7611.75
328.829	6735.75
329.058	5679.75
329.287	4946.75
329.515	4541.75
329.744	4209.75
329.972	3989.75
330.201	3814.75
330.43	3684.75
330.658	3543.75
330.887	3553.75
331.115	3477.75
331.344	3464.75
331.572	3454.75
331.801	3493.75
332.03	3487.75
332.258	3526.75
332.486	3710.75
332.715	4293.75
332.943	5221.75
333.172	6504.75
333.4	6421.75
333.629	4880.75
333.857	4393.75
334.085	4401.75
334.314	4640.75
334.542	4989.75
334.771	5889.75
334.999	7231.75
335.227	9177.75
335.455	10224.75
335.684	9154.75
335.912	7455.75
336.14	6306.75
336.369	5537.75
336.597	5070.75
336.825	4743.75
337.053	4426.75
337.281	4147.75
337.51	3954.75
337.738	3817.75
337.966	3680.75
338.194	3536.75
338.422	3462.75
338.65	3334.75
338.878	3330.75
339.106	3274.75
339.334	3225.75
339.562	3137.75
339.79	3065.75
340.018	3049.75
340.246	3019.75
340.474	3041.75
340.702	3018.75
340.93	3001.75
341.158	2970.75
341.386	2989.75
341.614	2967.75
341.842	2918.75
342.07	2856.75
342.298	2769.75
342.526	2754.75
342.754	2745.75
342.981	2685.75
343.209	2702.75
343.437	2745.75
343.665	2813.75
343.893	2769.75
344.12	2834.75
344.348	2781.75
344.576	2717.75
344.804	2676.75
345.031	2637.75
345.259	2604.75
345.487	2581.75
345.714	2549.75
345.942	2500.75
346.17	2544.75
346.397	2470.75
346.625	2523.75
346.853	2511.75
347.08	2517.75
347.308	2511.75
347.535	2495.75
347.763	2522.75
347.99	2470.75
348.218	2471.75
348.445	2447.75
348.673	2400.75
348.9	2453.75
349.128	2432.75
349.355	2417.75
349.583	2442.75
349.81	2418.75
350.037	2436.75
350.265	2376.75
350.492	2385.75
350.72	2409.75
350.947	2387.75
351.174	2413.75
351.402	2363.75
351.629	2359.75
351.856	2410.75
352.083	2327.75
352.311	2370.75
352.538	2395.75
352.765	2434.75
352.992	2389.75
353.22	2387.75
353.447	2380.75
353.674	2355.75
353.901	2353.75
354.128	2397.75
354.355	2381.75
354.583	2355.75
354.81	2369.75
355.037	2421.75
355.264	2418.75
355.491	2374.75
355.718	2421.75
355.945	2435.75
356.172	2466.75
356.399	2435.75
356.626	2463.75
356.853	2523.75
357.08	2463.75
357.307	2473.75
357.534	2527.75
357.761	2563.75
357.988	2557.75
358.215	2544.75
358.441	2524.75
358.668	2502.75
358.895	2522.75
359.122	2523.75
359.349	2505.75
359.576	2485.75
359.802	2516.75
360.029	2507.75
360.256	2544.75
360.483	2541.75
360.709	2557.75
360.936	2542.75
361.163	2547.75
361.39	2520.75
361.616	2558.75
361.843	2531.75
362.07	2523.75
362.296	2544.75
362.523	2561.75
362.749	2590.75
362.976	2568.75
363.203	2518.75
363.429	2495.75
363.656	2513.75
363.882	2546.75
364.109	2527.75
364.335	2547.75
364.562	2531.75
364.788	2554.75
365.015	2572.75
365.241	2605.75
365.468	2803.75
365.694	2926.75
365.92	2821.75
366.147	2651.75
366.373	2589.75
366.599	2621.75
366.826	2573.75
367.052	2585.75
367.278	2565.75
367.505	2665.75
367.731	2593.75
367.957	2645.75
368.184	2625.75
368.41	2698.75
368.636	2648.75
368.862	2629.75
369.089	2625.75
369.315	2666.75
369.541	2600.75
369.767	2645.75
369.993	2642.75
370.219	2598.75
370.445	2622.75
370.672	2655.75
370.898	2625.75
371.124	2683.75
371.35	2688.75
371.576	2711.75
371.802	2760.75
372.028	2757.75
372.254	2731.75
372.48	2722.75
372.706	2789.75
372.932	2770.75
373.158	2788.75
373.384	2788.75
373.61	2753.75
373.835	2766.75
374.061	2804.75
374.287	2823.75
374.513	2869.75
374.739	2895.75
374.965	2896.75
375.191	2904.75
375.416	2889.75
375.642	2868.75
375.868	2858.75
376.094	2821.75
376.319	2751.75
376.545	2817.75
376.771	2707.75
376.997	2712.75
377.222	2738.75
377.448	2705.75
377.674	2726.75
377.899	2718.75
378.125	2705.75
378.35	2679.75
378.576	2753.75
378.802	2760.75
379.027	2825.75
379.253	2838.75
379.478	3021.75
379.704	3545.75
379.929	5142.75
380.155	7763.75
380.38	8473.75
380.606	5151.75
380.831	3699.75
381.057	3205.75
381.282	2964.75
381.507	2820.75
381.733	2755.75
381.958	2783.75
382.184	2739.75
382.409	2690.75
382.634	2679.75
382.86	2703.75
383.085	2679.75
383.31	2661.75
383.535	2661.75
383.761	2628.75
383.986	2705.75
384.211	2714.75
384.436	2696.75
384.662	2711.75
384.887	2729.75
385.112	2719.75
385.337	2777.75
385.562	2740.75
385.787	2785.75
386.013	2800.75
386.238	2783.75
386.463	2801.75
386.688	2769.75
386.913	2707.75
387.138	2770.75
387.363	2776.75
387.588	2697.75
387.813	2746.75
388.038	2742.75
388.263	2790.75
388.488	2753.75
388.713	2728.75
388.938	2726.75
389.163	2697.75
389.387	2747.75
389.612	2737.75
389.837	2788.75
390.062	2769.75
390.287	2805.75
390.512	2817.75
390.736	2834.75
390.961	2885.75
391.186	2872.75
391.411	2909.75
391.636	2975.75
391.86	2889.75
392.085	2877.75
392.31	2857.75
392.534	2871.75
392.759	2853.75
392.984	2830.75
393.208	2849.75
393.433	2891.75
393.658	2837.75
393.882	2793.75
394.107	2799.75
394.331	2840.75
394.556	2822.75
394.78	2813.75
395.005	2874.75
395.229	2793.75
395.454	2869.75
395.678	2833.75
395.903	2831.75
396.127	2845.75
396.352	2851.75
396.576	2826.75
396.801	2861.75
397.025	2890.75
397.249	2886.75
397.474	2906.75
397.698	2903.75
397.922	2947.75
398.147	2929.75
398.371	2951.75
398.595	2952.75
398.82	3035.75
399.044	3195.75
399.268	3302.75
399.492	3486.75
399.717	3656.75
399.941	3649.75
400.165	3454.75
400.389	3380.75
400.613	3229.75
400.837	3168.75
401.062	3088.75
401.286	3077.75
401.51	3070.75
401.734	3015.75
401.958	3072.75
402.182	3064.75
402.406	3046.75
402.63	3124.75
402.854	3142.75
403.078	3115.75
403.302	3119.75
403.526	3157.75
403.75	3171.75
403.974	3106.75
404.198	3167.75
404.422	3175.75
404.645	3156.75
404.869	3118.75
405.093	3224.75
405.317	3211.75
405.541	3197.75
405.765	3238.75
405.988	3258.75
406.212	3209.75
406.436	3188.75
406.66	3320.75
406.883	3222.75
407.107	3417.75
407.331	3394.75
407.555	3466.75
407.778	3405.75
408.002	3345.75
408.226	3346.75
408.449	3440.75
408.673	3353.75
408.896	3287.75
409.12	3215.75
409.344	3221.75
409.567	3187.75
409.791	3208.75
410.014	3156.75
410.238	3153.75
410.461	3159.75
410.685	3159.75
410.908	3076.75
411.132	3107.75
411.355	2987.75
411.578	3071.75
411.802	3041.75
412.025	3040.75
412.249	3037.75
412.472	3032.75
412.695	3023.75
412.919	2932.75
413.142	3005.75
413.365	3017.75
413.589	2993.75
413.812	2982.75
414.035	2963.75
414.258	2974.75
414.482	2937.75
414.705	2934.75
414.928	2954.75
415.151	2982.75
415.374	2980.75
415.597	2920.75
415.821	2819.75
416.044	2853.75
416.267	2871.75
416.49	2837.75
416.713	2840.75
416.936	2860.75
417.159	2827.75
417.382	2879.75
417.605	2826.75
417.828	2863.75
418.051	2855.75
418.274	2916.75
418.497	2883.75
418.72	3004.75
418.943	2889.75
419.166	3055.75
419.389	3213.75
419.611	3159.75
419.834	3005.75
420.057	2989.75
420.28	2922.75
420.503	2861.75
420.726	2848.75
420.948	2903.75
421.171	2876.75
421.394	2834.75
421.617	2853.75
421.839	2874.75
422.062	2833.75
422.285	2904.75
422.507	2897.75
422.73	2970.75
422.953	2969.75
423.175	2959.75
423.398	2955.75
423.621	2902.75
423.843	2882.75
424.066	2889.75
424.288	2838.75
424.511	2856.75
424.733	2838.75
424.956	2754.75
425.178	2829.75
425.401	2821.75
425.623	2832.75
425.846	2785.75
426.068	2745.75
426.291	2780.75
426.513	2778.75
426.735	2714.75
426.958	2721.75
427.18	2696.75
427.402	2678.75
427.625	2676.75
427.847	2666.75
428.069	2673.75
428.292	2697.75
428.514	2631.75
428.736	2641.75
428.958	2657.75
429.181	2613.75
429.403	2657.75
429.625	2629.75
429.847	2678.75
430.069	2717.75
430.292	2735.75
430.514	2807.75
430.736	2832.75
430.958	2677.75
431.18	2669.75
431.402	2631.75
431.624	2593.75
431.846	2595.75
432.068	2556.75
432.29	2639.75
432.512	2596.75
432.734	2607.75
432.956	2619.75
433.178	2562.75
433.4	2646.75
433.622	2687.75
433.844	2685.75
434.066	2635.75
434.287	2598.75
434.509	2677.75
434.731	2656.75
434.953	2698.75
435.175	2714.75
435.397	2742.75
435.618	2714.75
435.84	2636.75
436.062	2600.75
436.284	2558.75
436.505	2622.75
436.727	2614.75
436.949	2599.75
437.17	2587.75
437.392	2552.75
437.614	2561.75
437.835	2472.75
438.057	2555.75
438.278	2528.75
438.5	2544.75
438.721	2601.75
438.943	2680.75
439.165	2735.75
439.386	2743.75
439.608	2696.75
439.829	2709.75
440.05	2788.75
440.272	2832.75
440.493	2727.75
440.715	2667.75
440.936	2678.75
441.158	2796.75
441.379	2733.75
441.6	2888.75
441.822	2888.75
442.043	3024.75
442.264	3155.75
442.486	2943.75
442.707	2905.75
442.928	2822.75
443.149	2801.75
443.371	2750.75
443.592	2807.75
443.813	2809.75
444.034	2856.75
444.255	2874.75
444.476	2908.75
444.698	2951.75
444.919	3023.75
445.14	3081.75
445.361	2937.75
445.582	2896.75
445.803	2790.75
446.024	2803.75
446.245	2809.75
446.466	2759.75
446.687	2745.75
446.908	2713.75
447.129	2654.75
447.35	2618.75
447.571	2634.75
447.792	2593.75
448.013	2590.75
448.234	2560.75
448.455	2582.75
448.675	2595.75
448.896	2650.75
449.117	2759.75
449.338	2977.75
449.559	3091.75
449.779	2793.75
450	2577.75
450.221	2544.75
450.442	2560.75
450.662	2553.75
450.883	2506.75
451.104	2511.75
451.324	2536.75
451.545	2545.75
451.766	2554.75
451.986	2623.75
452.207	2784.75
452.428	3580.75
452.648	5430.75
452.869	4487.75
453.089	3091.75
453.31	2882.75
453.53	2943.75
453.751	2988.75
453.971	3144.75
454.192	3038.75
454.412	2676.75
454.633	2441.75
454.853	2489.75
455.073	2420.75
455.294	2445.75
455.514	2443.75
455.734	2401.75
455.955	2357.75
456.175	2425.75
456.395	2413.75
456.616	2423.75
456.836	2490.75
457.056	2489.75
457.276	2502.75
457.497	2622.75
457.717	2624.75
457.937	2555.75
458.157	2503.75
458.377	2544.75
458.598	2625.75
458.818	2591.75
459.038	2612.75
459.258	2605.75
459.478	2640.75
459.698	2660.75
459.918	2693.75
460.138	2721.75
460.358	2782.75
460.578	2857.75
460.798	2854.75
461.018	2817.75
461.238	2885.75
461.458	2890.75
461.678	2897.75
461.898	2917.75
462.118	2971.75
462.338	3093.75
462.558	3037.75
462.777	3083.75
462.997	3256.75
463.217	3363.75
463.437	3505.75
463.657	3575.75
463.876	3562.75
464.096	3299.75
464.316	3211.75
464.536	3102.75
464.755	3048.75
464.975	2991.75
465.195	2923.75
465.414	2842.75
465.634	2735.75
465.854	2725.75
466.073	2716.75
466.293	2691.75
466.512	2632.75
466.732	2667.75
466.951	2818.75
467.171	2985.75
467.391	2910.75
467.61	2695.75
467.829	2573.75
468.049	2624.75
468.268	2527.75
468.488	2521.75
468.707	2559.75
468.927	2611.75
469.146	2533.75
469.365	2561.75
469.585	2615.75
469.804	2665.75
470.023	2705.75
470.243	2714.75
470.462	2831.75
470.681	2949.75
470.901	3237.75
471.12	3738.75
471.339	3649.75
471.558	3134.75
471.777	2806.75
471.997	2744.75
472.216	2689.75
472.435	2666.75
472.654	2621.75
472.873	2597.75
473.092	2587.75
473.311	2602.75
473.53	2642.75
473.749	2696.75
473.968	2760.75
474.187	2638.75
474.406	2500.75
474.625	2571.75
474.844	2566.75
475.063	2625.75
475.282	2569.75
475.501	2590.75
475.72	2645.75
475.939	2654.75
476.158	2737.75
476.377	2789.75
476.596	2727.75
476.814	2738.75
477.033	2705.75
477.252	2749.75
477.471	2817.75
477.69	2864.75
477.908	2882.75
478.127	2922.75
478.346	2878.75
478.564	3014.75
478.783	3008.75
479.002	3093.75
479.22	3095.75
479.439	3094.75
479.658	3106.75
479.876	3148.75
480.095	3128.75
480.313	3177.75
480.532	3283.75
480.751	3245.75
480.969	3159.75
481.188	3091.75
481.406	3133.75
481.624	3150.75
481.843	3168.75
482.061	3201.75
482.28	3158.75
482.498	3145.75
482.717	3091.75
482.935	3155.75
483.153	3195.75
483.372	3225.75
483.59	3269.75
483.808	3313.75
484.027	3394.75
484.245	3611.75
484.463	3965.75
484.681	4446.75
484.9	4033.75
485.118	3742.75
485.336	3723.75
485.554	3736.75
485.772	3974.75
485.99	4427.75
486.209	4800.75
486.427	4095.75
486.645	3609.75
486.863	3492.75
487.081	3386.75
487.299	3403.75
487.517	3362.75
487.735	3360.75
