Data from SnStandardFlinnAPT0064_LampEnergy5.5_LIBS07252019.E.O._I.C._HRD10591_15-14-26-490.txt Node
Date: Thu Jul 25 15:14:26 EDT 2019
User: cochatt
Spectrometer: HR+D1059
Trigger mode: 1
Integration Time (sec): 1.000000E-1
Scans to average: 1
Electric dark correction enabled: true
Nonlinearity correction enabled: false
Boxcar width: 0
XAxis mode: Wavelengths
Number of Pixels in Spectrum: 2048
>>>>>Begin Spectral Data<<<<<
223.165	-21.19
223.4	-21.19
223.635	-21.19
223.869	-21.19
224.104	-18.19
224.338	-3.19
224.573	-9.19
224.808	-13.19
225.042	-11.19
225.277	-11.19
225.511	2.81
225.746	-3.19
225.98	12.81
226.215	6.81
226.449	16.81
226.683	15.81
226.918	18.81
227.152	37.81
227.387	20.81
227.621	53.81
227.856	40.81
228.09	35.81
228.324	45.81
228.559	47.81
228.793	65.81
229.027	138.81
229.262	149.81
229.496	151.81
229.73	149.81
229.964	139.81
230.199	148.81
230.433	148.81
230.667	157.81
230.901	163.81
231.136	167.81
231.37	181.81
231.604	166.81
231.838	192.81
232.072	220.81
232.306	221.81
232.541	211.81
232.775	196.81
233.009	193.81
233.243	188.81
233.477	203.81
233.711	199.81
233.945	249.81
234.179	224.81
234.413	215.81
234.647	220.81
234.881	210.81
235.115	223.81
235.349	257.81
235.583	297.81
235.817	371.81
236.051	385.81
236.285	261.81
236.519	246.81
236.753	219.81
236.987	232.81
237.221	222.81
237.455	240.81
237.689	212.81
237.922	211.81
238.156	202.81
238.39	222.81
238.624	235.81
238.858	224.81
239.091	211.81
239.325	223.81
239.559	234.81
239.793	224.81
240.027	242.81
240.26	228.81
240.494	264.81
240.728	247.81
240.961	248.81
241.195	267.81
241.429	271.81
241.662	271.81
241.896	295.81
242.13	359.81
242.363	439.81
242.597	559.81
242.83	552.81
243.064	527.81
243.298	630.81
243.531	551.81
243.765	359.81
243.998	316.81
244.232	300.81
244.465	293.81
244.699	288.81
244.932	261.81
245.166	278.81
245.399	300.81
245.633	311.81
245.866	295.81
246.099	294.81
246.333	294.81
246.566	281.81
246.8	268.81
247.033	283.81
247.266	296.81
247.5	283.81
247.733	279.81
247.966	308.81
248.2	313.81
248.433	358.81
248.666	376.81
248.899	378.81
249.133	338.81
249.366	354.81
249.599	373.81
249.832	406.81
250.066	407.81
250.299	357.81
250.532	340.81
250.765	314.81
250.998	324.81
251.231	326.81
251.465	316.81
251.698	337.81
251.931	313.81
252.164	322.81
252.397	321.81
252.63	324.81
252.863	333.81
253.096	322.81
253.329	328.81
253.562	335.81
253.795	336.81
254.028	341.81
254.261	350.81
254.494	359.81
254.727	404.81
254.96	460.81
255.193	455.81
255.426	384.81
255.659	377.81
255.892	373.81
256.124	373.81
256.357	371.81
256.59	359.81
256.823	398.81
257.056	434.81
257.289	473.81
257.521	530.81
257.754	456.81
257.987	387.81
258.22	381.81
258.452	394.81
258.685	396.81
258.918	405.81
259.151	410.81
259.383	445.81
259.616	463.81
259.849	487.81
260.081	446.81
260.314	406.81
260.547	393.81
260.779	405.81
261.012	417.81
261.244	418.81
261.477	429.81
261.71	424.81
261.942	428.81
262.175	453.81
262.407	431.81
262.64	454.81
262.872	452.81
263.105	494.81
263.337	527.81
263.57	552.81
263.802	576.81
264.035	574.81
264.267	568.81
264.499	579.81
264.732	608.81
264.964	629.81
265.197	634.81
265.429	625.81
265.661	609.81
265.894	652.81
266.126	703.81
266.358	761.81
266.591	764.81
266.823	664.81
267.055	625.81
267.287	599.81
267.52	588.81
267.752	574.81
267.984	548.81
268.216	549.81
268.448	539.81
268.681	527.81
268.913	538.81
269.145	529.81
269.377	529.81
269.609	537.81
269.841	559.81
270.073	573.81
270.306	631.81
270.538	775.81
270.77	1111.81
271.002	1308.81
271.234	983.81
271.466	721.81
271.698	626.81
271.93	570.81
272.162	551.81
272.394	550.81
272.626	542.81
272.858	531.81
273.09	508.81
273.322	516.81
273.553	522.81
273.785	523.81
274.017	519.81
274.249	511.81
274.481	483.81
274.713	514.81
274.945	520.81
275.176	516.81
275.408	529.81
275.64	530.81
275.872	533.81
276.104	526.81
276.335	518.81
276.567	526.81
276.799	534.81
277.031	552.81
277.262	537.81
277.494	557.81
277.726	601.81
277.957	658.81
278.189	735.81
278.421	720.81
278.652	645.81
278.884	610.81
279.115	560.81
279.347	570.81
279.579	572.81
279.81	565.81
280.042	548.81
280.273	580.81
280.505	574.81
280.736	607.81
280.968	610.81
281.199	632.81
281.431	701.81
281.662	743.81
281.894	672.81
282.125	653.81
282.356	640.81
282.588	647.81
282.819	663.81
283.051	720.81
283.282	757.81
283.513	905.81
283.745	1223.81
283.976	1823.81
284.207	2572.81
284.439	2341.81
284.67	1530.81
284.901	1285.81
285.132	1226.81
285.364	1152.81
285.595	959.81
285.826	929.81
286.057	1024.81
286.288	1283.81
286.52	1699.81
286.751	1558.81
286.982	1072.81
287.213	847.81
287.444	760.81
287.675	721.81
287.906	724.81
288.138	683.81
288.369	701.81
288.6	694.81
288.831	686.81
289.062	675.81
289.293	685.81
289.524	696.81
289.755	698.81
289.986	675.81
290.217	689.81
290.448	682.81
290.679	686.81
290.91	731.81
291.141	703.81
291.371	766.81
291.602	757.81
291.833	727.81
292.064	684.81
292.295	686.81
292.526	668.81
292.757	657.81
292.987	666.81
293.218	653.81
293.449	660.81
293.68	630.81
293.91	660.81
294.141	619.81
294.372	636.81
294.603	662.81
294.833	631.81
295.064	659.81
295.295	645.81
295.525	618.81
295.756	652.81
295.987	663.81
296.217	668.81
296.448	652.81
296.679	662.81
296.909	658.81
297.14	659.81
297.37	670.81
297.601	669.81
297.831	660.81
298.062	665.81
298.292	649.81
298.523	671.81
298.753	662.81
298.984	698.81
299.214	668.81
299.445	708.81
299.675	695.81
299.905	703.81
300.136	735.81
300.366	821.81
300.597	1004.81
300.827	1272.81
301.057	1663.81
301.288	1674.81
301.518	1166.81
301.748	971.81
301.979	898.81
302.209	877.81
302.439	875.81
302.669	885.81
302.9	1020.81
303.13	1358.81
303.36	1928.81
303.59	2482.81
303.82	2191.81
304.051	1416.81
304.281	1074.81
304.511	923.81
304.741	860.81
304.971	854.81
305.201	806.81
305.431	779.81
305.661	774.81
305.891	742.81
306.121	766.81
306.352	770.81
306.582	779.81
306.812	726.81
307.042	730.81
307.272	754.81
307.502	752.81
307.731	748.81
307.961	750.81
308.191	736.81
308.421	774.81
308.651	735.81
308.881	741.81
309.111	741.81
309.341	718.81
309.571	736.81
309.8	759.81
310.03	766.81
310.26	748.81
310.49	747.81
310.72	768.81
310.949	763.81
311.179	755.81
311.409	777.81
311.639	767.81
311.868	772.81
312.098	790.81
312.328	815.81
312.557	802.81
312.787	797.81
313.017	824.81
313.246	823.81
313.476	806.81
313.706	830.81
313.935	857.81
314.165	888.81
314.394	938.81
314.624	875.81
314.853	884.81
315.083	842.81
315.312	848.81
315.542	861.81
315.771	883.81
316.001	886.81
316.23	885.81
316.46	941.81
316.689	995.81
316.919	1154.81
317.148	1570.81
317.377	2300.81
317.607	3239.81
317.836	3403.81
318.065	2124.81
318.295	1451.81
318.524	1244.81
318.753	1102.81
318.983	1040.81
319.212	993.81
319.441	991.81
319.67	990.81
319.9	931.81
320.129	948.81
320.358	935.81
320.587	914.81
320.816	927.81
321.046	927.81
321.275	957.81
321.504	922.81
321.733	943.81
321.962	967.81
322.191	968.81
322.42	1003.81
322.649	998.81
322.878	995.81
323.108	982.81
323.337	988.81
323.566	1015.81
323.795	1023.81
324.024	1020.81
324.253	1063.81
324.482	1075.81
324.71	1142.81
324.939	1207.81
325.168	1218.81
325.397	1246.81
325.626	1425.81
325.855	1887.81
326.084	2828.81
326.313	4077.81
326.542	4400.81
326.77	2955.81
326.999	2056.81
327.228	1743.81
327.457	1703.81
327.686	1747.81
327.914	1824.81
328.143	2023.81
328.372	2379.81
328.6	2575.81
328.829	2417.81
329.058	2164.81
329.287	1931.81
329.515	1761.81
329.744	1618.81
329.972	1572.81
330.201	1505.81
330.43	1456.81
330.658	1393.81
330.887	1368.81
331.115	1413.81
331.344	1347.81
331.572	1329.81
331.801	1363.81
332.03	1395.81
332.258	1406.81
332.486	1454.81
332.715	1580.81
332.943	1854.81
333.172	2130.81
333.4	2160.81
333.629	1754.81
333.857	1686.81
334.085	1728.81
334.314	1804.81
334.542	1895.81
334.771	2178.81
334.999	2578.81
335.227	3095.81
335.455	3375.81
335.684	3218.81
335.912	2824.81
336.14	2451.81
336.369	2159.81
336.597	2087.81
336.825	1906.81
337.053	1749.81
337.281	1665.81
337.51	1602.81
337.738	1549.81
337.966	1464.81
338.194	1419.81
338.422	1396.81
338.65	1319.81
338.878	1288.81
339.106	1288.81
339.334	1281.81
339.562	1238.81
339.79	1221.81
340.018	1221.81
340.246	1187.81
340.474	1214.81
340.702	1186.81
340.93	1224.81
341.158	1222.81
341.386	1186.81
341.614	1174.81
341.842	1175.81
342.07	1192.81
342.298	1142.81
342.526	1129.81
342.754	1126.81
342.981	1125.81
343.209	1130.81
343.437	1154.81
343.665	1139.81
343.893	1149.81
344.12	1143.81
344.348	1131.81
344.576	1092.81
344.804	1077.81
345.031	1075.81
345.259	1075.81
345.487	1058.81
345.714	1043.81
345.942	1030.81
346.17	1061.81
346.397	1038.81
346.625	1018.81
346.853	1042.81
347.08	1032.81
347.308	1018.81
347.535	1020.81
347.763	1029.81
347.99	1017.81
348.218	981.81
348.445	995.81
348.673	1011.81
348.9	1034.81
349.128	998.81
349.355	990.81
349.583	1023.81
349.81	973.81
350.037	972.81
350.265	986.81
350.492	979.81
350.72	978.81
350.947	959.81
351.174	1000.81
351.402	982.81
351.629	988.81
351.856	976.81
352.083	1003.81
352.311	962.81
352.538	975.81
352.765	989.81
352.992	956.81
353.22	973.81
353.447	938.81
353.674	957.81
353.901	957.81
354.128	990.81
354.355	996.81
354.583	992.81
354.81	979.81
355.037	982.81
355.264	1003.81
355.491	979.81
355.718	996.81
355.945	979.81
356.172	1028.81
356.399	991.81
356.626	1018.81
356.853	998.81
357.08	996.81
357.307	1027.81
357.534	1054.81
357.761	1049.81
357.988	1074.81
358.215	1037.81
358.441	1004.81
358.668	1022.81
358.895	1032.81
359.122	1013.81
359.349	1046.81
359.576	1025.81
359.802	1029.81
360.029	1028.81
360.256	1003.81
360.483	1048.81
360.709	1049.81
360.936	1042.81
361.163	1070.81
361.39	1048.81
361.616	1059.81
361.843	1028.81
362.07	1026.81
362.296	1044.81
362.523	1036.81
362.749	1052.81
362.976	1031.81
363.203	1072.81
363.429	1047.81
363.656	1018.81
363.882	1052.81
364.109	998.81
364.335	1047.81
364.562	1041.81
364.788	1052.81
365.015	1054.81
365.241	1038.81
365.468	1078.81
365.694	1130.81
365.92	1111.81
366.147	1074.81
366.373	1064.81
366.599	1075.81
366.826	1095.81
367.052	1068.81
367.278	1075.81
367.505	1070.81
367.731	1089.81
367.957	1063.81
368.184	1076.81
368.41	1068.81
368.636	1072.81
368.862	1100.81
369.089	1058.81
369.315	1070.81
369.541	1086.81
369.767	1083.81
369.993	1086.81
370.219	1092.81
370.445	1074.81
370.672	1098.81
370.898	1078.81
371.124	1117.81
371.35	1133.81
371.576	1120.81
371.802	1133.81
372.028	1134.81
372.254	1103.81
372.48	1111.81
372.706	1130.81
372.932	1140.81
373.158	1127.81
373.384	1138.81
373.61	1141.81
373.835	1145.81
374.061	1131.81
374.287	1166.81
374.513	1168.81
374.739	1196.81
374.965	1185.81
375.191	1189.81
375.416	1172.81
375.642	1178.81
375.868	1166.81
376.094	1154.81
376.319	1148.81
376.545	1138.81
376.771	1138.81
376.997	1124.81
377.222	1123.81
377.448	1141.81
377.674	1093.81
377.899	1111.81
378.125	1131.81
378.35	1120.81
378.576	1125.81
378.802	1111.81
379.027	1155.81
379.253	1149.81
379.478	1202.81
379.704	1358.81
379.929	1748.81
380.155	2474.81
380.38	2723.81
380.606	1774.81
380.831	1372.81
381.057	1249.81
381.282	1182.81
381.507	1136.81
381.733	1130.81
381.958	1147.81
382.184	1136.81
382.409	1107.81
382.634	1110.81
382.86	1111.81
383.085	1087.81
383.31	1083.81
383.535	1125.81
383.761	1104.81
383.986	1081.81
384.211	1109.81
384.436	1126.81
384.662	1163.81
384.887	1178.81
385.112	1159.81
385.337	1146.81
385.562	1182.81
385.787	1144.81
386.013	1160.81
386.238	1148.81
386.463	1181.81
386.688	1155.81
386.913	1111.81
387.138	1144.81
387.363	1135.81
387.588	1125.81
387.813	1140.81
388.038	1152.81
388.263	1159.81
388.488	1187.81
388.713	1153.81
388.938	1158.81
389.163	1099.81
389.387	1150.81
389.612	1157.81
389.837	1169.81
390.062	1172.81
390.287	1159.81
390.512	1144.81
390.736	1168.81
390.961	1187.81
391.186	1207.81
391.411	1185.81
391.636	1188.81
391.86	1232.81
392.085	1208.81
392.31	1175.81
392.534	1214.81
392.759	1196.81
392.984	1178.81
393.208	1143.81
393.433	1147.81
393.658	1149.81
393.882	1147.81
394.107	1168.81
394.331	1164.81
394.556	1146.81
394.78	1156.81
395.005	1195.81
395.229	1180.81
395.454	1214.81
395.678	1234.81
395.903	1216.81
396.127	1222.81
396.352	1196.81
396.576	1156.81
396.801	1177.81
397.025	1175.81
397.249	1180.81
397.474	1189.81
397.698	1228.81
397.922	1214.81
398.147	1201.81
398.371	1244.81
398.595	1275.81
398.82	1297.81
399.044	1328.81
399.268	1389.81
399.492	1466.81
399.717	1518.81
399.941	1571.81
400.165	1490.81
400.389	1416.81
400.613	1354.81
400.837	1335.81
401.062	1318.81
401.286	1298.81
401.51	1299.81
401.734	1250.81
401.958	1256.81
402.182	1261.81
402.406	1266.81
402.63	1307.81
402.854	1281.81
403.078	1270.81
403.302	1312.81
403.526	1302.81
403.75	1297.81
403.974	1331.81
404.198	1335.81
404.422	1333.81
404.645	1312.81
404.869	1308.81
405.093	1347.81
405.317	1324.81
405.541	1335.81
405.765	1346.81
405.988	1360.81
406.212	1367.81
406.436	1323.81
406.66	1324.81
406.883	1357.81
407.107	1417.81
407.331	1407.81
407.555	1439.81
407.778	1407.81
408.002	1420.81
408.226	1409.81
408.449	1406.81
408.673	1395.81
408.896	1340.81
409.12	1317.81
409.344	1350.81
409.567	1302.81
409.791	1307.81
410.014	1288.81
410.238	1334.81
410.461	1282.81
410.685	1306.81
410.908	1280.81
411.132	1299.81
411.355	1251.81
411.578	1310.81
411.802	1255.81
412.025	1261.81
412.249	1249.81
412.472	1260.81
412.695	1228.81
412.919	1240.81
413.142	1255.81
413.365	1264.81
413.589	1255.81
413.812	1267.81
414.035	1249.81
414.258	1239.81
414.482	1281.81
414.705	1276.81
414.928	1243.81
415.151	1222.81
415.374	1247.81
415.597	1214.81
415.821	1210.81
416.044	1216.81
416.267	1192.81
416.49	1182.81
416.713	1216.81
416.936	1223.81
417.159	1230.81
417.382	1208.81
417.605	1182.81
417.828	1166.81
418.051	1189.81
418.274	1215.81
418.497	1229.81
418.72	1238.81
418.943	1204.81
419.166	1294.81
419.389	1332.81
419.611	1324.81
419.834	1253.81
420.057	1253.81
420.28	1234.81
420.503	1194.81
420.726	1205.81
420.948	1179.81
421.171	1216.81
421.394	1212.81
421.617	1224.81
421.839	1233.81
422.062	1234.81
422.285	1165.81
422.507	1212.81
422.73	1210.81
422.953	1218.81
423.175	1224.81
423.398	1242.81
423.621	1205.81
423.843	1222.81
424.066	1209.81
424.288	1202.81
424.511	1218.81
424.733	1211.81
424.956	1184.81
425.178	1221.81
425.401	1205.81
425.623	1197.81
425.846	1186.81
426.068	1175.81
426.291	1173.81
426.513	1158.81
426.735	1166.81
426.958	1164.81
427.18	1151.81
427.402	1140.81
427.625	1126.81
427.847	1144.81
428.069	1109.81
428.292	1114.81
428.514	1103.81
428.736	1139.81
428.958	1110.81
429.181	1135.81
429.403	1104.81
429.625	1105.81
429.847	1108.81
430.069	1119.81
430.292	1164.81
430.514	1190.81
430.736	1200.81
430.958	1136.81
431.18	1143.81
431.402	1103.81
431.624	1108.81
431.846	1113.81
432.068	1090.81
432.29	1132.81
432.512	1115.81
432.734	1171.81
432.956	1132.81
433.178	1124.81
433.4	1108.81
433.622	1112.81
433.844	1112.81
434.066	1115.81
434.287	1135.81
434.509	1102.81
434.731	1130.81
434.953	1162.81
435.175	1134.81
435.397	1157.81
435.618	1156.81
435.84	1110.81
436.062	1089.81
436.284	1085.81
436.505	1074.81
436.727	1131.81
436.949	1117.81
437.17	1131.81
437.392	1084.81
437.614	1072.81
437.835	1055.81
438.057	1059.81
438.278	1028.81
438.5	1073.81
438.721	1109.81
438.943	1138.81
439.165	1124.81
439.386	1148.81
439.608	1186.81
439.829	1153.81
440.05	1168.81
440.272	1183.81
440.493	1165.81
440.715	1142.81
440.936	1159.81
441.158	1170.81
441.379	1150.81
441.6	1188.81
441.822	1216.81
442.043	1283.81
442.264	1282.81
442.486	1224.81
442.707	1216.81
442.928	1165.81
443.149	1180.81
443.371	1188.81
443.592	1182.81
443.813	1212.81
444.034	1202.81
444.255	1259.81
444.476	1265.81
444.698	1309.81
444.919	1299.81
445.14	1386.81
445.361	1298.81
445.582	1247.81
445.803	1184.81
446.024	1210.81
446.245	1195.81
446.466	1200.81
446.687	1151.81
446.908	1191.81
447.129	1144.81
447.35	1184.81
447.571	1139.81
447.792	1120.81
448.013	1106.81
448.234	1123.81
448.455	1099.81
448.675	1125.81
448.896	1149.81
449.117	1161.81
449.338	1196.81
449.559	1247.81
449.779	1138.81
450	1070.81
450.221	1062.81
450.442	1077.81
450.662	1063.81
450.883	1058.81
451.104	1066.81
451.324	1056.81
451.545	1068.81
451.766	1056.81
451.986	1061.81
452.207	1140.81
452.428	1328.81
452.648	1700.81
452.869	1534.81
453.089	1230.81
453.31	1167.81
453.53	1123.81
453.751	1153.81
453.971	1230.81
454.192	1183.81
454.412	1089.81
454.633	1043.81
454.853	1036.81
455.073	1037.81
455.294	1037.81
455.514	1014.81
455.734	1038.81
455.955	1005.81
456.175	1003.81
456.395	1006.81
456.616	1043.81
456.836	1024.81
457.056	1030.81
457.276	1026.81
457.497	1055.81
457.717	1063.81
457.937	1049.81
458.157	1078.81
458.377	1068.81
458.598	1046.81
458.818	1079.81
459.038	1063.81
459.258	1093.81
459.478	1113.81
459.698	1124.81
459.918	1117.81
460.138	1147.81
460.358	1183.81
460.578	1200.81
460.798	1234.81
461.018	1216.81
461.238	1212.81
461.458	1231.81
461.678	1226.81
461.898	1229.81
462.118	1230.81
462.338	1290.81
462.558	1304.81
462.777	1302.81
462.997	1365.81
463.217	1367.81
463.437	1398.81
463.657	1415.81
463.876	1386.81
464.096	1378.81
464.316	1288.81
464.536	1294.81
464.755	1297.81
464.975	1248.81
465.195	1224.81
465.414	1200.81
465.634	1165.81
465.854	1155.81
466.073	1137.81
466.293	1116.81
466.512	1143.81
466.732	1130.81
466.951	1166.81
467.171	1238.81
467.391	1204.81
467.61	1152.81
467.829	1127.81
468.049	1101.81
468.268	1095.81
468.488	1071.81
468.707	1098.81
468.927	1070.81
469.146	1091.81
469.365	1118.81
469.585	1108.81
469.804	1119.81
470.023	1152.81
470.243	1142.81
470.462	1178.81
470.681	1224.81
470.901	1306.81
471.12	1454.81
471.339	1456.81
471.558	1271.81
471.777	1185.81
471.997	1161.81
472.216	1136.81
472.435	1121.81
472.654	1068.81
472.873	1088.81
473.092	1091.81
473.311	1099.81
473.53	1100.81
473.749	1106.81
473.968	1161.81
474.187	1114.81
474.406	1108.81
474.625	1095.81
474.844	1119.81
475.063	1109.81
475.282	1099.81
475.501	1122.81
475.72	1104.81
475.939	1127.81
476.158	1154.81
476.377	1183.81
476.596	1168.81
476.814	1128.81
477.033	1162.81
477.252	1146.81
477.471	1190.81
477.69	1220.81
477.908	1236.81
478.127	1268.81
478.346	1245.81
478.564	1275.81
478.783	1310.81
479.002	1299.81
479.22	1290.81
479.439	1299.81
479.658	1288.81
479.876	1319.81
480.095	1312.81
480.313	1337.81
480.532	1339.81
480.751	1346.81
480.969	1304.81
481.188	1332.81
481.406	1293.81
481.624	1293.81
481.843	1308.81
482.061	1288.81
482.28	1319.81
482.498	1295.81
482.717	1273.81
482.935	1309.81
483.153	1343.81
483.372	1386.81
483.59	1388.81
483.808	1397.81
484.027	1406.81
484.245	1411.81
484.463	1558.81
484.681	1717.81
484.9	1592.81
485.118	1538.81
485.336	1491.81
485.554	1503.81
485.772	1557.81
485.99	1726.81
486.209	1803.81
486.427	1608.81
486.645	1481.81
486.863	1444.81
487.081	1437.81
487.299	1400.81
487.517	1408.81
487.735	1429.81
487.953	1421.81
488.171	1424.81
488.389	1378.81
488.607	1379.81
488.825	1361.81
489.043	1341.81
489.261	1367.81
489.479	1372.81
489.696	1368.81
489.914	1378.81
490.132	1362.81
490.35	1392.81
490.568	1392.81
490.786	1428.81
491.003	1444.81
491.221	1454.81
491.439	1488.81
