Data from SnStandardFlinnAPT0064_LampEnergy5.5_LIBS07252019.E.O._I.C._HRD10591_15-17-35-492.txt Node
Date: Thu Jul 25 15:17:35 EDT 2019
User: cochatt
Spectrometer: HR+D1059
Trigger mode: 1
Integration Time (sec): 1.000000E-1
Scans to average: 1
Electric dark correction enabled: true
Nonlinearity correction enabled: false
Boxcar width: 0
XAxis mode: Wavelengths
Number of Pixels in Spectrum: 2048
>>>>>Begin Spectral Data<<<<<
223.165	-15.81
223.4	-15.81
223.635	-15.81
223.869	-9.81
224.104	-3.81
224.338	-5.81
224.573	-12.81
224.808	-22.81
225.042	-19.81
225.277	0.19
225.511	-19.81
225.746	6.19
225.98	5.19
226.215	17.19
226.449	10.19
226.683	27.19
226.918	24.19
227.152	20.19
227.387	33.19
227.621	37.19
227.856	41.19
228.09	35.19
228.324	45.19
228.559	40.19
228.793	78.19
229.027	151.19
229.262	159.19
229.496	168.19
229.73	151.19
229.964	152.19
230.199	155.19
230.433	163.19
230.667	169.19
230.901	166.19
231.136	175.19
231.37	175.19
231.604	197.19
231.838	215.19
232.072	232.19
232.306	260.19
232.541	232.19
232.775	218.19
233.009	221.19
233.243	216.19
233.477	216.19
233.711	239.19
233.945	288.19
234.179	235.19
234.413	218.19
234.647	220.19
234.881	238.19
235.115	256.19
235.349	268.19
235.583	354.19
235.817	469.19
236.051	462.19
236.285	310.19
236.519	252.19
236.753	236.19
236.987	232.19
237.221	256.19
237.455	243.19
237.689	228.19
237.922	218.19
238.156	213.19
238.39	229.19
238.624	223.19
238.858	221.19
239.091	219.19
239.325	233.19
239.559	225.19
239.793	238.19
240.027	248.19
240.26	257.19
240.494	259.19
240.728	278.19
240.961	282.19
241.195	310.19
241.429	319.19
241.662	323.19
241.896	353.19
242.13	418.19
242.363	544.19
242.597	729.19
242.83	683.19
243.064	707.19
243.298	824.19
243.531	669.19
243.765	416.19
243.998	374.19
244.232	340.19
244.465	314.19
244.699	315.19
244.932	288.19
245.166	311.19
245.399	314.19
245.633	332.19
245.866	312.19
246.099	318.19
246.333	307.19
246.566	304.19
246.8	306.19
247.033	274.19
247.266	296.19
247.5	288.19
247.733	293.19
247.966	316.19
248.2	355.19
248.433	383.19
248.666	451.19
248.899	428.19
249.133	391.19
249.366	402.19
249.599	418.19
249.832	479.19
250.066	465.19
250.299	386.19
250.532	349.19
250.765	350.19
250.998	337.19
251.231	321.19
251.465	336.19
251.698	335.19
251.931	323.19
252.164	340.19
252.397	354.19
252.63	371.19
252.863	368.19
253.096	362.19
253.329	362.19
253.562	353.19
253.795	369.19
254.028	366.19
254.261	384.19
254.494	396.19
254.727	450.19
254.96	567.19
255.193	552.19
255.426	420.19
255.659	393.19
255.892	393.19
256.124	401.19
256.357	393.19
256.59	408.19
256.823	447.19
257.056	487.19
257.289	596.19
257.521	615.19
257.754	516.19
257.987	430.19
258.22	428.19
258.452	423.19
258.685	412.19
258.918	420.19
259.151	447.19
259.383	456.19
259.616	517.19
259.849	554.19
260.081	476.19
260.314	448.19
260.547	458.19
260.779	444.19
261.012	440.19
261.244	455.19
261.477	473.19
261.71	465.19
261.942	462.19
262.175	476.19
262.407	472.19
262.64	490.19
262.872	500.19
263.105	517.19
263.337	535.19
263.57	574.19
263.802	583.19
264.035	582.19
264.267	601.19
264.499	640.19
264.732	645.19
264.964	648.19
265.197	646.19
265.429	662.19
265.661	678.19
265.894	701.19
266.126	780.19
266.358	850.19
266.591	832.19
266.823	704.19
267.055	645.19
267.287	626.19
267.52	622.19
267.752	609.19
267.984	599.19
268.216	568.19
268.448	558.19
268.681	583.19
268.913	573.19
269.145	581.19
269.377	578.19
269.609	577.19
269.841	569.19
270.073	616.19
270.306	718.19
270.538	943.19
270.77	1412.19
271.002	1732.19
271.234	1171.19
271.466	812.19
271.698	664.19
271.93	619.19
272.162	574.19
272.394	570.19
272.626	562.19
272.858	577.19
273.09	561.19
273.322	546.19
273.553	534.19
273.785	540.19
274.017	546.19
274.249	550.19
274.481	561.19
274.713	556.19
274.945	554.19
275.176	556.19
275.408	564.19
275.64	559.19
275.872	535.19
276.104	562.19
276.335	536.19
276.567	554.19
276.799	578.19
277.031	568.19
277.262	588.19
277.494	601.19
277.726	649.19
277.957	780.19
278.189	882.19
278.421	827.19
278.652	741.19
278.884	714.19
279.115	626.19
279.347	649.19
279.579	620.19
279.81	634.19
280.042	610.19
280.273	640.19
280.505	628.19
280.736	665.19
280.968	669.19
281.199	780.19
281.431	828.19
281.662	887.19
281.894	763.19
282.125	683.19
282.356	704.19
282.588	718.19
282.819	729.19
283.051	770.19
283.282	832.19
283.513	1042.19
283.745	1541.19
283.976	2528.19
284.207	3612.19
284.439	3172.19
284.67	1865.19
284.901	1464.19
285.132	1488.19
285.364	1456.19
285.595	1115.19
285.826	1011.19
286.057	1222.19
286.288	1667.19
286.52	2284.19
286.751	2054.19
286.982	1241.19
287.213	956.19
287.444	839.19
287.675	796.19
287.906	756.19
288.138	753.19
288.369	752.19
288.6	753.19
288.831	727.19
289.062	717.19
289.293	709.19
289.524	737.19
289.755	750.19
289.986	740.19
290.217	752.19
290.448	739.19
290.679	741.19
290.91	775.19
291.141	804.19
291.371	822.19
291.602	883.19
291.833	806.19
292.064	756.19
292.295	750.19
292.526	712.19
292.757	693.19
292.987	711.19
293.218	705.19
293.449	711.19
293.68	672.19
293.91	691.19
294.141	691.19
294.372	676.19
294.603	663.19
294.833	685.19
295.064	691.19
295.295	696.19
295.525	690.19
295.756	676.19
295.987	694.19
296.217	700.19
296.448	690.19
296.679	716.19
296.909	700.19
297.14	725.19
297.37	711.19
297.601	697.19
297.831	705.19
298.062	696.19
298.292	721.19
298.523	721.19
298.753	748.19
298.984	752.19
299.214	751.19
299.445	749.19
299.675	789.19
299.905	794.19
300.136	806.19
300.366	903.19
300.597	1187.19
300.827	1630.19
301.057	2284.19
301.288	2188.19
301.518	1400.19
301.748	1055.19
301.979	956.19
302.209	935.19
302.439	972.19
302.669	1022.19
302.9	1184.19
303.13	1742.19
303.36	2572.19
303.59	3503.19
303.82	2980.19
304.051	1720.19
304.281	1200.19
304.511	1049.19
304.741	935.19
304.971	886.19
305.201	880.19
305.431	846.19
305.661	840.19
305.891	828.19
306.121	822.19
306.352	828.19
306.582	800.19
306.812	787.19
307.042	764.19
307.272	828.19
307.502	778.19
307.731	783.19
307.961	784.19
308.191	785.19
308.421	816.19
308.651	797.19
308.881	784.19
309.111	790.19
309.341	816.19
309.571	809.19
309.8	835.19
310.03	801.19
310.26	812.19
310.49	834.19
310.72	807.19
310.949	819.19
311.179	817.19
311.409	829.19
311.639	817.19
311.868	807.19
312.098	837.19
312.328	863.19
312.557	832.19
312.787	855.19
313.017	857.19
313.246	877.19
313.476	862.19
313.706	878.19
313.935	934.19
314.165	977.19
314.394	1027.19
314.624	984.19
314.853	958.19
315.083	888.19
315.312	940.19
315.542	950.19
315.771	963.19
316.001	964.19
316.23	993.19
316.46	1054.19
316.689	1145.19
316.919	1338.19
317.148	1968.19
317.377	3155.19
317.607	4649.19
317.836	4747.19
318.065	2638.19
318.295	1704.19
318.524	1377.19
318.753	1210.19
318.983	1158.19
319.212	1056.19
319.441	1053.19
319.67	1053.19
319.9	1017.19
320.129	1010.19
320.358	986.19
320.587	990.19
320.816	999.19
321.046	966.19
321.275	1049.19
321.504	1026.19
321.733	1013.19
321.962	1066.19
322.191	1095.19
322.42	1029.19
322.649	1063.19
322.878	1063.19
323.108	1053.19
323.337	1094.19
323.566	1055.19
323.795	1106.19
324.024	1148.19
324.253	1142.19
324.482	1155.19
324.71	1257.19
324.939	1298.19
325.168	1339.19
325.397	1403.19
325.626	1661.19
325.855	2386.19
326.084	3759.19
326.313	5655.19
326.542	5960.19
326.77	3721.19
326.999	2309.19
327.228	1942.19
327.457	1848.19
327.686	1902.19
327.914	2012.19
328.143	2373.19
328.372	2658.19
328.6	2905.19
328.829	2690.19
329.058	2337.19
329.287	2014.19
329.515	1875.19
329.744	1771.19
329.972	1672.19
330.201	1564.19
330.43	1521.19
330.658	1477.19
330.887	1471.19
331.115	1453.19
331.344	1473.19
331.572	1442.19
331.801	1414.19
332.03	1466.19
332.258	1488.19
332.486	1566.19
332.715	1786.19
332.943	2188.19
333.172	2702.19
333.4	2633.19
333.629	2004.19
333.857	1841.19
334.085	1832.19
334.314	1890.19
334.542	2016.19
334.771	2379.19
334.999	2850.19
335.227	3489.19
335.455	3900.19
335.684	3604.19
335.912	3014.19
336.14	2594.19
336.369	2301.19
336.597	2136.19
336.825	1982.19
337.053	1825.19
337.281	1778.19
337.51	1684.19
337.738	1641.19
337.966	1578.19
338.194	1484.19
338.422	1426.19
338.65	1468.19
338.878	1362.19
339.106	1376.19
339.334	1363.19
339.562	1346.19
339.79	1326.19
340.018	1350.19
340.246	1298.19
340.474	1327.19
340.702	1289.19
340.93	1287.19
341.158	1309.19
341.386	1270.19
341.614	1240.19
341.842	1253.19
342.07	1219.19
342.298	1192.19
342.526	1177.19
342.754	1182.19
342.981	1152.19
343.209	1173.19
343.437	1196.19
343.665	1204.19
343.893	1191.19
344.12	1215.19
344.348	1210.19
344.576	1190.19
344.804	1162.19
345.031	1148.19
345.259	1140.19
345.487	1103.19
345.714	1110.19
345.942	1125.19
346.17	1103.19
346.397	1097.19
346.625	1105.19
346.853	1080.19
347.08	1088.19
347.308	1070.19
347.535	1088.19
347.763	1101.19
347.99	1085.19
348.218	1094.19
348.445	1061.19
348.673	1037.19
348.9	1080.19
349.128	1065.19
349.355	1058.19
349.583	1066.19
349.81	1054.19
350.037	1015.19
350.265	1033.19
350.492	1037.19
350.72	1061.19
350.947	1048.19
351.174	1064.19
351.402	1038.19
351.629	1011.19
351.856	1045.19
352.083	1025.19
352.311	1038.19
352.538	1044.19
352.765	1020.19
352.992	1018.19
353.22	1036.19
353.447	1020.19
353.674	1031.19
353.901	1022.19
354.128	1070.19
354.355	1016.19
354.583	1046.19
354.81	1055.19
355.037	1079.19
355.264	1070.19
355.491	1054.19
355.718	1068.19
355.945	1048.19
356.172	1075.19
356.399	1087.19
356.626	1076.19
356.853	1069.19
357.08	1070.19
357.307	1092.19
357.534	1129.19
357.761	1115.19
357.988	1108.19
358.215	1108.19
358.441	1132.19
358.668	1092.19
358.895	1096.19
359.122	1096.19
359.349	1096.19
359.576	1076.19
359.802	1102.19
360.029	1127.19
360.256	1104.19
360.483	1084.19
360.709	1114.19
360.936	1092.19
361.163	1114.19
361.39	1100.19
361.616	1120.19
361.843	1101.19
362.07	1119.19
362.296	1105.19
362.523	1116.19
362.749	1120.19
362.976	1103.19
363.203	1102.19
363.429	1086.19
363.656	1105.19
363.882	1110.19
364.109	1078.19
364.335	1077.19
364.562	1112.19
364.788	1097.19
365.015	1145.19
365.241	1107.19
365.468	1176.19
365.694	1223.19
365.92	1182.19
366.147	1177.19
366.373	1138.19
366.599	1141.19
366.826	1106.19
367.052	1128.19
367.278	1154.19
367.505	1185.19
367.731	1176.19
367.957	1164.19
368.184	1156.19
368.41	1139.19
368.636	1161.19
368.862	1164.19
369.089	1134.19
369.315	1156.19
369.541	1166.19
369.767	1130.19
369.993	1119.19
370.219	1154.19
370.445	1157.19
370.672	1163.19
370.898	1179.19
371.124	1184.19
371.35	1204.19
371.576	1176.19
371.802	1191.19
372.028	1220.19
372.254	1194.19
372.48	1211.19
372.706	1204.19
372.932	1200.19
373.158	1197.19
373.384	1196.19
373.61	1211.19
373.835	1194.19
374.061	1212.19
374.287	1249.19
374.513	1230.19
374.739	1258.19
374.965	1274.19
375.191	1252.19
375.416	1278.19
375.642	1212.19
375.868	1198.19
376.094	1211.19
376.319	1188.19
376.545	1213.19
376.771	1222.19
376.997	1213.19
377.222	1201.19
377.448	1206.19
377.674	1200.19
377.899	1221.19
378.125	1188.19
378.35	1214.19
378.576	1161.19
378.802	1185.19
379.027	1210.19
379.253	1237.19
379.478	1319.19
379.704	1498.19
379.929	2229.19
380.155	3340.19
380.38	3580.19
380.606	2158.19
380.831	1558.19
381.057	1347.19
381.282	1290.19
381.507	1236.19
381.733	1192.19
381.958	1204.19
382.184	1205.19
382.409	1220.19
382.634	1168.19
382.86	1198.19
383.085	1177.19
383.31	1189.19
383.535	1144.19
383.761	1194.19
383.986	1198.19
384.211	1208.19
384.436	1225.19
384.662	1191.19
384.887	1205.19
385.112	1215.19
385.337	1226.19
385.562	1193.19
385.787	1210.19
386.013	1247.19
386.238	1247.19
386.463	1206.19
386.688	1244.19
386.913	1208.19
387.138	1217.19
387.363	1224.19
387.588	1215.19
387.813	1224.19
388.038	1200.19
388.263	1194.19
388.488	1184.19
388.713	1248.19
388.938	1234.19
389.163	1208.19
389.387	1203.19
389.612	1225.19
389.837	1241.19
390.062	1249.19
390.287	1210.19
390.512	1219.19
390.736	1218.19
390.961	1282.19
391.186	1264.19
391.411	1285.19
391.636	1250.19
391.86	1261.19
392.085	1253.19
392.31	1260.19
392.534	1266.19
392.759	1265.19
392.984	1246.19
393.208	1248.19
393.433	1238.19
393.658	1267.19
393.882	1225.19
394.107	1229.19
394.331	1215.19
394.556	1207.19
394.78	1227.19
395.005	1231.19
395.229	1252.19
395.454	1264.19
395.678	1254.19
395.903	1239.19
396.127	1233.19
396.352	1245.19
396.576	1223.19
396.801	1241.19
397.025	1270.19
397.249	1280.19
397.474	1260.19
397.698	1291.19
397.922	1285.19
398.147	1285.19
398.371	1319.19
398.595	1312.19
398.82	1349.19
399.044	1398.19
399.268	1462.19
399.492	1560.19
399.717	1584.19
399.941	1630.19
400.165	1565.19
400.389	1473.19
400.613	1440.19
400.837	1370.19
401.062	1362.19
401.286	1363.19
401.51	1354.19
401.734	1352.19
401.958	1357.19
402.182	1344.19
402.406	1356.19
402.63	1338.19
402.854	1332.19
403.078	1333.19
403.302	1377.19
403.526	1388.19
403.75	1398.19
403.974	1369.19
404.198	1361.19
404.422	1390.19
404.645	1382.19
404.869	1400.19
405.093	1372.19
405.317	1372.19
405.541	1406.19
405.765	1469.19
405.988	1465.19
406.212	1417.19
406.436	1424.19
406.66	1404.19
406.883	1389.19
407.107	1478.19
407.331	1505.19
407.555	1502.19
407.778	1506.19
408.002	1486.19
408.226	1440.19
408.449	1473.19
408.673	1463.19
408.896	1416.19
409.12	1390.19
409.344	1424.19
409.567	1415.19
409.791	1381.19
410.014	1356.19
410.238	1342.19
410.461	1383.19
410.685	1372.19
410.908	1373.19
411.132	1361.19
411.355	1330.19
411.578	1344.19
411.802	1345.19
412.025	1316.19
412.249	1357.19
412.472	1330.19
412.695	1332.19
412.919	1334.19
413.142	1331.19
413.365	1314.19
413.589	1312.19
413.812	1306.19
414.035	1304.19
414.258	1296.19
414.482	1337.19
414.705	1325.19
414.928	1328.19
415.151	1298.19
415.374	1298.19
415.597	1284.19
415.821	1284.19
416.044	1299.19
416.267	1280.19
416.49	1305.19
416.713	1252.19
416.936	1286.19
417.159	1251.19
417.382	1250.19
417.605	1262.19
417.828	1269.19
418.051	1239.19
418.274	1280.19
418.497	1260.19
418.72	1314.19
418.943	1286.19
419.166	1326.19
419.389	1401.19
419.611	1400.19
419.834	1354.19
420.057	1332.19
420.28	1299.19
420.503	1305.19
420.726	1247.19
420.948	1253.19
421.171	1264.19
421.394	1297.19
421.617	1292.19
421.839	1301.19
422.062	1289.19
422.285	1275.19
422.507	1282.19
422.73	1289.19
422.953	1315.19
423.175	1325.19
423.398	1324.19
423.621	1280.19
423.843	1280.19
424.066	1261.19
424.288	1289.19
424.511	1287.19
424.733	1267.19
424.956	1267.19
425.178	1263.19
425.401	1240.19
425.623	1249.19
425.846	1245.19
426.068	1249.19
426.291	1235.19
426.513	1217.19
426.735	1240.19
426.958	1228.19
427.18	1224.19
427.402	1214.19
427.625	1199.19
427.847	1156.19
428.069	1157.19
428.292	1208.19
428.514	1170.19
428.736	1147.19
428.958	1184.19
429.181	1179.19
429.403	1153.19
429.625	1143.19
429.847	1178.19
430.069	1169.19
430.292	1210.19
430.514	1259.19
430.736	1282.19
430.958	1167.19
431.18	1201.19
431.402	1193.19
431.624	1175.19
431.846	1155.19
432.068	1134.19
432.29	1169.19
432.512	1143.19
432.734	1184.19
432.956	1173.19
433.178	1152.19
433.4	1199.19
433.622	1205.19
433.844	1185.19
434.066	1184.19
434.287	1183.19
434.509	1183.19
434.731	1186.19
434.953	1205.19
435.175	1215.19
435.397	1247.19
435.618	1193.19
435.84	1139.19
436.062	1138.19
436.284	1194.19
436.505	1162.19
436.727	1181.19
436.949	1191.19
437.17	1172.19
437.392	1175.19
437.614	1128.19
437.835	1100.19
438.057	1100.19
438.278	1098.19
438.5	1151.19
438.721	1155.19
438.943	1179.19
439.165	1222.19
439.386	1237.19
439.608	1219.19
439.829	1220.19
440.05	1239.19
440.272	1276.19
440.493	1216.19
440.715	1178.19
440.936	1242.19
441.158	1236.19
441.379	1222.19
441.6	1303.19
441.822	1321.19
442.043	1361.19
442.264	1415.19
442.486	1304.19
442.707	1287.19
442.928	1273.19
443.149	1249.19
443.371	1241.19
443.592	1245.19
443.813	1259.19
444.034	1234.19
444.255	1315.19
444.476	1288.19
444.698	1348.19
444.919	1340.19
445.14	1426.19
445.361	1382.19
445.582	1296.19
445.803	1297.19
446.024	1225.19
446.245	1259.19
446.466	1260.19
446.687	1226.19
446.908	1229.19
447.129	1205.19
447.35	1199.19
447.571	1178.19
447.792	1148.19
448.013	1148.19
448.234	1173.19
448.455	1168.19
448.675	1155.19
448.896	1214.19
449.117	1240.19
449.338	1320.19
449.559	1406.19
449.779	1242.19
450	1186.19
450.221	1202.19
450.442	1137.19
450.662	1145.19
450.883	1104.19
451.104	1123.19
451.324	1113.19
451.545	1120.19
451.766	1124.19
451.986	1148.19
452.207	1220.19
452.428	1480.19
452.648	2187.19
452.869	1861.19
453.089	1317.19
453.31	1244.19
453.53	1258.19
453.751	1312.19
453.971	1365.19
454.192	1377.19
454.412	1188.19
454.633	1134.19
454.853	1094.19
455.073	1093.19
455.294	1065.19
455.514	1071.19
455.734	1065.19
455.955	1035.19
456.175	1030.19
456.395	1039.19
456.616	1046.19
456.836	1078.19
457.056	1104.19
457.276	1091.19
457.497	1157.19
457.717	1127.19
457.937	1140.19
458.157	1106.19
458.377	1104.19
458.598	1124.19
458.818	1167.19
459.038	1158.19
459.258	1148.19
459.478	1158.19
459.698	1172.19
459.918	1202.19
460.138	1198.19
460.358	1224.19
460.578	1248.19
460.798	1284.19
461.018	1291.19
461.238	1283.19
461.458	1297.19
461.678	1236.19
461.898	1314.19
462.118	1304.19
462.338	1341.19
462.558	1349.19
462.777	1336.19
462.997	1406.19
463.217	1494.19
463.437	1532.19
463.657	1544.19
463.876	1533.19
464.096	1457.19
464.316	1350.19
464.536	1367.19
464.755	1359.19
464.975	1334.19
465.195	1315.19
465.414	1245.19
465.634	1237.19
465.854	1225.19
466.073	1189.19
466.293	1188.19
466.512	1168.19
466.732	1205.19
466.951	1263.19
467.171	1322.19
467.391	1291.19
467.61	1188.19
467.829	1166.19
468.049	1162.19
468.268	1140.19
468.488	1149.19
468.707	1160.19
468.927	1171.19
469.146	1135.19
469.365	1191.19
469.585	1186.19
469.804	1202.19
470.023	1228.19
470.243	1198.19
470.462	1263.19
470.681	1309.19
470.901	1476.19
471.12	1662.19
471.339	1728.19
471.558	1408.19
471.777	1273.19
471.997	1232.19
472.216	1186.19
472.435	1171.19
472.654	1167.19
472.873	1100.19
473.092	1154.19
473.311	1151.19
473.53	1130.19
473.749	1216.19
473.968	1229.19
474.187	1162.19
474.406	1164.19
474.625	1129.19
474.844	1182.19
475.063	1202.19
475.282	1177.19
475.501	1162.19
475.72	1154.19
475.939	1184.19
476.158	1221.19
476.377	1206.19
476.596	1210.19
476.814	1214.19
477.033	1222.19
477.252	1229.19
477.471	1254.19
477.69	1256.19
477.908	1294.19
478.127	1306.19
478.346	1344.19
478.564	1296.19
478.783	1337.19
479.002	1345.19
479.22	1360.19
479.439	1372.19
479.658	1326.19
479.876	1352.19
480.095	1372.19
480.313	1394.19
480.532	1424.19
480.751	1401.19
480.969	1390.19
481.188	1353.19
481.406	1332.19
481.624	1358.19
481.843	1367.19
482.061	1402.19
482.28	1385.19
482.498	1347.19
482.717	1384.19
482.935	1388.19
483.153	1453.19
483.372	1412.19
483.59	1413.19
483.808	1465.19
484.027	1500.19
484.245	1560.19
484.463	1765.19
484.681	1970.19
484.9	1754.19
485.118	1623.19
485.336	1641.19
485.554	1686.19
485.772	1723.19
485.99	2017.19
486.209	2177.19
486.427	1775.19
486.645	1606.19
486.863	1562.19
487.081	1499.19
487.299	1491.19
487.517	1458.19
487.735	1519.19
487.953	1497.19
488.171	1522.19
488.389	1483.19
488.607	1449.19
488.825	1449.19
489.043	1441.19
489.261	1418.19
489.479	1448.19
489.696	1432.19
489.914	1423.19
490.132	1455.19
490.35	1463.19
490.568	1460.19
490.786	1442.19
