Data from SnStandardFlinnAPT0064_LampEnergy5.5_LIBS07252019.E.O._I.C._HRD10591_15-16-18-491.txt Node
Date: Thu Jul 25 15:16:18 EDT 2019
User: cochatt
Spectrometer: HR+D1059
Trigger mode: 1
Integration Time (sec): 1.000000E-1
Scans to average: 1
Electric dark correction enabled: true
Nonlinearity correction enabled: false
Boxcar width: 0
XAxis mode: Wavelengths
Number of Pixels in Spectrum: 2048
>>>>>Begin Spectral Data<<<<<
223.165	-23.12
223.4	-23.12
223.635	-23.12
223.869	-9.12
224.104	-19.12
224.338	-12.12
224.573	-6.12
224.808	-21.12
225.042	1.88
225.277	2.88
225.511	-14.12
225.746	1.88
225.98	-2.12
226.215	18.88
226.449	11.88
226.683	29.88
226.918	18.88
227.152	20.88
227.387	29.88
227.621	36.88
227.856	34.88
228.09	43.88
228.324	42.88
228.559	55.88
228.793	79.88
229.027	133.88
229.262	148.88
229.496	138.88
229.73	150.88
229.964	149.88
230.199	157.88
230.433	145.88
230.667	148.88
230.901	160.88
231.136	165.88
231.37	170.88
231.604	190.88
231.838	208.88
232.072	220.88
232.306	233.88
232.541	215.88
232.775	199.88
233.009	201.88
233.243	189.88
233.477	208.88
233.711	238.88
233.945	238.88
234.179	233.88
234.413	205.88
234.647	216.88
234.881	223.88
235.115	244.88
235.349	274.88
235.583	321.88
235.817	418.88
236.051	434.88
236.285	293.88
236.519	226.88
236.753	210.88
236.987	216.88
237.221	247.88
237.455	248.88
237.689	216.88
237.922	201.88
238.156	227.88
238.39	212.88
238.624	227.88
238.858	220.88
239.091	229.88
239.325	222.88
239.559	216.88
239.793	234.88
240.027	248.88
240.26	244.88
240.494	244.88
240.728	256.88
240.961	268.88
241.195	278.88
241.429	298.88
241.662	301.88
241.896	326.88
242.13	396.88
242.363	522.88
242.597	624.88
242.83	606.88
243.064	632.88
243.298	727.88
243.531	598.88
243.765	390.88
243.998	326.88
244.232	326.88
244.465	291.88
244.699	277.88
244.932	272.88
245.166	284.88
245.399	284.88
245.633	303.88
245.866	307.88
246.099	285.88
246.333	296.88
246.566	293.88
246.8	281.88
247.033	288.88
247.266	302.88
247.5	298.88
247.733	297.88
247.966	322.88
248.2	326.88
248.433	381.88
248.666	421.88
248.899	381.88
249.133	341.88
249.366	370.88
249.599	382.88
249.832	416.88
250.066	414.88
250.299	382.88
250.532	337.88
250.765	329.88
250.998	322.88
251.231	330.88
251.465	339.88
251.698	342.88
251.931	352.88
252.164	332.88
252.397	336.88
252.63	348.88
252.863	365.88
253.096	343.88
253.329	324.88
253.562	330.88
253.795	356.88
254.028	359.88
254.261	368.88
254.494	378.88
254.727	407.88
254.96	500.88
255.193	484.88
255.426	404.88
255.659	367.88
255.892	364.88
256.124	372.88
256.357	384.88
256.59	400.88
256.823	407.88
257.056	451.88
257.289	522.88
257.521	558.88
257.754	488.88
257.987	429.88
258.22	388.88
258.452	388.88
258.685	391.88
258.918	407.88
259.151	422.88
259.383	441.88
259.616	513.88
259.849	516.88
260.081	458.88
260.314	437.88
260.547	415.88
260.779	405.88
261.012	431.88
261.244	415.88
261.477	421.88
261.71	432.88
261.942	448.88
262.175	462.88
262.407	461.88
262.64	478.88
262.872	484.88
263.105	489.88
263.337	526.88
263.57	560.88
263.802	553.88
264.035	600.88
264.267	566.88
264.499	602.88
264.732	633.88
264.964	612.88
265.197	634.88
265.429	614.88
265.661	621.88
265.894	640.88
266.126	749.88
266.358	789.88
266.591	767.88
266.823	678.88
267.055	640.88
267.287	585.88
267.52	543.88
267.752	551.88
267.984	555.88
268.216	557.88
268.448	535.88
268.681	545.88
268.913	534.88
269.145	549.88
269.377	541.88
269.609	547.88
269.841	541.88
270.073	551.88
270.306	651.88
270.538	868.88
270.77	1261.88
271.002	1538.88
271.234	1065.88
271.466	754.88
271.698	632.88
271.93	580.88
272.162	541.88
272.394	550.88
272.626	553.88
272.858	540.88
273.09	520.88
273.322	541.88
273.553	523.88
273.785	516.88
274.017	513.88
274.249	521.88
274.481	532.88
274.713	513.88
274.945	529.88
275.176	542.88
275.408	545.88
275.64	514.88
275.872	526.88
276.104	540.88
276.335	563.88
276.567	567.88
276.799	541.88
277.031	565.88
277.262	566.88
277.494	575.88
277.726	612.88
277.957	707.88
278.189	787.88
278.421	750.88
278.652	694.88
278.884	642.88
279.115	628.88
279.347	608.88
279.579	590.88
279.81	595.88
280.042	581.88
280.273	596.88
280.505	607.88
280.736	616.88
280.968	646.88
281.199	690.88
281.431	762.88
281.662	794.88
281.894	703.88
282.125	644.88
282.356	669.88
282.588	696.88
282.819	692.88
283.051	728.88
283.282	809.88
283.513	960.88
283.745	1409.88
283.976	2192.88
284.207	3129.88
284.439	2810.88
284.67	1688.88
284.901	1365.88
285.132	1321.88
285.364	1264.88
285.595	1004.88
285.826	935.88
286.057	1088.88
286.288	1491.88
286.52	1970.88
286.751	1796.88
286.982	1146.88
287.213	869.88
287.444	787.88
287.675	766.88
287.906	720.88
288.138	714.88
288.369	688.88
288.6	688.88
288.831	679.88
289.062	694.88
289.293	693.88
289.524	717.88
289.755	714.88
289.986	704.88
290.217	703.88
290.448	719.88
290.679	725.88
290.91	729.88
291.141	737.88
291.371	774.88
291.602	788.88
291.833	731.88
292.064	714.88
292.295	698.88
292.526	694.88
292.757	673.88
292.987	654.88
293.218	662.88
293.449	687.88
293.68	667.88
293.91	662.88
294.141	653.88
294.372	650.88
294.603	658.88
294.833	660.88
295.064	684.88
295.295	671.88
295.525	651.88
295.756	647.88
295.987	661.88
296.217	673.88
296.448	646.88
296.679	633.88
296.909	664.88
297.14	655.88
297.37	689.88
297.601	673.88
297.831	668.88
298.062	676.88
298.292	700.88
298.523	702.88
298.753	713.88
298.984	725.88
299.214	722.88
299.445	713.88
299.675	741.88
299.905	758.88
300.136	774.88
300.366	862.88
300.597	1078.88
300.827	1438.88
301.057	1928.88
301.288	1922.88
301.518	1245.88
301.748	1000.88
301.979	904.88
302.209	897.88
302.439	886.88
302.669	973.88
302.9	1144.88
303.13	1540.88
303.36	2248.88
303.59	2999.88
303.82	2642.88
304.051	1570.88
304.281	1114.88
304.511	956.88
304.741	912.88
304.971	846.88
305.201	833.88
305.431	814.88
305.661	807.88
305.891	789.88
306.121	778.88
306.352	748.88
306.582	794.88
306.812	776.88
307.042	785.88
307.272	764.88
307.502	737.88
307.731	784.88
307.961	766.88
308.191	766.88
308.421	746.88
308.651	778.88
308.881	764.88
309.111	754.88
309.341	718.88
309.571	768.88
309.8	784.88
310.03	792.88
310.26	772.88
310.49	785.88
310.72	790.88
310.949	791.88
311.179	789.88
311.409	783.88
311.639	801.88
311.868	809.88
312.098	812.88
312.328	837.88
312.557	807.88
312.787	798.88
313.017	799.88
313.246	838.88
313.476	860.88
313.706	884.88
313.935	889.88
314.165	937.88
314.394	970.88
314.624	953.88
314.853	896.88
315.083	887.88
315.312	888.88
315.542	896.88
315.771	917.88
316.001	901.88
316.23	921.88
316.46	1004.88
316.689	1074.88
316.919	1236.88
317.148	1766.88
317.377	2684.88
317.607	3984.88
317.836	4062.88
318.065	2397.88
318.295	1543.88
318.524	1264.88
318.753	1162.88
318.983	1046.88
319.212	1012.88
319.441	1000.88
319.67	991.88
319.9	976.88
320.129	946.88
320.358	961.88
320.587	974.88
320.816	950.88
321.046	951.88
321.275	954.88
321.504	977.88
321.733	977.88
321.962	997.88
322.191	1001.88
322.42	1009.88
322.649	1004.88
322.878	990.88
323.108	1002.88
323.337	1044.88
323.566	1043.88
323.795	1074.88
324.024	1104.88
324.253	1103.88
324.482	1110.88
324.71	1172.88
324.939	1253.88
325.168	1245.88
325.397	1307.88
325.626	1538.88
325.855	2116.88
326.084	3357.88
326.313	4893.88
326.542	5176.88
326.77	3282.88
326.999	2110.88
327.228	1824.88
327.457	1733.88
327.686	1772.88
327.914	1914.88
328.143	2157.88
328.372	2529.88
328.6	2732.88
328.829	2498.88
329.058	2205.88
329.287	1957.88
329.515	1820.88
329.744	1660.88
329.972	1553.88
330.201	1505.88
330.43	1439.88
330.658	1413.88
330.887	1418.88
331.115	1369.88
331.344	1356.88
331.572	1370.88
331.801	1377.88
332.03	1360.88
332.258	1414.88
332.486	1474.88
332.715	1651.88
332.943	1977.88
333.172	2416.88
333.4	2382.88
333.629	1903.88
333.857	1731.88
334.085	1741.88
334.314	1823.88
334.542	1969.88
334.771	2288.88
334.999	2640.88
335.227	3229.88
335.455	3628.88
335.684	3314.88
335.912	2848.88
336.14	2457.88
336.369	2208.88
336.597	2052.88
336.825	1870.88
337.053	1763.88
337.281	1692.88
337.51	1590.88
337.738	1551.88
337.966	1479.88
338.194	1446.88
338.422	1399.88
338.65	1371.88
338.878	1340.88
339.106	1308.88
339.334	1317.88
339.562	1283.88
339.79	1250.88
340.018	1240.88
340.246	1222.88
340.474	1240.88
340.702	1213.88
340.93	1217.88
341.158	1213.88
341.386	1223.88
341.614	1235.88
341.842	1196.88
342.07	1146.88
342.298	1161.88
342.526	1149.88
342.754	1117.88
342.981	1111.88
343.209	1145.88
343.437	1138.88
343.665	1156.88
343.893	1187.88
344.12	1146.88
344.348	1145.88
344.576	1100.88
344.804	1095.88
345.031	1094.88
345.259	1097.88
345.487	1058.88
345.714	1062.88
345.942	1068.88
346.17	1036.88
346.397	1071.88
346.625	1036.88
346.853	1065.88
347.08	1030.88
347.308	1051.88
347.535	1056.88
347.763	1029.88
347.99	1035.88
348.218	1021.88
348.445	1050.88
348.673	1050.88
348.9	1009.88
349.128	1045.88
349.355	1012.88
349.583	1017.88
349.81	1023.88
350.037	992.88
350.265	997.88
350.492	998.88
350.72	987.88
350.947	1003.88
351.174	1000.88
351.402	1020.88
351.629	995.88
351.856	1042.88
352.083	1016.88
352.311	981.88
352.538	997.88
352.765	1006.88
352.992	989.88
353.22	983.88
353.447	989.88
353.674	1006.88
353.901	997.88
354.128	1007.88
354.355	1006.88
354.583	998.88
354.81	990.88
355.037	1001.88
355.264	1028.88
355.491	999.88
355.718	1047.88
355.945	1063.88
356.172	1014.88
356.399	1011.88
356.626	1052.88
356.853	1040.88
357.08	1046.88
357.307	1038.88
357.534	1082.88
357.761	1069.88
357.988	1047.88
358.215	1066.88
358.441	1057.88
358.668	1069.88
358.895	1058.88
359.122	1024.88
359.349	1060.88
359.576	1071.88
359.802	1056.88
360.029	1066.88
360.256	1031.88
360.483	1049.88
360.709	1072.88
360.936	1085.88
361.163	1074.88
361.39	1069.88
361.616	1050.88
361.843	1090.88
362.07	1077.88
362.296	1056.88
362.523	1066.88
362.749	1079.88
362.976	1080.88
363.203	1070.88
363.429	1076.88
363.656	1074.88
363.882	1080.88
364.109	1076.88
364.335	1044.88
364.562	1081.88
364.788	1063.88
365.015	1076.88
365.241	1085.88
365.468	1100.88
365.694	1163.88
365.92	1136.88
366.147	1107.88
366.373	1096.88
366.599	1097.88
366.826	1111.88
367.052	1109.88
367.278	1080.88
367.505	1083.88
367.731	1114.88
367.957	1089.88
368.184	1092.88
368.41	1110.88
368.636	1090.88
368.862	1096.88
369.089	1089.88
369.315	1111.88
369.541	1140.88
369.767	1109.88
369.993	1113.88
370.219	1104.88
370.445	1106.88
370.672	1125.88
370.898	1108.88
371.124	1117.88
371.35	1110.88
371.576	1128.88
371.802	1153.88
372.028	1136.88
372.254	1160.88
372.48	1175.88
372.706	1172.88
372.932	1187.88
373.158	1163.88
373.384	1173.88
373.61	1176.88
373.835	1159.88
374.061	1166.88
374.287	1214.88
374.513	1162.88
374.739	1178.88
374.965	1219.88
375.191	1212.88
375.416	1207.88
375.642	1198.88
375.868	1220.88
376.094	1183.88
376.319	1204.88
376.545	1155.88
376.771	1167.88
376.997	1157.88
377.222	1152.88
377.448	1132.88
377.674	1156.88
377.899	1132.88
378.125	1163.88
378.35	1130.88
378.576	1148.88
378.802	1154.88
379.027	1187.88
379.253	1161.88
379.478	1271.88
379.704	1401.88
379.929	1962.88
380.155	2944.88
380.38	3049.88
380.606	1978.88
380.831	1417.88
381.057	1271.88
381.282	1223.88
381.507	1182.88
381.733	1188.88
381.958	1122.88
382.184	1154.88
382.409	1141.88
382.634	1143.88
382.86	1101.88
383.085	1156.88
383.31	1138.88
383.535	1153.88
383.761	1181.88
383.986	1155.88
384.211	1165.88
384.436	1162.88
384.662	1167.88
384.887	1196.88
385.112	1183.88
385.337	1197.88
385.562	1142.88
385.787	1166.88
386.013	1172.88
386.238	1198.88
386.463	1156.88
386.688	1157.88
386.913	1149.88
387.138	1162.88
387.363	1162.88
387.588	1155.88
387.813	1163.88
388.038	1186.88
388.263	1163.88
388.488	1157.88
388.713	1175.88
388.938	1177.88
389.163	1175.88
389.387	1162.88
389.612	1176.88
389.837	1166.88
390.062	1183.88
390.287	1225.88
390.512	1178.88
390.736	1216.88
390.961	1219.88
391.186	1186.88
391.411	1241.88
391.636	1236.88
391.86	1263.88
392.085	1255.88
392.31	1204.88
392.534	1226.88
392.759	1217.88
392.984	1236.88
393.208	1223.88
393.433	1300.88
393.658	1266.88
393.882	1212.88
394.107	1237.88
394.331	1199.88
394.556	1241.88
394.78	1229.88
395.005	1183.88
395.229	1219.88
395.454	1212.88
395.678	1224.88
395.903	1206.88
396.127	1252.88
396.352	1189.88
396.576	1222.88
396.801	1232.88
397.025	1269.88
397.249	1248.88
397.474	1249.88
397.698	1261.88
397.922	1258.88
398.147	1259.88
398.371	1245.88
398.595	1306.88
398.82	1299.88
399.044	1358.88
399.268	1439.88
399.492	1482.88
399.717	1567.88
399.941	1560.88
400.165	1517.88
400.389	1457.88
400.613	1373.88
400.837	1350.88
401.062	1307.88
401.286	1304.88
401.51	1298.88
401.734	1276.88
401.958	1316.88
402.182	1290.88
402.406	1330.88
402.63	1302.88
402.854	1321.88
403.078	1357.88
403.302	1347.88
403.526	1329.88
403.75	1358.88
403.974	1375.88
404.198	1368.88
404.422	1356.88
404.645	1354.88
404.869	1315.88
405.093	1326.88
405.317	1320.88
405.541	1360.88
405.765	1355.88
405.988	1382.88
406.212	1361.88
406.436	1363.88
406.66	1393.88
406.883	1404.88
407.107	1427.88
407.331	1468.88
407.555	1471.88
407.778	1437.88
408.002	1445.88
408.226	1425.88
408.449	1440.88
408.673	1358.88
408.896	1378.88
409.12	1376.88
409.344	1367.88
409.567	1343.88
409.791	1315.88
410.014	1369.88
410.238	1301.88
410.461	1327.88
410.685	1320.88
410.908	1313.88
411.132	1327.88
411.355	1283.88
411.578	1281.88
411.802	1297.88
412.025	1279.88
412.249	1315.88
412.472	1299.88
412.695	1326.88
412.919	1269.88
413.142	1263.88
413.365	1260.88
413.589	1260.88
413.812	1255.88
414.035	1283.88
414.258	1263.88
414.482	1298.88
414.705	1302.88
414.928	1279.88
415.151	1272.88
415.374	1269.88
415.597	1294.88
415.821	1237.88
416.044	1242.88
416.267	1216.88
416.49	1220.88
416.713	1236.88
416.936	1253.88
417.159	1233.88
417.382	1212.88
417.605	1200.88
417.828	1240.88
418.051	1250.88
418.274	1249.88
418.497	1211.88
418.72	1313.88
418.943	1264.88
419.166	1305.88
419.389	1363.88
419.611	1336.88
419.834	1323.88
420.057	1290.88
420.28	1286.88
420.503	1216.88
420.726	1225.88
420.948	1230.88
421.171	1204.88
421.394	1234.88
421.617	1237.88
421.839	1266.88
422.062	1259.88
422.285	1216.88
422.507	1273.88
422.73	1288.88
422.953	1280.88
423.175	1279.88
423.398	1277.88
423.621	1245.88
423.843	1239.88
424.066	1240.88
424.288	1233.88
424.511	1221.88
424.733	1222.88
424.956	1204.88
425.178	1236.88
425.401	1232.88
425.623	1221.88
425.846	1184.88
426.068	1198.88
426.291	1200.88
426.513	1166.88
426.735	1178.88
426.958	1168.88
427.18	1167.88
427.402	1186.88
427.625	1178.88
427.847	1148.88
428.069	1149.88
428.292	1173.88
428.514	1151.88
428.736	1141.88
428.958	1133.88
429.181	1127.88
429.403	1134.88
429.625	1170.88
429.847	1154.88
430.069	1148.88
430.292	1181.88
430.514	1198.88
430.736	1224.88
430.958	1168.88
431.18	1150.88
431.402	1147.88
431.624	1120.88
431.846	1106.88
432.068	1104.88
432.29	1123.88
432.512	1128.88
432.734	1140.88
432.956	1176.88
433.178	1156.88
433.4	1125.88
433.622	1185.88
433.844	1171.88
434.066	1119.88
434.287	1141.88
434.509	1137.88
434.731	1188.88
434.953	1148.88
435.175	1177.88
435.397	1178.88
435.618	1156.88
435.84	1134.88
436.062	1106.88
436.284	1168.88
436.505	1130.88
436.727	1154.88
436.949	1114.88
437.17	1115.88
437.392	1108.88
437.614	1106.88
437.835	1095.88
438.057	1091.88
438.278	1081.88
438.5	1122.88
438.721	1127.88
438.943	1133.88
439.165	1160.88
439.386	1160.88
439.608	1198.88
439.829	1194.88
440.05	1212.88
440.272	1223.88
440.493	1190.88
440.715	1164.88
440.936	1187.88
441.158	1191.88
441.379	1213.88
441.6	1239.88
441.822	1249.88
442.043	1316.88
442.264	1358.88
442.486	1264.88
442.707	1228.88
442.928	1213.88
443.149	1184.88
443.371	1207.88
443.592	1218.88
443.813	1209.88
444.034	1223.88
444.255	1243.88
444.476	1276.88
444.698	1308.88
444.919	1291.88
445.14	1398.88
445.361	1300.88
445.582	1286.88
445.803	1215.88
446.024	1198.88
446.245	1220.88
446.466	1198.88
446.687	1176.88
446.908	1206.88
447.129	1197.88
447.35	1203.88
447.571	1162.88
447.792	1160.88
448.013	1145.88
448.234	1118.88
448.455	1102.88
448.675	1119.88
448.896	1162.88
449.117	1198.88
449.338	1273.88
449.559	1302.88
449.779	1192.88
450	1075.88
450.221	1109.88
450.442	1097.88
450.662	1094.88
450.883	1100.88
451.104	1096.88
451.324	1076.88
451.545	1089.88
451.766	1092.88
451.986	1102.88
452.207	1147.88
452.428	1389.88
452.648	1870.88
452.869	1632.88
453.089	1233.88
453.31	1207.88
453.53	1216.88
453.751	1266.88
453.971	1263.88
454.192	1311.88
454.412	1127.88
454.633	1090.88
454.853	1052.88
455.073	1072.88
455.294	1042.88
455.514	1028.88
455.734	1023.88
455.955	1046.88
456.175	1052.88
456.395	1008.88
456.616	1058.88
456.836	1048.88
457.056	1032.88
457.276	1036.88
457.497	1105.88
457.717	1124.88
457.937	1064.88
458.157	1074.88
458.377	1102.88
458.598	1103.88
458.818	1120.88
459.038	1084.88
459.258	1112.88
459.478	1122.88
459.698	1121.88
459.918	1142.88
460.138	1180.88
460.358	1223.88
460.578	1212.88
460.798	1213.88
461.018	1247.88
461.238	1232.88
461.458	1239.88
461.678	1216.88
461.898	1277.88
462.118	1296.88
462.338	1335.88
462.558	1311.88
462.777	1338.88
462.997	1372.88
463.217	1430.88
463.437	1444.88
463.657	1481.88
463.876	1418.88
464.096	1399.88
464.316	1378.88
464.536	1353.88
464.755	1365.88
464.975	1292.88
465.195	1290.88
465.414	1212.88
465.634	1181.88
465.854	1165.88
466.073	1167.88
466.293	1151.88
466.512	1165.88
466.732	1143.88
466.951	1179.88
467.171	1284.88
467.391	1232.88
467.61	1178.88
467.829	1150.88
468.049	1139.88
468.268	1113.88
468.488	1097.88
468.707	1138.88
468.927	1089.88
469.146	1148.88
469.365	1123.88
469.585	1156.88
469.804	1196.88
470.023	1152.88
470.243	1170.88
470.462	1186.88
470.681	1264.88
470.901	1369.88
471.12	1577.88
471.339	1568.88
471.558	1317.88
471.777	1223.88
471.997	1204.88
472.216	1152.88
472.435	1124.88
472.654	1101.88
472.873	1106.88
473.092	1126.88
473.311	1106.88
473.53	1109.88
473.749	1164.88
473.968	1174.88
474.187	1155.88
474.406	1098.88
474.625	1119.88
474.844	1132.88
475.063	1117.88
475.282	1098.88
475.501	1083.88
475.72	1120.88
475.939	1137.88
476.158	1152.88
476.377	1185.88
476.596	1190.88
476.814	1170.88
477.033	1146.88
477.252	1172.88
477.471	1196.88
477.69	1220.88
477.908	1236.88
478.127	1261.88
478.346	1276.88
478.564	1309.88
478.783	1300.88
479.002	1312.88
479.22	1326.88
479.439	1340.88
479.658	1358.88
479.876	1294.88
480.095	1351.88
480.313	1348.88
480.532	1364.88
480.751	1326.88
480.969	1301.88
481.188	1301.88
481.406	1321.88
481.624	1306.88
481.843	1314.88
482.061	1334.88
482.28	1300.88
482.498	1303.88
482.717	1305.88
482.935	1334.88
483.153	1383.88
483.372	1364.88
483.59	1381.88
483.808	1423.88
484.027	1436.88
484.245	1480.88
484.463	1654.88
484.681	1845.88
484.9	1723.88
485.118	1618.88
485.336	1556.88
485.554	1561.88
485.772	1630.88
485.99	1893.88
486.209	1964.88
486.427	1687.88
486.645	1520.88
486.863	1462.88
487.081	1462.88
487.299	1439.88
487.517	1407.88
487.735	1435.88
487.953	1462.88
488.171	1467.88
488.389	1466.88
488.607	1416.88
488.825	1372.88
489.043	1360.88
489.261	1336.88
489.479	1344.88
489.696	1414.88
489.914	1372.88
490.132	1404.88
490.35	1403.88
490.568	1416.88
490.786	1406.88
491.003	1445.88
