Data from SnStandardFlinnAPT0064_QswitchEnergy10_LIBS07252019.E.O._I.C._HRD10591_15-28-40-974.txt Node
Date: Thu Jul 25 15:28:40 EDT 2019
User: cochatt
Spectrometer: HR+D1059
Trigger mode: 1
Integration Time (sec): 1.000000E-1
Scans to average: 1
Electric dark correction enabled: true
Nonlinearity correction enabled: false
Boxcar width: 0
XAxis mode: Wavelengths
Number of Pixels in Spectrum: 2048
>>>>>Begin Spectral Data<<<<<
223.165	-2.75
223.4	-2.75
223.635	-2.75
223.869	-13.75
224.104	-20.75
224.338	-19.75
224.573	-8.75
224.808	-9.75
225.042	-18.75
225.277	-19.75
225.511	-11.75
225.746	18.25
225.98	2.25
226.215	17.25
226.449	7.25
226.683	31.25
226.918	15.25
227.152	34.25
227.387	45.25
227.621	42.25
227.856	40.25
228.09	36.25
228.324	54.25
228.559	57.25
228.793	58.25
229.027	75.25
229.262	85.25
229.496	71.25
229.73	74.25
229.964	74.25
230.199	74.25
230.433	82.25
230.667	83.25
230.901	75.25
231.136	73.25
231.37	88.25
231.604	88.25
231.838	116.25
232.072	121.25
232.306	130.25
232.541	101.25
232.775	64.25
233.009	92.25
233.243	97.25
233.477	96.25
233.711	111.25
233.945	135.25
234.179	98.25
234.413	90.25
234.647	83.25
234.881	104.25
235.115	84.25
235.349	104.25
235.583	121.25
235.817	140.25
236.051	125.25
236.285	111.25
236.519	99.25
236.753	95.25
236.987	83.25
237.221	93.25
237.455	91.25
237.689	91.25
237.922	77.25
238.156	100.25
238.39	84.25
238.624	73.25
238.858	92.25
239.091	82.25
239.325	86.25
239.559	92.25
239.793	95.25
240.027	83.25
240.26	78.25
240.494	94.25
240.728	81.25
240.961	79.25
241.195	93.25
241.429	89.25
241.662	75.25
241.896	96.25
242.13	94.25
242.363	141.25
242.597	180.25
242.83	149.25
243.064	145.25
243.298	185.25
243.531	170.25
243.765	96.25
243.998	95.25
244.232	80.25
244.465	80.25
244.699	82.25
244.932	77.25
245.166	93.25
245.399	92.25
245.633	85.25
245.866	84.25
246.099	104.25
246.333	80.25
246.566	77.25
246.8	76.25
247.033	75.25
247.266	84.25
247.5	96.25
247.733	93.25
247.966	88.25
248.2	95.25
248.433	105.25
248.666	130.25
248.899	120.25
249.133	95.25
249.366	95.25
249.599	115.25
249.832	118.25
250.066	146.25
250.299	113.25
250.532	90.25
250.765	86.25
250.998	81.25
251.231	69.25
251.465	74.25
251.698	83.25
251.931	89.25
252.164	70.25
252.397	105.25
252.63	97.25
252.863	97.25
253.096	86.25
253.329	104.25
253.562	104.25
253.795	94.25
254.028	91.25
254.261	91.25
254.494	110.25
254.727	122.25
254.96	169.25
255.193	155.25
255.426	89.25
255.659	94.25
255.892	120.25
256.124	98.25
256.357	99.25
256.59	92.25
256.823	103.25
257.056	105.25
257.289	164.25
257.521	195.25
257.754	139.25
257.987	96.25
258.22	86.25
258.452	77.25
258.685	103.25
258.918	88.25
259.151	79.25
259.383	117.25
259.616	153.25
259.849	160.25
260.081	123.25
260.314	86.25
260.547	95.25
260.779	87.25
261.012	99.25
261.244	78.25
261.477	99.25
261.71	85.25
261.942	90.25
262.175	88.25
262.407	80.25
262.64	84.25
262.872	86.25
263.105	108.25
263.337	68.25
263.57	89.25
263.802	79.25
264.035	98.25
264.267	94.25
264.499	75.25
264.732	99.25
264.964	95.25
265.197	101.25
265.429	88.25
265.661	78.25
265.894	112.25
266.126	150.25
266.358	149.25
266.591	165.25
266.823	109.25
267.055	98.25
267.287	90.25
267.52	84.25
267.752	94.25
267.984	91.25
268.216	104.25
268.448	107.25
268.681	98.25
268.913	104.25
269.145	86.25
269.377	94.25
269.609	108.25
269.841	93.25
270.073	118.25
270.306	126.25
270.538	220.25
270.77	352.25
271.002	423.25
271.234	203.25
271.466	119.25
271.698	90.25
271.93	109.25
272.162	99.25
272.394	88.25
272.626	88.25
272.858	100.25
273.09	91.25
273.322	82.25
273.553	93.25
273.785	77.25
274.017	101.25
274.249	84.25
274.481	101.25
274.713	97.25
274.945	94.25
275.176	89.25
275.408	89.25
275.64	90.25
275.872	98.25
276.104	110.25
276.335	104.25
276.567	112.25
276.799	98.25
277.031	93.25
277.262	96.25
277.494	101.25
277.726	134.25
277.957	212.25
278.189	300.25
278.421	278.25
278.652	227.25
278.884	211.25
279.115	156.25
279.347	127.25
279.579	93.25
279.81	107.25
280.042	96.25
280.273	109.25
280.505	106.25
280.736	105.25
280.968	139.25
281.199	196.25
281.431	297.25
281.662	301.25
281.894	162.25
282.125	116.25
282.356	114.25
282.588	121.25
282.819	123.25
283.051	128.25
283.282	164.25
283.513	210.25
283.745	353.25
283.976	613.25
284.207	871.25
284.439	687.25
284.67	329.25
284.901	282.25
285.132	392.25
285.364	407.25
285.595	265.25
285.826	192.25
286.057	288.25
286.288	450.25
286.52	706.25
286.751	571.25
286.982	229.25
287.213	144.25
287.444	128.25
287.675	126.25
287.906	107.25
288.138	93.25
288.369	103.25
288.6	96.25
288.831	91.25
289.062	109.25
289.293	96.25
289.524	101.25
289.755	93.25
289.986	83.25
290.217	94.25
290.448	116.25
290.679	120.25
290.91	145.25
291.141	182.25
291.371	275.25
291.602	339.25
291.833	218.25
292.064	116.25
292.295	107.25
292.526	104.25
292.757	102.25
292.987	98.25
293.218	86.25
293.449	90.25
293.68	89.25
293.91	101.25
294.141	105.25
294.372	100.25
294.603	95.25
294.833	85.25
295.064	85.25
295.295	101.25
295.525	90.25
295.756	94.25
295.987	99.25
296.217	79.25
296.448	83.25
296.679	89.25
296.909	95.25
297.14	105.25
297.37	97.25
297.601	101.25
297.831	86.25
298.062	93.25
298.292	98.25
298.523	115.25
298.753	112.25
298.984	112.25
299.214	115.25
299.445	112.25
299.675	112.25
299.905	128.25
300.136	139.25
300.366	178.25
300.597	317.25
300.827	512.25
301.057	789.25
301.288	698.25
301.518	271.25
301.748	159.25
301.979	150.25
302.209	158.25
302.439	155.25
302.669	187.25
302.9	316.25
303.13	585.25
303.36	1003.25
303.59	1371.25
303.82	964.25
304.051	333.25
304.281	198.25
304.511	147.25
304.741	122.25
304.971	116.25
305.201	130.25
305.431	115.25
305.661	101.25
305.891	103.25
306.121	106.25
306.352	108.25
306.582	115.25
306.812	114.25
307.042	124.25
307.272	115.25
307.502	107.25
307.731	110.25
307.961	108.25
308.191	115.25
308.421	108.25
308.651	115.25
308.881	108.25
309.111	93.25
309.341	101.25
309.571	104.25
309.8	109.25
310.03	120.25
310.26	94.25
310.49	124.25
310.72	128.25
310.949	116.25
311.179	115.25
311.409	110.25
311.639	128.25
311.868	117.25
312.098	118.25
312.328	124.25
312.557	120.25
312.787	106.25
313.017	120.25
313.246	130.25
313.476	134.25
313.706	137.25
313.935	187.25
314.165	235.25
314.394	246.25
314.624	197.25
314.853	139.25
315.083	144.25
315.312	139.25
315.542	137.25
315.771	134.25
316.001	160.25
316.23	153.25
316.46	149.25
316.689	204.25
316.919	279.25
317.148	560.25
317.377	1060.25
317.607	1738.25
317.836	1594.25
318.065	620.25
318.295	245.25
318.524	176.25
318.753	154.25
318.983	141.25
319.212	137.25
319.441	136.25
319.67	140.25
319.9	112.25
320.129	131.25
320.358	130.25
320.587	124.25
320.816	127.25
321.046	142.25
321.275	140.25
321.504	142.25
321.733	168.25
321.962	188.25
322.191	182.25
322.42	151.25
322.649	140.25
322.878	135.25
323.108	124.25
323.337	140.25
323.566	132.25
323.795	114.25
324.024	136.25
324.253	148.25
324.482	182.25
324.71	249.25
324.939	289.25
325.168	267.25
325.397	221.25
325.626	294.25
325.855	548.25
326.084	1093.25
326.313	1811.25
326.542	1748.25
326.77	692.25
326.999	300.25
327.228	227.25
327.457	273.25
327.686	246.25
327.914	180.25
328.143	173.25
328.372	141.25
328.6	137.25
328.829	131.25
329.058	126.25
329.287	134.25
329.515	116.25
329.744	121.25
329.972	115.25
330.201	121.25
330.43	115.25
330.658	121.25
330.887	126.25
331.115	121.25
331.344	126.25
331.572	128.25
331.801	145.25
332.03	135.25
332.258	139.25
332.486	197.25
332.715	328.25
332.943	563.25
333.172	868.25
333.4	727.25
333.629	284.25
333.857	156.25
334.085	146.25
334.314	130.25
334.542	114.25
334.771	141.25
334.999	125.25
335.227	147.25
335.455	132.25
335.684	118.25
335.912	140.25
336.14	127.25
336.369	118.25
336.597	126.25
336.825	118.25
337.053	113.25
337.281	126.25
337.51	126.25
337.738	117.25
337.966	120.25
338.194	120.25
338.422	118.25
338.65	113.25
338.878	121.25
339.106	115.25
339.334	142.25
339.562	139.25
339.79	126.25
340.018	126.25
340.246	118.25
340.474	120.25
340.702	108.25
340.93	106.25
341.158	120.25
341.386	127.25
341.614	138.25
341.842	121.25
342.07	125.25
342.298	138.25
342.526	128.25
342.754	125.25
342.981	119.25
343.209	126.25
343.437	127.25
343.665	125.25
343.893	112.25
344.12	123.25
344.348	138.25
344.576	103.25
344.804	115.25
345.031	119.25
345.259	121.25
345.487	132.25
345.714	128.25
345.942	122.25
346.17	110.25
346.397	113.25
346.625	114.25
346.853	108.25
347.08	104.25
347.308	101.25
347.535	108.25
347.763	116.25
347.99	109.25
348.218	120.25
348.445	128.25
348.673	130.25
348.9	127.25
349.128	134.25
349.355	132.25
349.583	124.25
349.81	113.25
350.037	116.25
350.265	125.25
350.492	117.25
350.72	105.25
350.947	117.25
351.174	124.25
351.402	117.25
351.629	125.25
351.856	123.25
352.083	110.25
352.311	105.25
352.538	126.25
352.765	123.25
352.992	118.25
353.22	120.25
353.447	107.25
353.674	114.25
353.901	104.25
354.128	109.25
354.355	103.25
354.583	106.25
354.81	104.25
355.037	106.25
355.264	120.25
355.491	108.25
355.718	97.25
355.945	113.25
356.172	119.25
356.399	121.25
356.626	117.25
356.853	118.25
357.08	86.25
357.307	120.25
357.534	119.25
357.761	106.25
357.988	112.25
358.215	122.25
358.441	107.25
358.668	120.25
358.895	120.25
359.122	119.25
359.349	99.25
359.576	138.25
359.802	114.25
360.029	122.25
360.256	120.25
360.483	129.25
360.709	126.25
360.936	117.25
361.163	116.25
361.39	109.25
361.616	114.25
361.843	101.25
362.07	116.25
362.296	122.25
362.523	125.25
362.749	111.25
362.976	118.25
363.203	116.25
363.429	115.25
363.656	128.25
363.882	116.25
364.109	130.25
364.335	112.25
364.562	112.25
364.788	113.25
365.015	123.25
365.241	150.25
365.468	231.25
365.694	299.25
365.92	235.25
366.147	133.25
366.373	124.25
366.599	106.25
366.826	90.25
367.052	98.25
367.278	101.25
367.505	90.25
367.731	106.25
367.957	110.25
368.184	122.25
368.41	136.25
368.636	142.25
368.862	118.25
369.089	99.25
369.315	108.25
369.541	109.25
369.767	108.25
369.993	125.25
370.219	126.25
370.445	121.25
370.672	114.25
370.898	105.25
371.124	99.25
371.35	117.25
371.576	106.25
371.802	114.25
372.028	120.25
372.254	128.25
372.48	123.25
372.706	124.25
372.932	108.25
373.158	107.25
373.384	124.25
373.61	126.25
373.835	118.25
374.061	121.25
374.287	116.25
374.513	104.25
374.739	119.25
374.965	121.25
375.191	120.25
375.416	122.25
375.642	110.25
375.868	120.25
376.094	120.25
376.319	115.25
376.545	112.25
376.771	112.25
376.997	118.25
377.222	108.25
377.448	128.25
377.674	116.25
377.899	121.25
378.125	130.25
378.35	131.25
378.576	124.25
378.802	126.25
379.027	130.25
379.253	156.25
379.478	208.25
379.704	384.25
379.929	882.25
380.155	1798.25
380.38	1837.25
380.606	587.25
380.831	226.25
381.057	137.25
381.282	124.25
381.507	118.25
381.733	139.25
381.958	120.25
382.184	110.25
382.409	112.25
382.634	113.25
382.86	129.25
383.085	93.25
383.31	121.25
383.535	109.25
383.761	116.25
383.986	121.25
384.211	107.25
384.436	122.25
384.662	116.25
384.887	114.25
385.112	116.25
385.337	112.25
385.562	113.25
385.787	113.25
386.013	119.25
386.238	117.25
386.463	119.25
386.688	115.25
386.913	124.25
387.138	118.25
387.363	107.25
387.588	123.25
387.813	112.25
388.038	116.25
388.263	119.25
388.488	103.25
388.713	117.25
388.938	112.25
389.163	106.25
389.387	102.25
389.612	112.25
389.837	114.25
390.062	100.25
390.287	128.25
390.512	104.25
390.736	116.25
390.961	114.25
391.186	101.25
391.411	100.25
391.636	110.25
391.86	101.25
392.085	103.25
392.31	102.25
392.534	96.25
392.759	116.25
392.984	115.25
393.208	130.25
393.433	165.25
393.658	162.25
393.882	99.25
394.107	94.25
394.331	116.25
394.556	111.25
394.78	99.25
395.005	112.25
395.229	100.25
395.454	93.25
395.678	93.25
395.903	110.25
396.127	119.25
396.352	117.25
396.576	103.25
396.801	136.25
397.025	131.25
397.249	105.25
397.474	124.25
397.698	96.25
397.922	90.25
398.147	112.25
398.371	100.25
398.595	104.25
398.82	100.25
399.044	93.25
399.268	109.25
399.492	107.25
399.717	106.25
399.941	105.25
400.165	108.25
400.389	90.25
400.613	99.25
400.837	98.25
401.062	108.25
401.286	93.25
401.51	99.25
401.734	107.25
401.958	97.25
402.182	92.25
402.406	104.25
402.63	90.25
402.854	77.25
403.078	102.25
403.302	108.25
403.526	95.25
403.75	105.25
403.974	92.25
404.198	109.25
404.422	119.25
404.645	109.25
404.869	95.25
405.093	114.25
405.317	114.25
405.541	108.25
405.765	138.25
405.988	163.25
406.212	128.25
406.436	104.25
406.66	113.25
406.883	93.25
407.107	113.25
407.331	88.25
407.555	91.25
407.778	89.25
408.002	98.25
408.226	103.25
408.449	112.25
408.673	106.25
408.896	98.25
409.12	92.25
409.344	96.25
409.567	100.25
409.791	102.25
410.014	110.25
410.238	107.25
410.461	109.25
410.685	102.25
410.908	118.25
411.132	121.25
411.355	103.25
411.578	102.25
411.802	99.25
412.025	128.25
412.249	97.25
412.472	92.25
412.695	93.25
412.919	117.25
413.142	100.25
413.365	103.25
413.589	112.25
413.812	122.25
414.035	124.25
414.258	110.25
414.482	114.25
414.705	101.25
414.928	109.25
415.151	99.25
415.374	98.25
415.597	94.25
415.821	95.25
416.044	117.25
416.267	99.25
416.49	109.25
416.713	102.25
416.936	102.25
417.159	97.25
417.382	100.25
417.605	94.25
417.828	100.25
418.051	88.25
418.274	97.25
418.497	108.25
418.72	99.25
418.943	98.25
419.166	118.25
419.389	106.25
419.611	129.25
419.834	102.25
420.057	105.25
420.28	109.25
420.503	107.25
420.726	106.25
420.948	104.25
421.171	95.25
421.394	100.25
421.617	100.25
421.839	98.25
422.062	97.25
422.285	97.25
422.507	101.25
422.73	138.25
422.953	134.25
423.175	110.25
423.398	104.25
423.621	112.25
423.843	102.25
424.066	98.25
424.288	90.25
424.511	112.25
424.733	107.25
424.956	102.25
425.178	95.25
425.401	90.25
425.623	100.25
425.846	94.25
426.068	108.25
426.291	100.25
426.513	111.25
426.735	92.25
426.958	94.25
427.18	87.25
427.402	92.25
427.625	100.25
427.847	98.25
428.069	116.25
428.292	108.25
428.514	106.25
428.736	107.25
428.958	82.25
429.181	93.25
429.403	93.25
429.625	107.25
429.847	123.25
430.069	105.25
430.292	100.25
430.514	112.25
430.736	90.25
430.958	103.25
431.18	81.25
431.402	97.25
431.624	102.25
431.846	96.25
432.068	109.25
432.29	99.25
432.512	93.25
432.734	101.25
432.956	99.25
433.178	86.25
433.4	95.25
433.622	89.25
433.844	99.25
434.066	102.25
434.287	95.25
434.509	88.25
434.731	92.25
434.953	104.25
435.175	99.25
435.397	92.25
435.618	92.25
435.84	116.25
436.062	108.25
436.284	98.25
436.505	101.25
436.727	101.25
436.949	93.25
437.17	99.25
437.392	115.25
437.614	96.25
437.835	102.25
438.057	89.25
438.278	88.25
438.5	106.25
438.721	100.25
438.943	100.25
439.165	106.25
439.386	116.25
439.608	106.25
439.829	105.25
440.05	114.25
440.272	128.25
440.493	110.25
440.715	120.25
440.936	105.25
441.158	94.25
441.379	97.25
441.6	104.25
441.822	118.25
442.043	116.25
442.264	140.25
442.486	117.25
442.707	108.25
442.928	84.25
443.149	101.25
443.371	99.25
443.592	96.25
443.813	103.25
444.034	112.25
444.255	98.25
444.476	97.25
444.698	90.25
444.919	111.25
445.14	177.25
445.361	126.25
445.582	106.25
445.803	103.25
446.024	90.25
446.245	97.25
446.466	101.25
446.687	103.25
446.908	105.25
447.129	115.25
447.35	100.25
447.571	102.25
447.792	121.25
448.013	108.25
448.234	94.25
448.455	86.25
448.675	105.25
448.896	114.25
449.117	120.25
449.338	141.25
449.559	156.25
449.779	129.25
450	103.25
450.221	118.25
450.442	116.25
450.662	126.25
450.883	113.25
451.104	105.25
451.324	143.25
451.545	123.25
451.766	137.25
451.986	157.25
452.207	230.25
452.428	634.25
452.648	1557.25
452.869	860.25
453.089	222.25
453.31	134.25
453.53	135.25
453.751	152.25
453.971	159.25
454.192	162.25
454.412	129.25
454.633	101.25
454.853	102.25
455.073	103.25
455.294	101.25
455.514	104.25
455.734	94.25
455.955	109.25
456.175	107.25
456.395	89.25
456.616	105.25
456.836	99.25
457.056	91.25
457.276	118.25
457.497	128.25
457.717	122.25
457.937	106.25
458.157	93.25
458.377	93.25
458.598	76.25
458.818	94.25
459.038	100.25
459.258	83.25
459.478	96.25
459.698	90.25
459.918	76.25
460.138	97.25
460.358	82.25
460.578	89.25
460.798	102.25
461.018	89.25
461.238	100.25
461.458	105.25
461.678	89.25
461.898	87.25
462.118	89.25
462.338	99.25
462.558	114.25
462.777	96.25
462.997	101.25
463.217	117.25
463.437	140.25
463.657	188.25
463.876	199.25
464.096	130.25
464.316	101.25
464.536	84.25
464.755	88.25
464.975	102.25
465.195	87.25
465.414	93.25
465.634	95.25
465.854	94.25
466.073	100.25
466.293	99.25
466.512	93.25
466.732	103.25
466.951	120.25
467.171	167.25
467.391	151.25
467.61	107.25
467.829	106.25
468.049	113.25
468.268	84.25
468.488	99.25
468.707	107.25
468.927	101.25
469.146	100.25
469.365	98.25
469.585	111.25
469.804	109.25
470.023	108.25
470.243	96.25
470.462	105.25
470.681	124.25
470.901	146.25
471.12	201.25
471.339	213.25
471.558	138.25
471.777	112.25
471.997	87.25
472.216	108.25
472.435	104.25
472.654	97.25
472.873	108.25
473.092	115.25
473.311	97.25
473.53	108.25
473.749	104.25
473.968	114.25
474.187	88.25
474.406	101.25
474.625	94.25
474.844	97.25
475.063	108.25
475.282	84.25
475.501	97.25
475.72	99.25
475.939	96.25
476.158	108.25
476.377	114.25
476.596	116.25
476.814	89.25
477.033	91.25
477.252	103.25
477.471	101.25
477.69	105.25
477.908	97.25
478.127	112.25
478.346	90.25
478.564	97.25
478.783	104.25
479.002	104.25
479.22	106.25
479.439	105.25
479.658	89.25
479.876	102.25
480.095	91.25
480.313	102.25
480.532	109.25
480.751	105.25
480.969	103.25
481.188	84.25
481.406	87.25
481.624	117.25
481.843	120.25
482.061	120.25
482.28	83.25
482.498	113.25
482.717	95.25
482.935	100.25
483.153	114.25
483.372	101.25
483.59	101.25
483.808	100.25
484.027	97.25
484.245	138.25
484.463	198.25
484.681	243.25
484.9	171.25
485.118	122.25
485.336	117.25
485.554	125.25
485.772	137.25
485.99	193.25
486.209	288.25
486.427	174.25
486.645	135.25
486.863	122.25
487.081	98.25
487.299	102.25
487.517	103.25
487.735	109.25
487.953	97.25
488.171	105.25
488.389	114.25
488.607	114.25
488.825	106.25
489.043	101.25
489.261	114.25
489.479	99.25
489.696	102.25
489.914	103.25
490.132	103.25
490.35	94.25
490.568	99.25
490.786	113.25
491.003	105.25
491.221	118.25
491.439	117.25
491.657	117.25
491.874	115.25
492.092	102.25
492.31	112.25
492.527	116.25
492.745	104.25
492.963	104.25
493.18	112.25
493.398	104.25
493.615	101.25
493.833	93.25
494.05	108.25
494.268	107.25
494.485	108.25
494.703	109.25
494.92	104.25
495.138	106.25
495.355	96.25
495.573	116.25
495.79	109.25
496.008	118.25
496.225	112.25
496.442	94.25
496.66	136.25
496.877	156.25
497.094	169.25
497.312	123.25
497.529	110.25
497.746	108.25
497.963	106.25
498.181	102.25
498.398	106.25
498.615	116.25
498.832	107.25
499.049	114.25
499.267	151.25
499.484	161.25
499.701	122.25
499.918	101.25
500.135	106.25
500.352	122.25
500.569	111.25
500.786	100.25
501.003	105.25
501.22	99.25
501.437	116.25
501.654	106.25
501.871	100.25
502.088	101.25
502.305	89.25
502.522	104.25
502.739	99.25
502.956	95.25
503.172	96.25
503.389	99.25
503.606	100.25
503.823	108.25
504.04	110.25
504.256	114.25
504.473	112.25
504.69	108.25
504.907	120.25
505.123	129.25
505.34	120.25
505.557	132.25
505.773	113.25
505.99	98.25
506.207	97.25
506.423	100.25
