Data from SnStandardFlinnAPT0064_LampEnergy5.5_LIBS07252019.E.O._I.C._HRD10591_15-17-38-492.txt Node
Date: Thu Jul 25 15:17:38 EDT 2019
User: cochatt
Spectrometer: HR+D1059
Trigger mode: 1
Integration Time (sec): 1.000000E-1
Scans to average: 1
Electric dark correction enabled: true
Nonlinearity correction enabled: false
Boxcar width: 0
XAxis mode: Wavelengths
Number of Pixels in Spectrum: 2048
>>>>>Begin Spectral Data<<<<<
223.165	-6.75
223.4	-6.75
223.635	-6.75
223.869	-14.75
224.104	-13.75
224.338	-20.75
224.573	-8.75
224.808	-14.75
225.042	-14.75
225.277	5.25
225.511	-24.75
225.746	11.25
225.98	-1.75
226.215	3.25
226.449	12.25
226.683	16.25
226.918	36.25
227.152	36.25
227.387	36.25
227.621	30.25
227.856	33.25
228.09	47.25
228.324	46.25
228.559	56.25
228.793	103.25
229.027	163.25
229.262	174.25
229.496	157.25
229.73	160.25
229.964	157.25
230.199	170.25
230.433	171.25
230.667	150.25
230.901	188.25
231.136	180.25
231.37	192.25
231.604	198.25
231.838	241.25
232.072	249.25
232.306	268.25
232.541	224.25
232.775	205.25
233.009	203.25
233.243	207.25
233.477	239.25
233.711	242.25
233.945	283.25
234.179	247.25
234.413	223.25
234.647	220.25
234.881	226.25
235.115	251.25
235.349	291.25
235.583	364.25
235.817	477.25
236.051	458.25
236.285	307.25
236.519	246.25
236.753	226.25
236.987	240.25
237.221	256.25
237.455	254.25
237.689	217.25
237.922	229.25
238.156	235.25
238.39	232.25
238.624	246.25
238.858	215.25
239.091	226.25
239.325	235.25
239.559	252.25
239.793	235.25
240.027	235.25
240.26	257.25
240.494	267.25
240.728	284.25
240.961	274.25
241.195	291.25
241.429	304.25
241.662	306.25
241.896	362.25
242.13	402.25
242.363	562.25
242.597	724.25
242.83	658.25
243.064	672.25
243.298	774.25
243.531	648.25
243.765	426.25
243.998	358.25
244.232	314.25
244.465	297.25
244.699	306.25
244.932	314.25
245.166	301.25
245.399	308.25
245.633	308.25
245.866	315.25
246.099	312.25
246.333	289.25
246.566	318.25
246.8	296.25
247.033	301.25
247.266	309.25
247.5	319.25
247.733	308.25
247.966	329.25
248.2	350.25
248.433	391.25
248.666	452.25
248.899	410.25
249.133	372.25
249.366	388.25
249.599	410.25
249.832	468.25
250.066	439.25
250.299	377.25
250.532	362.25
250.765	355.25
250.998	350.25
251.231	350.25
251.465	332.25
251.698	326.25
251.931	342.25
252.164	364.25
252.397	371.25
252.63	360.25
252.863	359.25
253.096	356.25
253.329	366.25
253.562	338.25
253.795	363.25
254.028	371.25
254.261	380.25
254.494	389.25
254.727	448.25
254.96	528.25
255.193	533.25
255.426	440.25
255.659	387.25
255.892	388.25
256.124	393.25
256.357	405.25
256.59	394.25
256.823	432.25
257.056	468.25
257.289	553.25
257.521	608.25
257.754	521.25
257.987	434.25
258.22	402.25
258.452	406.25
258.685	425.25
258.918	402.25
259.151	452.25
259.383	484.25
259.616	511.25
259.849	552.25
260.081	464.25
260.314	418.25
260.547	436.25
260.779	424.25
261.012	440.25
261.244	433.25
261.477	439.25
261.71	446.25
261.942	455.25
262.175	466.25
262.407	474.25
262.64	487.25
262.872	500.25
263.105	525.25
263.337	552.25
263.57	550.25
263.802	593.25
264.035	595.25
264.267	591.25
264.499	614.25
264.732	619.25
264.964	634.25
265.197	649.25
265.429	653.25
265.661	644.25
265.894	704.25
266.126	762.25
266.358	853.25
266.591	838.25
266.823	704.25
267.055	635.25
267.287	622.25
267.52	630.25
267.752	569.25
267.984	574.25
268.216	571.25
268.448	574.25
268.681	546.25
268.913	546.25
269.145	565.25
269.377	567.25
269.609	561.25
269.841	561.25
270.073	636.25
270.306	708.25
270.538	962.25
270.77	1420.25
271.002	1706.25
271.234	1161.25
271.466	786.25
271.698	628.25
271.93	609.25
272.162	586.25
272.394	554.25
272.626	538.25
272.858	567.25
273.09	560.25
273.322	543.25
273.553	523.25
273.785	527.25
274.017	528.25
274.249	531.25
274.481	531.25
274.713	529.25
274.945	537.25
275.176	550.25
275.408	534.25
275.64	547.25
275.872	554.25
276.104	546.25
276.335	565.25
276.567	549.25
276.799	560.25
277.031	573.25
277.262	548.25
277.494	615.25
277.726	660.25
277.957	755.25
278.189	863.25
278.421	816.25
278.652	743.25
278.884	684.25
279.115	603.25
279.347	632.25
279.579	616.25
279.81	644.25
280.042	600.25
280.273	609.25
280.505	609.25
280.736	668.25
280.968	682.25
281.199	726.25
281.431	802.25
281.662	839.25
281.894	749.25
282.125	691.25
282.356	697.25
282.588	711.25
282.819	710.25
283.051	759.25
283.282	852.25
283.513	1058.25
283.745	1526.25
283.976	2470.25
284.207	3563.25
284.439	3139.25
284.67	1820.25
284.901	1491.25
285.132	1442.25
285.364	1377.25
285.595	1095.25
285.826	989.25
286.057	1200.25
286.288	1692.25
286.52	2258.25
286.751	2075.25
286.982	1274.25
287.213	924.25
287.444	811.25
287.675	762.25
287.906	760.25
288.138	723.25
288.369	722.25
288.6	730.25
288.831	711.25
289.062	731.25
289.293	722.25
289.524	687.25
289.755	722.25
289.986	744.25
290.217	744.25
290.448	728.25
290.679	720.25
290.91	751.25
291.141	789.25
291.371	823.25
291.602	844.25
291.833	783.25
292.064	731.25
292.295	705.25
292.526	711.25
292.757	698.25
292.987	676.25
293.218	658.25
293.449	654.25
293.68	665.25
293.91	675.25
294.141	664.25
294.372	671.25
294.603	678.25
294.833	676.25
295.064	677.25
295.295	683.25
295.525	662.25
295.756	673.25
295.987	674.25
296.217	693.25
296.448	675.25
296.679	657.25
296.909	664.25
297.14	704.25
297.37	691.25
297.601	705.25
297.831	678.25
298.062	699.25
298.292	696.25
298.523	746.25
298.753	736.25
298.984	729.25
299.214	738.25
299.445	744.25
299.675	746.25
299.905	775.25
300.136	817.25
300.366	932.25
300.597	1156.25
300.827	1647.25
301.057	2178.25
301.288	2171.25
301.518	1385.25
301.748	1048.25
301.979	972.25
302.209	937.25
302.439	926.25
302.669	1000.25
302.9	1195.25
303.13	1719.25
303.36	2562.25
303.59	3500.25
303.82	2979.25
304.051	1682.25
304.281	1150.25
304.511	994.25
304.741	938.25
304.971	892.25
305.201	874.25
305.431	840.25
305.661	803.25
305.891	805.25
306.121	817.25
306.352	806.25
306.582	758.25
306.812	782.25
307.042	793.25
307.272	786.25
307.502	791.25
307.731	786.25
307.961	792.25
308.191	780.25
308.421	786.25
308.651	769.25
308.881	791.25
309.111	762.25
309.341	795.25
309.571	811.25
309.8	798.25
310.03	807.25
310.26	817.25
310.49	822.25
310.72	828.25
310.949	818.25
311.179	827.25
311.409	827.25
311.639	837.25
311.868	827.25
312.098	844.25
312.328	840.25
312.557	850.25
312.787	846.25
313.017	816.25
313.246	881.25
313.476	857.25
313.706	884.25
313.935	937.25
314.165	974.25
314.394	1042.25
314.624	968.25
314.853	946.25
315.083	900.25
315.312	908.25
315.542	926.25
315.771	933.25
316.001	944.25
316.23	972.25
316.46	1039.25
316.689	1090.25
316.919	1370.25
317.148	1971.25
317.377	3103.25
317.607	4554.25
317.836	4701.25
318.065	2665.25
318.295	1700.25
318.524	1345.25
318.753	1182.25
318.983	1062.25
319.212	1058.25
319.441	1041.25
319.67	1030.25
319.9	993.25
320.129	996.25
320.358	998.25
320.587	989.25
320.816	1004.25
321.046	1003.25
321.275	1011.25
321.504	1023.25
321.733	1020.25
321.962	1031.25
322.191	1042.25
322.42	1010.25
322.649	1033.25
322.878	1047.25
323.108	1055.25
323.337	1103.25
323.566	1092.25
323.795	1099.25
324.024	1108.25
324.253	1151.25
324.482	1186.25
324.71	1242.25
324.939	1311.25
325.168	1326.25
325.397	1390.25
325.626	1698.25
325.855	2358.25
326.084	3704.25
326.313	5563.25
326.542	5888.25
326.77	3554.25
326.999	2300.25
327.228	1904.25
327.457	1826.25
327.686	1856.25
327.914	1990.25
328.143	2252.25
328.372	2602.25
328.6	2804.25
328.829	2582.25
329.058	2226.25
329.287	1982.25
329.515	1865.25
329.744	1711.25
329.972	1623.25
330.201	1584.25
330.43	1481.25
330.658	1458.25
330.887	1434.25
331.115	1451.25
331.344	1464.25
331.572	1396.25
331.801	1424.25
332.03	1475.25
332.258	1458.25
332.486	1556.25
332.715	1729.25
332.943	2127.25
333.172	2650.25
333.4	2618.25
333.629	2019.25
333.857	1771.25
334.085	1780.25
334.314	1903.25
334.542	2007.25
334.771	2364.25
334.999	2832.25
335.227	3390.25
335.455	3768.25
335.684	3498.25
335.912	2966.25
336.14	2560.25
336.369	2290.25
336.597	2063.25
336.825	1934.25
337.053	1837.25
337.281	1688.25
337.51	1658.25
337.738	1576.25
337.966	1546.25
338.194	1481.25
338.422	1434.25
338.65	1426.25
338.878	1394.25
339.106	1365.25
339.334	1342.25
339.562	1320.25
339.79	1295.25
340.018	1323.25
340.246	1293.25
340.474	1244.25
340.702	1266.25
340.93	1271.25
341.158	1290.25
341.386	1249.25
341.614	1228.25
341.842	1206.25
342.07	1191.25
342.298	1174.25
342.526	1159.25
342.754	1174.25
342.981	1148.25
343.209	1146.25
343.437	1176.25
343.665	1186.25
343.893	1165.25
344.12	1215.25
344.348	1183.25
344.576	1145.25
344.804	1156.25
345.031	1138.25
345.259	1127.25
345.487	1133.25
345.714	1139.25
345.942	1102.25
346.17	1118.25
346.397	1101.25
346.625	1113.25
346.853	1067.25
347.08	1072.25
347.308	1073.25
347.535	1052.25
347.763	1065.25
347.99	1090.25
348.218	1066.25
348.445	1054.25
348.673	1075.25
348.9	1091.25
349.128	1046.25
349.355	1034.25
349.583	1067.25
349.81	1047.25
350.037	1039.25
350.265	1055.25
350.492	1022.25
350.72	1056.25
350.947	1025.25
351.174	1023.25
351.402	1044.25
351.629	1024.25
351.856	1031.25
352.083	1051.25
352.311	1036.25
352.538	1037.25
352.765	1000.25
352.992	1046.25
353.22	1015.25
353.447	1042.25
353.674	1043.25
353.901	1026.25
354.128	1056.25
354.355	1064.25
354.583	1043.25
354.81	1010.25
355.037	1018.25
355.264	1033.25
355.491	1046.25
355.718	1037.25
355.945	1060.25
356.172	1068.25
356.399	1043.25
356.626	1045.25
356.853	1068.25
357.08	1086.25
357.307	1078.25
357.534	1083.25
357.761	1110.25
357.988	1106.25
358.215	1118.25
358.441	1095.25
358.668	1118.25
358.895	1096.25
359.122	1098.25
359.349	1101.25
359.576	1079.25
359.802	1094.25
360.029	1073.25
360.256	1058.25
360.483	1090.25
360.709	1120.25
360.936	1117.25
361.163	1090.25
361.39	1072.25
361.616	1092.25
361.843	1089.25
362.07	1099.25
362.296	1121.25
362.523	1119.25
362.749	1120.25
362.976	1075.25
363.203	1079.25
363.429	1090.25
363.656	1088.25
363.882	1094.25
364.109	1086.25
364.335	1091.25
364.562	1051.25
364.788	1116.25
365.015	1103.25
365.241	1111.25
365.468	1163.25
365.694	1188.25
365.92	1178.25
366.147	1106.25
366.373	1118.25
366.599	1113.25
366.826	1109.25
367.052	1095.25
367.278	1108.25
367.505	1128.25
367.731	1112.25
367.957	1135.25
368.184	1098.25
368.41	1154.25
368.636	1112.25
368.862	1147.25
369.089	1142.25
369.315	1162.25
369.541	1137.25
369.767	1140.25
369.993	1128.25
370.219	1117.25
370.445	1128.25
370.672	1125.25
370.898	1149.25
371.124	1162.25
371.35	1180.25
371.576	1181.25
371.802	1170.25
372.028	1159.25
372.254	1183.25
372.48	1180.25
372.706	1188.25
372.932	1236.25
373.158	1203.25
373.384	1199.25
373.61	1176.25
373.835	1193.25
374.061	1206.25
374.287	1207.25
374.513	1201.25
374.739	1252.25
374.965	1233.25
375.191	1248.25
375.416	1243.25
375.642	1196.25
375.868	1237.25
376.094	1217.25
376.319	1212.25
376.545	1176.25
376.771	1170.25
376.997	1172.25
377.222	1190.25
377.448	1172.25
377.674	1159.25
377.899	1160.25
378.125	1166.25
378.35	1189.25
378.576	1172.25
378.802	1200.25
379.027	1206.25
379.253	1250.25
379.478	1299.25
379.704	1489.25
379.929	2128.25
380.155	3346.25
380.38	3608.25
380.606	2144.25
380.831	1542.25
381.057	1337.25
381.282	1252.25
381.507	1204.25
381.733	1176.25
381.958	1186.25
382.184	1192.25
382.409	1159.25
382.634	1181.25
382.86	1188.25
383.085	1162.25
383.31	1181.25
383.535	1183.25
383.761	1191.25
383.986	1187.25
384.211	1185.25
384.436	1178.25
384.662	1187.25
384.887	1206.25
385.112	1204.25
385.337	1198.25
385.562	1205.25
385.787	1222.25
386.013	1221.25
386.238	1196.25
386.463	1221.25
386.688	1217.25
386.913	1187.25
387.138	1200.25
387.363	1231.25
387.588	1231.25
387.813	1204.25
388.038	1210.25
388.263	1194.25
388.488	1208.25
388.713	1225.25
388.938	1226.25
389.163	1173.25
389.387	1211.25
389.612	1194.25
389.837	1216.25
390.062	1214.25
390.287	1216.25
390.512	1218.25
390.736	1225.25
390.961	1258.25
391.186	1249.25
391.411	1286.25
391.636	1235.25
391.86	1242.25
392.085	1254.25
392.31	1278.25
392.534	1253.25
392.759	1260.25
392.984	1230.25
393.208	1252.25
393.433	1238.25
393.658	1269.25
393.882	1221.25
394.107	1230.25
394.331	1222.25
394.556	1242.25
394.78	1231.25
395.005	1204.25
395.229	1250.25
395.454	1262.25
395.678	1253.25
395.903	1255.25
396.127	1216.25
396.352	1262.25
396.576	1220.25
396.801	1220.25
397.025	1271.25
397.249	1274.25
397.474	1308.25
397.698	1284.25
397.922	1271.25
398.147	1240.25
398.371	1305.25
398.595	1334.25
398.82	1320.25
399.044	1408.25
399.268	1480.25
399.492	1556.25
399.717	1590.25
399.941	1572.25
400.165	1510.25
400.389	1474.25
400.613	1418.25
400.837	1383.25
401.062	1383.25
401.286	1367.25
401.51	1305.25
401.734	1306.25
401.958	1387.25
402.182	1339.25
402.406	1329.25
402.63	1355.25
402.854	1342.25
403.078	1322.25
403.302	1348.25
403.526	1374.25
403.75	1375.25
403.974	1411.25
404.198	1372.25
404.422	1397.25
404.645	1385.25
404.869	1370.25
405.093	1377.25
405.317	1380.25
405.541	1425.25
405.765	1406.25
405.988	1408.25
406.212	1394.25
406.436	1421.25
406.66	1399.25
406.883	1433.25
407.107	1422.25
407.331	1497.25
407.555	1489.25
407.778	1506.25
408.002	1507.25
408.226	1497.25
408.449	1493.25
408.673	1417.25
408.896	1420.25
409.12	1425.25
409.344	1402.25
409.567	1374.25
409.791	1388.25
410.014	1386.25
410.238	1345.25
410.461	1363.25
410.685	1394.25
410.908	1386.25
411.132	1354.25
411.355	1344.25
411.578	1327.25
411.802	1333.25
412.025	1310.25
412.249	1346.25
412.472	1307.25
412.695	1330.25
412.919	1302.25
413.142	1312.25
413.365	1295.25
413.589	1316.25
413.812	1303.25
414.035	1304.25
414.258	1346.25
414.482	1311.25
414.705	1339.25
414.928	1304.25
415.151	1317.25
415.374	1330.25
415.597	1300.25
415.821	1264.25
416.044	1275.25
416.267	1257.25
416.49	1250.25
416.713	1244.25
416.936	1257.25
417.159	1254.25
417.382	1259.25
417.605	1247.25
417.828	1237.25
418.051	1282.25
418.274	1257.25
418.497	1264.25
418.72	1298.25
418.943	1274.25
419.166	1346.25
419.389	1409.25
419.611	1353.25
419.834	1362.25
420.057	1321.25
420.28	1270.25
420.503	1254.25
420.726	1279.25
420.948	1241.25
421.171	1259.25
421.394	1278.25
421.617	1272.25
421.839	1294.25
422.062	1281.25
422.285	1267.25
422.507	1278.25
422.73	1288.25
422.953	1289.25
423.175	1314.25
423.398	1302.25
423.621	1256.25
423.843	1267.25
424.066	1292.25
424.288	1274.25
424.511	1291.25
424.733	1287.25
424.956	1225.25
425.178	1236.25
425.401	1234.25
425.623	1274.25
425.846	1222.25
426.068	1230.25
426.291	1211.25
426.513	1220.25
426.735	1234.25
426.958	1228.25
427.18	1169.25
427.402	1195.25
427.625	1208.25
427.847	1187.25
428.069	1185.25
428.292	1195.25
428.514	1182.25
428.736	1193.25
428.958	1166.25
429.181	1184.25
429.403	1151.25
429.625	1172.25
429.847	1161.25
430.069	1184.25
430.292	1206.25
430.514	1251.25
430.736	1255.25
430.958	1209.25
431.18	1155.25
431.402	1150.25
431.624	1158.25
431.846	1147.25
432.068	1144.25
432.29	1154.25
432.512	1132.25
432.734	1172.25
432.956	1134.25
433.178	1180.25
433.4	1166.25
433.622	1173.25
433.844	1177.25
434.066	1156.25
434.287	1164.25
434.509	1173.25
434.731	1190.25
434.953	1187.25
435.175	1199.25
435.397	1179.25
435.618	1194.25
435.84	1160.25
436.062	1164.25
436.284	1185.25
436.505	1167.25
436.727	1180.25
436.949	1178.25
437.17	1180.25
437.392	1160.25
437.614	1127.25
437.835	1127.25
438.057	1118.25
438.278	1108.25
438.5	1141.25
438.721	1160.25
438.943	1198.25
439.165	1198.25
439.386	1257.25
439.608	1212.25
439.829	1215.25
440.05	1235.25
440.272	1242.25
440.493	1235.25
440.715	1227.25
440.936	1222.25
441.158	1188.25
441.379	1223.25
441.6	1249.25
441.822	1332.25
442.043	1354.25
442.264	1397.25
442.486	1330.25
442.707	1247.25
442.928	1219.25
443.149	1258.25
443.371	1245.25
443.592	1240.25
443.813	1239.25
444.034	1263.25
444.255	1242.25
444.476	1316.25
444.698	1343.25
444.919	1345.25
445.14	1408.25
445.361	1379.25
445.582	1316.25
445.803	1246.25
446.024	1244.25
446.245	1230.25
446.466	1231.25
446.687	1230.25
446.908	1224.25
447.129	1198.25
447.35	1214.25
447.571	1183.25
447.792	1136.25
448.013	1145.25
448.234	1165.25
448.455	1154.25
448.675	1183.25
448.896	1172.25
449.117	1204.25
449.338	1316.25
449.559	1355.25
449.779	1256.25
450	1141.25
450.221	1162.25
450.442	1140.25
450.662	1115.25
450.883	1100.25
451.104	1106.25
451.324	1104.25
451.545	1099.25
451.766	1133.25
451.986	1140.25
452.207	1220.25
452.428	1491.25
452.648	2161.25
452.869	1806.25
453.089	1321.25
453.31	1248.25
453.53	1229.25
453.751	1264.25
453.971	1386.25
454.192	1369.25
454.412	1167.25
454.633	1119.25
454.853	1097.25
455.073	1105.25
455.294	1083.25
455.514	1094.25
455.734	1057.25
455.955	1057.25
456.175	1091.25
456.395	1070.25
456.616	1098.25
456.836	1085.25
457.056	1074.25
457.276	1072.25
457.497	1182.25
457.717	1133.25
457.937	1146.25
458.157	1127.25
458.377	1107.25
458.598	1105.25
458.818	1147.25
459.038	1120.25
459.258	1141.25
459.478	1168.25
459.698	1167.25
459.918	1168.25
460.138	1206.25
460.358	1231.25
460.578	1237.25
460.798	1244.25
461.018	1261.25
461.238	1264.25
461.458	1299.25
461.678	1267.25
461.898	1275.25
462.118	1287.25
462.338	1314.25
462.558	1339.25
462.777	1370.25
462.997	1410.25
463.217	1462.25
463.437	1479.25
463.657	1534.25
463.876	1536.25
464.096	1481.25
464.316	1385.25
464.536	1415.25
464.755	1365.25
464.975	1312.25
465.195	1262.25
465.414	1276.25
465.634	1186.25
465.854	1190.25
466.073	1175.25
466.293	1178.25
466.512	1164.25
466.732	1190.25
466.951	1213.25
467.171	1313.25
467.391	1296.25
467.61	1177.25
467.829	1160.25
468.049	1144.25
468.268	1177.25
468.488	1140.25
468.707	1155.25
468.927	1162.25
469.146	1130.25
469.365	1140.25
469.585	1144.25
469.804	1193.25
470.023	1221.25
470.243	1221.25
470.462	1258.25
470.681	1282.25
470.901	1449.25
471.12	1634.25
471.339	1715.25
471.558	1363.25
471.777	1262.25
471.997	1211.25
472.216	1176.25
472.435	1188.25
472.654	1150.25
472.873	1127.25
473.092	1122.25
473.311	1104.25
473.53	1187.25
473.749	1183.25
473.968	1207.25
474.187	1158.25
474.406	1120.25
474.625	1158.25
474.844	1139.25
475.063	1152.25
475.282	1142.25
475.501	1125.25
475.72	1152.25
475.939	1172.25
476.158	1219.25
476.377	1248.25
476.596	1203.25
476.814	1209.25
477.033	1204.25
477.252	1211.25
477.471	1242.25
477.69	1247.25
477.908	1282.25
478.127	1331.25
478.346	1362.25
478.564	1322.25
478.783	1312.25
479.002	1359.25
479.22	1336.25
479.439	1347.25
479.658	1335.25
479.876	1370.25
480.095	1360.25
480.313	1397.25
480.532	1422.25
480.751	1388.25
480.969	1377.25
481.188	1331.25
481.406	1346.25
481.624	1323.25
481.843	1348.25
482.061	1348.25
482.28	1370.25
482.498	1337.25
482.717	1361.25
482.935	1394.25
483.153	1403.25
483.372	1400.25
483.59	1412.25
483.808	1446.25
484.027	1448.25
484.245	1561.25
484.463	1779.25
484.681	1946.25
484.9	1802.25
485.118	1625.25
485.336	1592.25
485.554	1624.25
485.772	1703.25
485.99	1946.25
486.209	2161.25
486.427	1749.25
486.645	1555.25
486.863	1492.25
487.081	1478.25
487.299	1510.25
487.517	1430.25
487.735	1486.25
487.953	1492.25
488.171	1528.25
488.389	1442.25
488.607	1446.25
488.825	1421.25
489.043	1402.25
489.261	1376.25
489.479	1392.25
489.696	1402.25
489.914	1422.25
490.132	1443.25
490.35	1434.25
490.568	1465.25
490.786	1502.25
