Data from SnStandardFlinnAPT0064_LampEnergy5.5_LIBS07252019.E.O._I.C._HRD10591_15-16-04-503.txt Node
Date: Thu Jul 25 15:16:04 EDT 2019
User: cochatt
Spectrometer: HR+D1059
Trigger mode: 1
Integration Time (sec): 1.000000E-1
Scans to average: 1
Electric dark correction enabled: true
Nonlinearity correction enabled: false
Boxcar width: 0
XAxis mode: Wavelengths
Number of Pixels in Spectrum: 2048
>>>>>Begin Spectral Data<<<<<
223.165	-20.69
223.4	-20.69
223.635	-20.69
223.869	-7.69
224.104	-20.69
224.338	-19.69
224.573	-22.69
224.808	-4.69
225.042	-8.69
225.277	-10.69
225.511	5.31
225.746	1.31
225.98	1.31
226.215	23.31
226.449	21.31
226.683	12.31
226.918	19.31
227.152	31.31
227.387	28.31
227.621	45.31
227.856	43.31
228.09	35.31
228.324	48.31
228.559	53.31
228.793	83.31
229.027	148.31
229.262	169.31
229.496	153.31
229.73	140.31
229.964	149.31
230.199	164.31
230.433	149.31
230.667	167.31
230.901	159.31
231.136	151.31
231.37	173.31
231.604	182.31
231.838	206.31
232.072	234.31
232.306	247.31
232.541	222.31
232.775	216.31
233.009	209.31
233.243	200.31
233.477	225.31
233.711	221.31
233.945	278.31
234.179	236.31
234.413	216.31
234.647	209.31
234.881	243.31
235.115	229.31
235.349	275.31
235.583	343.31
235.817	434.31
236.051	405.31
236.285	281.31
236.519	255.31
236.753	228.31
236.987	226.31
237.221	236.31
237.455	242.31
237.689	220.31
237.922	220.31
238.156	209.31
238.39	243.31
238.624	244.31
238.858	236.31
239.091	212.31
239.325	236.31
239.559	212.31
239.793	233.31
240.027	235.31
240.26	253.31
240.494	251.31
240.728	273.31
240.961	271.31
241.195	299.31
241.429	279.31
241.662	295.31
241.896	328.31
242.13	395.31
242.363	481.31
242.597	634.31
242.83	587.31
243.064	616.31
243.298	701.31
243.531	575.31
243.765	393.31
243.998	345.31
244.232	312.31
244.465	300.31
244.699	289.31
244.932	301.31
245.166	274.31
245.399	297.31
245.633	308.31
245.866	313.31
246.099	313.31
246.333	291.31
246.566	295.31
246.8	294.31
247.033	318.31
247.266	300.31
247.5	280.31
247.733	300.31
247.966	307.31
248.2	350.31
248.433	358.31
248.666	406.31
248.899	388.31
249.133	361.31
249.366	363.31
249.599	405.31
249.832	439.31
250.066	427.31
250.299	374.31
250.532	329.31
250.765	333.31
250.998	313.31
251.231	337.31
251.465	324.31
251.698	352.31
251.931	337.31
252.164	321.31
252.397	340.31
252.63	320.31
252.863	362.31
253.096	345.31
253.329	357.31
253.562	355.31
253.795	351.31
254.028	369.31
254.261	372.31
254.494	390.31
254.727	419.31
254.96	500.31
255.193	484.31
255.426	422.31
255.659	370.31
255.892	376.31
256.124	390.31
256.357	390.31
256.59	387.31
256.823	418.31
257.056	450.31
257.289	523.31
257.521	575.31
257.754	469.31
257.987	402.31
258.22	405.31
258.452	379.31
258.685	387.31
258.918	396.31
259.151	414.31
259.383	446.31
259.616	509.31
259.849	505.31
260.081	458.31
260.314	423.31
260.547	426.31
260.779	442.31
261.012	415.31
261.244	425.31
261.477	440.31
261.71	432.31
261.942	441.31
262.175	435.31
262.407	463.31
262.64	470.31
262.872	487.31
263.105	478.31
263.337	515.31
263.57	571.31
263.802	561.31
264.035	580.31
264.267	584.31
264.499	597.31
264.732	632.31
264.964	630.31
265.197	623.31
265.429	616.31
265.661	640.31
265.894	671.31
266.126	759.31
266.358	811.31
266.591	800.31
266.823	670.31
267.055	620.31
267.287	597.31
267.52	559.31
267.752	585.31
267.984	553.31
268.216	548.31
268.448	543.31
268.681	561.31
268.913	532.31
269.145	544.31
269.377	548.31
269.609	528.31
269.841	571.31
270.073	577.31
270.306	676.31
270.538	845.31
270.77	1222.31
271.002	1495.31
271.234	1067.31
271.466	744.31
271.698	635.31
271.93	568.31
272.162	559.31
272.394	548.31
272.626	532.31
272.858	520.31
273.09	537.31
273.322	536.31
273.553	508.31
273.785	513.31
274.017	512.31
274.249	541.31
274.481	515.31
274.713	531.31
274.945	543.31
275.176	523.31
275.408	517.31
275.64	550.31
275.872	539.31
276.104	549.31
276.335	534.31
276.567	561.31
276.799	545.31
277.031	545.31
277.262	572.31
277.494	593.31
277.726	636.31
277.957	709.31
278.189	795.31
278.421	731.31
278.652	669.31
278.884	656.31
279.115	605.31
279.347	619.31
279.579	584.31
279.81	596.31
280.042	605.31
280.273	605.31
280.505	601.31
280.736	623.31
280.968	653.31
281.199	733.31
281.431	755.31
281.662	792.31
281.894	719.31
282.125	683.31
282.356	657.31
282.588	689.31
282.819	705.31
283.051	728.31
283.282	775.31
283.513	982.31
283.745	1393.31
283.976	2156.31
284.207	3019.31
284.439	2717.31
284.67	1651.31
284.901	1325.31
285.132	1316.31
285.364	1256.31
285.595	998.31
285.826	934.31
286.057	1080.31
286.288	1469.31
286.52	1887.31
286.751	1795.31
286.982	1128.31
287.213	884.31
287.444	797.31
287.675	757.31
287.906	712.31
288.138	710.31
288.369	707.31
288.6	672.31
288.831	683.31
289.062	707.31
289.293	738.31
289.524	710.31
289.755	699.31
289.986	708.31
290.217	742.31
290.448	707.31
290.679	735.31
290.91	726.31
291.141	767.31
291.371	765.31
291.602	786.31
291.833	737.31
292.064	701.31
292.295	698.31
292.526	697.31
292.757	673.31
292.987	698.31
293.218	657.31
293.449	661.31
293.68	651.31
293.91	653.31
294.141	661.31
294.372	660.31
294.603	653.31
294.833	684.31
295.064	633.31
295.295	655.31
295.525	645.31
295.756	652.31
295.987	655.31
296.217	675.31
296.448	659.31
296.679	666.31
296.909	675.31
297.14	652.31
297.37	673.31
297.601	699.31
297.831	666.31
298.062	687.31
298.292	691.31
298.523	699.31
298.753	696.31
298.984	700.31
299.214	717.31
299.445	706.31
299.675	746.31
299.905	756.31
300.136	780.31
300.366	863.31
300.597	1077.31
300.827	1437.31
301.057	1923.31
301.288	1887.31
301.518	1243.31
301.748	995.31
301.979	899.31
302.209	915.31
302.439	888.31
302.669	975.31
302.9	1127.31
303.13	1555.31
303.36	2181.31
303.59	2932.31
303.82	2568.31
304.051	1579.31
304.281	1157.31
304.511	971.31
304.741	905.31
304.971	846.31
305.201	847.31
305.431	806.31
305.661	779.31
305.891	768.31
306.121	756.31
306.352	783.31
306.582	766.31
306.812	770.31
307.042	752.31
307.272	756.31
307.502	780.31
307.731	747.31
307.961	757.31
308.191	752.31
308.421	743.31
308.651	763.31
308.881	770.31
309.111	763.31
309.341	786.31
309.571	770.31
309.8	777.31
310.03	746.31
310.26	792.31
310.49	778.31
310.72	807.31
310.949	793.31
311.179	795.31
311.409	792.31
311.639	817.31
311.868	823.31
312.098	784.31
312.328	843.31
312.557	831.31
312.787	826.31
313.017	828.31
313.246	831.31
313.476	815.31
313.706	863.31
313.935	897.31
314.165	957.31
314.394	973.31
314.624	918.31
314.853	889.31
315.083	886.31
315.312	903.31
315.542	904.31
315.771	881.31
316.001	875.31
316.23	959.31
316.46	981.31
316.689	1066.31
316.919	1238.31
317.148	1748.31
317.377	2659.31
317.607	3932.31
317.836	3989.31
318.065	2391.31
318.295	1555.31
318.524	1238.31
318.753	1152.31
318.983	1071.31
319.212	1007.31
319.441	959.31
319.67	973.31
319.9	962.31
320.129	942.31
320.358	982.31
320.587	970.31
320.816	950.31
321.046	972.31
321.275	957.31
321.504	987.31
321.733	978.31
321.962	1023.31
322.191	999.31
322.42	1000.31
322.649	1000.31
322.878	1010.31
323.108	1017.31
323.337	1021.31
323.566	1030.31
323.795	1060.31
324.024	1087.31
324.253	1061.31
324.482	1139.31
324.71	1199.31
324.939	1245.31
325.168	1249.31
325.397	1317.31
325.626	1531.31
325.855	2053.31
326.084	3195.31
326.313	4725.31
326.542	5049.31
326.77	3197.31
326.999	2162.31
327.228	1772.31
327.457	1722.31
327.686	1799.31
327.914	1879.31
328.143	2152.31
328.372	2467.31
328.6	2645.31
328.829	2455.31
329.058	2168.31
329.287	1971.31
329.515	1775.31
329.744	1659.31
329.972	1574.31
330.201	1547.31
330.43	1470.31
330.658	1445.31
330.887	1419.31
331.115	1395.31
331.344	1382.31
331.572	1374.31
331.801	1376.31
332.03	1388.31
332.258	1401.31
332.486	1505.31
332.715	1651.31
332.943	1986.31
333.172	2399.31
333.4	2342.31
333.629	1877.31
333.857	1722.31
334.085	1720.31
334.314	1830.31
334.542	1944.31
334.771	2262.31
334.999	2680.31
335.227	3217.31
335.455	3550.31
335.684	3316.31
335.912	2835.31
336.14	2443.31
336.369	2209.31
336.597	2039.31
336.825	1889.31
337.053	1784.31
337.281	1689.31
337.51	1613.31
337.738	1544.31
337.966	1497.31
338.194	1456.31
338.422	1370.31
338.65	1367.31
338.878	1354.31
339.106	1290.31
339.334	1297.31
339.562	1291.31
339.79	1270.31
340.018	1237.31
340.246	1216.31
340.474	1218.31
340.702	1217.31
340.93	1241.31
341.158	1255.31
341.386	1222.31
341.614	1207.31
341.842	1218.31
342.07	1188.31
342.298	1195.31
342.526	1137.31
342.754	1139.31
342.981	1141.31
343.209	1133.31
343.437	1113.31
343.665	1168.31
343.893	1151.31
344.12	1168.31
344.348	1147.31
344.576	1132.31
344.804	1117.31
345.031	1089.31
345.259	1083.31
345.487	1075.31
345.714	1067.31
345.942	1041.31
346.17	1089.31
346.397	1051.31
346.625	1032.31
346.853	1037.31
347.08	1041.31
347.308	1037.31
347.535	1053.31
347.763	1045.31
347.99	1013.31
348.218	1037.31
348.445	1032.31
348.673	1015.31
348.9	1039.31
349.128	1043.31
349.355	1022.31
349.583	988.31
349.81	999.31
350.037	1002.31
350.265	1009.31
350.492	1043.31
350.72	1019.31
350.947	1009.31
351.174	1010.31
351.402	1024.31
351.629	989.31
351.856	1016.31
352.083	1010.31
352.311	1025.31
352.538	991.31
352.765	1000.31
352.992	1004.31
353.22	964.31
353.447	979.31
353.674	1009.31
353.901	1007.31
354.128	1022.31
354.355	1001.31
354.583	994.31
354.81	1002.31
355.037	1012.31
355.264	1005.31
355.491	1015.31
355.718	986.31
355.945	993.31
356.172	1036.31
356.399	1018.31
356.626	1062.31
356.853	1069.31
357.08	1042.31
357.307	1044.31
357.534	1052.31
357.761	1065.31
357.988	1098.31
358.215	1069.31
358.441	1077.31
358.668	1059.31
358.895	1057.31
359.122	1044.31
359.349	1055.31
359.576	1051.31
359.802	1063.31
360.029	1061.31
360.256	1059.31
360.483	1085.31
360.709	1059.31
360.936	1065.31
361.163	1065.31
361.39	1060.31
361.616	1087.31
361.843	1078.31
362.07	1091.31
362.296	1084.31
362.523	1051.31
362.749	1085.31
362.976	1050.31
363.203	1055.31
363.429	1081.31
363.656	1073.31
363.882	1036.31
364.109	1037.31
364.335	1085.31
364.562	1062.31
364.788	1071.31
365.015	1088.31
365.241	1084.31
365.468	1108.31
365.694	1122.31
365.92	1134.31
366.147	1075.31
366.373	1089.31
366.599	1089.31
366.826	1076.31
367.052	1067.31
367.278	1098.31
367.505	1070.31
367.731	1083.31
367.957	1079.31
368.184	1120.31
368.41	1115.31
368.636	1125.31
368.862	1103.31
369.089	1117.31
369.315	1108.31
369.541	1100.31
369.767	1110.31
369.993	1104.31
370.219	1077.31
370.445	1130.31
370.672	1101.31
370.898	1121.31
371.124	1131.31
371.35	1141.31
371.576	1143.31
371.802	1162.31
372.028	1158.31
372.254	1192.31
372.48	1140.31
372.706	1169.31
372.932	1145.31
373.158	1169.31
373.384	1166.31
373.61	1157.31
373.835	1197.31
374.061	1171.31
374.287	1201.31
374.513	1178.31
374.739	1196.31
374.965	1223.31
375.191	1241.31
375.416	1195.31
375.642	1203.31
375.868	1199.31
376.094	1157.31
376.319	1155.31
376.545	1165.31
376.771	1178.31
376.997	1180.31
377.222	1161.31
377.448	1107.31
377.674	1131.31
377.899	1123.31
378.125	1160.31
378.35	1157.31
378.576	1173.31
378.802	1154.31
379.027	1173.31
379.253	1204.31
379.478	1234.31
379.704	1425.31
379.929	1943.31
380.155	2800.31
380.38	3014.31
380.606	1922.31
380.831	1423.31
381.057	1287.31
381.282	1207.31
381.507	1201.31
381.733	1173.31
381.958	1172.31
382.184	1161.31
382.409	1160.31
382.634	1141.31
382.86	1117.31
383.085	1115.31
383.31	1115.31
383.535	1142.31
383.761	1140.31
383.986	1117.31
384.211	1142.31
384.436	1157.31
384.662	1157.31
384.887	1171.31
385.112	1148.31
385.337	1146.31
385.562	1177.31
385.787	1150.31
386.013	1177.31
386.238	1173.31
386.463	1175.31
386.688	1179.31
386.913	1150.31
387.138	1183.31
387.363	1183.31
387.588	1145.31
387.813	1204.31
388.038	1177.31
388.263	1167.31
388.488	1204.31
388.713	1201.31
388.938	1181.31
389.163	1137.31
389.387	1166.31
389.612	1165.31
389.837	1184.31
390.062	1190.31
390.287	1180.31
390.512	1184.31
390.736	1196.31
390.961	1203.31
391.186	1233.31
391.411	1254.31
391.636	1233.31
391.86	1232.31
392.085	1244.31
392.31	1242.31
392.534	1220.31
392.759	1208.31
392.984	1209.31
393.208	1229.31
393.433	1245.31
393.658	1221.31
393.882	1183.31
394.107	1202.31
394.331	1179.31
394.556	1194.31
394.78	1205.31
395.005	1197.31
395.229	1179.31
395.454	1225.31
395.678	1228.31
395.903	1241.31
396.127	1235.31
396.352	1240.31
396.576	1214.31
396.801	1237.31
397.025	1244.31
397.249	1223.31
397.474	1256.31
397.698	1241.31
397.922	1259.31
398.147	1235.31
398.371	1285.31
398.595	1255.31
398.82	1319.31
399.044	1358.31
399.268	1425.31
399.492	1514.31
399.717	1560.31
399.941	1570.31
400.165	1527.31
400.389	1438.31
400.613	1375.31
400.837	1333.31
401.062	1343.31
401.286	1327.31
401.51	1304.31
401.734	1284.31
401.958	1295.31
402.182	1272.31
402.406	1312.31
402.63	1329.31
402.854	1308.31
403.078	1315.31
403.302	1345.31
403.526	1360.31
403.75	1369.31
403.974	1340.31
404.198	1379.31
404.422	1330.31
404.645	1353.31
404.869	1311.31
405.093	1384.31
405.317	1370.31
405.541	1349.31
405.765	1372.31
405.988	1384.31
406.212	1375.31
406.436	1340.31
406.66	1372.31
406.883	1402.31
407.107	1439.31
407.331	1452.31
407.555	1478.31
407.778	1447.31
408.002	1447.31
408.226	1427.31
408.449	1400.31
408.673	1355.31
408.896	1363.31
409.12	1364.31
409.344	1360.31
409.567	1358.31
409.791	1361.31
410.014	1343.31
410.238	1315.31
410.461	1322.31
410.685	1311.31
410.908	1334.31
411.132	1331.31
411.355	1261.31
411.578	1305.31
411.802	1288.31
412.025	1301.31
412.249	1331.31
412.472	1302.31
412.695	1307.31
412.919	1271.31
413.142	1266.31
413.365	1263.31
413.589	1288.31
413.812	1286.31
414.035	1289.31
414.258	1250.31
414.482	1263.31
414.705	1292.31
414.928	1281.31
415.151	1291.31
415.374	1266.31
415.597	1255.31
415.821	1226.31
416.044	1220.31
416.267	1217.31
416.49	1240.31
416.713	1214.31
416.936	1248.31
417.159	1225.31
417.382	1226.31
417.605	1182.31
417.828	1233.31
418.051	1224.31
418.274	1259.31
418.497	1241.31
418.72	1256.31
418.943	1254.31
419.166	1317.31
419.389	1350.31
419.611	1337.31
419.834	1305.31
420.057	1302.31
420.28	1254.31
420.503	1263.31
420.726	1230.31
420.948	1235.31
421.171	1221.31
421.394	1211.31
421.617	1238.31
421.839	1234.31
422.062	1244.31
422.285	1251.31
422.507	1227.31
422.73	1255.31
422.953	1214.31
423.175	1281.31
423.398	1246.31
423.621	1244.31
423.843	1260.31
424.066	1215.31
424.288	1241.31
424.511	1246.31
424.733	1232.31
424.956	1236.31
425.178	1237.31
425.401	1207.31
425.623	1249.31
425.846	1193.31
426.068	1197.31
426.291	1167.31
426.513	1179.31
426.735	1172.31
426.958	1205.31
427.18	1163.31
427.402	1181.31
427.625	1175.31
427.847	1135.31
428.069	1129.31
428.292	1179.31
428.514	1159.31
428.736	1121.31
428.958	1154.31
429.181	1130.31
429.403	1106.31
429.625	1148.31
429.847	1115.31
430.069	1157.31
430.292	1185.31
430.514	1212.31
430.736	1191.31
430.958	1139.31
431.18	1163.31
431.402	1123.31
431.624	1107.31
431.846	1129.31
432.068	1117.31
432.29	1112.31
432.512	1055.31
432.734	1151.31
432.956	1160.31
433.178	1140.31
433.4	1148.31
433.622	1132.31
433.844	1169.31
434.066	1184.31
434.287	1127.31
434.509	1130.31
434.731	1170.31
434.953	1180.31
435.175	1203.31
435.397	1173.31
435.618	1151.31
435.84	1155.31
436.062	1104.31
436.284	1157.31
436.505	1109.31
436.727	1153.31
436.949	1136.31
437.17	1149.31
437.392	1107.31
437.614	1116.31
437.835	1097.31
438.057	1091.31
438.278	1085.31
438.5	1084.31
438.721	1101.31
438.943	1144.31
439.165	1181.31
439.386	1171.31
439.608	1191.31
439.829	1153.31
440.05	1207.31
440.272	1216.31
440.493	1180.31
440.715	1170.31
440.936	1185.31
441.158	1190.31
441.379	1210.31
441.6	1219.31
441.822	1276.31
442.043	1318.31
442.264	1352.31
442.486	1255.31
442.707	1244.31
442.928	1228.31
443.149	1225.31
443.371	1194.31
443.592	1225.31
443.813	1211.31
444.034	1233.31
444.255	1251.31
444.476	1255.31
444.698	1352.31
444.919	1281.31
445.14	1357.31
445.361	1282.31
445.582	1273.31
445.803	1236.31
446.024	1205.31
446.245	1219.31
446.466	1227.31
446.687	1195.31
446.908	1189.31
447.129	1161.31
447.35	1165.31
447.571	1163.31
447.792	1104.31
448.013	1141.31
448.234	1132.31
448.455	1116.31
448.675	1166.31
448.896	1153.31
449.117	1207.31
449.338	1298.31
449.559	1321.31
449.779	1209.31
450	1119.31
450.221	1109.31
450.442	1117.31
450.662	1115.31
450.883	1089.31
451.104	1076.31
451.324	1089.31
451.545	1087.31
451.766	1095.31
451.986	1110.31
452.207	1179.31
452.428	1388.31
452.648	1932.31
452.869	1653.31
453.089	1267.31
453.31	1220.31
453.53	1210.31
453.751	1237.31
453.971	1265.31
454.192	1239.31
454.412	1090.31
454.633	1073.31
454.853	1084.31
455.073	1060.31
455.294	1021.31
455.514	1027.31
455.734	1023.31
455.955	1005.31
456.175	1035.31
456.395	1045.31
456.616	1039.31
456.836	1076.31
457.056	1086.31
457.276	1038.31
457.497	1140.31
457.717	1103.31
457.937	1091.31
458.157	1125.31
458.377	1122.31
458.598	1090.31
458.818	1150.31
459.038	1114.31
459.258	1111.31
459.478	1098.31
459.698	1133.31
459.918	1147.31
460.138	1200.31
460.358	1205.31
460.578	1216.31
460.798	1175.31
461.018	1245.31
461.238	1223.31
461.458	1233.31
461.678	1241.31
461.898	1277.31
462.118	1267.31
462.338	1311.31
462.558	1335.31
462.777	1329.31
462.997	1414.31
463.217	1417.31
463.437	1440.31
463.657	1465.31
463.876	1476.31
464.096	1386.31
464.316	1341.31
464.536	1348.31
464.755	1316.31
464.975	1304.31
465.195	1247.31
465.414	1171.31
465.634	1171.31
465.854	1206.31
466.073	1129.31
466.293	1126.31
466.512	1106.31
466.732	1131.31
466.951	1189.31
467.171	1260.31
467.391	1247.31
467.61	1145.31
467.829	1143.31
468.049	1155.31
468.268	1112.31
468.488	1106.31
468.707	1106.31
468.927	1120.31
469.146	1119.31
469.365	1128.31
469.585	1099.31
469.804	1173.31
470.023	1173.31
470.243	1202.31
470.462	1207.31
470.681	1259.31
470.901	1368.31
471.12	1583.31
471.339	1537.31
471.558	1313.31
471.777	1241.31
471.997	1161.31
472.216	1157.31
472.435	1126.31
472.654	1089.31
472.873	1103.31
473.092	1118.31
473.311	1108.31
473.53	1106.31
473.749	1154.31
473.968	1170.31
474.187	1139.31
474.406	1135.31
474.625	1143.31
474.844	1144.31
475.063	1114.31
475.282	1145.31
475.501	1143.31
475.72	1129.31
475.939	1120.31
476.158	1173.31
476.377	1204.31
476.596	1193.31
476.814	1200.31
477.033	1165.31
477.252	1193.31
477.471	1194.31
477.69	1253.31
477.908	1266.31
478.127	1273.31
478.346	1268.31
478.564	1257.31
478.783	1315.31
479.002	1319.31
479.22	1308.31
479.439	1324.31
479.658	1295.31
479.876	1327.31
480.095	1323.31
480.313	1376.31
480.532	1367.31
480.751	1359.31
480.969	1300.31
481.188	1319.31
481.406	1305.31
481.624	1288.31
481.843	1306.31
482.061	1350.31
482.28	1328.31
482.498	1331.31
482.717	1311.31
482.935	1363.31
483.153	1325.31
483.372	1391.31
483.59	1370.31
483.808	1422.31
484.027	1422.31
484.245	1532.31
484.463	1644.31
484.681	1822.31
484.9	1683.31
485.118	1540.31
485.336	1563.31
485.554	1564.31
485.772	1641.31
485.99	1833.31
486.209	2036.31
486.427	1665.31
486.645	1509.31
486.863	1482.31
487.081	1437.31
487.299	1433.31
487.517	1420.31
487.735	1435.31
487.953	1435.31
488.171	1440.31
488.389	1416.31
488.607	1392.31
488.825	1355.31
489.043	1367.31
489.261	1392.31
489.479	1379.31
489.696	1395.31
489.914	1415.31
490.132	1429.31
490.35	1398.31
490.568	1378.31
490.786	1450.31
491.003	1431.31
