Data from SnStandardFlinnAPT0064_LampEnergy5.5_LIBS07252019.E.O._I.C._HRD10591_15-17-19-492.txt Node
Date: Thu Jul 25 15:17:19 EDT 2019
User: cochatt
Spectrometer: HR+D1059
Trigger mode: 1
Integration Time (sec): 1.000000E-1
Scans to average: 1
Electric dark correction enabled: true
Nonlinearity correction enabled: false
Boxcar width: 0
XAxis mode: Wavelengths
Number of Pixels in Spectrum: 2048
>>>>>Begin Spectral Data<<<<<
223.165	-3.69
223.4	-3.69
223.635	-3.69
223.869	-6.69
224.104	-10.69
224.338	-16.69
224.573	-9.69
224.808	-29.69
225.042	-1.69
225.277	-22.69
225.511	-13.69
225.746	-9.69
225.98	12.31
226.215	10.31
226.449	19.31
226.683	26.31
226.918	32.31
227.152	24.31
227.387	34.31
227.621	40.31
227.856	56.31
228.09	50.31
228.324	53.31
228.559	55.31
228.793	85.31
229.027	167.31
229.262	176.31
229.496	161.31
229.73	137.31
229.964	158.31
230.199	165.31
230.433	153.31
230.667	161.31
230.901	170.31
231.136	176.31
231.37	182.31
231.604	208.31
231.838	215.31
232.072	260.31
232.306	275.31
232.541	235.31
232.775	220.31
233.009	200.31
233.243	215.31
233.477	230.31
233.711	244.31
233.945	269.31
234.179	244.31
234.413	220.31
234.647	231.31
234.881	232.31
235.115	259.31
235.349	287.31
235.583	359.31
235.817	467.31
236.051	454.31
236.285	315.31
236.519	234.31
236.753	233.31
236.987	257.31
237.221	262.31
237.455	253.31
237.689	232.31
237.922	229.31
238.156	216.31
238.39	234.31
238.624	240.31
238.858	242.31
239.091	244.31
239.325	214.31
239.559	232.31
239.793	245.31
240.027	267.31
240.26	248.31
240.494	253.31
240.728	265.31
240.961	263.31
241.195	305.31
241.429	288.31
241.662	310.31
241.896	341.31
242.13	425.31
242.363	526.31
242.597	683.31
242.83	645.31
243.064	671.31
243.298	778.31
243.531	651.31
243.765	430.31
243.998	347.31
244.232	314.31
244.465	325.31
244.699	297.31
244.932	315.31
245.166	303.31
245.399	311.31
245.633	324.31
245.866	320.31
246.099	308.31
246.333	299.31
246.566	304.31
246.8	313.31
247.033	297.31
247.266	299.31
247.5	304.31
247.733	320.31
247.966	329.31
248.2	350.31
248.433	387.31
248.666	417.31
248.899	393.31
249.133	368.31
249.366	396.31
249.599	410.31
249.832	460.31
250.066	454.31
250.299	393.31
250.532	374.31
250.765	354.31
250.998	320.31
251.231	330.31
251.465	315.31
251.698	347.31
251.931	362.31
252.164	346.31
252.397	370.31
252.63	353.31
252.863	382.31
253.096	363.31
253.329	357.31
253.562	368.31
253.795	374.31
254.028	377.31
254.261	375.31
254.494	403.31
254.727	450.31
254.96	534.31
255.193	513.31
255.426	432.31
255.659	396.31
255.892	377.31
256.124	390.31
256.357	399.31
256.59	414.31
256.823	412.31
257.056	478.31
257.289	573.31
257.521	624.31
257.754	524.31
257.987	454.31
258.22	414.31
258.452	408.31
258.685	408.31
258.918	426.31
259.151	462.31
259.383	473.31
259.616	509.31
259.849	539.31
260.081	479.31
260.314	432.31
260.547	448.31
260.779	438.31
261.012	433.31
261.244	443.31
261.477	441.31
261.71	443.31
261.942	467.31
262.175	478.31
262.407	486.31
262.64	495.31
262.872	508.31
263.105	516.31
263.337	572.31
263.57	560.31
263.802	577.31
264.035	581.31
264.267	603.31
264.499	631.31
264.732	644.31
264.964	647.31
265.197	645.31
265.429	655.31
265.661	681.31
265.894	699.31
266.126	776.31
266.358	855.31
266.591	819.31
266.823	689.31
267.055	650.31
267.287	608.31
267.52	624.31
267.752	593.31
267.984	571.31
268.216	562.31
268.448	559.31
268.681	574.31
268.913	555.31
269.145	572.31
269.377	576.31
269.609	571.31
269.841	582.31
270.073	615.31
270.306	698.31
270.538	933.31
270.77	1373.31
271.002	1677.31
271.234	1175.31
271.466	800.31
271.698	642.31
271.93	599.31
272.162	569.31
272.394	563.31
272.626	567.31
272.858	553.31
273.09	548.31
273.322	527.31
273.553	550.31
273.785	547.31
274.017	534.31
274.249	541.31
274.481	554.31
274.713	546.31
274.945	555.31
275.176	533.31
275.408	546.31
275.64	553.31
275.872	547.31
276.104	574.31
276.335	585.31
276.567	574.31
276.799	555.31
277.031	587.31
277.262	587.31
277.494	588.31
277.726	664.31
277.957	746.31
278.189	852.31
278.421	825.31
278.652	740.31
278.884	707.31
279.115	664.31
279.347	633.31
279.579	605.31
279.81	615.31
280.042	638.31
280.273	631.31
280.505	622.31
280.736	647.31
280.968	683.31
281.199	742.31
281.431	834.31
281.662	817.31
281.894	726.31
282.125	711.31
282.356	729.31
282.588	714.31
282.819	732.31
283.051	766.31
283.282	848.31
283.513	1036.31
283.745	1532.31
283.976	2479.31
284.207	3518.31
284.439	3074.31
284.67	1811.31
284.901	1458.31
285.132	1436.31
285.364	1382.31
285.595	1096.31
285.826	1007.31
286.057	1192.31
286.288	1612.31
286.52	2209.31
286.751	2015.31
286.982	1223.31
287.213	900.31
287.444	827.31
287.675	790.31
287.906	754.31
288.138	725.31
288.369	725.31
288.6	713.31
288.831	716.31
289.062	716.31
289.293	712.31
289.524	742.31
289.755	744.31
289.986	751.31
290.217	748.31
290.448	741.31
290.679	762.31
290.91	758.31
291.141	802.31
291.371	817.31
291.602	841.31
291.833	823.31
292.064	763.31
292.295	714.31
292.526	714.31
292.757	670.31
292.987	708.31
293.218	716.31
293.449	715.31
293.68	689.31
293.91	694.31
294.141	692.31
294.372	670.31
294.603	686.31
294.833	690.31
295.064	724.31
295.295	678.31
295.525	710.31
295.756	679.31
295.987	666.31
296.217	692.31
296.448	697.31
296.679	695.31
296.909	691.31
297.14	703.31
297.37	718.31
297.601	712.31
297.831	710.31
298.062	733.31
298.292	698.31
298.523	721.31
298.753	717.31
298.984	745.31
299.214	751.31
299.445	773.31
299.675	772.31
299.905	775.31
300.136	809.31
300.366	907.31
300.597	1160.31
300.827	1629.31
301.057	2198.31
301.288	2164.31
301.518	1348.31
301.748	1054.31
301.979	977.31
302.209	935.31
302.439	957.31
302.669	1023.31
302.9	1205.31
303.13	1691.31
303.36	2515.31
303.59	3378.31
303.82	2940.31
304.051	1691.31
304.281	1225.31
304.511	1016.31
304.741	956.31
304.971	938.31
305.201	881.31
305.431	833.31
305.661	866.31
305.891	803.31
306.121	808.31
306.352	821.31
306.582	816.31
306.812	817.31
307.042	807.31
307.272	780.31
307.502	790.31
307.731	791.31
307.961	790.31
308.191	804.31
308.421	802.31
308.651	801.31
308.881	798.31
309.111	803.31
309.341	777.31
309.571	801.31
309.8	830.31
310.03	832.31
310.26	814.31
310.49	817.31
310.72	801.31
310.949	810.31
311.179	807.31
311.409	820.31
311.639	824.31
311.868	826.31
312.098	827.31
312.328	830.31
312.557	856.31
312.787	869.31
313.017	851.31
313.246	873.31
313.476	888.31
313.706	870.31
313.935	934.31
314.165	986.31
314.394	996.31
314.624	983.31
314.853	912.31
315.083	910.31
315.312	922.31
315.542	912.31
315.771	938.31
316.001	943.31
316.23	982.31
316.46	1015.31
316.689	1070.31
316.919	1386.31
317.148	1918.31
317.377	2948.31
317.607	4491.31
317.836	4610.31
318.065	2574.31
318.295	1686.31
318.524	1332.31
318.753	1176.31
318.983	1119.31
319.212	1079.31
319.441	1025.31
319.67	1006.31
319.9	979.31
320.129	995.31
320.358	1023.31
320.587	997.31
320.816	995.31
321.046	1008.31
321.275	1022.31
321.504	992.31
321.733	1017.31
321.962	1044.31
322.191	1073.31
322.42	1075.31
322.649	1046.31
322.878	1058.31
323.108	1038.31
323.337	1087.31
323.566	1118.31
323.795	1112.31
324.024	1111.31
324.253	1198.31
324.482	1165.31
324.71	1220.31
324.939	1304.31
325.168	1348.31
325.397	1392.31
325.626	1607.31
325.855	2262.31
326.084	3629.31
326.313	5420.31
326.542	5754.31
326.77	3551.31
326.999	2304.31
327.228	1934.31
327.457	1850.31
327.686	1834.31
327.914	1931.31
328.143	2200.31
328.372	2624.31
328.6	2851.31
328.829	2572.31
329.058	2261.31
329.287	1991.31
329.515	1866.31
329.744	1752.31
329.972	1624.31
330.201	1579.31
330.43	1494.31
330.658	1498.31
330.887	1427.31
331.115	1461.31
331.344	1474.31
331.572	1420.31
331.801	1444.31
332.03	1438.31
332.258	1450.31
332.486	1506.31
332.715	1733.31
332.943	2146.31
333.172	2600.31
333.4	2599.31
333.629	1985.31
333.857	1797.31
334.085	1782.31
334.314	1881.31
334.542	2043.31
334.771	2315.31
334.999	2761.31
335.227	3400.31
335.455	3723.31
335.684	3496.31
335.912	2940.31
336.14	2570.31
336.369	2341.31
336.597	2115.31
336.825	1939.31
337.053	1849.31
337.281	1748.31
337.51	1675.31
337.738	1615.31
337.966	1527.31
338.194	1484.31
338.422	1467.31
338.65	1392.31
338.878	1430.31
339.106	1379.31
339.334	1370.31
339.562	1338.31
339.79	1335.31
340.018	1289.31
340.246	1264.31
340.474	1290.31
340.702	1284.31
340.93	1296.31
341.158	1267.31
341.386	1268.31
341.614	1288.31
341.842	1250.31
342.07	1224.31
342.298	1182.31
342.526	1160.31
342.754	1172.31
342.981	1169.31
343.209	1159.31
343.437	1162.31
343.665	1190.31
343.893	1222.31
344.12	1230.31
344.348	1170.31
344.576	1185.31
344.804	1166.31
345.031	1151.31
345.259	1119.31
345.487	1106.31
345.714	1119.31
345.942	1107.31
346.17	1095.31
346.397	1092.31
346.625	1100.31
346.853	1108.31
347.08	1110.31
347.308	1090.31
347.535	1110.31
347.763	1120.31
347.99	1046.31
348.218	1085.31
348.445	1069.31
348.673	1059.31
348.9	1090.31
349.128	1043.31
349.355	1048.31
349.583	1073.31
349.81	1030.31
350.037	1048.31
350.265	1026.31
350.492	1042.31
350.72	1058.31
350.947	1039.31
351.174	1015.31
351.402	1075.31
351.629	1048.31
351.856	1053.31
352.083	1029.31
352.311	1002.31
352.538	1023.31
352.765	1039.31
352.992	1012.31
353.22	1018.31
353.447	1049.31
353.674	1042.31
353.901	1053.31
354.128	1047.31
354.355	1037.31
354.583	1023.31
354.81	1063.31
355.037	1054.31
355.264	1019.31
355.491	1082.31
355.718	1062.31
355.945	1038.31
356.172	1059.31
356.399	1045.31
356.626	1048.31
356.853	1123.31
357.08	1090.31
357.307	1102.31
357.534	1096.31
357.761	1084.31
357.988	1109.31
358.215	1091.31
358.441	1110.31
358.668	1100.31
358.895	1112.31
359.122	1105.31
359.349	1096.31
359.576	1119.31
359.802	1087.31
360.029	1080.31
360.256	1099.31
360.483	1120.31
360.709	1076.31
360.936	1096.31
361.163	1097.31
361.39	1087.31
361.616	1089.31
361.843	1104.31
362.07	1095.31
362.296	1093.31
362.523	1116.31
362.749	1093.31
362.976	1125.31
363.203	1105.31
363.429	1085.31
363.656	1100.31
363.882	1099.31
364.109	1089.31
364.335	1097.31
364.562	1086.31
364.788	1099.31
365.015	1118.31
365.241	1119.31
365.468	1163.31
365.694	1207.31
365.92	1196.31
366.147	1139.31
366.373	1103.31
366.599	1122.31
366.826	1130.31
367.052	1094.31
367.278	1136.31
367.505	1123.31
367.731	1122.31
367.957	1126.31
368.184	1144.31
368.41	1152.31
368.636	1155.31
368.862	1123.31
369.089	1151.31
369.315	1138.31
369.541	1149.31
369.767	1156.31
369.993	1132.31
370.219	1123.31
370.445	1142.31
370.672	1160.31
370.898	1177.31
371.124	1178.31
371.35	1173.31
371.576	1176.31
371.802	1158.31
372.028	1183.31
372.254	1189.31
372.48	1183.31
372.706	1248.31
372.932	1202.31
373.158	1216.31
373.384	1216.31
373.61	1239.31
373.835	1189.31
374.061	1201.31
374.287	1214.31
374.513	1225.31
374.739	1238.31
374.965	1258.31
375.191	1261.31
375.416	1264.31
375.642	1207.31
375.868	1224.31
376.094	1239.31
376.319	1207.31
376.545	1223.31
376.771	1163.31
376.997	1183.31
377.222	1173.31
377.448	1188.31
377.674	1206.31
377.899	1182.31
378.125	1186.31
378.35	1203.31
378.576	1179.31
378.802	1214.31
379.027	1187.31
379.253	1264.31
379.478	1332.31
379.704	1554.31
379.929	2129.31
380.155	3226.31
380.38	3489.31
380.606	2122.31
380.831	1491.31
381.057	1314.31
381.282	1279.31
381.507	1215.31
381.733	1225.31
381.958	1194.31
382.184	1138.31
382.409	1190.31
382.634	1172.31
382.86	1170.31
383.085	1149.31
383.31	1164.31
383.535	1183.31
383.761	1163.31
383.986	1197.31
384.211	1200.31
384.436	1219.31
384.662	1207.31
384.887	1202.31
385.112	1200.31
385.337	1208.31
385.562	1187.31
385.787	1229.31
386.013	1240.31
386.238	1192.31
386.463	1226.31
386.688	1224.31
386.913	1198.31
387.138	1234.31
387.363	1203.31
387.588	1228.31
387.813	1221.31
388.038	1235.31
388.263	1180.31
388.488	1219.31
388.713	1200.31
388.938	1205.31
389.163	1171.31
389.387	1227.31
389.612	1227.31
389.837	1219.31
390.062	1239.31
390.287	1226.31
390.512	1218.31
390.736	1241.31
390.961	1262.31
391.186	1253.31
391.411	1238.31
391.636	1284.31
391.86	1256.31
392.085	1292.31
392.31	1298.31
392.534	1273.31
392.759	1251.31
392.984	1246.31
393.208	1243.31
393.433	1253.31
393.658	1283.31
393.882	1254.31
394.107	1222.31
394.331	1250.31
394.556	1246.31
394.78	1247.31
395.005	1238.31
395.229	1256.31
395.454	1280.31
395.678	1278.31
395.903	1290.31
396.127	1254.31
396.352	1245.31
396.576	1269.31
396.801	1271.31
397.025	1288.31
397.249	1286.31
397.474	1281.31
397.698	1259.31
397.922	1278.31
398.147	1286.31
398.371	1297.31
398.595	1364.31
398.82	1343.31
399.044	1386.31
399.268	1465.31
399.492	1540.31
399.717	1618.31
399.941	1612.31
400.165	1538.31
400.389	1510.31
400.613	1406.31
400.837	1415.31
401.062	1392.31
401.286	1353.31
401.51	1370.31
401.734	1343.31
401.958	1364.31
402.182	1347.31
402.406	1335.31
402.63	1344.31
402.854	1327.31
403.078	1343.31
403.302	1366.31
403.526	1399.31
403.75	1366.31
403.974	1433.31
404.198	1380.31
404.422	1400.31
404.645	1395.31
404.869	1408.31
405.093	1397.31
405.317	1378.31
405.541	1390.31
405.765	1422.31
405.988	1425.31
406.212	1394.31
406.436	1444.31
406.66	1425.31
406.883	1425.31
407.107	1470.31
407.331	1483.31
407.555	1480.31
407.778	1484.31
408.002	1513.31
408.226	1488.31
408.449	1467.31
408.673	1469.31
408.896	1414.31
409.12	1408.31
409.344	1459.31
409.567	1396.31
409.791	1402.31
410.014	1391.31
410.238	1377.31
410.461	1377.31
410.685	1399.31
410.908	1396.31
411.132	1371.31
411.355	1298.31
411.578	1357.31
411.802	1315.31
412.025	1345.31
412.249	1361.31
412.472	1346.31
412.695	1323.31
412.919	1338.31
413.142	1319.31
413.365	1308.31
413.589	1330.31
413.812	1309.31
414.035	1307.31
414.258	1329.31
414.482	1337.31
414.705	1336.31
414.928	1286.31
415.151	1311.31
415.374	1304.31
415.597	1302.31
415.821	1258.31
416.044	1305.31
416.267	1271.31
416.49	1262.31
416.713	1266.31
416.936	1278.31
417.159	1254.31
417.382	1258.31
417.605	1284.31
417.828	1249.31
418.051	1265.31
418.274	1272.31
418.497	1287.31
418.72	1318.31
418.943	1327.31
419.166	1327.31
419.389	1422.31
419.611	1399.31
419.834	1366.31
420.057	1315.31
420.28	1267.31
420.503	1279.31
420.726	1240.31
420.948	1239.31
421.171	1273.31
421.394	1258.31
421.617	1289.31
421.839	1290.31
422.062	1306.31
422.285	1251.31
422.507	1278.31
422.73	1305.31
422.953	1316.31
423.175	1304.31
423.398	1319.31
423.621	1273.31
423.843	1320.31
424.066	1281.31
424.288	1296.31
424.511	1246.31
424.733	1251.31
424.956	1266.31
425.178	1250.31
425.401	1284.31
425.623	1278.31
425.846	1224.31
426.068	1247.31
426.291	1247.31
426.513	1217.31
426.735	1238.31
426.958	1209.31
427.18	1213.31
427.402	1210.31
427.625	1187.31
427.847	1146.31
428.069	1182.31
428.292	1216.31
428.514	1196.31
428.736	1201.31
428.958	1202.31
429.181	1166.31
429.403	1165.31
429.625	1174.31
429.847	1212.31
430.069	1187.31
430.292	1224.31
430.514	1250.31
430.736	1256.31
430.958	1208.31
431.18	1190.31
431.402	1167.31
431.624	1170.31
431.846	1163.31
432.068	1150.31
432.29	1166.31
432.512	1158.31
432.734	1192.31
432.956	1154.31
433.178	1199.31
433.4	1194.31
433.622	1194.31
433.844	1178.31
434.066	1191.31
434.287	1166.31
434.509	1177.31
434.731	1195.31
434.953	1211.31
435.175	1200.31
435.397	1246.31
435.618	1180.31
435.84	1156.31
436.062	1164.31
436.284	1165.31
436.505	1163.31
436.727	1175.31
436.949	1166.31
437.17	1180.31
437.392	1134.31
437.614	1164.31
437.835	1150.31
438.057	1131.31
438.278	1096.31
438.5	1120.31
438.721	1144.31
438.943	1161.31
439.165	1206.31
439.386	1218.31
439.608	1254.31
439.829	1183.31
440.05	1243.31
440.272	1254.31
440.493	1179.31
440.715	1196.31
440.936	1224.31
441.158	1214.31
441.379	1239.31
441.6	1254.31
441.822	1306.31
442.043	1355.31
442.264	1395.31
442.486	1306.31
442.707	1258.31
442.928	1257.31
443.149	1231.31
443.371	1235.31
443.592	1289.31
443.813	1285.31
444.034	1268.31
444.255	1287.31
444.476	1351.31
444.698	1348.31
444.919	1354.31
445.14	1443.31
445.361	1354.31
445.582	1300.31
445.803	1271.31
446.024	1258.31
446.245	1240.31
446.466	1239.31
446.687	1238.31
446.908	1248.31
447.129	1172.31
447.35	1216.31
447.571	1183.31
447.792	1178.31
448.013	1136.31
448.234	1131.31
448.455	1182.31
448.675	1150.31
448.896	1185.31
449.117	1202.31
449.338	1322.31
449.559	1396.31
449.779	1244.31
450	1161.31
450.221	1130.31
450.442	1167.31
450.662	1117.31
450.883	1127.31
451.104	1094.31
451.324	1148.31
451.545	1130.31
451.766	1164.31
451.986	1154.31
452.207	1204.31
452.428	1482.31
452.648	2090.31
452.869	1823.31
453.089	1330.31
453.31	1237.31
453.53	1229.31
453.751	1304.31
453.971	1347.31
454.192	1364.31
454.412	1188.31
454.633	1110.31
454.853	1096.31
455.073	1078.31
455.294	1090.31
455.514	1075.31
455.734	1051.31
455.955	1050.31
456.175	1074.31
456.395	1083.31
456.616	1075.31
456.836	1067.31
457.056	1097.31
457.276	1072.31
457.497	1171.31
457.717	1176.31
457.937	1135.31
458.157	1107.31
458.377	1098.31
458.598	1122.31
458.818	1150.31
459.038	1138.31
459.258	1126.31
459.478	1123.31
459.698	1156.31
459.918	1175.31
460.138	1189.31
460.358	1223.31
460.578	1243.31
460.798	1231.31
461.018	1278.31
461.238	1262.31
461.458	1316.31
461.678	1268.31
461.898	1304.31
462.118	1286.31
462.338	1318.31
462.558	1342.31
462.777	1372.31
462.997	1412.31
463.217	1482.31
463.437	1479.31
463.657	1506.31
463.876	1516.31
464.096	1454.31
464.316	1400.31
464.536	1364.31
464.755	1324.31
464.975	1322.31
465.195	1304.31
465.414	1264.31
465.634	1225.31
465.854	1208.31
466.073	1202.31
466.293	1171.31
466.512	1186.31
466.732	1194.31
466.951	1227.31
467.171	1329.31
467.391	1321.31
467.61	1224.31
467.829	1165.31
468.049	1159.31
468.268	1170.31
468.488	1136.31
468.707	1125.31
468.927	1182.31
469.146	1117.31
469.365	1169.31
469.585	1186.31
469.804	1208.31
470.023	1214.31
470.243	1220.31
470.462	1238.31
470.681	1315.31
470.901	1439.31
471.12	1658.31
471.339	1673.31
471.558	1383.31
471.777	1278.31
471.997	1190.31
472.216	1189.31
472.435	1138.31
472.654	1154.31
472.873	1150.31
473.092	1132.31
473.311	1166.31
473.53	1169.31
473.749	1143.31
473.968	1210.31
474.187	1170.31
474.406	1142.31
474.625	1150.31
474.844	1185.31
475.063	1164.31
475.282	1186.31
475.501	1167.31
475.72	1152.31
475.939	1166.31
476.158	1188.31
476.377	1208.31
476.596	1219.31
476.814	1210.31
477.033	1195.31
477.252	1235.31
477.471	1241.31
477.69	1272.31
477.908	1295.31
478.127	1311.31
478.346	1337.31
478.564	1342.31
478.783	1358.31
479.002	1376.31
479.22	1352.31
479.439	1372.31
479.658	1374.31
479.876	1359.31
480.095	1367.31
480.313	1406.31
480.532	1416.31
480.751	1418.31
480.969	1363.31
481.188	1346.31
481.406	1342.31
481.624	1336.31
481.843	1391.31
482.061	1378.31
482.28	1353.31
482.498	1347.31
482.717	1355.31
482.935	1387.31
483.153	1431.31
483.372	1410.31
483.59	1447.31
483.808	1442.31
484.027	1504.31
484.245	1554.31
484.463	1744.31
484.681	1958.31
484.9	1755.31
485.118	1650.31
485.336	1622.31
485.554	1593.31
485.772	1688.31
485.99	1918.31
486.209	2162.31
486.427	1757.31
486.645	1574.31
486.863	1531.31
487.081	1498.31
487.299	1480.31
487.517	1473.31
487.735	1469.31
487.953	1505.31
488.171	1502.31
488.389	1491.31
488.607	1421.31
488.825	1422.31
489.043	1411.31
489.261	1385.31
489.479	1414.31
489.696	1458.31
489.914	1402.31
490.132	1409.31
490.35	1471.31
490.568	1507.31
490.786	1496.31
