Data from SnStandardFlinnAPT0064_LampEnergy10_LIBS07252019.E.O._I.C._HRD10591_15-22-07-494.txt Node
Date: Thu Jul 25 15:22:07 EDT 2019
User: cochatt
Spectrometer: HR+D1059
Trigger mode: 1
Integration Time (sec): 1.000000E-1
Scans to average: 1
Electric dark correction enabled: true
Nonlinearity correction enabled: false
Boxcar width: 0
XAxis mode: Wavelengths
Number of Pixels in Spectrum: 2048
>>>>>Begin Spectral Data<<<<<
223.165	-17.38
223.4	-17.38
223.635	-17.38
223.869	-8.38
224.104	-16.38
224.338	-22.38
224.573	-2.38
224.808	-9.38
225.042	1.62
225.277	-10.38
225.511	-11.38
225.746	-6.38
225.98	-2.38
226.215	9.62
226.449	19.62
226.683	18.62
226.918	29.62
227.152	27.62
227.387	21.62
227.621	44.62
227.856	43.62
228.09	53.62
228.324	27.62
228.559	53.62
228.793	127.62
229.027	300.62
229.262	318.62
229.496	309.62
229.73	297.62
229.964	305.62
230.199	293.62
230.433	302.62
230.667	305.62
230.901	309.62
231.136	328.62
231.37	360.62
231.604	374.62
231.838	437.62
232.072	524.62
232.306	539.62
232.541	473.62
232.775	426.62
233.009	383.62
233.243	397.62
233.477	449.62
233.711	502.62
233.945	571.62
234.179	485.62
234.413	445.62
234.647	421.62
234.881	459.62
235.115	507.62
235.349	610.62
235.583	721.62
235.817	970.62
236.051	946.62
236.285	650.62
236.519	527.62
236.753	491.62
236.987	482.62
237.221	538.62
237.455	502.62
237.689	462.62
237.922	448.62
238.156	439.62
238.39	447.62
238.624	476.62
238.858	471.62
239.091	480.62
239.325	461.62
239.559	514.62
239.793	494.62
240.027	523.62
240.26	529.62
240.494	534.62
240.728	576.62
240.961	613.62
241.195	635.62
241.429	645.62
241.662	668.62
241.896	748.62
242.13	924.62
242.363	1201.62
242.597	1560.62
242.83	1461.62
243.064	1448.62
243.298	1747.62
243.531	1409.62
243.765	923.62
243.998	746.62
244.232	684.62
244.465	639.62
244.699	643.62
244.932	647.62
245.166	646.62
245.399	682.62
245.633	701.62
245.866	685.62
246.099	642.62
246.333	659.62
246.566	633.62
246.8	638.62
247.033	633.62
247.266	618.62
247.5	634.62
247.733	654.62
247.966	703.62
248.2	755.62
248.433	855.62
248.666	951.62
248.899	921.62
249.133	845.62
249.366	862.62
249.599	935.62
249.832	1060.62
250.066	1066.62
250.299	846.62
250.532	757.62
250.765	743.62
250.998	753.62
251.231	706.62
251.465	711.62
251.698	722.62
251.931	750.62
252.164	746.62
252.397	755.62
252.63	785.62
252.863	782.62
253.096	774.62
253.329	779.62
253.562	749.62
253.795	750.62
254.028	801.62
254.261	802.62
254.494	855.62
254.727	1004.62
254.96	1209.62
255.193	1172.62
255.426	952.62
255.659	869.62
255.892	869.62
256.124	886.62
256.357	835.62
256.59	893.62
256.823	985.62
257.056	1086.62
257.289	1277.62
257.521	1445.62
257.754	1187.62
257.987	965.62
258.22	891.62
258.452	905.62
258.685	902.62
258.918	922.62
259.151	996.62
259.383	1111.62
259.616	1166.62
259.849	1264.62
260.081	1097.62
260.314	994.62
260.547	922.62
260.779	941.62
261.012	960.62
261.244	958.62
261.477	985.62
261.71	974.62
261.942	996.62
262.175	1015.62
262.407	1061.62
262.64	1038.62
262.872	1094.62
263.105	1130.62
263.337	1209.62
263.57	1241.62
263.802	1315.62
264.035	1307.62
264.267	1316.62
264.499	1361.62
264.732	1441.62
264.964	1429.62
265.197	1447.62
265.429	1423.62
265.661	1480.62
265.894	1545.62
266.126	1695.62
266.358	1912.62
266.591	1884.62
266.823	1559.62
267.055	1461.62
267.287	1405.62
267.52	1330.62
267.752	1323.62
267.984	1305.62
268.216	1272.62
268.448	1223.62
268.681	1233.62
268.913	1218.62
269.145	1199.62
269.377	1241.62
269.609	1260.62
269.841	1245.62
270.073	1316.62
270.306	1573.62
270.538	2057.62
270.77	3019.62
271.002	3775.62
271.234	2663.62
271.466	1803.62
271.698	1481.62
271.93	1343.62
272.162	1339.62
272.394	1280.62
272.626	1265.62
272.858	1246.62
273.09	1188.62
273.322	1196.62
273.553	1213.62
273.785	1197.62
274.017	1209.62
274.249	1209.62
274.481	1183.62
274.713	1178.62
274.945	1216.62
275.176	1167.62
275.408	1189.62
275.64	1194.62
275.872	1193.62
276.104	1242.62
276.335	1260.62
276.567	1253.62
276.799	1243.62
277.031	1268.62
277.262	1294.62
277.494	1385.62
277.726	1535.62
277.957	1801.62
278.189	2076.62
278.421	1902.62
278.652	1729.62
278.884	1682.62
279.115	1492.62
279.347	1396.62
279.579	1364.62
279.81	1375.62
280.042	1398.62
280.273	1401.62
280.505	1452.62
280.736	1413.62
280.968	1541.62
281.199	1738.62
281.431	1994.62
281.662	2041.62
281.894	1749.62
282.125	1620.62
282.356	1612.62
282.588	1588.62
282.819	1645.62
283.051	1794.62
283.282	1966.62
283.513	2374.62
283.745	3474.62
283.976	5421.62
284.207	7725.62
284.439	7031.62
284.67	4330.62
284.901	3617.62
285.132	3623.62
285.364	3434.62
285.595	2615.62
285.826	2383.62
286.057	2753.62
286.288	3751.62
286.52	4990.62
286.751	4711.62
286.982	2938.62
287.213	2211.62
287.444	1980.62
287.675	1857.62
287.906	1747.62
288.138	1716.62
288.369	1687.62
288.6	1651.62
288.831	1651.62
289.062	1663.62
289.293	1663.62
289.524	1645.62
289.755	1657.62
289.986	1709.62
290.217	1701.62
290.448	1688.62
290.679	1747.62
290.91	1801.62
291.141	1883.62
291.371	1969.62
291.602	2109.62
291.833	1889.62
292.064	1719.62
292.295	1675.62
292.526	1633.62
292.757	1613.62
292.987	1560.62
293.218	1583.62
293.449	1568.62
293.68	1595.62
293.91	1589.62
294.141	1573.62
294.372	1571.62
294.603	1563.62
294.833	1541.62
295.064	1539.62
295.295	1551.62
295.525	1558.62
295.756	1533.62
295.987	1550.62
296.217	1537.62
296.448	1560.62
296.679	1579.62
296.909	1551.62
297.14	1602.62
297.37	1605.62
297.601	1585.62
297.831	1631.62
298.062	1601.62
298.292	1639.62
298.523	1670.62
298.753	1704.62
298.984	1665.62
299.214	1703.62
299.445	1757.62
299.675	1747.62
299.905	1825.62
300.136	1901.62
300.366	2121.62
300.597	2661.62
300.827	3724.62
301.057	5029.62
301.288	4984.62
301.518	3274.62
301.748	2518.62
301.979	2276.62
302.209	2223.62
302.439	2246.62
302.669	2412.62
302.9	2849.62
303.13	4040.62
303.36	5889.62
303.59	7833.62
303.82	6837.62
304.051	4063.62
304.281	2964.62
304.511	2482.62
304.741	2263.62
304.971	2152.62
305.201	2061.62
305.431	1957.62
305.661	1903.62
305.891	1885.62
306.121	1884.62
306.352	1861.62
306.582	1849.62
306.812	1827.62
307.042	1850.62
307.272	1807.62
307.502	1798.62
307.731	1793.62
307.961	1811.62
308.191	1799.62
308.421	1814.62
308.651	1818.62
308.881	1779.62
309.111	1842.62
309.341	1803.62
309.571	1838.62
309.8	1841.62
310.03	1813.62
310.26	1837.62
310.49	1868.62
310.72	1873.62
310.949	1851.62
311.179	1881.62
311.409	1910.62
311.639	1927.62
311.868	1913.62
312.098	1919.62
312.328	1924.62
312.557	1957.62
312.787	1950.62
313.017	1977.62
313.246	1996.62
313.476	1973.62
313.706	2055.62
313.935	2178.62
314.165	2322.62
314.394	2456.62
314.624	2309.62
314.853	2170.62
315.083	2139.62
315.312	2162.62
315.542	2170.62
315.771	2148.62
316.001	2214.62
316.23	2297.62
316.46	2420.62
316.689	2635.62
316.919	3145.62
317.148	4523.62
317.377	6845.62
317.607	10052.62
317.836	10337.62
318.065	6277.62
318.295	4159.62
318.524	3340.62
318.753	2902.62
318.983	2653.62
319.212	2484.62
319.441	2537.62
319.67	2397.62
319.9	2386.62
320.129	2320.62
320.358	2314.62
320.587	2323.62
320.816	2363.62
321.046	2345.62
321.275	2328.62
321.504	2393.62
321.733	2386.62
321.962	2485.62
322.191	2490.62
322.42	2459.62
322.649	2398.62
322.878	2464.62
323.108	2461.62
323.337	2440.62
323.566	2481.62
323.795	2551.62
324.024	2599.62
324.253	2692.62
324.482	2758.62
324.71	2930.62
324.939	3139.62
325.168	3202.62
325.397	3303.62
325.626	3909.62
325.855	5389.62
326.084	8505.62
326.313	12305.62
326.542	13020.62
326.77	8667.62
326.999	5703.62
327.228	4818.62
327.457	4582.62
327.686	4675.62
327.914	4995.62
328.143	5791.62
328.372	6818.62
328.6	7488.62
328.829	6675.62
329.058	5581.62
329.287	4941.62
329.515	4505.62
329.744	4182.62
329.972	3991.62
330.201	3802.62
330.43	3651.62
330.658	3588.62
330.887	3558.62
331.115	3435.62
331.344	3454.62
331.572	3416.62
331.801	3411.62
332.03	3432.62
332.258	3501.62
332.486	3665.62
332.715	4222.62
332.943	5131.62
333.172	6362.62
333.4	6342.62
333.629	4859.62
333.857	4456.62
334.085	4405.62
334.314	4652.62
334.542	4931.62
334.771	5745.62
334.999	7125.62
335.227	8983.62
335.455	9990.62
335.684	9029.62
335.912	7419.62
336.14	6321.62
336.369	5594.62
336.597	5100.62
336.825	4714.62
337.053	4441.62
337.281	4177.62
337.51	3932.62
337.738	3772.62
337.966	3632.62
338.194	3531.62
338.422	3468.62
338.65	3349.62
338.878	3269.62
339.106	3202.62
339.334	3209.62
339.562	3108.62
339.79	3037.62
340.018	3051.62
340.246	3004.62
340.474	3011.62
340.702	2996.62
340.93	2978.62
341.158	2998.62
341.386	2933.62
341.614	2932.62
341.842	2906.62
342.07	2810.62
342.298	2789.62
342.526	2785.62
342.754	2723.62
342.981	2731.62
343.209	2705.62
343.437	2745.62
343.665	2805.62
343.893	2805.62
344.12	2811.62
344.348	2782.62
344.576	2771.62
344.804	2719.62
345.031	2608.62
345.259	2607.62
345.487	2582.62
345.714	2566.62
345.942	2549.62
346.17	2538.62
346.397	2570.62
346.625	2518.62
346.853	2540.62
347.08	2502.62
347.308	2502.62
347.535	2542.62
347.763	2559.62
347.99	2499.62
348.218	2490.62
348.445	2462.62
348.673	2479.62
348.9	2433.62
349.128	2445.62
349.355	2452.62
349.583	2423.62
349.81	2403.62
350.037	2396.62
350.265	2417.62
350.492	2393.62
350.72	2369.62
350.947	2348.62
351.174	2433.62
351.402	2389.62
351.629	2414.62
351.856	2415.62
352.083	2381.62
352.311	2408.62
352.538	2342.62
352.765	2345.62
352.992	2329.62
353.22	2371.62
353.447	2347.62
353.674	2377.62
353.901	2336.62
354.128	2352.62
354.355	2363.62
354.583	2401.62
354.81	2401.62
355.037	2421.62
355.264	2433.62
355.491	2410.62
355.718	2440.62
355.945	2470.62
356.172	2418.62
356.399	2454.62
356.626	2472.62
356.853	2497.62
357.08	2487.62
357.307	2521.62
357.534	2556.62
357.761	2559.62
357.988	2559.62
358.215	2506.62
358.441	2537.62
358.668	2540.62
358.895	2507.62
359.122	2528.62
359.349	2494.62
359.576	2481.62
359.802	2508.62
360.029	2449.62
360.256	2529.62
360.483	2601.62
360.709	2532.62
360.936	2537.62
361.163	2517.62
361.39	2532.62
361.616	2574.62
361.843	2541.62
362.07	2588.62
362.296	2550.62
362.523	2569.62
362.749	2606.62
362.976	2531.62
363.203	2555.62
363.429	2531.62
363.656	2530.62
363.882	2522.62
364.109	2514.62
364.335	2499.62
364.562	2509.62
364.788	2562.62
365.015	2583.62
365.241	2622.62
365.468	2761.62
365.694	2921.62
365.92	2872.62
366.147	2632.62
366.373	2603.62
366.599	2614.62
366.826	2558.62
367.052	2548.62
367.278	2595.62
367.505	2644.62
367.731	2619.62
367.957	2587.62
368.184	2644.62
368.41	2662.62
368.636	2635.62
368.862	2660.62
369.089	2628.62
369.315	2643.62
369.541	2585.62
369.767	2606.62
369.993	2591.62
370.219	2634.62
370.445	2652.62
370.672	2642.62
370.898	2620.62
371.124	2624.62
371.35	2727.62
371.576	2711.62
371.802	2727.62
372.028	2756.62
372.254	2751.62
372.48	2733.62
372.706	2746.62
372.932	2796.62
373.158	2790.62
373.384	2735.62
373.61	2791.62
373.835	2779.62
374.061	2796.62
374.287	2829.62
374.513	2849.62
374.739	2855.62
374.965	2878.62
375.191	2916.62
375.416	2893.62
375.642	2817.62
375.868	2839.62
376.094	2825.62
376.319	2765.62
376.545	2740.62
376.771	2748.62
376.997	2704.62
377.222	2729.62
377.448	2689.62
377.674	2778.62
377.899	2717.62
378.125	2716.62
378.35	2735.62
378.576	2700.62
378.802	2730.62
379.027	2830.62
379.253	2877.62
379.478	3021.62
379.704	3546.62
379.929	5025.62
380.155	7619.62
380.38	8284.62
380.606	5129.62
380.831	3628.62
381.057	3227.62
381.282	3001.62
381.507	2829.62
381.733	2794.62
381.958	2683.62
382.184	2719.62
382.409	2668.62
382.634	2673.62
382.86	2689.62
383.085	2646.62
383.31	2659.62
383.535	2645.62
383.761	2709.62
383.986	2715.62
384.211	2711.62
384.436	2757.62
384.662	2756.62
384.887	2747.62
385.112	2737.62
385.337	2831.62
385.562	2750.62
385.787	2776.62
386.013	2764.62
386.238	2782.62
386.463	2777.62
386.688	2781.62
386.913	2715.62
387.138	2741.62
387.363	2725.62
387.588	2742.62
387.813	2738.62
388.038	2735.62
388.263	2738.62
388.488	2758.62
388.713	2755.62
388.938	2790.62
389.163	2739.62
389.387	2763.62
389.612	2750.62
389.837	2765.62
390.062	2760.62
390.287	2806.62
390.512	2828.62
390.736	2799.62
390.961	2874.62
391.186	2862.62
391.411	2874.62
391.636	2939.62
391.86	2941.62
392.085	2945.62
392.31	2891.62
392.534	2875.62
392.759	2874.62
392.984	2830.62
393.208	2837.62
393.433	2833.62
393.658	2848.62
393.882	2798.62
394.107	2816.62
394.331	2761.62
394.556	2794.62
394.78	2819.62
395.005	2821.62
395.229	2804.62
395.454	2881.62
395.678	2888.62
395.903	2899.62
396.127	2896.62
396.352	2881.62
396.576	2875.62
396.801	2895.62
397.025	2874.62
397.249	2919.62
397.474	2930.62
397.698	2947.62
397.922	2957.62
398.147	2910.62
398.371	2946.62
398.595	3031.62
398.82	3099.62
399.044	3205.62
399.268	3325.62
399.492	3557.62
399.717	3670.62
399.941	3621.62
400.165	3555.62
400.389	3393.62
400.613	3250.62
400.837	3127.62
401.062	3114.62
401.286	3077.62
401.51	3055.62
401.734	3059.62
401.958	3086.62
402.182	3045.62
402.406	3085.62
402.63	3065.62
402.854	3116.62
403.078	3136.62
403.302	3131.62
403.526	3170.62
403.75	3166.62
403.974	3185.62
404.198	3145.62
404.422	3196.62
404.645	3131.62
404.869	3135.62
405.093	3196.62
405.317	3159.62
405.541	3219.62
405.765	3263.62
405.988	3257.62
406.212	3249.62
406.436	3207.62
406.66	3297.62
406.883	3242.62
407.107	3428.62
407.331	3417.62
407.555	3540.62
407.778	3430.62
408.002	3397.62
408.226	3406.62
408.449	3415.62
408.673	3275.62
408.896	3271.62
409.12	3214.62
409.344	3203.62
409.567	3148.62
409.791	3172.62
410.014	3129.62
410.238	3135.62
410.461	3123.62
410.685	3140.62
410.908	3102.62
411.132	3095.62
411.355	2995.62
411.578	3089.62
411.802	3056.62
412.025	3088.62
412.249	3089.62
412.472	3035.62
412.695	3016.62
412.919	2987.62
413.142	2984.62
413.365	2983.62
413.589	3035.62
413.812	2969.62
414.035	2974.62
414.258	2970.62
414.482	2974.62
414.705	2986.62
414.928	2963.62
415.151	2991.62
415.374	2956.62
415.597	2967.62
415.821	2892.62
416.044	2873.62
416.267	2858.62
416.49	2909.62
416.713	2904.62
416.936	2901.62
417.159	2874.62
417.382	2854.62
417.605	2805.62
417.828	2801.62
418.051	2875.62
418.274	2891.62
418.497	2915.62
418.72	2930.62
418.943	2877.62
419.166	3004.62
419.389	3180.62
419.611	3146.62
419.834	3051.62
420.057	3009.62
420.28	2923.62
420.503	2862.62
420.726	2875.62
420.948	2852.62
421.171	2805.62
421.394	2883.62
421.617	2892.62
421.839	2888.62
422.062	2872.62
422.285	2849.62
422.507	2925.62
422.73	2913.62
422.953	2922.62
423.175	2972.62
423.398	2910.62
423.621	2847.62
423.843	2931.62
424.066	2947.62
424.288	2819.62
424.511	2793.62
424.733	2797.62
424.956	2849.62
425.178	2845.62
425.401	2834.62
425.623	2835.62
425.846	2786.62
426.068	2784.62
426.291	2755.62
426.513	2754.62
426.735	2741.62
426.958	2756.62
427.18	2697.62
427.402	2747.62
427.625	2738.62
427.847	2665.62
428.069	2665.62
428.292	2711.62
428.514	2665.62
428.736	2608.62
428.958	2659.62
429.181	2619.62
429.403	2614.62
429.625	2640.62
429.847	2616.62
430.069	2733.62
430.292	2751.62
430.514	2817.62
430.736	2815.62
430.958	2691.62
431.18	2628.62
431.402	2685.62
431.624	2611.62
431.846	2619.62
432.068	2533.62
432.29	2673.62
432.512	2581.62
432.734	2617.62
432.956	2598.62
433.178	2652.62
433.4	2646.62
433.622	2655.62
433.844	2667.62
434.066	2657.62
434.287	2655.62
434.509	2682.62
434.731	2718.62
434.953	2754.62
435.175	2742.62
435.397	2735.62
435.618	2659.62
435.84	2655.62
436.062	2582.62
436.284	2627.62
436.505	2606.62
436.727	2605.62
436.949	2609.62
437.17	2611.62
437.392	2574.62
437.614	2570.62
437.835	2547.62
438.057	2605.62
438.278	2502.62
438.5	2549.62
438.721	2585.62
438.943	2679.62
439.165	2687.62
439.386	2695.62
439.608	2707.62
439.829	2701.62
440.05	2789.62
440.272	2855.62
440.493	2756.62
440.715	2703.62
440.936	2718.62
441.158	2695.62
441.379	2773.62
441.6	2881.62
441.822	2887.62
442.043	3060.62
442.264	3152.62
442.486	2942.62
442.707	2903.62
442.928	2817.62
443.149	2821.62
443.371	2876.62
443.592	2832.62
443.813	2803.62
444.034	2855.62
444.255	2861.62
444.476	2908.62
444.698	2980.62
444.919	3063.62
445.14	3112.62
445.361	2960.62
445.582	2853.62
445.803	2810.62
446.024	2761.62
446.245	2758.62
446.466	2756.62
446.687	2762.62
446.908	2771.62
447.129	2685.62
447.35	2660.62
447.571	2619.62
447.792	2590.62
448.013	2631.62
448.234	2577.62
448.455	2563.62
448.675	2580.62
448.896	2696.62
449.117	2743.62
449.338	2947.62
449.559	3110.62
449.779	2732.62
450	2590.62
450.221	2520.62
450.442	2521.62
450.662	2518.62
450.883	2511.62
451.104	2481.62
451.324	2537.62
451.545	2520.62
451.766	2582.62
451.986	2579.62
452.207	2796.62
452.428	3585.62
452.648	5290.62
452.869	4421.62
453.089	3055.62
453.31	2929.62
453.53	2913.62
453.751	3018.62
453.971	3133.62
454.192	3037.62
454.412	2674.62
454.633	2503.62
454.853	2476.62
455.073	2455.62
455.294	2447.62
455.514	2433.62
455.734	2434.62
455.955	2407.62
456.175	2375.62
456.395	2432.62
456.616	2449.62
456.836	2444.62
457.056	2464.62
457.276	2442.62
457.497	2617.62
457.717	2635.62
457.937	2540.62
458.157	2571.62
458.377	2540.62
458.598	2555.62
458.818	2570.62
459.038	2637.62
459.258	2599.62
459.478	2691.62
459.698	2676.62
459.918	2714.62
460.138	2756.62
460.358	2827.62
460.578	2795.62
460.798	2827.62
461.018	2791.62
461.238	2912.62
461.458	2879.62
461.678	2860.62
461.898	2888.62
462.118	3023.62
462.338	3085.62
462.558	3157.62
462.777	3134.62
462.997	3228.62
463.217	3374.62
463.437	3450.62
463.657	3524.62
463.876	3511.62
464.096	3332.62
464.316	3178.62
464.536	3138.62
464.755	3073.62
464.975	2971.62
465.195	2887.62
465.414	2849.62
465.634	2790.62
465.854	2712.62
466.073	2703.62
466.293	2696.62
466.512	2657.62
466.732	2689.62
466.951	2810.62
467.171	2917.62
467.391	2903.62
467.61	2696.62
467.829	2603.62
468.049	2600.62
468.268	2525.62
468.488	2521.62
468.707	2530.62
468.927	2576.62
469.146	2522.62
469.365	2583.62
469.585	2631.62
469.804	2647.62
470.023	2749.62
470.243	2712.62
470.462	2859.62
470.681	2986.62
470.901	3273.62
471.12	3675.62
471.339	3673.62
471.558	3053.62
471.777	2909.62
471.997	2742.62
472.216	2647.62
472.435	2620.62
472.654	2620.62
472.873	2621.62
473.092	2595.62
473.311	2613.62
473.53	2628.62
473.749	2659.62
473.968	2760.62
474.187	2662.62
474.406	2570.62
474.625	2626.62
474.844	2642.62
475.063	2588.62
475.282	2627.62
475.501	2636.62
475.72	2630.62
475.939	2677.62
476.158	2655.62
476.377	2817.62
476.596	2741.62
476.814	2786.62
477.033	2781.62
477.252	2760.62
477.471	2779.62
477.69	2862.62
477.908	2903.62
478.127	2913.62
478.346	2957.62
478.564	2997.62
478.783	3026.62
479.002	3099.62
479.22	3058.62
479.439	3101.62
479.658	3110.62
479.876	3087.62
480.095	3082.62
480.313	3266.62
480.532	3217.62
480.751	3234.62
480.969	3143.62
481.188	3096.62
481.406	3154.62
481.624	3126.62
481.843	3114.62
482.061	3181.62
482.28	3112.62
482.498	3137.62
482.717	3165.62
482.935	3111.62
483.153	3234.62
483.372	3228.62
483.59	3263.62
483.808	3334.62
484.027	3375.62
484.245	3593.62
484.463	3934.62
484.681	4428.62
484.9	4021.62
485.118	3805.62
485.336	3670.62
485.554	3717.62
485.772	3961.62
485.99	4451.62
486.209	4706.62
486.427	4048.62
486.645	3581.62
486.863	3529.62
487.081	3398.62
487.299	3367.62
487.517	3296.62
487.735	3372.62
