Data from SnStandardFlinnAPT0064_LampEnergy5.5_LIBS07252019.E.O._I.C._HRD10591_15-15-28-491.txt Node
Date: Thu Jul 25 15:15:28 EDT 2019
User: cochatt
Spectrometer: HR+D1059
Trigger mode: 1
Integration Time (sec): 1.000000E-1
Scans to average: 1
Electric dark correction enabled: true
Nonlinearity correction enabled: false
Boxcar width: 0
XAxis mode: Wavelengths
Number of Pixels in Spectrum: 2048
>>>>>Begin Spectral Data<<<<<
223.165	-14.25
223.4	-14.25
223.635	-14.25
223.869	-8.25
224.104	-23.25
224.338	-19.25
224.573	-10.25
224.808	-9.25
225.042	-18.25
225.277	-16.25
225.511	-14.25
225.746	-10.25
225.98	26.75
226.215	17.75
226.449	16.75
226.683	18.75
226.918	23.75
227.152	39.75
227.387	29.75
227.621	40.75
227.856	42.75
228.09	55.75
228.324	58.75
228.559	53.75
228.793	74.75
229.027	130.75
229.262	144.75
229.496	156.75
229.73	156.75
229.964	143.75
230.199	164.75
230.433	151.75
230.667	175.75
230.901	161.75
231.136	174.75
231.37	171.75
231.604	182.75
231.838	194.75
232.072	230.75
232.306	250.75
232.541	205.75
232.775	194.75
233.009	203.75
233.243	207.75
233.477	228.75
233.711	228.75
233.945	248.75
234.179	228.75
234.413	214.75
234.647	215.75
234.881	226.75
235.115	224.75
235.349	245.75
235.583	324.75
235.817	370.75
236.051	375.75
236.285	283.75
236.519	247.75
236.753	238.75
236.987	246.75
237.221	243.75
237.455	237.75
237.689	213.75
237.922	221.75
238.156	220.75
238.39	233.75
238.624	224.75
238.858	217.75
239.091	211.75
239.325	238.75
239.559	245.75
239.793	238.75
240.027	237.75
240.26	260.75
240.494	239.75
240.728	254.75
240.961	276.75
241.195	291.75
241.429	274.75
241.662	299.75
241.896	315.75
242.13	365.75
242.363	435.75
242.597	548.75
242.83	556.75
243.064	571.75
243.298	661.75
243.531	550.75
243.765	402.75
243.998	317.75
244.232	298.75
244.465	279.75
244.699	267.75
244.932	277.75
245.166	284.75
245.399	296.75
245.633	297.75
245.866	294.75
246.099	288.75
246.333	283.75
246.566	284.75
246.8	270.75
247.033	286.75
247.266	283.75
247.5	288.75
247.733	273.75
247.966	300.75
248.2	329.75
248.433	351.75
248.666	395.75
248.899	356.75
249.133	345.75
249.366	360.75
249.599	388.75
249.832	393.75
250.066	415.75
250.299	358.75
250.532	336.75
250.765	335.75
250.998	326.75
251.231	325.75
251.465	350.75
251.698	325.75
251.931	341.75
252.164	339.75
252.397	345.75
252.63	344.75
252.863	341.75
253.096	343.75
253.329	339.75
253.562	325.75
253.795	317.75
254.028	332.75
254.261	356.75
254.494	393.75
254.727	406.75
254.96	466.75
255.193	468.75
255.426	405.75
255.659	372.75
255.892	372.75
256.124	345.75
256.357	396.75
256.59	380.75
256.823	403.75
257.056	441.75
257.289	483.75
257.521	542.75
257.754	491.75
257.987	407.75
258.22	387.75
258.452	385.75
258.685	421.75
258.918	405.75
259.151	408.75
259.383	453.75
259.616	469.75
259.849	501.75
260.081	452.75
260.314	418.75
260.547	402.75
260.779	410.75
261.012	421.75
261.244	407.75
261.477	415.75
261.71	424.75
261.942	447.75
262.175	452.75
262.407	451.75
262.64	460.75
262.872	489.75
263.105	515.75
263.337	543.75
263.57	546.75
263.802	539.75
264.035	589.75
264.267	564.75
264.499	592.75
264.732	619.75
264.964	630.75
265.197	596.75
265.429	608.75
265.661	615.75
265.894	664.75
266.126	724.75
266.358	759.75
266.591	722.75
266.823	668.75
267.055	614.75
267.287	614.75
267.52	566.75
267.752	567.75
267.984	557.75
268.216	560.75
268.448	543.75
268.681	538.75
268.913	528.75
269.145	524.75
269.377	535.75
269.609	517.75
269.841	525.75
270.073	571.75
270.306	617.75
270.538	796.75
270.77	1113.75
271.002	1347.75
271.234	954.75
271.466	698.75
271.698	607.75
271.93	564.75
272.162	559.75
272.394	546.75
272.626	544.75
272.858	525.75
273.09	523.75
273.322	511.75
273.553	514.75
273.785	532.75
274.017	533.75
274.249	529.75
274.481	516.75
274.713	515.75
274.945	516.75
275.176	507.75
275.408	523.75
275.64	514.75
275.872	513.75
276.104	527.75
276.335	517.75
276.567	552.75
276.799	533.75
277.031	524.75
277.262	546.75
277.494	559.75
277.726	610.75
277.957	681.75
278.189	761.75
278.421	732.75
278.652	647.75
278.884	634.75
279.115	602.75
279.347	582.75
279.579	562.75
279.81	554.75
280.042	558.75
280.273	558.75
280.505	591.75
280.736	592.75
280.968	639.75
281.199	686.75
281.431	710.75
281.662	743.75
281.894	681.75
282.125	661.75
282.356	657.75
282.588	662.75
282.819	654.75
283.051	708.75
283.282	786.75
283.513	950.75
283.745	1251.75
283.976	1948.75
284.207	2643.75
284.439	2442.75
284.67	1517.75
284.901	1234.75
285.132	1202.75
285.364	1157.75
285.595	950.75
285.826	913.75
286.057	1034.75
286.288	1310.75
286.52	1725.75
286.751	1610.75
286.982	1083.75
287.213	847.75
287.444	776.75
287.675	727.75
287.906	723.75
288.138	696.75
288.369	657.75
288.6	670.75
288.831	694.75
289.062	685.75
289.293	680.75
289.524	693.75
289.755	723.75
289.986	676.75
290.217	677.75
290.448	680.75
290.679	718.75
290.91	695.75
291.141	701.75
291.371	716.75
291.602	773.75
291.833	720.75
292.064	704.75
292.295	675.75
292.526	656.75
292.757	645.75
292.987	668.75
293.218	656.75
293.449	669.75
293.68	669.75
293.91	663.75
294.141	652.75
294.372	626.75
294.603	642.75
294.833	638.75
295.064	662.75
295.295	649.75
295.525	651.75
295.756	640.75
295.987	632.75
296.217	636.75
296.448	635.75
296.679	670.75
296.909	665.75
297.14	651.75
297.37	681.75
297.601	678.75
297.831	646.75
298.062	659.75
298.292	687.75
298.523	687.75
298.753	682.75
298.984	688.75
299.214	704.75
299.445	713.75
299.675	688.75
299.905	721.75
300.136	766.75
300.366	832.75
300.597	1016.75
300.827	1320.75
301.057	1714.75
301.288	1710.75
301.518	1178.75
301.748	926.75
301.979	870.75
302.209	870.75
302.439	897.75
302.669	901.75
302.9	1074.75
303.13	1400.75
303.36	1990.75
303.59	2592.75
303.82	2310.75
304.051	1448.75
304.281	1091.75
304.511	933.75
304.741	869.75
304.971	856.75
305.201	815.75
305.431	804.75
305.661	783.75
305.891	754.75
306.121	756.75
306.352	741.75
306.582	756.75
306.812	738.75
307.042	775.75
307.272	754.75
307.502	749.75
307.731	783.75
307.961	741.75
308.191	712.75
308.421	744.75
308.651	730.75
308.881	733.75
309.111	745.75
309.341	758.75
309.571	761.75
309.8	754.75
310.03	771.75
310.26	764.75
310.49	786.75
310.72	776.75
310.949	816.75
311.179	784.75
311.409	798.75
311.639	799.75
311.868	787.75
312.098	802.75
312.328	818.75
312.557	831.75
312.787	802.75
313.017	798.75
313.246	816.75
313.476	804.75
313.706	845.75
313.935	878.75
314.165	922.75
314.394	910.75
314.624	908.75
314.853	872.75
315.083	877.75
315.312	871.75
315.542	873.75
315.771	884.75
316.001	916.75
316.23	870.75
316.46	940.75
316.689	1000.75
316.919	1194.75
317.148	1602.75
317.377	2393.75
317.607	3460.75
317.836	3594.75
318.065	2182.75
318.295	1493.75
318.524	1237.75
318.753	1109.75
318.983	1027.75
319.212	982.75
319.441	954.75
319.67	967.75
319.9	932.75
320.129	946.75
320.358	932.75
320.587	935.75
320.816	936.75
321.046	929.75
321.275	946.75
321.504	956.75
321.733	966.75
321.962	973.75
322.191	999.75
322.42	990.75
322.649	1009.75
322.878	980.75
323.108	995.75
323.337	1038.75
323.566	1032.75
323.795	1065.75
324.024	1026.75
324.253	1055.75
324.482	1082.75
324.71	1148.75
324.939	1198.75
325.168	1219.75
325.397	1260.75
325.626	1420.75
325.855	1973.75
326.084	2876.75
326.313	4268.75
326.542	4477.75
326.77	2955.75
326.999	2063.75
327.228	1765.75
327.457	1721.75
327.686	1716.75
327.914	1777.75
328.143	2031.75
328.372	2342.75
328.6	2503.75
328.829	2330.75
329.058	2100.75
329.287	1906.75
329.515	1748.75
329.744	1665.75
329.972	1543.75
330.201	1477.75
330.43	1431.75
330.658	1370.75
330.887	1379.75
331.115	1388.75
331.344	1397.75
331.572	1323.75
331.801	1351.75
332.03	1340.75
332.258	1385.75
332.486	1460.75
332.715	1588.75
332.943	1827.75
333.172	2194.75
333.4	2198.75
333.629	1804.75
333.857	1678.75
334.085	1657.75
334.314	1778.75
334.542	1919.75
334.771	2185.75
334.999	2557.75
335.227	3004.75
335.455	3328.75
335.684	3152.75
335.912	2798.75
336.14	2430.75
336.369	2173.75
336.597	1993.75
336.825	1874.75
337.053	1762.75
337.281	1631.75
337.51	1600.75
337.738	1498.75
337.966	1472.75
338.194	1409.75
338.422	1371.75
338.65	1331.75
338.878	1334.75
339.106	1306.75
339.334	1263.75
339.562	1279.75
339.79	1210.75
340.018	1239.75
340.246	1249.75
340.474	1232.75
340.702	1241.75
340.93	1237.75
341.158	1214.75
341.386	1230.75
341.614	1181.75
341.842	1199.75
342.07	1125.75
342.298	1133.75
342.526	1149.75
342.754	1102.75
342.981	1103.75
343.209	1116.75
343.437	1129.75
343.665	1145.75
343.893	1165.75
344.12	1171.75
344.348	1142.75
344.576	1127.75
344.804	1098.75
345.031	1091.75
345.259	1086.75
345.487	1048.75
345.714	1053.75
345.942	1035.75
346.17	1033.75
346.397	1055.75
346.625	1037.75
346.853	1035.75
347.08	1010.75
347.308	1050.75
347.535	1023.75
347.763	1020.75
347.99	1018.75
348.218	1003.75
348.445	1012.75
348.673	1009.75
348.9	1026.75
349.128	987.75
349.355	1014.75
349.583	1010.75
349.81	1023.75
350.037	989.75
350.265	970.75
350.492	989.75
350.72	991.75
350.947	991.75
351.174	983.75
351.402	999.75
351.629	976.75
351.856	998.75
352.083	974.75
352.311	984.75
352.538	990.75
352.765	982.75
352.992	977.75
353.22	976.75
353.447	983.75
353.674	965.75
353.901	996.75
354.128	971.75
354.355	973.75
354.583	998.75
354.81	1006.75
355.037	992.75
355.264	985.75
355.491	1014.75
355.718	1019.75
355.945	1000.75
356.172	1014.75
356.399	994.75
356.626	1009.75
356.853	1016.75
357.08	1052.75
357.307	1026.75
357.534	1040.75
357.761	1053.75
357.988	1047.75
358.215	1046.75
358.441	1052.75
358.668	1012.75
358.895	1050.75
359.122	1034.75
359.349	1031.75
359.576	1036.75
359.802	1041.75
360.029	1052.75
360.256	1027.75
360.483	1062.75
360.709	1031.75
360.936	1053.75
361.163	1066.75
361.39	1054.75
361.616	1081.75
361.843	1046.75
362.07	1030.75
362.296	1048.75
362.523	1052.75
362.749	1067.75
362.976	1037.75
363.203	1047.75
363.429	1067.75
363.656	1030.75
363.882	1055.75
364.109	1066.75
364.335	1024.75
364.562	1034.75
364.788	1034.75
365.015	1043.75
365.241	1069.75
365.468	1103.75
365.694	1127.75
365.92	1091.75
366.147	1079.75
366.373	1058.75
366.599	1075.75
366.826	1086.75
367.052	1068.75
367.278	1074.75
367.505	1061.75
367.731	1082.75
367.957	1052.75
368.184	1082.75
368.41	1084.75
368.636	1091.75
368.862	1110.75
369.089	1068.75
369.315	1079.75
369.541	1080.75
369.767	1094.75
369.993	1083.75
370.219	1089.75
370.445	1092.75
370.672	1131.75
370.898	1105.75
371.124	1111.75
371.35	1126.75
371.576	1139.75
371.802	1117.75
372.028	1118.75
372.254	1122.75
372.48	1156.75
372.706	1131.75
372.932	1142.75
373.158	1123.75
373.384	1134.75
373.61	1142.75
373.835	1186.75
374.061	1150.75
374.287	1171.75
374.513	1154.75
374.739	1174.75
374.965	1170.75
375.191	1192.75
375.416	1186.75
375.642	1188.75
375.868	1169.75
376.094	1144.75
376.319	1139.75
376.545	1149.75
376.771	1144.75
376.997	1144.75
377.222	1131.75
377.448	1144.75
377.674	1124.75
377.899	1147.75
378.125	1121.75
378.35	1141.75
378.576	1127.75
378.802	1111.75
379.027	1149.75
379.253	1166.75
379.478	1234.75
379.704	1351.75
379.929	1796.75
380.155	2575.75
380.38	2725.75
380.606	1799.75
380.831	1373.75
381.057	1268.75
381.282	1194.75
381.507	1170.75
381.733	1135.75
381.958	1161.75
382.184	1135.75
382.409	1142.75
382.634	1127.75
382.86	1136.75
383.085	1127.75
383.31	1110.75
383.535	1105.75
383.761	1114.75
383.986	1135.75
384.211	1148.75
384.436	1167.75
384.662	1151.75
384.887	1184.75
385.112	1159.75
385.337	1156.75
385.562	1167.75
385.787	1171.75
386.013	1180.75
386.238	1162.75
386.463	1188.75
386.688	1167.75
386.913	1124.75
387.138	1166.75
387.363	1146.75
387.588	1154.75
387.813	1148.75
388.038	1186.75
388.263	1168.75
388.488	1169.75
388.713	1161.75
388.938	1159.75
389.163	1137.75
389.387	1135.75
389.612	1154.75
389.837	1154.75
390.062	1151.75
390.287	1171.75
390.512	1152.75
390.736	1171.75
390.961	1232.75
391.186	1209.75
391.411	1230.75
391.636	1234.75
391.86	1218.75
392.085	1238.75
392.31	1182.75
392.534	1181.75
392.759	1200.75
392.984	1197.75
393.208	1180.75
393.433	1159.75
393.658	1156.75
393.882	1156.75
394.107	1193.75
394.331	1175.75
394.556	1195.75
394.78	1194.75
395.005	1203.75
395.229	1152.75
395.454	1216.75
395.678	1226.75
395.903	1216.75
396.127	1227.75
396.352	1157.75
396.576	1205.75
396.801	1173.75
397.025	1215.75
397.249	1204.75
397.474	1213.75
397.698	1238.75
397.922	1250.75
398.147	1219.75
398.371	1240.75
398.595	1310.75
398.82	1317.75
399.044	1360.75
399.268	1383.75
399.492	1470.75
399.717	1556.75
399.941	1520.75
400.165	1477.75
400.389	1419.75
400.613	1386.75
400.837	1369.75
401.062	1332.75
401.286	1314.75
401.51	1282.75
401.734	1283.75
401.958	1290.75
402.182	1327.75
402.406	1304.75
402.63	1286.75
402.854	1316.75
403.078	1325.75
403.302	1283.75
403.526	1338.75
403.75	1342.75
403.974	1352.75
404.198	1359.75
404.422	1357.75
404.645	1339.75
404.869	1347.75
405.093	1346.75
405.317	1331.75
405.541	1348.75
405.765	1359.75
405.988	1363.75
406.212	1368.75
406.436	1335.75
406.66	1357.75
406.883	1383.75
407.107	1416.75
407.331	1457.75
407.555	1448.75
407.778	1455.75
408.002	1455.75
408.226	1439.75
408.449	1419.75
408.673	1361.75
408.896	1379.75
409.12	1335.75
409.344	1394.75
409.567	1336.75
409.791	1379.75
410.014	1333.75
410.238	1334.75
410.461	1302.75
410.685	1311.75
410.908	1326.75
411.132	1318.75
411.355	1311.75
411.578	1258.75
411.802	1292.75
412.025	1289.75
412.249	1280.75
412.472	1275.75
412.695	1270.75
412.919	1239.75
413.142	1246.75
413.365	1257.75
413.589	1288.75
413.812	1252.75
414.035	1254.75
414.258	1301.75
414.482	1261.75
414.705	1263.75
414.928	1274.75
415.151	1248.75
415.374	1228.75
415.597	1233.75
415.821	1240.75
416.044	1192.75
416.267	1195.75
416.49	1221.75
416.713	1208.75
416.936	1250.75
417.159	1209.75
417.382	1222.75
417.605	1181.75
417.828	1181.75
418.051	1240.75
418.274	1194.75
418.497	1257.75
418.72	1255.75
418.943	1237.75
419.166	1235.75
419.389	1346.75
419.611	1330.75
419.834	1284.75
420.057	1280.75
420.28	1232.75
420.503	1197.75
420.726	1212.75
420.948	1193.75
421.171	1229.75
421.394	1199.75
421.617	1209.75
421.839	1244.75
422.062	1232.75
422.285	1230.75
422.507	1219.75
422.73	1220.75
422.953	1224.75
423.175	1258.75
423.398	1248.75
423.621	1275.75
423.843	1223.75
424.066	1280.75
424.288	1238.75
424.511	1230.75
424.733	1210.75
424.956	1207.75
425.178	1223.75
425.401	1213.75
425.623	1243.75
425.846	1192.75
426.068	1190.75
426.291	1214.75
426.513	1186.75
426.735	1148.75
426.958	1194.75
427.18	1183.75
427.402	1152.75
427.625	1171.75
427.847	1167.75
428.069	1123.75
428.292	1152.75
428.514	1114.75
428.736	1131.75
428.958	1117.75
429.181	1119.75
429.403	1109.75
429.625	1117.75
429.847	1155.75
430.069	1164.75
430.292	1159.75
430.514	1200.75
430.736	1213.75
430.958	1169.75
431.18	1147.75
431.402	1148.75
431.624	1133.75
431.846	1114.75
432.068	1114.75
432.29	1107.75
432.512	1093.75
432.734	1115.75
432.956	1116.75
433.178	1126.75
433.4	1158.75
433.622	1131.75
433.844	1146.75
434.066	1128.75
434.287	1130.75
434.509	1147.75
434.731	1148.75
434.953	1157.75
435.175	1181.75
435.397	1201.75
435.618	1167.75
435.84	1145.75
436.062	1105.75
436.284	1135.75
436.505	1108.75
436.727	1145.75
436.949	1114.75
437.17	1133.75
437.392	1111.75
437.614	1075.75
437.835	1074.75
438.057	1086.75
438.278	1083.75
438.5	1099.75
438.721	1099.75
438.943	1132.75
439.165	1149.75
439.386	1178.75
439.608	1144.75
439.829	1181.75
440.05	1207.75
440.272	1208.75
440.493	1167.75
440.715	1176.75
440.936	1156.75
441.158	1222.75
441.379	1197.75
441.6	1228.75
441.822	1227.75
442.043	1282.75
442.264	1315.75
442.486	1239.75
442.707	1182.75
442.928	1219.75
443.149	1214.75
443.371	1185.75
443.592	1197.75
443.813	1211.75
444.034	1210.75
444.255	1211.75
444.476	1268.75
444.698	1310.75
444.919	1324.75
445.14	1371.75
445.361	1297.75
445.582	1225.75
445.803	1221.75
446.024	1209.75
446.245	1199.75
446.466	1204.75
446.687	1202.75
446.908	1166.75
447.129	1194.75
447.35	1138.75
447.571	1126.75
447.792	1101.75
448.013	1135.75
448.234	1107.75
448.455	1124.75
448.675	1132.75
448.896	1143.75
449.117	1170.75
449.338	1213.75
449.559	1261.75
449.779	1130.75
450	1083.75
450.221	1076.75
450.442	1087.75
450.662	1064.75
450.883	1060.75
451.104	1049.75
451.324	1048.75
451.545	1079.75
451.766	1076.75
451.986	1082.75
452.207	1130.75
452.428	1312.75
452.648	1730.75
452.869	1548.75
453.089	1222.75
453.31	1188.75
453.53	1165.75
453.751	1182.75
453.971	1242.75
454.192	1228.75
454.412	1098.75
454.633	1078.75
454.853	1020.75
455.073	1056.75
455.294	1051.75
455.514	1014.75
455.734	1046.75
455.955	1022.75
456.175	1042.75
456.395	1033.75
456.616	1044.75
456.836	1038.75
457.056	1044.75
457.276	1066.75
457.497	1087.75
457.717	1092.75
457.937	1077.75
458.157	1062.75
458.377	1077.75
458.598	1090.75
458.818	1099.75
459.038	1104.75
459.258	1095.75
459.478	1119.75
459.698	1119.75
459.918	1146.75
460.138	1154.75
460.358	1190.75
460.578	1220.75
460.798	1223.75
461.018	1222.75
461.238	1262.75
461.458	1214.75
461.678	1214.75
461.898	1226.75
462.118	1279.75
462.338	1308.75
462.558	1262.75
462.777	1337.75
462.997	1388.75
463.217	1417.75
463.437	1400.75
463.657	1414.75
463.876	1428.75
464.096	1367.75
464.316	1340.75
464.536	1331.75
464.755	1306.75
464.975	1287.75
465.195	1206.75
465.414	1205.75
465.634	1152.75
465.854	1162.75
466.073	1139.75
466.293	1127.75
466.512	1134.75
466.732	1172.75
466.951	1182.75
467.171	1206.75
467.391	1210.75
467.61	1151.75
467.829	1113.75
468.049	1111.75
468.268	1108.75
468.488	1081.75
468.707	1094.75
468.927	1073.75
469.146	1110.75
469.365	1118.75
469.585	1152.75
469.804	1124.75
470.023	1127.75
470.243	1186.75
470.462	1203.75
470.681	1230.75
470.901	1334.75
471.12	1500.75
471.339	1513.75
471.558	1271.75
471.777	1199.75
471.997	1158.75
472.216	1097.75
472.435	1114.75
472.654	1092.75
472.873	1092.75
473.092	1118.75
473.311	1107.75
473.53	1109.75
473.749	1156.75
473.968	1145.75
474.187	1125.75
474.406	1102.75
474.625	1133.75
474.844	1145.75
475.063	1090.75
475.282	1110.75
475.501	1132.75
475.72	1114.75
475.939	1109.75
476.158	1131.75
476.377	1165.75
476.596	1153.75
476.814	1194.75
477.033	1164.75
477.252	1187.75
477.471	1179.75
477.69	1246.75
477.908	1218.75
478.127	1282.75
478.346	1252.75
478.564	1294.75
478.783	1282.75
479.002	1293.75
479.22	1302.75
479.439	1344.75
479.658	1289.75
479.876	1318.75
480.095	1317.75
480.313	1324.75
480.532	1385.75
480.751	1321.75
480.969	1351.75
481.188	1308.75
481.406	1277.75
481.624	1309.75
481.843	1311.75
482.061	1287.75
482.28	1289.75
482.498	1287.75
482.717	1297.75
482.935	1358.75
483.153	1350.75
483.372	1385.75
483.59	1401.75
483.808	1394.75
484.027	1398.75
484.245	1452.75
484.463	1608.75
484.681	1716.75
484.9	1612.75
485.118	1528.75
485.336	1532.75
485.554	1511.75
485.772	1614.75
485.99	1765.75
486.209	1855.75
486.427	1622.75
486.645	1500.75
486.863	1448.75
487.081	1417.75
487.299	1410.75
487.517	1415.75
487.735	1455.75
487.953	1452.75
488.171	1466.75
488.389	1418.75
488.607	1384.75
488.825	1378.75
489.043	1353.75
489.261	1363.75
489.479	1350.75
489.696	1371.75
489.914	1350.75
490.132	1354.75
490.35	1398.75
490.568	1383.75
490.786	1432.75
491.003	1421.75
491.221	1443.75
