Data from SnStandardFlinnAPT0064_LampEnergy5.5_LIBS07252019.E.O._I.C._HRD10591_15-16-51-491.txt Node
Date: Thu Jul 25 15:16:51 EDT 2019
User: cochatt
Spectrometer: HR+D1059
Trigger mode: 1
Integration Time (sec): 1.000000E-1
Scans to average: 1
Electric dark correction enabled: true
Nonlinearity correction enabled: false
Boxcar width: 0
XAxis mode: Wavelengths
Number of Pixels in Spectrum: 2048
>>>>>Begin Spectral Data<<<<<
223.165	-8.94
223.4	-8.94
223.635	-8.94
223.869	-19.94
224.104	-15.94
224.338	-12.94
224.573	-21.94
224.808	-3.94
225.042	1.06
225.277	-15.94
225.511	-8.94
225.746	-2.94
225.98	6.06
226.215	10.06
226.449	23.06
226.683	30.06
226.918	22.06
227.152	19.06
227.387	26.06
227.621	44.06
227.856	45.06
228.09	55.06
228.324	57.06
228.559	61.06
228.793	93.06
229.027	146.06
229.262	167.06
229.496	147.06
229.73	148.06
229.964	148.06
230.199	171.06
230.433	157.06
230.667	165.06
230.901	169.06
231.136	187.06
231.37	169.06
231.604	213.06
231.838	213.06
232.072	261.06
232.306	265.06
232.541	240.06
232.775	213.06
233.009	218.06
233.243	208.06
233.477	220.06
233.711	261.06
233.945	281.06
234.179	262.06
234.413	232.06
234.647	221.06
234.881	227.06
235.115	251.06
235.349	288.06
235.583	354.06
235.817	447.06
236.051	455.06
236.285	314.06
236.519	261.06
236.753	231.06
236.987	251.06
237.221	242.06
237.455	249.06
237.689	218.06
237.922	214.06
238.156	239.06
238.39	231.06
238.624	247.06
238.858	249.06
239.091	239.06
239.325	217.06
239.559	225.06
239.793	236.06
240.027	262.06
240.26	253.06
240.494	231.06
240.728	283.06
240.961	275.06
241.195	308.06
241.429	321.06
241.662	321.06
241.896	350.06
242.13	421.06
242.363	525.06
242.597	700.06
242.83	671.06
243.064	642.06
243.298	777.06
243.531	628.06
243.765	415.06
243.998	356.06
244.232	323.06
244.465	314.06
244.699	308.06
244.932	280.06
245.166	317.06
245.399	312.06
245.633	310.06
245.866	327.06
246.099	302.06
246.333	311.06
246.566	294.06
246.8	289.06
247.033	308.06
247.266	305.06
247.5	283.06
247.733	313.06
247.966	330.06
248.2	348.06
248.433	381.06
248.666	424.06
248.899	407.06
249.133	367.06
249.366	375.06
249.599	428.06
249.832	488.06
250.066	468.06
250.299	369.06
250.532	356.06
250.765	340.06
250.998	346.06
251.231	334.06
251.465	339.06
251.698	356.06
251.931	340.06
252.164	341.06
252.397	339.06
252.63	353.06
252.863	375.06
253.096	375.06
253.329	372.06
253.562	351.06
253.795	339.06
254.028	362.06
254.261	374.06
254.494	373.06
254.727	455.06
254.96	542.06
255.193	528.06
255.426	436.06
255.659	410.06
255.892	401.06
256.124	379.06
256.357	397.06
256.59	417.06
256.823	444.06
257.056	467.06
257.289	559.06
257.521	600.06
257.754	496.06
257.987	440.06
258.22	407.06
258.452	417.06
258.685	411.06
258.918	443.06
259.151	432.06
259.383	470.06
259.616	486.06
259.849	534.06
260.081	471.06
260.314	452.06
260.547	444.06
260.779	445.06
261.012	434.06
261.244	433.06
261.477	461.06
261.71	468.06
261.942	447.06
262.175	469.06
262.407	464.06
262.64	489.06
262.872	504.06
263.105	511.06
263.337	542.06
263.57	586.06
263.802	585.06
264.035	601.06
264.267	589.06
264.499	619.06
264.732	631.06
264.964	637.06
265.197	644.06
265.429	661.06
265.661	662.06
265.894	720.06
266.126	769.06
266.358	876.06
266.591	809.06
266.823	664.06
267.055	630.06
267.287	596.06
267.52	603.06
267.752	592.06
267.984	588.06
268.216	574.06
268.448	579.06
268.681	601.06
268.913	536.06
269.145	560.06
269.377	556.06
269.609	557.06
269.841	577.06
270.073	603.06
270.306	691.06
270.538	915.06
270.77	1336.06
271.002	1605.06
271.234	1148.06
271.466	769.06
271.698	645.06
271.93	605.06
272.162	570.06
272.394	573.06
272.626	553.06
272.858	567.06
273.09	534.06
273.322	567.06
273.553	531.06
273.785	544.06
274.017	519.06
274.249	511.06
274.481	538.06
274.713	525.06
274.945	522.06
275.176	539.06
275.408	553.06
275.64	555.06
275.872	558.06
276.104	562.06
276.335	559.06
276.567	556.06
276.799	570.06
277.031	584.06
277.262	575.06
277.494	605.06
277.726	637.06
277.957	747.06
278.189	842.06
278.421	781.06
278.652	717.06
278.884	700.06
279.115	641.06
279.347	645.06
279.579	624.06
279.81	625.06
280.042	619.06
280.273	629.06
280.505	624.06
280.736	651.06
280.968	681.06
281.199	724.06
281.431	823.06
281.662	851.06
281.894	753.06
282.125	693.06
282.356	692.06
282.588	708.06
282.819	723.06
283.051	779.06
283.282	840.06
283.513	1042.06
283.745	1529.06
283.976	2351.06
284.207	3391.06
284.439	3016.06
284.67	1734.06
284.901	1464.06
285.132	1457.06
285.364	1392.06
285.595	1112.06
285.826	990.06
286.057	1160.06
286.288	1595.06
286.52	2197.06
286.751	1991.06
286.982	1235.06
287.213	925.06
287.444	819.06
287.675	792.06
287.906	775.06
288.138	754.06
288.369	716.06
288.6	723.06
288.831	712.06
289.062	713.06
289.293	733.06
289.524	724.06
289.755	714.06
289.986	733.06
290.217	725.06
290.448	739.06
290.679	749.06
290.91	744.06
291.141	791.06
291.371	799.06
291.602	854.06
291.833	783.06
292.064	771.06
292.295	708.06
292.526	713.06
292.757	697.06
292.987	704.06
293.218	701.06
293.449	688.06
293.68	704.06
293.91	684.06
294.141	677.06
294.372	653.06
294.603	662.06
294.833	675.06
295.064	685.06
295.295	688.06
295.525	652.06
295.756	685.06
295.987	657.06
296.217	691.06
296.448	664.06
296.679	666.06
296.909	704.06
297.14	671.06
297.37	705.06
297.601	698.06
297.831	689.06
298.062	724.06
298.292	710.06
298.523	711.06
298.753	750.06
298.984	728.06
299.214	720.06
299.445	749.06
299.675	732.06
299.905	793.06
300.136	804.06
300.366	927.06
300.597	1151.06
300.827	1562.06
301.057	2140.06
301.288	2090.06
301.518	1338.06
301.748	1057.06
301.979	962.06
302.209	939.06
302.439	931.06
302.669	1003.06
302.9	1209.06
303.13	1649.06
303.36	2485.06
303.59	3335.06
303.82	2867.06
304.051	1667.06
304.281	1223.06
304.511	1013.06
304.741	945.06
304.971	906.06
305.201	859.06
305.431	834.06
305.661	823.06
305.891	815.06
306.121	804.06
306.352	802.06
306.582	779.06
306.812	791.06
307.042	839.06
307.272	822.06
307.502	777.06
307.731	779.06
307.961	795.06
308.191	773.06
308.421	785.06
308.651	793.06
308.881	781.06
309.111	794.06
309.341	785.06
309.571	823.06
309.8	780.06
310.03	790.06
310.26	833.06
310.49	802.06
310.72	826.06
310.949	787.06
311.179	821.06
311.409	835.06
311.639	839.06
311.868	846.06
312.098	853.06
312.328	848.06
312.557	853.06
312.787	843.06
313.017	852.06
313.246	853.06
313.476	865.06
313.706	868.06
313.935	941.06
314.165	963.06
314.394	997.06
314.624	962.06
314.853	924.06
315.083	909.06
315.312	881.06
315.542	948.06
315.771	928.06
316.001	954.06
316.23	985.06
316.46	1026.06
316.689	1139.06
316.919	1331.06
317.148	1918.06
317.377	2995.06
317.607	4408.06
317.836	4487.06
318.065	2540.06
318.295	1646.06
318.524	1360.06
318.753	1203.06
318.983	1115.06
319.212	1061.06
319.441	1044.06
319.67	1032.06
319.9	998.06
320.129	977.06
320.358	1002.06
320.587	954.06
320.816	984.06
321.046	1028.06
321.275	1007.06
321.504	993.06
321.733	1040.06
321.962	1025.06
322.191	1055.06
322.42	1050.06
322.649	1026.06
322.878	1064.06
323.108	1046.06
323.337	1055.06
323.566	1082.06
323.795	1075.06
324.024	1101.06
324.253	1108.06
324.482	1175.06
324.71	1209.06
324.939	1288.06
325.168	1314.06
325.397	1354.06
325.626	1610.06
325.855	2265.06
326.084	3572.06
326.313	5386.06
326.542	5685.06
326.77	3519.06
326.999	2268.06
327.228	1876.06
327.457	1847.06
327.686	1819.06
327.914	1933.06
328.143	2242.06
328.372	2580.06
328.6	2767.06
328.829	2528.06
329.058	2233.06
329.287	2031.06
329.515	1845.06
329.744	1737.06
329.972	1632.06
330.201	1586.06
330.43	1519.06
330.658	1496.06
330.887	1460.06
331.115	1436.06
331.344	1437.06
331.572	1417.06
331.801	1427.06
332.03	1411.06
332.258	1466.06
332.486	1516.06
332.715	1724.06
332.943	2137.06
333.172	2603.06
333.4	2550.06
333.629	1986.06
333.857	1815.06
334.085	1790.06
334.314	1880.06
334.542	2060.06
334.771	2313.06
334.999	2762.06
335.227	3351.06
335.455	3791.06
335.684	3457.06
335.912	2985.06
336.14	2520.06
336.369	2280.06
336.597	2121.06
336.825	1929.06
337.053	1867.06
337.281	1727.06
337.51	1579.06
337.738	1596.06
337.966	1491.06
338.194	1464.06
338.422	1511.06
338.65	1427.06
338.878	1402.06
339.106	1358.06
339.334	1337.06
339.562	1286.06
339.79	1287.06
340.018	1287.06
340.246	1285.06
340.474	1253.06
340.702	1282.06
340.93	1263.06
341.158	1278.06
341.386	1224.06
341.614	1220.06
341.842	1208.06
342.07	1189.06
342.298	1177.06
342.526	1175.06
342.754	1175.06
342.981	1154.06
343.209	1143.06
343.437	1193.06
343.665	1187.06
343.893	1173.06
344.12	1190.06
344.348	1175.06
344.576	1153.06
344.804	1164.06
345.031	1110.06
345.259	1121.06
345.487	1108.06
345.714	1090.06
345.942	1086.06
346.17	1106.06
346.397	1084.06
346.625	1081.06
346.853	1087.06
347.08	1059.06
347.308	1104.06
347.535	1115.06
347.763	1066.06
347.99	1072.06
348.218	1093.06
348.445	1060.06
348.673	1097.06
348.9	1080.06
349.128	1055.06
349.355	1045.06
349.583	1051.06
349.81	1023.06
350.037	1029.06
350.265	1041.06
350.492	1054.06
350.72	1036.06
350.947	1031.06
351.174	1028.06
351.402	1023.06
351.629	1017.06
351.856	993.06
352.083	1032.06
352.311	1028.06
352.538	1027.06
352.765	1015.06
352.992	1009.06
353.22	1032.06
353.447	1002.06
353.674	1035.06
353.901	1003.06
354.128	1028.06
354.355	1035.06
354.583	1031.06
354.81	1040.06
355.037	1029.06
355.264	1039.06
355.491	1038.06
355.718	1059.06
355.945	1063.06
356.172	1071.06
356.399	1082.06
356.626	1084.06
356.853	1075.06
357.08	1042.06
357.307	1069.06
357.534	1094.06
357.761	1081.06
357.988	1093.06
358.215	1084.06
358.441	1094.06
358.668	1082.06
358.895	1091.06
359.122	1087.06
359.349	1111.06
359.576	1105.06
359.802	1122.06
360.029	1089.06
360.256	1100.06
360.483	1102.06
360.709	1101.06
360.936	1085.06
361.163	1113.06
361.39	1107.06
361.616	1079.06
361.843	1081.06
362.07	1091.06
362.296	1096.06
362.523	1095.06
362.749	1099.06
362.976	1105.06
363.203	1100.06
363.429	1086.06
363.656	1072.06
363.882	1079.06
364.109	1066.06
364.335	1084.06
364.562	1116.06
364.788	1101.06
365.015	1108.06
365.241	1164.06
365.468	1171.06
365.694	1207.06
365.92	1175.06
366.147	1136.06
366.373	1116.06
366.599	1109.06
366.826	1094.06
367.052	1117.06
367.278	1123.06
367.505	1121.06
367.731	1117.06
367.957	1153.06
368.184	1158.06
368.41	1150.06
368.636	1108.06
368.862	1147.06
369.089	1147.06
369.315	1149.06
369.541	1164.06
369.767	1142.06
369.993	1145.06
370.219	1144.06
370.445	1149.06
370.672	1181.06
370.898	1187.06
371.124	1194.06
371.35	1173.06
371.576	1165.06
371.802	1177.06
372.028	1200.06
372.254	1192.06
372.48	1203.06
372.706	1196.06
372.932	1216.06
373.158	1204.06
373.384	1208.06
373.61	1221.06
373.835	1239.06
374.061	1189.06
374.287	1190.06
374.513	1226.06
374.739	1245.06
374.965	1233.06
375.191	1243.06
375.416	1243.06
375.642	1205.06
375.868	1218.06
376.094	1209.06
376.319	1207.06
376.545	1212.06
376.771	1179.06
376.997	1196.06
377.222	1187.06
377.448	1196.06
377.674	1175.06
377.899	1187.06
378.125	1193.06
378.35	1186.06
378.576	1176.06
378.802	1205.06
379.027	1224.06
379.253	1239.06
379.478	1285.06
379.704	1495.06
379.929	2123.06
380.155	3264.06
380.38	3485.06
380.606	2105.06
380.831	1511.06
381.057	1313.06
381.282	1243.06
381.507	1195.06
381.733	1202.06
381.958	1185.06
382.184	1183.06
382.409	1185.06
382.634	1161.06
382.86	1153.06
383.085	1163.06
383.31	1168.06
383.535	1206.06
383.761	1188.06
383.986	1147.06
384.211	1194.06
384.436	1160.06
384.662	1189.06
384.887	1240.06
385.112	1217.06
385.337	1218.06
385.562	1202.06
385.787	1230.06
386.013	1186.06
386.238	1218.06
386.463	1220.06
386.688	1223.06
386.913	1175.06
387.138	1199.06
387.363	1177.06
387.588	1199.06
387.813	1199.06
388.038	1206.06
388.263	1179.06
388.488	1187.06
388.713	1209.06
388.938	1224.06
389.163	1211.06
389.387	1188.06
389.612	1186.06
389.837	1243.06
390.062	1194.06
390.287	1202.06
390.512	1221.06
390.736	1227.06
390.961	1256.06
391.186	1256.06
391.411	1269.06
391.636	1250.06
391.86	1253.06
392.085	1288.06
392.31	1230.06
392.534	1251.06
392.759	1252.06
392.984	1214.06
393.208	1282.06
393.433	1259.06
393.658	1259.06
393.882	1243.06
394.107	1207.06
394.331	1229.06
394.556	1205.06
394.78	1224.06
395.005	1234.06
395.229	1226.06
395.454	1267.06
395.678	1271.06
395.903	1279.06
396.127	1238.06
396.352	1243.06
396.576	1243.06
396.801	1273.06
397.025	1292.06
397.249	1311.06
397.474	1299.06
397.698	1277.06
397.922	1293.06
398.147	1292.06
398.371	1314.06
398.595	1345.06
398.82	1347.06
399.044	1408.06
399.268	1505.06
399.492	1572.06
399.717	1577.06
399.941	1570.06
400.165	1517.06
400.389	1465.06
400.613	1434.06
400.837	1393.06
401.062	1387.06
401.286	1395.06
401.51	1319.06
401.734	1335.06
401.958	1350.06
402.182	1348.06
402.406	1332.06
402.63	1353.06
402.854	1364.06
403.078	1361.06
403.302	1356.06
403.526	1394.06
403.75	1393.06
403.974	1419.06
404.198	1381.06
404.422	1378.06
404.645	1403.06
404.869	1383.06
405.093	1391.06
405.317	1392.06
405.541	1399.06
405.765	1414.06
405.988	1417.06
406.212	1410.06
406.436	1408.06
406.66	1438.06
406.883	1442.06
407.107	1446.06
407.331	1497.06
407.555	1500.06
407.778	1482.06
408.002	1485.06
408.226	1526.06
408.449	1461.06
408.673	1404.06
408.896	1440.06
409.12	1413.06
409.344	1405.06
409.567	1378.06
409.791	1385.06
410.014	1366.06
410.238	1399.06
410.461	1384.06
410.685	1367.06
410.908	1361.06
411.132	1353.06
411.355	1313.06
411.578	1336.06
411.802	1353.06
412.025	1322.06
412.249	1315.06
412.472	1343.06
412.695	1321.06
412.919	1327.06
413.142	1299.06
413.365	1309.06
413.589	1337.06
413.812	1313.06
414.035	1332.06
414.258	1322.06
414.482	1327.06
414.705	1333.06
414.928	1315.06
415.151	1288.06
415.374	1315.06
415.597	1295.06
415.821	1248.06
416.044	1257.06
416.267	1280.06
416.49	1263.06
416.713	1251.06
416.936	1252.06
417.159	1291.06
417.382	1255.06
417.605	1227.06
417.828	1240.06
418.051	1256.06
418.274	1283.06
418.497	1250.06
418.72	1308.06
418.943	1303.06
419.166	1336.06
419.389	1439.06
419.611	1384.06
419.834	1373.06
420.057	1327.06
420.28	1259.06
420.503	1273.06
420.726	1289.06
420.948	1247.06
421.171	1255.06
421.394	1257.06
421.617	1264.06
421.839	1318.06
422.062	1301.06
422.285	1228.06
422.507	1320.06
422.73	1292.06
422.953	1331.06
423.175	1337.06
423.398	1293.06
423.621	1252.06
423.843	1289.06
424.066	1297.06
424.288	1298.06
424.511	1260.06
424.733	1259.06
424.956	1280.06
425.178	1265.06
425.401	1233.06
425.623	1235.06
425.846	1213.06
426.068	1256.06
426.291	1207.06
426.513	1240.06
426.735	1225.06
426.958	1196.06
427.18	1187.06
427.402	1235.06
427.625	1204.06
427.847	1169.06
428.069	1179.06
428.292	1167.06
428.514	1193.06
428.736	1197.06
428.958	1217.06
429.181	1177.06
429.403	1179.06
429.625	1147.06
429.847	1160.06
430.069	1165.06
430.292	1200.06
430.514	1250.06
430.736	1261.06
430.958	1181.06
431.18	1175.06
431.402	1162.06
431.624	1154.06
431.846	1170.06
432.068	1137.06
432.29	1139.06
432.512	1137.06
432.734	1132.06
432.956	1173.06
433.178	1187.06
433.4	1187.06
433.622	1182.06
433.844	1184.06
434.066	1156.06
434.287	1177.06
434.509	1186.06
434.731	1210.06
434.953	1177.06
435.175	1207.06
435.397	1221.06
435.618	1176.06
435.84	1179.06
436.062	1137.06
436.284	1164.06
436.505	1169.06
436.727	1139.06
436.949	1146.06
437.17	1144.06
437.392	1153.06
437.614	1125.06
437.835	1114.06
438.057	1099.06
438.278	1115.06
438.5	1129.06
438.721	1127.06
438.943	1175.06
439.165	1187.06
439.386	1203.06
439.608	1214.06
439.829	1202.06
440.05	1251.06
440.272	1266.06
440.493	1201.06
440.715	1208.06
440.936	1208.06
441.158	1211.06
441.379	1199.06
441.6	1281.06
441.822	1318.06
442.043	1351.06
442.264	1396.06
442.486	1329.06
442.707	1282.06
442.928	1230.06
443.149	1253.06
443.371	1227.06
443.592	1253.06
443.813	1263.06
444.034	1312.06
444.255	1274.06
444.476	1319.06
444.698	1364.06
444.919	1363.06
445.14	1431.06
445.361	1383.06
445.582	1318.06
445.803	1241.06
446.024	1258.06
446.245	1259.06
446.466	1232.06
446.687	1245.06
446.908	1226.06
447.129	1206.06
447.35	1162.06
447.571	1195.06
447.792	1159.06
448.013	1176.06
448.234	1155.06
448.455	1161.06
448.675	1165.06
448.896	1185.06
449.117	1227.06
449.338	1325.06
449.559	1355.06
449.779	1225.06
450	1126.06
450.221	1103.06
450.442	1116.06
450.662	1132.06
450.883	1074.06
451.104	1092.06
451.324	1128.06
451.545	1100.06
451.766	1125.06
451.986	1150.06
452.207	1193.06
452.428	1491.06
452.648	2089.06
452.869	1770.06
453.089	1322.06
453.31	1255.06
453.53	1215.06
453.751	1282.06
453.971	1350.06
454.192	1345.06
454.412	1194.06
454.633	1110.06
454.853	1069.06
455.073	1086.06
455.294	1089.06
455.514	1077.06
455.734	1071.06
455.955	1059.06
456.175	1051.06
456.395	1027.06
456.616	1084.06
456.836	1079.06
457.056	1095.06
457.276	1104.06
457.497	1111.06
457.717	1165.06
457.937	1132.06
458.157	1109.06
458.377	1116.06
458.598	1121.06
458.818	1152.06
459.038	1143.06
459.258	1139.06
459.478	1165.06
459.698	1162.06
459.918	1203.06
460.138	1205.06
460.358	1222.06
460.578	1237.06
460.798	1268.06
461.018	1244.06
461.238	1248.06
461.458	1261.06
461.678	1276.06
461.898	1311.06
462.118	1303.06
462.338	1334.06
462.558	1357.06
462.777	1382.06
462.997	1414.06
463.217	1474.06
463.437	1473.06
463.657	1521.06
463.876	1509.06
464.096	1447.06
464.316	1388.06
464.536	1357.06
464.755	1342.06
464.975	1299.06
465.195	1291.06
465.414	1269.06
465.634	1237.06
465.854	1195.06
466.073	1183.06
466.293	1185.06
466.512	1176.06
466.732	1188.06
466.951	1228.06
467.171	1318.06
467.391	1284.06
467.61	1183.06
467.829	1161.06
468.049	1141.06
468.268	1143.06
468.488	1149.06
468.707	1131.06
468.927	1150.06
469.146	1167.06
469.365	1154.06
469.585	1181.06
469.804	1179.06
470.023	1228.06
470.243	1228.06
470.462	1243.06
470.681	1297.06
470.901	1443.06
471.12	1647.06
471.339	1688.06
471.558	1393.06
471.777	1249.06
471.997	1213.06
472.216	1194.06
472.435	1132.06
472.654	1109.06
472.873	1131.06
473.092	1113.06
473.311	1149.06
473.53	1141.06
473.749	1171.06
473.968	1218.06
474.187	1141.06
474.406	1143.06
474.625	1149.06
474.844	1159.06
475.063	1158.06
475.282	1131.06
475.501	1146.06
475.72	1192.06
475.939	1156.06
476.158	1192.06
476.377	1197.06
476.596	1191.06
476.814	1207.06
477.033	1222.06
477.252	1228.06
477.471	1256.06
477.69	1243.06
477.908	1289.06
478.127	1261.06
478.346	1308.06
478.564	1316.06
478.783	1317.06
479.002	1383.06
479.22	1352.06
479.439	1329.06
479.658	1363.06
479.876	1364.06
480.095	1416.06
480.313	1388.06
480.532	1427.06
480.751	1429.06
480.969	1382.06
481.188	1359.06
481.406	1339.06
481.624	1315.06
481.843	1364.06
482.061	1346.06
482.28	1386.06
482.498	1351.06
482.717	1370.06
482.935	1354.06
483.153	1366.06
483.372	1436.06
483.59	1439.06
483.808	1465.06
484.027	1436.06
484.245	1542.06
484.463	1722.06
484.681	1904.06
484.9	1725.06
485.118	1580.06
485.336	1580.06
485.554	1609.06
485.772	1680.06
485.99	1941.06
486.209	2108.06
486.427	1747.06
486.645	1559.06
486.863	1541.06
487.081	1486.06
487.299	1463.06
487.517	1459.06
487.735	1482.06
487.953	1497.06
488.171	1524.06
488.389	1469.06
488.607	1427.06
488.825	1411.06
489.043	1397.06
489.261	1412.06
489.479	1415.06
489.696	1419.06
489.914	1412.06
490.132	1425.06
490.35	1452.06
490.568	1445.06
490.786	1497.06
