Data from SnStandardFlinnAPT0064_QswitchEnergy10_LIBS07252019.E.O._I.C._HRD10591_15-29-05-974.txt Node
Date: Thu Jul 25 15:29:05 EDT 2019
User: cochatt
Spectrometer: HR+D1059
Trigger mode: 1
Integration Time (sec): 1.000000E-1
Scans to average: 1
Electric dark correction enabled: true
Nonlinearity correction enabled: false
Boxcar width: 0
XAxis mode: Wavelengths
Number of Pixels in Spectrum: 2048
>>>>>Begin Spectral Data<<<<<
223.165	-8.25
223.4	-8.25
223.635	-8.25
223.869	-24.25
224.104	-38.25
224.338	-4.25
224.573	-12.25
224.808	-10.25
225.042	-15.25
225.277	-12.25
225.511	-3.25
225.746	-13.25
225.98	6.75
226.215	23.75
226.449	9.75
226.683	38.75
226.918	28.75
227.152	33.75
227.387	31.75
227.621	30.75
227.856	29.75
228.09	35.75
228.324	46.75
228.559	37.75
228.793	67.75
229.027	66.75
229.262	81.75
229.496	65.75
229.73	55.75
229.964	71.75
230.199	75.75
230.433	76.75
230.667	73.75
230.901	72.75
231.136	77.75
231.37	77.75
231.604	92.75
231.838	95.75
232.072	100.75
232.306	118.75
232.541	95.75
232.775	87.75
233.009	79.75
233.243	79.75
233.477	84.75
233.711	101.75
233.945	111.75
234.179	98.75
234.413	74.75
234.647	69.75
234.881	87.75
235.115	88.75
235.349	99.75
235.583	103.75
235.817	107.75
236.051	127.75
236.285	108.75
236.519	85.75
236.753	83.75
236.987	76.75
237.221	64.75
237.455	75.75
237.689	75.75
237.922	87.75
238.156	82.75
238.39	84.75
238.624	86.75
238.858	82.75
239.091	75.75
239.325	68.75
239.559	82.75
239.793	91.75
240.027	85.75
240.26	80.75
240.494	95.75
240.728	78.75
240.961	89.75
241.195	90.75
241.429	92.75
241.662	95.75
241.896	93.75
242.13	91.75
242.363	128.75
242.597	152.75
242.83	141.75
243.064	149.75
243.298	160.75
243.531	155.75
243.765	104.75
243.998	81.75
244.232	80.75
244.465	72.75
244.699	78.75
244.932	84.75
245.166	81.75
245.399	79.75
245.633	76.75
245.866	87.75
246.099	85.75
246.333	75.75
246.566	77.75
246.8	89.75
247.033	67.75
247.266	59.75
247.5	76.75
247.733	84.75
247.966	77.75
248.2	83.75
248.433	112.75
248.666	125.75
248.899	131.75
249.133	99.75
249.366	107.75
249.599	95.75
249.832	124.75
250.066	123.75
250.299	87.75
250.532	96.75
250.765	79.75
250.998	77.75
251.231	79.75
251.465	68.75
251.698	87.75
251.931	89.75
252.164	74.75
252.397	80.75
252.63	101.75
252.863	106.75
253.096	107.75
253.329	91.75
253.562	104.75
253.795	88.75
254.028	88.75
254.261	70.75
254.494	98.75
254.727	129.75
254.96	136.75
255.193	121.75
255.426	93.75
255.659	93.75
255.892	86.75
256.124	96.75
256.357	82.75
256.59	87.75
256.823	94.75
257.056	94.75
257.289	157.75
257.521	173.75
257.754	136.75
257.987	94.75
258.22	87.75
258.452	91.75
258.685	84.75
258.918	79.75
259.151	86.75
259.383	101.75
259.616	139.75
259.849	145.75
260.081	93.75
260.314	89.75
260.547	69.75
260.779	77.75
261.012	81.75
261.244	93.75
261.477	96.75
261.71	93.75
261.942	90.75
262.175	87.75
262.407	80.75
262.64	61.75
262.872	78.75
263.105	84.75
263.337	92.75
263.57	79.75
263.802	88.75
264.035	95.75
264.267	74.75
264.499	72.75
264.732	81.75
264.964	83.75
265.197	61.75
265.429	80.75
265.661	93.75
265.894	111.75
266.126	127.75
266.358	143.75
266.591	151.75
266.823	85.75
267.055	87.75
267.287	86.75
267.52	91.75
267.752	85.75
267.984	82.75
268.216	84.75
268.448	89.75
268.681	89.75
268.913	84.75
269.145	85.75
269.377	93.75
269.609	79.75
269.841	91.75
270.073	104.75
270.306	138.75
270.538	193.75
270.77	316.75
271.002	393.75
271.234	187.75
271.466	104.75
271.698	99.75
271.93	100.75
272.162	86.75
272.394	84.75
272.626	77.75
272.858	91.75
273.09	75.75
273.322	88.75
273.553	76.75
273.785	100.75
274.017	84.75
274.249	92.75
274.481	82.75
274.713	82.75
274.945	91.75
275.176	93.75
275.408	84.75
275.64	103.75
275.872	80.75
276.104	104.75
276.335	109.75
276.567	99.75
276.799	89.75
277.031	84.75
277.262	91.75
277.494	112.75
277.726	127.75
277.957	212.75
278.189	255.75
278.421	251.75
278.652	207.75
278.884	203.75
279.115	148.75
279.347	107.75
279.579	91.75
279.81	75.75
280.042	102.75
280.273	101.75
280.505	85.75
280.736	112.75
280.968	119.75
281.199	191.75
281.431	268.75
281.662	291.75
281.894	171.75
282.125	109.75
282.356	116.75
282.588	101.75
282.819	112.75
283.051	134.75
283.282	148.75
283.513	193.75
283.745	333.75
283.976	571.75
284.207	840.75
284.439	643.75
284.67	294.75
284.901	266.75
285.132	351.75
285.364	405.75
285.595	235.75
285.826	175.75
286.057	240.75
286.288	424.75
286.52	655.75
286.751	507.75
286.982	211.75
287.213	125.75
287.444	117.75
287.675	97.75
287.906	104.75
288.138	103.75
288.369	95.75
288.6	103.75
288.831	96.75
289.062	97.75
289.293	93.75
289.524	91.75
289.755	97.75
289.986	97.75
290.217	99.75
290.448	113.75
290.679	114.75
290.91	128.75
291.141	185.75
291.371	266.75
291.602	315.75
291.833	213.75
292.064	126.75
292.295	100.75
292.526	99.75
292.757	107.75
292.987	91.75
293.218	87.75
293.449	83.75
293.68	88.75
293.91	84.75
294.141	90.75
294.372	91.75
294.603	107.75
294.833	88.75
295.064	95.75
295.295	88.75
295.525	84.75
295.756	96.75
295.987	97.75
296.217	92.75
296.448	103.75
296.679	87.75
296.909	89.75
297.14	88.75
297.37	93.75
297.601	96.75
297.831	98.75
298.062	103.75
298.292	108.75
298.523	97.75
298.753	107.75
298.984	90.75
299.214	121.75
299.445	124.75
299.675	113.75
299.905	107.75
300.136	120.75
300.366	183.75
300.597	286.75
300.827	495.75
301.057	723.75
301.288	648.75
301.518	269.75
301.748	158.75
301.979	139.75
302.209	136.75
302.439	132.75
302.669	184.75
302.9	296.75
303.13	529.75
303.36	945.75
303.59	1305.75
303.82	882.75
304.051	333.75
304.281	177.75
304.511	124.75
304.741	117.75
304.971	121.75
305.201	127.75
305.431	122.75
305.661	109.75
305.891	105.75
306.121	96.75
306.352	99.75
306.582	119.75
306.812	120.75
307.042	118.75
307.272	103.75
307.502	97.75
307.731	109.75
307.961	117.75
308.191	102.75
308.421	118.75
308.651	102.75
308.881	103.75
309.111	97.75
309.341	102.75
309.571	109.75
309.8	98.75
310.03	115.75
310.26	111.75
310.49	98.75
310.72	117.75
310.949	120.75
311.179	112.75
311.409	96.75
311.639	95.75
311.868	108.75
312.098	114.75
312.328	105.75
312.557	119.75
312.787	117.75
313.017	94.75
313.246	110.75
313.476	120.75
313.706	134.75
313.935	180.75
314.165	213.75
314.394	267.75
314.624	202.75
314.853	140.75
315.083	127.75
315.312	116.75
315.542	129.75
315.771	137.75
316.001	145.75
316.23	141.75
316.46	153.75
316.689	191.75
316.919	265.75
317.148	538.75
317.377	965.75
317.607	1589.75
317.836	1468.75
318.065	575.75
318.295	263.75
318.524	168.75
318.753	143.75
318.983	145.75
319.212	126.75
319.441	135.75
319.67	127.75
319.9	115.75
320.129	123.75
320.358	106.75
320.587	126.75
320.816	119.75
321.046	141.75
321.275	143.75
321.504	133.75
321.733	157.75
321.962	182.75
322.191	170.75
322.42	155.75
322.649	120.75
322.878	134.75
323.108	127.75
323.337	135.75
323.566	143.75
323.795	127.75
324.024	137.75
324.253	144.75
324.482	186.75
324.71	244.75
324.939	299.75
325.168	247.75
325.397	199.75
325.626	273.75
325.855	513.75
326.084	1007.75
326.313	1700.75
326.542	1681.75
326.77	668.75
326.999	291.75
327.228	245.75
327.457	234.75
327.686	237.75
327.914	169.75
328.143	123.75
328.372	136.75
328.6	128.75
328.829	140.75
329.058	121.75
329.287	131.75
329.515	124.75
329.744	129.75
329.972	118.75
330.201	125.75
330.43	120.75
330.658	115.75
330.887	113.75
331.115	107.75
331.344	117.75
331.572	125.75
331.801	118.75
332.03	111.75
332.258	151.75
332.486	193.75
332.715	300.75
332.943	533.75
333.172	818.75
333.4	728.75
333.629	266.75
333.857	158.75
334.085	138.75
334.314	129.75
334.542	119.75
334.771	120.75
334.999	124.75
335.227	113.75
335.455	142.75
335.684	117.75
335.912	114.75
336.14	113.75
336.369	119.75
336.597	112.75
336.825	100.75
337.053	118.75
337.281	101.75
337.51	105.75
337.738	103.75
337.966	102.75
338.194	117.75
338.422	109.75
338.65	111.75
338.878	107.75
339.106	131.75
339.334	127.75
339.562	107.75
339.79	131.75
340.018	111.75
340.246	125.75
340.474	116.75
340.702	120.75
340.93	120.75
341.158	124.75
341.386	140.75
341.614	130.75
341.842	122.75
342.07	116.75
342.298	126.75
342.526	119.75
342.754	100.75
342.981	126.75
343.209	113.75
343.437	107.75
343.665	111.75
343.893	118.75
344.12	121.75
344.348	100.75
344.576	117.75
344.804	130.75
345.031	128.75
345.259	114.75
345.487	109.75
345.714	110.75
345.942	117.75
346.17	103.75
346.397	119.75
346.625	117.75
346.853	100.75
347.08	113.75
347.308	113.75
347.535	102.75
347.763	111.75
347.99	108.75
348.218	114.75
348.445	104.75
348.673	111.75
348.9	111.75
349.128	129.75
349.355	111.75
349.583	111.75
349.81	113.75
350.037	112.75
350.265	110.75
350.492	110.75
350.72	117.75
350.947	125.75
351.174	121.75
351.402	123.75
351.629	107.75
351.856	105.75
352.083	123.75
352.311	113.75
352.538	120.75
352.765	117.75
352.992	112.75
353.22	107.75
353.447	113.75
353.674	101.75
353.901	108.75
354.128	113.75
354.355	88.75
354.583	107.75
354.81	121.75
355.037	114.75
355.264	118.75
355.491	121.75
355.718	104.75
355.945	103.75
356.172	91.75
356.399	108.75
356.626	111.75
356.853	121.75
357.08	118.75
357.307	110.75
357.534	135.75
357.761	102.75
357.988	116.75
358.215	102.75
358.441	120.75
358.668	123.75
358.895	111.75
359.122	123.75
359.349	120.75
359.576	129.75
359.802	123.75
360.029	113.75
360.256	119.75
360.483	118.75
360.709	114.75
360.936	130.75
361.163	115.75
361.39	120.75
361.616	112.75
361.843	112.75
362.07	126.75
362.296	105.75
362.523	97.75
362.749	111.75
362.976	101.75
363.203	117.75
363.429	93.75
363.656	112.75
363.882	119.75
364.109	123.75
364.335	123.75
364.562	122.75
364.788	109.75
365.015	123.75
365.241	144.75
365.468	213.75
365.694	275.75
365.92	217.75
366.147	121.75
366.373	112.75
366.599	101.75
366.826	109.75
367.052	98.75
367.278	101.75
367.505	92.75
367.731	97.75
367.957	103.75
368.184	109.75
368.41	118.75
368.636	132.75
368.862	112.75
369.089	91.75
369.315	110.75
369.541	109.75
369.767	127.75
369.993	109.75
370.219	128.75
370.445	120.75
370.672	122.75
370.898	116.75
371.124	119.75
371.35	100.75
371.576	111.75
371.802	115.75
372.028	109.75
372.254	102.75
372.48	113.75
372.706	113.75
372.932	118.75
373.158	119.75
373.384	112.75
373.61	113.75
373.835	126.75
374.061	117.75
374.287	112.75
374.513	119.75
374.739	110.75
374.965	98.75
375.191	123.75
375.416	115.75
375.642	113.75
375.868	95.75
376.094	107.75
376.319	113.75
376.545	105.75
376.771	93.75
376.997	112.75
377.222	104.75
377.448	116.75
377.674	119.75
377.899	108.75
378.125	116.75
378.35	115.75
378.576	119.75
378.802	113.75
379.027	122.75
379.253	147.75
379.478	191.75
379.704	347.75
379.929	847.75
380.155	1720.75
380.38	1761.75
380.606	574.75
380.831	201.75
381.057	141.75
381.282	127.75
381.507	139.75
381.733	115.75
381.958	98.75
382.184	102.75
382.409	97.75
382.634	123.75
382.86	113.75
383.085	97.75
383.31	107.75
383.535	115.75
383.761	112.75
383.986	117.75
384.211	100.75
384.436	85.75
384.662	116.75
384.887	113.75
385.112	112.75
385.337	100.75
385.562	94.75
385.787	101.75
386.013	112.75
386.238	114.75
386.463	115.75
386.688	93.75
386.913	114.75
387.138	109.75
387.363	123.75
387.588	114.75
387.813	104.75
388.038	111.75
388.263	108.75
388.488	100.75
388.713	90.75
388.938	103.75
389.163	115.75
389.387	102.75
389.612	101.75
389.837	95.75
390.062	118.75
390.287	115.75
390.512	95.75
390.736	96.75
390.961	104.75
391.186	105.75
391.411	96.75
391.636	101.75
391.86	95.75
392.085	109.75
392.31	105.75
392.534	103.75
392.759	107.75
392.984	104.75
393.208	126.75
393.433	160.75
393.658	159.75
393.882	109.75
394.107	105.75
394.331	99.75
394.556	86.75
394.78	85.75
395.005	96.75
395.229	101.75
395.454	101.75
395.678	112.75
395.903	101.75
396.127	117.75
396.352	96.75
396.576	105.75
396.801	127.75
397.025	139.75
397.249	107.75
397.474	101.75
397.698	93.75
397.922	94.75
398.147	93.75
398.371	98.75
398.595	97.75
398.82	98.75
399.044	109.75
399.268	88.75
399.492	107.75
399.717	102.75
399.941	118.75
400.165	116.75
400.389	83.75
400.613	98.75
400.837	79.75
401.062	89.75
401.286	83.75
401.51	93.75
401.734	103.75
401.958	109.75
402.182	89.75
402.406	92.75
402.63	108.75
402.854	99.75
403.078	93.75
403.302	97.75
403.526	107.75
403.75	96.75
403.974	107.75
404.198	108.75
404.422	99.75
404.645	105.75
404.869	108.75
405.093	88.75
405.317	103.75
405.541	94.75
405.765	132.75
405.988	157.75
406.212	131.75
406.436	90.75
406.66	92.75
406.883	107.75
407.107	93.75
407.331	83.75
407.555	85.75
407.778	101.75
408.002	110.75
408.226	108.75
408.449	105.75
408.673	108.75
408.896	104.75
409.12	95.75
409.344	99.75
409.567	91.75
409.791	97.75
410.014	101.75
410.238	102.75
410.461	116.75
410.685	93.75
410.908	99.75
411.132	102.75
411.355	99.75
411.578	95.75
411.802	108.75
412.025	113.75
412.249	101.75
412.472	104.75
412.695	100.75
412.919	95.75
413.142	102.75
413.365	102.75
413.589	85.75
413.812	103.75
414.035	111.75
414.258	101.75
414.482	109.75
414.705	107.75
414.928	110.75
415.151	101.75
415.374	99.75
415.597	92.75
415.821	94.75
416.044	91.75
416.267	87.75
416.49	91.75
416.713	95.75
416.936	88.75
417.159	88.75
417.382	93.75
417.605	87.75
417.828	91.75
418.051	112.75
418.274	96.75
418.497	97.75
418.72	96.75
418.943	114.75
419.166	112.75
419.389	103.75
419.611	113.75
419.834	97.75
420.057	101.75
420.28	104.75
420.503	120.75
420.726	116.75
420.948	99.75
421.171	92.75
421.394	89.75
421.617	103.75
421.839	110.75
422.062	94.75
422.285	87.75
422.507	103.75
422.73	128.75
422.953	144.75
423.175	106.75
423.398	113.75
423.621	94.75
423.843	93.75
424.066	83.75
424.288	103.75
424.511	91.75
424.733	85.75
424.956	88.75
425.178	109.75
425.401	98.75
425.623	87.75
425.846	89.75
426.068	87.75
426.291	93.75
426.513	82.75
426.735	103.75
426.958	97.75
427.18	98.75
427.402	112.75
427.625	98.75
427.847	91.75
428.069	108.75
428.292	102.75
428.514	109.75
428.736	94.75
428.958	92.75
429.181	92.75
429.403	104.75
429.625	107.75
429.847	100.75
430.069	123.75
430.292	102.75
430.514	95.75
430.736	92.75
430.958	94.75
431.18	97.75
431.402	107.75
431.624	91.75
431.846	103.75
432.068	97.75
432.29	86.75
432.512	87.75
432.734	94.75
432.956	87.75
433.178	97.75
433.4	95.75
433.622	78.75
433.844	79.75
434.066	92.75
434.287	100.75
434.509	89.75
434.731	94.75
434.953	83.75
435.175	81.75
435.397	94.75
435.618	96.75
435.84	88.75
436.062	100.75
436.284	81.75
436.505	93.75
436.727	98.75
436.949	92.75
437.17	80.75
437.392	93.75
437.614	87.75
437.835	99.75
438.057	101.75
438.278	94.75
438.5	98.75
438.721	110.75
438.943	107.75
439.165	109.75
439.386	111.75
439.608	105.75
439.829	117.75
440.05	121.75
440.272	113.75
440.493	87.75
440.715	107.75
440.936	96.75
441.158	103.75
441.379	102.75
441.6	102.75
441.822	121.75
442.043	119.75
442.264	140.75
442.486	116.75
442.707	122.75
442.928	88.75
443.149	95.75
443.371	99.75
443.592	87.75
443.813	85.75
444.034	80.75
444.255	97.75
444.476	102.75
444.698	91.75
444.919	87.75
445.14	178.75
445.361	133.75
445.582	103.75
445.803	88.75
446.024	107.75
446.245	109.75
446.466	84.75
446.687	116.75
446.908	92.75
447.129	92.75
447.35	93.75
447.571	92.75
447.792	91.75
448.013	93.75
448.234	91.75
448.455	99.75
448.675	100.75
448.896	102.75
449.117	114.75
449.338	143.75
449.559	154.75
449.779	119.75
450	108.75
450.221	117.75
450.442	119.75
450.662	127.75
450.883	99.75
451.104	111.75
451.324	135.75
451.545	123.75
451.766	116.75
451.986	152.75
452.207	248.75
452.428	620.75
452.648	1508.75
452.869	833.75
453.089	205.75
453.31	128.75
453.53	122.75
453.751	139.75
453.971	160.75
454.192	150.75
454.412	117.75
454.633	90.75
454.853	92.75
455.073	85.75
455.294	104.75
455.514	98.75
455.734	75.75
455.955	92.75
456.175	91.75
456.395	100.75
456.616	86.75
456.836	107.75
457.056	107.75
457.276	101.75
457.497	102.75
457.717	111.75
457.937	109.75
458.157	93.75
458.377	88.75
458.598	92.75
458.818	92.75
459.038	84.75
459.258	96.75
459.478	80.75
459.698	86.75
459.918	89.75
460.138	88.75
460.358	97.75
460.578	87.75
460.798	73.75
461.018	71.75
461.238	81.75
461.458	90.75
461.678	92.75
461.898	99.75
462.118	92.75
462.338	97.75
462.558	104.75
462.777	103.75
462.997	111.75
463.217	104.75
463.437	136.75
463.657	192.75
463.876	185.75
464.096	129.75
464.316	105.75
464.536	107.75
464.755	102.75
464.975	97.75
465.195	94.75
465.414	85.75
465.634	88.75
465.854	97.75
466.073	102.75
466.293	95.75
466.512	103.75
466.732	104.75
466.951	113.75
467.171	152.75
467.391	131.75
467.61	111.75
467.829	112.75
468.049	92.75
468.268	96.75
468.488	104.75
468.707	92.75
468.927	84.75
469.146	93.75
469.365	102.75
469.585	96.75
469.804	77.75
470.023	95.75
470.243	99.75
470.462	103.75
470.681	111.75
470.901	141.75
471.12	182.75
471.339	208.75
471.558	136.75
471.777	120.75
471.997	109.75
472.216	92.75
472.435	88.75
472.654	96.75
472.873	86.75
473.092	90.75
473.311	108.75
473.53	85.75
473.749	100.75
473.968	104.75
474.187	115.75
474.406	85.75
474.625	102.75
474.844	102.75
475.063	93.75
475.282	93.75
475.501	89.75
475.72	97.75
475.939	87.75
476.158	77.75
476.377	114.75
476.596	91.75
476.814	104.75
477.033	84.75
477.252	104.75
477.471	96.75
477.69	84.75
477.908	104.75
478.127	104.75
478.346	104.75
478.564	96.75
478.783	91.75
479.002	86.75
479.22	101.75
479.439	97.75
479.658	107.75
479.876	101.75
480.095	105.75
480.313	111.75
480.532	80.75
480.751	83.75
480.969	89.75
481.188	80.75
481.406	91.75
481.624	110.75
481.843	106.75
482.061	128.75
482.28	110.75
482.498	88.75
482.717	81.75
482.935	95.75
483.153	103.75
483.372	94.75
483.59	116.75
483.808	100.75
484.027	112.75
484.245	142.75
484.463	181.75
484.681	238.75
484.9	152.75
485.118	124.75
485.336	98.75
485.554	114.75
485.772	128.75
485.99	192.75
486.209	250.75
486.427	162.75
486.645	111.75
486.863	129.75
487.081	120.75
487.299	107.75
487.517	101.75
487.735	112.75
487.953	104.75
488.171	120.75
488.389	96.75
488.607	99.75
488.825	96.75
489.043	83.75
489.261	100.75
489.479	107.75
489.696	89.75
489.914	98.75
490.132	84.75
490.35	93.75
490.568	109.75
490.786	109.75
491.003	104.75
491.221	114.75
491.439	119.75
491.657	115.75
491.874	115.75
492.092	112.75
492.31	100.75
492.527	115.75
492.745	113.75
492.963	102.75
493.18	116.75
493.398	116.75
493.615	97.75
493.833	114.75
494.05	109.75
494.268	97.75
494.485	103.75
494.703	103.75
494.92	94.75
495.138	102.75
495.355	102.75
495.573	120.75
495.79	103.75
496.008	105.75
496.225	99.75
496.442	99.75
496.66	127.75
496.877	163.75
497.094	161.75
497.312	110.75
497.529	92.75
497.746	98.75
497.963	104.75
498.181	112.75
498.398	105.75
498.615	96.75
498.832	105.75
499.049	105.75
499.267	149.75
499.484	153.75
499.701	124.75
499.918	116.75
500.135	99.75
500.352	94.75
500.569	99.75
500.786	115.75
501.003	117.75
501.22	100.75
501.437	96.75
501.654	88.75
501.871	108.75
502.088	100.75
502.305	102.75
502.522	107.75
502.739	94.75
502.956	113.75
503.172	94.75
503.389	104.75
503.606	82.75
503.823	93.75
504.04	101.75
504.256	95.75
504.473	96.75
504.69	105.75
504.907	89.75
505.123	110.75
505.34	89.75
505.557	99.75
505.773	96.75
505.99	91.75
506.207	105.75
506.423	94.75
506.64	101.75
506.856	102.75
507.073	93.75
507.289	77.75
507.506	93.75
507.722	95.75
507.939	94.75
508.155	87.75
