Data from SnStandardFlinnAPT0064_QswitchEnergy10_LIBS07252019.E.O._I.C._HRD10591_15-29-03-974.txt Node
Date: Thu Jul 25 15:29:03 EDT 2019
User: cochatt
Spectrometer: HR+D1059
Trigger mode: 1
Integration Time (sec): 1.000000E-1
Scans to average: 1
Electric dark correction enabled: true
Nonlinearity correction enabled: false
Boxcar width: 0
XAxis mode: Wavelengths
Number of Pixels in Spectrum: 2048
>>>>>Begin Spectral Data<<<<<
223.165	-10.81
223.4	-10.81
223.635	-10.81
223.869	-23.81
224.104	-7.81
224.338	-9.81
224.573	-10.81
224.808	-18.81
225.042	-6.81
225.277	-6.81
225.511	-14.81
225.746	-0.81
225.98	13.19
226.215	8.19
226.449	13.19
226.683	17.19
226.918	24.19
227.152	35.19
227.387	14.19
227.621	43.19
227.856	55.19
228.09	35.19
228.324	65.19
228.559	65.19
228.793	72.19
229.027	94.19
229.262	92.19
229.496	59.19
229.73	74.19
229.964	77.19
230.199	72.19
230.433	92.19
230.667	75.19
230.901	70.19
231.136	104.19
231.37	88.19
231.604	107.19
231.838	112.19
232.072	128.19
232.306	145.19
232.541	104.19
232.775	88.19
233.009	96.19
233.243	97.19
233.477	94.19
233.711	97.19
233.945	112.19
234.179	97.19
234.413	100.19
234.647	92.19
234.881	94.19
235.115	82.19
235.349	88.19
235.583	116.19
235.817	142.19
236.051	142.19
236.285	110.19
236.519	100.19
236.753	80.19
236.987	85.19
237.221	81.19
237.455	77.19
237.689	82.19
237.922	87.19
238.156	102.19
238.39	106.19
238.624	103.19
238.858	89.19
239.091	78.19
239.325	76.19
239.559	93.19
239.793	73.19
240.027	88.19
240.26	100.19
240.494	96.19
240.728	74.19
240.961	95.19
241.195	113.19
241.429	101.19
241.662	89.19
241.896	104.19
242.13	114.19
242.363	140.19
242.597	184.19
242.83	149.19
243.064	136.19
243.298	205.19
243.531	167.19
243.765	109.19
243.998	110.19
244.232	108.19
244.465	88.19
244.699	92.19
244.932	95.19
245.166	85.19
245.399	83.19
245.633	92.19
245.866	92.19
246.099	100.19
246.333	87.19
246.566	86.19
246.8	81.19
247.033	85.19
247.266	83.19
247.5	103.19
247.733	78.19
247.966	87.19
248.2	105.19
248.433	125.19
248.666	119.19
248.899	139.19
249.133	104.19
249.366	98.19
249.599	122.19
249.832	132.19
250.066	141.19
250.299	100.19
250.532	99.19
250.765	80.19
250.998	92.19
251.231	89.19
251.465	89.19
251.698	96.19
251.931	85.19
252.164	86.19
252.397	101.19
252.63	108.19
252.863	119.19
253.096	107.19
253.329	99.19
253.562	101.19
253.795	113.19
254.028	110.19
254.261	89.19
254.494	118.19
254.727	126.19
254.96	175.19
255.193	152.19
255.426	102.19
255.659	103.19
255.892	97.19
256.124	120.19
256.357	101.19
256.59	122.19
256.823	112.19
257.056	127.19
257.289	173.19
257.521	208.19
257.754	142.19
257.987	109.19
258.22	87.19
258.452	89.19
258.685	103.19
258.918	108.19
259.151	116.19
259.383	119.19
259.616	136.19
259.849	166.19
260.081	109.19
260.314	101.19
260.547	89.19
260.779	89.19
261.012	93.19
261.244	95.19
261.477	96.19
261.71	94.19
261.942	87.19
262.175	113.19
262.407	101.19
262.64	92.19
262.872	77.19
263.105	103.19
263.337	95.19
263.57	93.19
263.802	90.19
264.035	103.19
264.267	99.19
264.499	117.19
264.732	98.19
264.964	101.19
265.197	87.19
265.429	102.19
265.661	106.19
265.894	107.19
266.126	128.19
266.358	192.19
266.591	158.19
266.823	106.19
267.055	103.19
267.287	93.19
267.52	95.19
267.752	97.19
267.984	101.19
268.216	92.19
268.448	112.19
268.681	94.19
268.913	91.19
269.145	100.19
269.377	96.19
269.609	94.19
269.841	111.19
270.073	124.19
270.306	143.19
270.538	234.19
270.77	392.19
271.002	432.19
271.234	231.19
271.466	128.19
271.698	109.19
271.93	92.19
272.162	89.19
272.394	112.19
272.626	97.19
272.858	106.19
273.09	88.19
273.322	98.19
273.553	97.19
273.785	93.19
274.017	97.19
274.249	102.19
274.481	93.19
274.713	91.19
274.945	100.19
275.176	89.19
275.408	104.19
275.64	96.19
275.872	85.19
276.104	108.19
276.335	112.19
276.567	109.19
276.799	104.19
277.031	114.19
277.262	108.19
277.494	116.19
277.726	146.19
277.957	214.19
278.189	299.19
278.421	273.19
278.652	229.19
278.884	238.19
279.115	166.19
279.347	113.19
279.579	101.19
279.81	96.19
280.042	102.19
280.273	90.19
280.505	114.19
280.736	117.19
280.968	146.19
281.199	208.19
281.431	287.19
281.662	330.19
281.894	176.19
282.125	128.19
282.356	112.19
282.588	134.19
282.819	132.19
283.051	131.19
283.282	163.19
283.513	231.19
283.745	376.19
283.976	650.19
284.207	932.19
284.439	698.19
284.67	331.19
284.901	296.19
285.132	428.19
285.364	468.19
285.595	268.19
285.826	198.19
286.057	287.19
286.288	501.19
286.52	730.19
286.751	558.19
286.982	214.19
287.213	136.19
287.444	130.19
287.675	113.19
287.906	101.19
288.138	107.19
288.369	99.19
288.6	105.19
288.831	114.19
289.062	105.19
289.293	104.19
289.524	106.19
289.755	113.19
289.986	97.19
290.217	110.19
290.448	101.19
290.679	120.19
290.91	154.19
291.141	207.19
291.371	300.19
291.602	369.19
291.833	248.19
292.064	134.19
292.295	113.19
292.526	101.19
292.757	98.19
292.987	96.19
293.218	91.19
293.449	94.19
293.68	107.19
293.91	92.19
294.141	101.19
294.372	96.19
294.603	102.19
294.833	106.19
295.064	97.19
295.295	105.19
295.525	103.19
295.756	114.19
295.987	110.19
296.217	101.19
296.448	103.19
296.679	98.19
296.909	104.19
297.14	128.19
297.37	106.19
297.601	96.19
297.831	121.19
298.062	106.19
298.292	112.19
298.523	121.19
298.753	96.19
298.984	113.19
299.214	128.19
299.445	112.19
299.675	128.19
299.905	126.19
300.136	138.19
300.366	215.19
300.597	328.19
300.827	532.19
301.057	812.19
301.288	733.19
301.518	302.19
301.748	164.19
301.979	146.19
302.209	164.19
302.439	162.19
302.669	186.19
302.9	338.19
303.13	621.19
303.36	1048.19
303.59	1474.19
303.82	1000.19
304.051	368.19
304.281	172.19
304.511	142.19
304.741	135.19
304.971	136.19
305.201	126.19
305.431	139.19
305.661	129.19
305.891	113.19
306.121	126.19
306.352	114.19
306.582	122.19
306.812	130.19
307.042	144.19
307.272	125.19
307.502	107.19
307.731	107.19
307.961	117.19
308.191	108.19
308.421	134.19
308.651	118.19
308.881	105.19
309.111	113.19
309.341	124.19
309.571	116.19
309.8	108.19
310.03	128.19
310.26	137.19
310.49	120.19
310.72	122.19
310.949	125.19
311.179	121.19
311.409	125.19
311.639	124.19
311.868	124.19
312.098	137.19
312.328	121.19
312.557	138.19
312.787	138.19
313.017	124.19
313.246	140.19
313.476	144.19
313.706	147.19
313.935	187.19
314.165	230.19
314.394	296.19
314.624	211.19
314.853	152.19
315.083	138.19
315.312	149.19
315.542	155.19
315.771	152.19
316.001	159.19
316.23	165.19
316.46	182.19
316.689	215.19
316.919	327.19
317.148	590.19
317.377	1099.19
317.607	1741.19
317.836	1635.19
318.065	632.19
318.295	278.19
318.524	184.19
318.753	160.19
318.983	151.19
319.212	154.19
319.441	164.19
319.67	137.19
319.9	140.19
320.129	139.19
320.358	130.19
320.587	129.19
320.816	142.19
321.046	149.19
321.275	140.19
321.504	169.19
321.733	159.19
321.962	188.19
322.191	183.19
322.42	173.19
322.649	164.19
322.878	139.19
323.108	123.19
323.337	134.19
323.566	143.19
323.795	154.19
324.024	152.19
324.253	152.19
324.482	202.19
324.71	265.19
324.939	322.19
325.168	277.19
325.397	244.19
325.626	322.19
325.855	598.19
326.084	1119.19
326.313	1904.19
326.542	1892.19
326.77	749.19
326.999	316.19
327.228	246.19
327.457	273.19
327.686	258.19
327.914	198.19
328.143	162.19
328.372	150.19
328.6	153.19
328.829	151.19
329.058	141.19
329.287	140.19
329.515	155.19
329.744	136.19
329.972	144.19
330.201	133.19
330.43	132.19
330.658	128.19
330.887	152.19
331.115	129.19
331.344	130.19
331.572	142.19
331.801	132.19
332.03	145.19
332.258	153.19
332.486	217.19
332.715	351.19
332.943	594.19
333.172	908.19
333.4	766.19
333.629	303.19
333.857	177.19
334.085	148.19
334.314	150.19
334.542	123.19
334.771	135.19
334.999	126.19
335.227	139.19
335.455	150.19
335.684	140.19
335.912	123.19
336.14	136.19
336.369	129.19
336.597	111.19
336.825	137.19
337.053	128.19
337.281	112.19
337.51	138.19
337.738	126.19
337.966	120.19
338.194	132.19
338.422	132.19
338.65	126.19
338.878	141.19
339.106	139.19
339.334	136.19
339.562	142.19
339.79	134.19
340.018	126.19
340.246	128.19
340.474	128.19
340.702	138.19
340.93	130.19
341.158	119.19
341.386	143.19
341.614	144.19
341.842	148.19
342.07	148.19
342.298	127.19
342.526	126.19
342.754	133.19
342.981	123.19
343.209	142.19
343.437	130.19
343.665	120.19
343.893	116.19
344.12	112.19
344.348	130.19
344.576	131.19
344.804	124.19
345.031	123.19
345.259	125.19
345.487	124.19
345.714	126.19
345.942	120.19
346.17	127.19
346.397	124.19
346.625	128.19
346.853	118.19
347.08	138.19
347.308	126.19
347.535	108.19
347.763	109.19
347.99	127.19
348.218	116.19
348.445	120.19
348.673	132.19
348.9	142.19
349.128	133.19
349.355	138.19
349.583	143.19
349.81	131.19
350.037	132.19
350.265	139.19
350.492	141.19
350.72	121.19
350.947	122.19
351.174	123.19
351.402	120.19
351.629	125.19
351.856	118.19
352.083	124.19
352.311	105.19
352.538	123.19
352.765	118.19
352.992	107.19
353.22	121.19
353.447	120.19
353.674	118.19
353.901	117.19
354.128	110.19
354.355	121.19
354.583	121.19
354.81	127.19
355.037	109.19
355.264	113.19
355.491	114.19
355.718	112.19
355.945	111.19
356.172	133.19
356.399	109.19
356.626	131.19
356.853	123.19
357.08	115.19
357.307	124.19
357.534	116.19
357.761	112.19
357.988	128.19
358.215	121.19
358.441	122.19
358.668	125.19
358.895	142.19
359.122	139.19
359.349	138.19
359.576	135.19
359.802	142.19
360.029	137.19
360.256	125.19
360.483	125.19
360.709	120.19
360.936	127.19
361.163	120.19
361.39	124.19
361.616	124.19
361.843	124.19
362.07	136.19
362.296	112.19
362.523	127.19
362.749	125.19
362.976	122.19
363.203	118.19
363.429	123.19
363.656	124.19
363.882	129.19
364.109	141.19
364.335	135.19
364.562	102.19
364.788	117.19
365.015	140.19
365.241	166.19
365.468	228.19
365.694	303.19
365.92	255.19
366.147	134.19
366.373	112.19
366.599	109.19
366.826	101.19
367.052	124.19
367.278	92.19
367.505	110.19
367.731	106.19
367.957	95.19
368.184	128.19
368.41	147.19
368.636	132.19
368.862	117.19
369.089	120.19
369.315	118.19
369.541	124.19
369.767	122.19
369.993	110.19
370.219	126.19
370.445	138.19
370.672	130.19
370.898	114.19
371.124	120.19
371.35	107.19
371.576	136.19
371.802	118.19
372.028	124.19
372.254	139.19
372.48	125.19
372.706	137.19
372.932	122.19
373.158	138.19
373.384	136.19
373.61	143.19
373.835	142.19
374.061	134.19
374.287	125.19
374.513	128.19
374.739	133.19
374.965	134.19
375.191	123.19
375.416	119.19
375.642	136.19
375.868	123.19
376.094	120.19
376.319	118.19
376.545	113.19
376.771	126.19
376.997	111.19
377.222	138.19
377.448	122.19
377.674	133.19
377.899	127.19
378.125	126.19
378.35	112.19
378.576	137.19
378.802	126.19
379.027	136.19
379.253	168.19
379.478	195.19
379.704	355.19
379.929	944.19
380.155	1942.19
380.38	1996.19
380.606	644.19
380.831	239.19
381.057	156.19
381.282	138.19
381.507	126.19
381.733	128.19
381.958	119.19
382.184	118.19
382.409	103.19
382.634	112.19
382.86	107.19
383.085	113.19
383.31	108.19
383.535	127.19
383.761	136.19
383.986	129.19
384.211	105.19
384.436	138.19
384.662	124.19
384.887	122.19
385.112	122.19
385.337	117.19
385.562	125.19
385.787	110.19
386.013	118.19
386.238	114.19
386.463	121.19
386.688	116.19
386.913	111.19
387.138	140.19
387.363	119.19
387.588	125.19
387.813	122.19
388.038	117.19
388.263	116.19
388.488	127.19
388.713	112.19
388.938	118.19
389.163	116.19
389.387	125.19
389.612	111.19
389.837	107.19
390.062	117.19
390.287	113.19
390.512	107.19
390.736	114.19
390.961	102.19
391.186	111.19
391.411	116.19
391.636	118.19
391.86	108.19
392.085	111.19
392.31	112.19
392.534	116.19
392.759	118.19
392.984	125.19
393.208	134.19
393.433	166.19
393.658	164.19
393.882	118.19
394.107	87.19
394.331	111.19
394.556	118.19
394.78	108.19
395.005	112.19
395.229	123.19
395.454	125.19
395.678	119.19
395.903	107.19
396.127	120.19
396.352	113.19
396.576	119.19
396.801	142.19
397.025	150.19
397.249	113.19
397.474	105.19
397.698	110.19
397.922	109.19
398.147	110.19
398.371	99.19
398.595	104.19
398.82	104.19
399.044	118.19
399.268	122.19
399.492	116.19
399.717	112.19
399.941	127.19
400.165	103.19
400.389	96.19
400.613	101.19
400.837	111.19
401.062	109.19
401.286	105.19
401.51	116.19
401.734	107.19
401.958	108.19
402.182	102.19
402.406	105.19
402.63	108.19
402.854	111.19
403.078	112.19
403.302	110.19
403.526	113.19
403.75	108.19
403.974	105.19
404.198	92.19
404.422	110.19
404.645	118.19
404.869	125.19
405.093	110.19
405.317	107.19
405.541	119.19
405.765	151.19
405.988	181.19
406.212	133.19
406.436	119.19
406.66	115.19
406.883	121.19
407.107	105.19
407.331	98.19
407.555	122.19
407.778	116.19
408.002	112.19
408.226	109.19
408.449	116.19
408.673	116.19
408.896	108.19
409.12	118.19
409.344	122.19
409.567	97.19
409.791	105.19
410.014	120.19
410.238	128.19
410.461	110.19
410.685	115.19
410.908	95.19
411.132	118.19
411.355	108.19
411.578	105.19
411.802	98.19
412.025	98.19
412.249	92.19
412.472	100.19
412.695	103.19
412.919	105.19
413.142	111.19
413.365	121.19
413.589	104.19
413.812	118.19
414.035	88.19
414.258	101.19
414.482	126.19
414.705	118.19
414.928	121.19
415.151	117.19
415.374	119.19
415.597	119.19
415.821	103.19
416.044	121.19
416.267	120.19
416.49	100.19
416.713	116.19
416.936	106.19
417.159	105.19
417.382	99.19
417.605	116.19
417.828	130.19
418.051	109.19
418.274	113.19
418.497	96.19
418.72	97.19
418.943	114.19
419.166	123.19
419.389	130.19
419.611	117.19
419.834	111.19
420.057	113.19
420.28	108.19
420.503	111.19
420.726	112.19
420.948	103.19
421.171	114.19
421.394	102.19
421.617	92.19
421.839	107.19
422.062	105.19
422.285	128.19
422.507	119.19
422.73	143.19
422.953	166.19
423.175	119.19
423.398	104.19
423.621	95.19
423.843	107.19
424.066	94.19
424.288	95.19
424.511	108.19
424.733	118.19
424.956	116.19
425.178	92.19
425.401	103.19
425.623	108.19
425.846	112.19
426.068	103.19
426.291	98.19
426.513	114.19
426.735	103.19
426.958	102.19
427.18	103.19
427.402	109.19
427.625	109.19
427.847	118.19
428.069	116.19
428.292	111.19
428.514	108.19
428.736	105.19
428.958	102.19
429.181	101.19
429.403	109.19
429.625	113.19
429.847	106.19
430.069	119.19
430.292	111.19
430.514	120.19
430.736	93.19
430.958	119.19
431.18	97.19
431.402	109.19
431.624	117.19
431.846	109.19
432.068	101.19
432.29	100.19
432.512	99.19
432.734	103.19
432.956	99.19
433.178	103.19
433.4	92.19
433.622	105.19
433.844	105.19
434.066	92.19
434.287	104.19
434.509	94.19
434.731	122.19
434.953	102.19
435.175	96.19
435.397	100.19
435.618	105.19
435.84	103.19
436.062	101.19
436.284	101.19
436.505	86.19
436.727	104.19
436.949	98.19
437.17	86.19
437.392	103.19
437.614	106.19
437.835	81.19
438.057	107.19
438.278	95.19
438.5	110.19
438.721	110.19
438.943	117.19
439.165	130.19
439.386	129.19
439.608	124.19
439.829	113.19
440.05	121.19
440.272	133.19
440.493	113.19
440.715	116.19
440.936	100.19
441.158	95.19
441.379	94.19
441.6	101.19
441.822	114.19
442.043	127.19
442.264	161.19
442.486	135.19
442.707	103.19
442.928	110.19
443.149	110.19
443.371	111.19
443.592	98.19
443.813	109.19
444.034	105.19
444.255	118.19
444.476	100.19
444.698	98.19
444.919	111.19
445.14	189.19
445.361	136.19
445.582	117.19
445.803	117.19
446.024	97.19
446.245	116.19
446.466	122.19
446.687	127.19
446.908	123.19
447.129	120.19
447.35	113.19
447.571	109.19
447.792	121.19
448.013	113.19
448.234	117.19
448.455	120.19
448.675	109.19
448.896	120.19
449.117	126.19
449.338	143.19
449.559	169.19
449.779	132.19
450	111.19
450.221	115.19
450.442	121.19
450.662	128.19
450.883	130.19
451.104	128.19
451.324	145.19
451.545	136.19
451.766	119.19
451.986	160.19
452.207	259.19
452.428	703.19
452.648	1674.19
452.869	928.19
453.089	232.19
453.31	136.19
453.53	131.19
453.751	172.19
453.971	199.19
454.192	172.19
454.412	129.19
454.633	125.19
454.853	108.19
455.073	98.19
455.294	100.19
455.514	109.19
455.734	102.19
455.955	106.19
456.175	110.19
456.395	121.19
456.616	118.19
456.836	110.19
457.056	110.19
457.276	110.19
457.497	121.19
457.717	135.19
457.937	111.19
458.157	105.19
458.377	115.19
458.598	97.19
458.818	95.19
459.038	91.19
459.258	103.19
459.478	91.19
459.698	93.19
459.918	102.19
460.138	113.19
460.358	99.19
460.578	101.19
460.798	109.19
461.018	104.19
461.238	111.19
461.458	98.19
461.678	106.19
461.898	108.19
462.118	102.19
462.338	108.19
462.558	122.19
462.777	123.19
462.997	120.19
463.217	116.19
463.437	151.19
463.657	199.19
463.876	218.19
464.096	145.19
464.316	109.19
464.536	104.19
464.755	90.19
464.975	113.19
465.195	115.19
465.414	115.19
465.634	109.19
465.854	108.19
466.073	97.19
466.293	106.19
466.512	109.19
466.732	108.19
466.951	112.19
467.171	153.19
467.391	158.19
467.61	113.19
467.829	93.19
468.049	126.19
468.268	124.19
468.488	107.19
468.707	97.19
468.927	102.19
469.146	104.19
469.365	118.19
469.585	109.19
469.804	109.19
470.023	113.19
470.243	110.19
470.462	125.19
470.681	118.19
470.901	133.19
471.12	215.19
471.339	228.19
471.558	151.19
471.777	132.19
471.997	113.19
472.216	116.19
472.435	96.19
472.654	105.19
472.873	112.19
473.092	113.19
473.311	108.19
473.53	112.19
473.749	108.19
473.968	109.19
474.187	100.19
474.406	96.19
474.625	104.19
474.844	97.19
475.063	106.19
475.282	101.19
475.501	107.19
475.72	108.19
475.939	103.19
476.158	112.19
476.377	116.19
476.596	126.19
476.814	97.19
477.033	106.19
477.252	93.19
477.471	101.19
477.69	109.19
477.908	122.19
478.127	109.19
478.346	90.19
478.564	96.19
478.783	113.19
479.002	115.19
479.22	102.19
479.439	114.19
479.658	104.19
479.876	104.19
480.095	117.19
480.313	116.19
480.532	124.19
480.751	113.19
480.969	104.19
481.188	124.19
481.406	109.19
481.624	111.19
481.843	132.19
482.061	130.19
482.28	107.19
482.498	109.19
482.717	102.19
482.935	105.19
483.153	108.19
483.372	117.19
483.59	122.19
483.808	114.19
484.027	125.19
484.245	137.19
484.463	210.19
484.681	240.19
484.9	183.19
485.118	138.19
485.336	123.19
485.554	116.19
485.772	142.19
485.99	208.19
486.209	286.19
486.427	183.19
486.645	144.19
486.863	124.19
487.081	120.19
487.299	117.19
487.517	116.19
487.735	124.19
487.953	111.19
488.171	111.19
488.389	100.19
488.607	105.19
488.825	98.19
489.043	113.19
489.261	105.19
489.479	122.19
489.696	98.19
489.914	103.19
490.132	111.19
490.35	121.19
490.568	120.19
490.786	104.19
491.003	120.19
491.221	128.19
491.439	126.19
491.657	117.19
491.874	121.19
492.092	121.19
492.31	108.19
492.527	105.19
492.745	118.19
492.963	122.19
493.18	121.19
493.398	124.19
493.615	111.19
493.833	106.19
494.05	113.19
494.268	119.19
494.485	119.19
494.703	107.19
494.92	110.19
495.138	121.19
495.355	114.19
495.573	136.19
495.79	122.19
496.008	104.19
496.225	113.19
496.442	101.19
496.66	132.19
496.877	178.19
497.094	190.19
497.312	119.19
497.529	113.19
497.746	112.19
497.963	108.19
498.181	121.19
498.398	119.19
498.615	112.19
498.832	111.19
499.049	117.19
499.267	167.19
499.484	198.19
499.701	129.19
499.918	120.19
500.135	102.19
500.352	105.19
500.569	115.19
500.786	102.19
501.003	120.19
501.22	110.19
501.437	107.19
501.654	119.19
501.871	90.19
502.088	100.19
502.305	111.19
502.522	110.19
502.739	105.19
502.956	112.19
503.172	107.19
503.389	108.19
503.606	122.19
503.823	116.19
504.04	108.19
