Data from SnStandardFlinnAPT0064_QswitchEnergy10_LIBS07252019.E.O._I.C._HRD10591_15-26-56-973.txt Node
Date: Thu Jul 25 15:26:56 EDT 2019
User: cochatt
Spectrometer: HR+D1059
Trigger mode: 1
Integration Time (sec): 1.000000E-1
Scans to average: 1
Electric dark correction enabled: true
Nonlinearity correction enabled: false
Boxcar width: 0
XAxis mode: Wavelengths
Number of Pixels in Spectrum: 2048
>>>>>Begin Spectral Data<<<<<
223.165	-21.5
223.4	-21.5
223.635	-21.5
223.869	-16.5
224.104	-25.5
224.338	-15.5
224.573	-14.5
224.808	-14.5
225.042	-10.5
225.277	-1.5
225.511	-5.5
225.746	-4.5
225.98	18.5
226.215	4.5
226.449	18.5
226.683	18.5
226.918	38.5
227.152	31.5
227.387	35.5
227.621	39.5
227.856	50.5
228.09	44.5
228.324	46.5
228.559	59.5
228.793	58.5
229.027	68.5
229.262	75.5
229.496	69.5
229.73	67.5
229.964	77.5
230.199	60.5
230.433	77.5
230.667	70.5
230.901	73.5
231.136	101.5
231.37	93.5
231.604	92.5
231.838	84.5
232.072	117.5
232.306	123.5
232.541	115.5
232.775	72.5
233.009	84.5
233.243	83.5
233.477	79.5
233.711	102.5
233.945	107.5
234.179	97.5
234.413	100.5
234.647	89.5
234.881	88.5
235.115	93.5
235.349	89.5
235.583	90.5
235.817	123.5
236.051	126.5
236.285	93.5
236.519	88.5
236.753	71.5
236.987	83.5
237.221	73.5
237.455	78.5
237.689	81.5
237.922	76.5
238.156	79.5
238.39	80.5
238.624	89.5
238.858	78.5
239.091	73.5
239.325	70.5
239.559	84.5
239.793	92.5
240.027	65.5
240.26	96.5
240.494	94.5
240.728	69.5
240.961	82.5
241.195	99.5
241.429	99.5
241.662	81.5
241.896	96.5
242.13	103.5
242.363	128.5
242.597	166.5
242.83	126.5
243.064	120.5
243.298	176.5
243.531	144.5
243.765	103.5
243.998	87.5
244.232	75.5
244.465	88.5
244.699	88.5
244.932	80.5
245.166	93.5
245.399	86.5
245.633	73.5
245.866	86.5
246.099	87.5
246.333	86.5
246.566	75.5
246.8	80.5
247.033	70.5
247.266	75.5
247.5	74.5
247.733	89.5
247.966	86.5
248.2	82.5
248.433	103.5
248.666	119.5
248.899	133.5
249.133	95.5
249.366	94.5
249.599	120.5
249.832	122.5
250.066	113.5
250.299	97.5
250.532	90.5
250.765	90.5
250.998	73.5
251.231	87.5
251.465	76.5
251.698	79.5
251.931	97.5
252.164	86.5
252.397	84.5
252.63	104.5
252.863	95.5
253.096	95.5
253.329	94.5
253.562	79.5
253.795	97.5
254.028	83.5
254.261	68.5
254.494	91.5
254.727	120.5
254.96	154.5
255.193	132.5
255.426	102.5
255.659	80.5
255.892	96.5
256.124	102.5
256.357	86.5
256.59	85.5
256.823	93.5
257.056	99.5
257.289	152.5
257.521	166.5
257.754	133.5
257.987	86.5
258.22	91.5
258.452	93.5
258.685	82.5
258.918	82.5
259.151	103.5
259.383	113.5
259.616	139.5
259.849	162.5
260.081	98.5
260.314	90.5
260.547	81.5
260.779	79.5
261.012	87.5
261.244	79.5
261.477	81.5
261.71	91.5
261.942	80.5
262.175	87.5
262.407	96.5
262.64	87.5
262.872	86.5
263.105	63.5
263.337	84.5
263.57	88.5
263.802	90.5
264.035	82.5
264.267	91.5
264.499	87.5
264.732	87.5
264.964	83.5
265.197	82.5
265.429	87.5
265.661	80.5
265.894	105.5
266.126	109.5
266.358	151.5
266.591	154.5
266.823	100.5
267.055	86.5
267.287	97.5
267.52	89.5
267.752	87.5
267.984	84.5
268.216	82.5
268.448	89.5
268.681	96.5
268.913	92.5
269.145	91.5
269.377	71.5
269.609	82.5
269.841	100.5
270.073	110.5
270.306	134.5
270.538	190.5
270.77	320.5
271.002	368.5
271.234	215.5
271.466	123.5
271.698	112.5
271.93	110.5
272.162	94.5
272.394	79.5
272.626	87.5
272.858	99.5
273.09	86.5
273.322	77.5
273.553	94.5
273.785	91.5
274.017	81.5
274.249	80.5
274.481	83.5
274.713	87.5
274.945	86.5
275.176	89.5
275.408	93.5
275.64	90.5
275.872	87.5
276.104	87.5
276.335	97.5
276.567	105.5
276.799	90.5
277.031	100.5
277.262	122.5
277.494	105.5
277.726	136.5
277.957	171.5
278.189	256.5
278.421	248.5
278.652	197.5
278.884	181.5
279.115	127.5
279.347	112.5
279.579	94.5
279.81	93.5
280.042	100.5
280.273	91.5
280.505	99.5
280.736	100.5
280.968	123.5
281.199	154.5
281.431	225.5
281.662	245.5
281.894	145.5
282.125	101.5
282.356	112.5
282.588	107.5
282.819	112.5
283.051	120.5
283.282	128.5
283.513	184.5
283.745	292.5
283.976	562.5
284.207	774.5
284.439	577.5
284.67	256.5
284.901	256.5
285.132	343.5
285.364	380.5
285.595	219.5
285.826	154.5
286.057	239.5
286.288	408.5
286.52	627.5
286.751	495.5
286.982	198.5
287.213	128.5
287.444	96.5
287.675	111.5
287.906	107.5
288.138	101.5
288.369	109.5
288.6	89.5
288.831	104.5
289.062	103.5
289.293	99.5
289.524	108.5
289.755	92.5
289.986	90.5
290.217	96.5
290.448	99.5
290.679	94.5
290.91	113.5
291.141	158.5
291.371	212.5
291.602	268.5
291.833	184.5
292.064	123.5
292.295	98.5
292.526	109.5
292.757	88.5
292.987	86.5
293.218	97.5
293.449	90.5
293.68	110.5
293.91	78.5
294.141	81.5
294.372	84.5
294.603	93.5
294.833	74.5
295.064	88.5
295.295	84.5
295.525	99.5
295.756	93.5
295.987	90.5
296.217	106.5
296.448	86.5
296.679	90.5
296.909	91.5
297.14	97.5
297.37	94.5
297.601	115.5
297.831	93.5
298.062	108.5
298.292	98.5
298.523	102.5
298.753	99.5
298.984	108.5
299.214	115.5
299.445	111.5
299.675	96.5
299.905	115.5
300.136	132.5
300.366	165.5
300.597	277.5
300.827	448.5
301.057	682.5
301.288	606.5
301.518	254.5
301.748	158.5
301.979	122.5
302.209	131.5
302.439	144.5
302.669	148.5
302.9	242.5
303.13	468.5
303.36	835.5
303.59	1220.5
303.82	823.5
304.051	294.5
304.281	165.5
304.511	126.5
304.741	116.5
304.971	120.5
305.201	110.5
305.431	104.5
305.661	109.5
305.891	111.5
306.121	86.5
306.352	104.5
306.582	98.5
306.812	94.5
307.042	107.5
307.272	101.5
307.502	116.5
307.731	97.5
307.961	106.5
308.191	83.5
308.421	106.5
308.651	90.5
308.881	96.5
309.111	121.5
309.341	110.5
309.571	103.5
309.8	107.5
310.03	106.5
310.26	109.5
310.49	114.5
310.72	116.5
310.949	93.5
311.179	99.5
311.409	98.5
311.639	110.5
311.868	105.5
312.098	102.5
312.328	100.5
312.557	120.5
312.787	118.5
313.017	116.5
313.246	121.5
313.476	111.5
313.706	116.5
313.935	164.5
314.165	196.5
314.394	219.5
314.624	159.5
314.853	118.5
315.083	114.5
315.312	122.5
315.542	123.5
315.771	128.5
316.001	115.5
316.23	117.5
316.46	135.5
316.689	161.5
316.919	236.5
317.148	482.5
317.377	909.5
317.607	1477.5
317.836	1396.5
318.065	524.5
318.295	196.5
318.524	145.5
318.753	128.5
318.983	118.5
319.212	119.5
319.441	115.5
319.67	114.5
319.9	124.5
320.129	118.5
320.358	131.5
320.587	126.5
320.816	98.5
321.046	117.5
321.275	117.5
321.504	124.5
321.733	128.5
321.962	153.5
322.191	158.5
322.42	119.5
322.649	124.5
322.878	128.5
323.108	119.5
323.337	115.5
323.566	115.5
323.795	127.5
324.024	147.5
324.253	147.5
324.482	155.5
324.71	219.5
324.939	266.5
325.168	231.5
325.397	181.5
325.626	265.5
325.855	473.5
326.084	873.5
326.313	1522.5
326.542	1534.5
326.77	590.5
326.999	231.5
327.228	178.5
327.457	216.5
327.686	211.5
327.914	147.5
328.143	126.5
328.372	130.5
328.6	119.5
328.829	116.5
329.058	116.5
329.287	111.5
329.515	116.5
329.744	118.5
329.972	113.5
330.201	108.5
330.43	103.5
330.658	110.5
330.887	119.5
331.115	107.5
331.344	107.5
331.572	107.5
331.801	123.5
332.03	130.5
332.258	157.5
332.486	176.5
332.715	286.5
332.943	486.5
333.172	731.5
333.4	682.5
333.629	240.5
333.857	150.5
334.085	122.5
334.314	108.5
334.542	116.5
334.771	116.5
334.999	120.5
335.227	116.5
335.455	118.5
335.684	126.5
335.912	124.5
336.14	102.5
336.369	109.5
336.597	118.5
336.825	106.5
337.053	104.5
337.281	111.5
337.51	104.5
337.738	110.5
337.966	120.5
338.194	116.5
338.422	110.5
338.65	97.5
338.878	105.5
339.106	111.5
339.334	111.5
339.562	122.5
339.79	119.5
340.018	114.5
340.246	104.5
340.474	105.5
340.702	107.5
340.93	119.5
341.158	106.5
341.386	113.5
341.614	124.5
341.842	121.5
342.07	120.5
342.298	114.5
342.526	114.5
342.754	122.5
342.981	121.5
343.209	111.5
343.437	114.5
343.665	116.5
343.893	112.5
344.12	117.5
344.348	102.5
344.576	122.5
344.804	115.5
345.031	117.5
345.259	115.5
345.487	111.5
345.714	95.5
345.942	96.5
346.17	108.5
346.397	116.5
346.625	121.5
346.853	89.5
347.08	98.5
347.308	110.5
347.535	108.5
347.763	99.5
347.99	104.5
348.218	102.5
348.445	112.5
348.673	124.5
348.9	127.5
349.128	101.5
349.355	126.5
349.583	109.5
349.81	98.5
350.037	102.5
350.265	106.5
350.492	118.5
350.72	116.5
350.947	110.5
351.174	112.5
351.402	114.5
351.629	107.5
351.856	114.5
352.083	100.5
352.311	99.5
352.538	87.5
352.765	120.5
352.992	102.5
353.22	96.5
353.447	95.5
353.674	90.5
353.901	99.5
354.128	92.5
354.355	112.5
354.583	110.5
354.81	108.5
355.037	100.5
355.264	112.5
355.491	98.5
355.718	101.5
355.945	94.5
356.172	97.5
356.399	88.5
356.626	101.5
356.853	100.5
357.08	101.5
357.307	108.5
357.534	114.5
357.761	100.5
357.988	115.5
358.215	116.5
358.441	103.5
358.668	120.5
358.895	114.5
359.122	118.5
359.349	109.5
359.576	106.5
359.802	111.5
360.029	98.5
360.256	120.5
360.483	112.5
360.709	97.5
360.936	111.5
361.163	102.5
361.39	101.5
361.616	107.5
361.843	121.5
362.07	108.5
362.296	99.5
362.523	121.5
362.749	107.5
362.976	110.5
363.203	103.5
363.429	98.5
363.656	95.5
363.882	113.5
364.109	114.5
364.335	107.5
364.562	96.5
364.788	106.5
365.015	113.5
365.241	131.5
365.468	193.5
365.694	234.5
365.92	184.5
366.147	104.5
366.373	99.5
366.599	85.5
366.826	96.5
367.052	98.5
367.278	95.5
367.505	98.5
367.731	109.5
367.957	119.5
368.184	120.5
368.41	115.5
368.636	109.5
368.862	106.5
369.089	115.5
369.315	115.5
369.541	102.5
369.767	111.5
369.993	107.5
370.219	105.5
370.445	116.5
370.672	111.5
370.898	105.5
371.124	107.5
371.35	103.5
371.576	105.5
371.802	121.5
372.028	100.5
372.254	113.5
372.48	102.5
372.706	110.5
372.932	102.5
373.158	115.5
373.384	120.5
373.61	100.5
373.835	110.5
374.061	106.5
374.287	107.5
374.513	113.5
374.739	114.5
374.965	100.5
375.191	102.5
375.416	102.5
375.642	97.5
375.868	119.5
376.094	111.5
376.319	114.5
376.545	98.5
376.771	100.5
376.997	104.5
377.222	107.5
377.448	104.5
377.674	111.5
377.899	106.5
378.125	99.5
378.35	119.5
378.576	120.5
378.802	109.5
379.027	115.5
379.253	147.5
379.478	164.5
379.704	295.5
379.929	737.5
380.155	1534.5
380.38	1587.5
380.606	520.5
380.831	172.5
381.057	112.5
381.282	125.5
381.507	118.5
381.733	105.5
381.958	103.5
382.184	116.5
382.409	103.5
382.634	121.5
382.86	112.5
383.085	98.5
383.31	110.5
383.535	110.5
383.761	100.5
383.986	106.5
384.211	94.5
384.436	116.5
384.662	108.5
384.887	107.5
385.112	100.5
385.337	92.5
385.562	106.5
385.787	107.5
386.013	104.5
386.238	106.5
386.463	94.5
386.688	106.5
386.913	107.5
387.138	111.5
387.363	98.5
387.588	102.5
387.813	99.5
388.038	105.5
388.263	104.5
388.488	101.5
388.713	102.5
388.938	112.5
389.163	95.5
389.387	100.5
389.612	90.5
389.837	106.5
390.062	94.5
390.287	106.5
390.512	102.5
390.736	102.5
390.961	118.5
391.186	96.5
391.411	101.5
391.636	102.5
391.86	93.5
392.085	88.5
392.31	101.5
392.534	89.5
392.759	85.5
392.984	109.5
393.208	117.5
393.433	136.5
393.658	141.5
393.882	97.5
394.107	71.5
394.331	101.5
394.556	88.5
394.78	100.5
395.005	82.5
395.229	107.5
395.454	102.5
395.678	98.5
395.903	96.5
396.127	113.5
396.352	112.5
396.576	120.5
396.801	121.5
397.025	119.5
397.249	111.5
397.474	89.5
397.698	106.5
397.922	101.5
398.147	102.5
398.371	90.5
398.595	107.5
398.82	86.5
399.044	83.5
399.268	83.5
399.492	100.5
399.717	98.5
399.941	95.5
400.165	100.5
400.389	97.5
400.613	90.5
400.837	91.5
401.062	108.5
401.286	96.5
401.51	87.5
401.734	99.5
401.958	118.5
402.182	106.5
402.406	113.5
402.63	97.5
402.854	91.5
403.078	103.5
403.302	94.5
403.526	96.5
403.75	93.5
403.974	99.5
404.198	94.5
404.422	102.5
404.645	108.5
404.869	89.5
405.093	93.5
405.317	99.5
405.541	103.5
405.765	123.5
405.988	134.5
406.212	113.5
406.436	92.5
406.66	112.5
406.883	98.5
407.107	97.5
407.331	100.5
407.555	97.5
407.778	102.5
408.002	94.5
408.226	88.5
408.449	102.5
408.673	110.5
408.896	116.5
409.12	101.5
409.344	104.5
409.567	81.5
409.791	101.5
410.014	96.5
410.238	99.5
410.461	106.5
410.685	105.5
410.908	96.5
411.132	98.5
411.355	98.5
411.578	89.5
411.802	101.5
412.025	96.5
412.249	96.5
412.472	104.5
412.695	96.5
412.919	99.5
413.142	85.5
413.365	94.5
413.589	83.5
413.812	101.5
414.035	106.5
414.258	110.5
414.482	108.5
414.705	93.5
414.928	100.5
415.151	98.5
415.374	102.5
415.597	92.5
415.821	90.5
416.044	89.5
416.267	99.5
416.49	102.5
416.713	103.5
416.936	88.5
417.159	99.5
417.382	101.5
417.605	92.5
417.828	103.5
418.051	101.5
418.274	102.5
418.497	104.5
418.72	116.5
418.943	94.5
419.166	99.5
419.389	97.5
419.611	112.5
419.834	111.5
420.057	104.5
420.28	96.5
420.503	110.5
420.726	87.5
420.948	84.5
421.171	90.5
421.394	92.5
421.617	93.5
421.839	97.5
422.062	87.5
422.285	98.5
422.507	106.5
422.73	119.5
422.953	141.5
423.175	98.5
423.398	107.5
423.621	92.5
423.843	96.5
424.066	95.5
424.288	96.5
424.511	101.5
424.733	112.5
424.956	98.5
425.178	95.5
425.401	102.5
425.623	81.5
425.846	101.5
426.068	88.5
426.291	97.5
426.513	109.5
426.735	92.5
426.958	104.5
427.18	105.5
427.402	95.5
427.625	94.5
427.847	72.5
428.069	73.5
428.292	94.5
428.514	107.5
428.736	101.5
428.958	94.5
429.181	104.5
429.403	76.5
429.625	99.5
429.847	94.5
430.069	108.5
430.292	94.5
430.514	102.5
430.736	99.5
430.958	93.5
431.18	102.5
431.402	86.5
431.624	90.5
431.846	88.5
432.068	95.5
432.29	97.5
432.512	88.5
432.734	97.5
432.956	97.5
433.178	87.5
433.4	100.5
433.622	97.5
433.844	92.5
434.066	101.5
434.287	103.5
434.509	104.5
434.731	96.5
434.953	92.5
435.175	84.5
435.397	94.5
435.618	101.5
435.84	101.5
436.062	86.5
436.284	100.5
436.505	99.5
436.727	91.5
436.949	105.5
437.17	95.5
437.392	105.5
437.614	92.5
437.835	102.5
438.057	99.5
438.278	85.5
438.5	89.5
438.721	106.5
438.943	101.5
439.165	111.5
439.386	99.5
439.608	101.5
439.829	116.5
440.05	113.5
440.272	121.5
440.493	113.5
440.715	92.5
440.936	98.5
441.158	94.5
441.379	91.5
441.6	102.5
441.822	101.5
442.043	111.5
442.264	139.5
442.486	122.5
442.707	93.5
442.928	84.5
443.149	72.5
443.371	96.5
443.592	106.5
443.813	94.5
444.034	102.5
444.255	88.5
444.476	101.5
444.698	103.5
444.919	101.5
445.14	193.5
445.361	152.5
445.582	106.5
445.803	95.5
446.024	104.5
446.245	97.5
446.466	100.5
446.687	110.5
446.908	103.5
447.129	104.5
447.35	101.5
447.571	85.5
447.792	101.5
448.013	96.5
448.234	99.5
448.455	100.5
448.675	105.5
448.896	112.5
449.117	122.5
449.338	128.5
449.559	148.5
449.779	121.5
450	104.5
450.221	110.5
450.442	102.5
450.662	106.5
450.883	97.5
451.104	103.5
451.324	118.5
451.545	105.5
451.766	110.5
451.986	130.5
452.207	205.5
452.428	503.5
452.648	1220.5
452.869	694.5
453.089	171.5
453.31	119.5
453.53	129.5
453.751	158.5
453.971	151.5
454.192	163.5
454.412	117.5
454.633	102.5
454.853	97.5
455.073	98.5
455.294	95.5
455.514	100.5
455.734	91.5
455.955	90.5
456.175	91.5
456.395	94.5
456.616	89.5
456.836	85.5
457.056	93.5
457.276	99.5
457.497	113.5
457.717	118.5
457.937	112.5
458.157	92.5
458.377	90.5
458.598	86.5
458.818	73.5
459.038	65.5
459.258	84.5
459.478	96.5
459.698	84.5
459.918	85.5
460.138	93.5
460.358	83.5
460.578	100.5
460.798	91.5
461.018	88.5
461.238	88.5
461.458	93.5
461.678	89.5
461.898	96.5
462.118	95.5
462.338	103.5
462.558	83.5
462.777	96.5
462.997	89.5
463.217	110.5
463.437	132.5
463.657	185.5
463.876	198.5
464.096	127.5
464.316	92.5
464.536	97.5
464.755	102.5
464.975	78.5
465.195	96.5
465.414	100.5
465.634	105.5
465.854	105.5
466.073	104.5
466.293	92.5
466.512	90.5
466.732	103.5
466.951	101.5
467.171	146.5
467.391	135.5
467.61	109.5
467.829	101.5
468.049	96.5
468.268	94.5
468.488	99.5
468.707	93.5
468.927	88.5
469.146	91.5
469.365	91.5
469.585	77.5
469.804	89.5
470.023	69.5
470.243	86.5
470.462	110.5
470.681	117.5
470.901	138.5
471.12	190.5
471.339	225.5
471.558	131.5
471.777	111.5
471.997	103.5
472.216	101.5
472.435	95.5
472.654	95.5
472.873	79.5
473.092	99.5
473.311	98.5
473.53	83.5
473.749	75.5
473.968	98.5
474.187	98.5
474.406	96.5
474.625	100.5
474.844	94.5
475.063	101.5
475.282	88.5
475.501	91.5
475.72	102.5
475.939	89.5
476.158	97.5
476.377	96.5
476.596	107.5
476.814	87.5
477.033	90.5
477.252	99.5
477.471	98.5
477.69	95.5
477.908	87.5
478.127	92.5
478.346	86.5
478.564	90.5
478.783	105.5
479.002	96.5
479.22	85.5
479.439	93.5
479.658	93.5
479.876	89.5
480.095	99.5
480.313	98.5
480.532	102.5
480.751	97.5
480.969	105.5
481.188	99.5
481.406	97.5
481.624	102.5
481.843	121.5
482.061	121.5
482.28	109.5
482.498	99.5
482.717	97.5
482.935	111.5
483.153	99.5
483.372	110.5
483.59	103.5
483.808	95.5
484.027	102.5
484.245	118.5
484.463	163.5
484.681	244.5
484.9	150.5
485.118	131.5
485.336	100.5
485.554	87.5
485.772	114.5
485.99	172.5
486.209	262.5
486.427	154.5
486.645	116.5
486.863	120.5
487.081	101.5
487.299	106.5
487.517	95.5
487.735	95.5
487.953	108.5
488.171	95.5
488.389	90.5
488.607	91.5
488.825	93.5
489.043	98.5
489.261	96.5
489.479	91.5
489.696	110.5
489.914	102.5
490.132	103.5
490.35	104.5
490.568	112.5
490.786	93.5
491.003	121.5
491.221	107.5
491.439	100.5
491.657	122.5
491.874	116.5
492.092	115.5
492.31	112.5
492.527	112.5
492.745	103.5
492.963	93.5
493.18	107.5
493.398	100.5
493.615	86.5
493.833	87.5
494.05	103.5
494.268	113.5
494.485	118.5
494.703	113.5
494.92	105.5
495.138	100.5
495.355	101.5
495.573	102.5
495.79	100.5
496.008	102.5
496.225	114.5
496.442	103.5
496.66	123.5
496.877	168.5
497.094	138.5
497.312	104.5
497.529	100.5
497.746	90.5
497.963	95.5
498.181	97.5
498.398	96.5
498.615	106.5
498.832	93.5
499.049	106.5
499.267	143.5
499.484	168.5
499.701	120.5
499.918	94.5
500.135	101.5
500.352	113.5
500.569	92.5
500.786	110.5
501.003	105.5
501.22	111.5
501.437	89.5
501.654	92.5
501.871	87.5
502.088	84.5
502.305	89.5
502.522	105.5
502.739	106.5
502.956	96.5
503.172	103.5
503.389	103.5
503.606	84.5
503.823	95.5
504.04	106.5
504.256	112.5
504.473	96.5
504.69	103.5
504.907	98.5
505.123	118.5
505.34	105.5
505.557	103.5
505.773	99.5
505.99	104.5
506.207	92.5
506.423	102.5
506.64	105.5
506.856	85.5
507.073	100.5
507.289	87.5
507.506	83.5
507.722	98.5
507.939	87.5
508.155	100.5
508.372	102.5
508.588	83.5
508.805	85.5
509.021	91.5
509.238	113.5
509.454	137.5
509.67	163.5
509.887	105.5
510.103	104.5
510.319	94.5
510.536	114.5
510.752	121.5
510.968	109.5
511.184	96.5
511.401	87.5
511.617	102.5
511.833	104.5
512.049	99.5
512.265	92.5
512.481	76.5
512.698	92.5
512.914	86.5
513.13	105.5
513.346	90.5
513.562	91.5
513.778	87.5
513.994	98.5
514.21	119.5
514.426	124.5
514.642	176.5
514.858	119.5
515.074	101.5
515.29	109.5
515.506	104.5
515.721	96.5
515.937	96.5
516.153	107.5
516.369	98.5
516.585	96.5
516.801	98.5
517.016	111.5
517.232	90.5
517.448	100.5
517.664	101.5
517.879	102.5
518.095	110.5
518.311	101.5
518.527	112.5
518.742	105.5
518.958	108.5
519.173	163.5
519.389	108.5
519.605	98.5
519.82	90.5
520.036	104.5
520.251	90.5
520.467	106.5
520.682	105.5
520.898	94.5
521.113	98.5
521.329	100.5
521.544	100.5
521.76	92.5
521.975	108.5
522.19	107.5
522.406	96.5
522.621	109.5
522.836	90.5
523.052	98.5
523.267	95.5
523.482	97.5
523.698	97.5
523.913	98.5
524.128	93.5
524.343	90.5
524.559	97.5
524.774	88.5
524.989	94.5
525.204	90.5
525.419	99.5
525.634	101.5
525.849	83.5
526.064	76.5
526.28	101.5
526.495	88.5
526.71	83.5
526.925	97.5
527.14	98.5
527.355	94.5
527.57	100.5
