Data from SnStandardFlinnAPT0064_LampEnergy5.5_LIBS07252019.E.O._I.C._HRD10591_15-17-20-492.txt Node
Date: Thu Jul 25 15:17:20 EDT 2019
User: cochatt
Spectrometer: HR+D1059
Trigger mode: 1
Integration Time (sec): 1.000000E-1
Scans to average: 1
Electric dark correction enabled: true
Nonlinearity correction enabled: false
Boxcar width: 0
XAxis mode: Wavelengths
Number of Pixels in Spectrum: 2048
>>>>>Begin Spectral Data<<<<<
223.165	-20.75
223.4	-20.75
223.635	-20.75
223.869	-14.75
224.104	-17.75
224.338	4.25
224.573	-18.75
224.808	-15.75
225.042	-6.75
225.277	-10.75
225.511	-0.75
225.746	5.25
225.98	-2.75
226.215	22.25
226.449	5.25
226.683	16.25
226.918	26.25
227.152	29.25
227.387	32.25
227.621	41.25
227.856	53.25
228.09	39.25
228.324	53.25
228.559	58.25
228.793	96.25
229.027	167.25
229.262	176.25
229.496	178.25
229.73	149.25
229.964	152.25
230.199	156.25
230.433	163.25
230.667	163.25
230.901	194.25
231.136	186.25
231.37	194.25
231.604	185.25
231.838	222.25
232.072	240.25
232.306	266.25
232.541	242.25
232.775	210.25
233.009	211.25
233.243	229.25
233.477	232.25
233.711	263.25
233.945	295.25
234.179	237.25
234.413	230.25
234.647	226.25
234.881	226.25
235.115	265.25
235.349	318.25
235.583	378.25
235.817	476.25
236.051	475.25
236.285	321.25
236.519	268.25
236.753	241.25
236.987	245.25
237.221	256.25
237.455	250.25
237.689	216.25
237.922	234.25
238.156	223.25
238.39	240.25
238.624	240.25
238.858	254.25
239.091	257.25
239.325	231.25
239.559	252.25
239.793	256.25
240.027	248.25
240.26	276.25
240.494	271.25
240.728	296.25
240.961	301.25
241.195	312.25
241.429	308.25
241.662	333.25
241.896	366.25
242.13	425.25
242.363	565.25
242.597	729.25
242.83	684.25
243.064	692.25
243.298	830.25
243.531	679.25
243.765	420.25
243.998	362.25
244.232	324.25
244.465	309.25
244.699	317.25
244.932	319.25
245.166	300.25
245.399	298.25
245.633	314.25
245.866	333.25
246.099	303.25
246.333	289.25
246.566	282.25
246.8	289.25
247.033	300.25
247.266	287.25
247.5	322.25
247.733	316.25
247.966	326.25
248.2	357.25
248.433	420.25
248.666	444.25
248.899	447.25
249.133	373.25
249.366	409.25
249.599	433.25
249.832	495.25
250.066	476.25
250.299	398.25
250.532	362.25
250.765	362.25
250.998	336.25
251.231	342.25
251.465	345.25
251.698	334.25
251.931	349.25
252.164	340.25
252.397	365.25
252.63	357.25
252.863	371.25
253.096	364.25
253.329	348.25
253.562	362.25
253.795	378.25
254.028	366.25
254.261	381.25
254.494	414.25
254.727	467.25
254.96	558.25
255.193	546.25
255.426	439.25
255.659	401.25
255.892	410.25
256.124	399.25
256.357	405.25
256.59	418.25
256.823	442.25
257.056	496.25
257.289	587.25
257.521	644.25
257.754	513.25
257.987	458.25
258.22	437.25
258.452	417.25
258.685	430.25
258.918	444.25
259.151	435.25
259.383	480.25
259.616	506.25
259.849	568.25
260.081	504.25
260.314	473.25
260.547	445.25
260.779	430.25
261.012	424.25
261.244	443.25
261.477	463.25
261.71	445.25
261.942	469.25
262.175	478.25
262.407	488.25
262.64	473.25
262.872	500.25
263.105	536.25
263.337	546.25
263.57	583.25
263.802	598.25
264.035	598.25
264.267	623.25
264.499	636.25
264.732	629.25
264.964	656.25
265.197	660.25
265.429	652.25
265.661	676.25
265.894	720.25
266.126	790.25
266.358	874.25
266.591	843.25
266.823	712.25
267.055	655.25
267.287	634.25
267.52	615.25
267.752	592.25
267.984	594.25
268.216	603.25
268.448	592.25
268.681	577.25
268.913	556.25
269.145	559.25
269.377	579.25
269.609	574.25
269.841	590.25
270.073	644.25
270.306	740.25
270.538	958.25
270.77	1438.25
271.002	1712.25
271.234	1218.25
271.466	783.25
271.698	664.25
271.93	618.25
272.162	609.25
272.394	600.25
272.626	588.25
272.858	543.25
273.09	560.25
273.322	585.25
273.553	550.25
273.785	563.25
274.017	581.25
274.249	565.25
274.481	537.25
274.713	548.25
274.945	543.25
275.176	537.25
275.408	565.25
275.64	565.25
275.872	543.25
276.104	584.25
276.335	581.25
276.567	593.25
276.799	576.25
277.031	585.25
277.262	593.25
277.494	584.25
277.726	689.25
277.957	788.25
278.189	894.25
278.421	830.25
278.652	774.25
278.884	712.25
279.115	655.25
279.347	634.25
279.579	634.25
279.81	644.25
280.042	623.25
280.273	625.25
280.505	638.25
280.736	688.25
280.968	674.25
281.199	766.25
281.431	860.25
281.662	870.25
281.894	758.25
282.125	717.25
282.356	725.25
282.588	749.25
282.819	752.25
283.051	816.25
283.282	865.25
283.513	1080.25
283.745	1560.25
283.976	2532.25
284.207	3697.25
284.439	3268.25
284.67	1892.25
284.901	1516.25
285.132	1530.25
285.364	1413.25
285.595	1121.25
285.826	1030.25
286.057	1240.25
286.288	1662.25
286.52	2324.25
286.751	2117.25
286.982	1304.25
287.213	961.25
287.444	827.25
287.675	800.25
287.906	777.25
288.138	748.25
288.369	755.25
288.6	744.25
288.831	723.25
289.062	731.25
289.293	733.25
289.524	734.25
289.755	725.25
289.986	728.25
290.217	766.25
290.448	758.25
290.679	777.25
290.91	773.25
291.141	814.25
291.371	861.25
291.602	887.25
291.833	834.25
292.064	753.25
292.295	772.25
292.526	716.25
292.757	704.25
292.987	705.25
293.218	706.25
293.449	712.25
293.68	696.25
293.91	730.25
294.141	670.25
294.372	690.25
294.603	724.25
294.833	713.25
295.064	690.25
295.295	694.25
295.525	703.25
295.756	674.25
295.987	691.25
296.217	705.25
296.448	716.25
296.679	713.25
296.909	698.25
297.14	714.25
297.37	729.25
297.601	735.25
297.831	730.25
298.062	742.25
298.292	740.25
298.523	735.25
298.753	732.25
298.984	756.25
299.214	769.25
299.445	786.25
299.675	767.25
299.905	800.25
300.136	831.25
300.366	943.25
300.597	1207.25
300.827	1680.25
301.057	2294.25
301.288	2288.25
301.518	1412.25
301.748	1079.25
301.979	983.25
302.209	980.25
302.439	999.25
302.669	1025.25
302.9	1281.25
303.13	1789.25
303.36	2656.25
303.59	3555.25
303.82	3068.25
304.051	1734.25
304.281	1227.25
304.511	1086.25
304.741	997.25
304.971	913.25
305.201	894.25
305.431	862.25
305.661	834.25
305.891	832.25
306.121	816.25
306.352	835.25
306.582	801.25
306.812	800.25
307.042	819.25
307.272	804.25
307.502	812.25
307.731	827.25
307.961	789.25
308.191	820.25
308.421	822.25
308.651	816.25
308.881	804.25
309.111	805.25
309.341	787.25
309.571	841.25
309.8	830.25
310.03	830.25
310.26	810.25
310.49	798.25
310.72	819.25
310.949	812.25
311.179	835.25
311.409	863.25
311.639	836.25
311.868	868.25
312.098	871.25
312.328	864.25
312.557	890.25
312.787	870.25
313.017	890.25
313.246	889.25
313.476	898.25
313.706	890.25
313.935	962.25
314.165	990.25
314.394	1040.25
314.624	1012.25
314.853	959.25
315.083	940.25
315.312	940.25
315.542	969.25
315.771	982.25
316.001	993.25
316.23	990.25
316.46	1025.25
316.689	1173.25
316.919	1372.25
317.148	2008.25
317.377	3134.25
317.607	4696.25
317.836	4780.25
318.065	2715.25
318.295	1725.25
318.524	1418.25
318.753	1223.25
318.983	1159.25
319.212	1075.25
319.441	1042.25
319.67	1049.25
319.9	1047.25
320.129	1023.25
320.358	1034.25
320.587	1011.25
320.816	1026.25
321.046	994.25
321.275	1024.25
321.504	1018.25
321.733	1069.25
321.962	1059.25
322.191	1118.25
322.42	1074.25
322.649	1056.25
322.878	1072.25
323.108	1077.25
323.337	1091.25
323.566	1079.25
323.795	1122.25
324.024	1134.25
324.253	1150.25
324.482	1216.25
324.71	1272.25
324.939	1338.25
325.168	1378.25
325.397	1398.25
325.626	1686.25
325.855	2425.25
326.084	3796.25
326.313	5730.25
326.542	6010.25
326.77	3776.25
326.999	2381.25
327.228	2013.25
327.457	1941.25
327.686	1905.25
327.914	2073.25
328.143	2337.25
328.372	2733.25
328.6	2962.25
328.829	2719.25
329.058	2260.25
329.287	2056.25
329.515	1916.25
329.744	1773.25
329.972	1710.25
330.201	1648.25
330.43	1565.25
330.658	1484.25
330.887	1476.25
331.115	1492.25
331.344	1472.25
331.572	1491.25
331.801	1489.25
332.03	1450.25
332.258	1498.25
332.486	1585.25
332.715	1794.25
332.943	2186.25
333.172	2723.25
333.4	2677.25
333.629	2062.25
333.857	1874.25
334.085	1843.25
334.314	1934.25
334.542	2078.25
334.771	2420.25
334.999	2896.25
335.227	3592.25
335.455	4014.25
335.684	3607.25
335.912	3063.25
336.14	2656.25
336.369	2341.25
336.597	2170.25
336.825	2014.25
337.053	1873.25
337.281	1797.25
337.51	1689.25
337.738	1604.25
337.966	1572.25
338.194	1516.25
338.422	1498.25
338.65	1450.25
338.878	1422.25
339.106	1378.25
339.334	1393.25
339.562	1343.25
339.79	1369.25
340.018	1340.25
340.246	1326.25
340.474	1301.25
340.702	1280.25
340.93	1313.25
341.158	1292.25
341.386	1282.25
341.614	1286.25
341.842	1261.25
342.07	1248.25
342.298	1246.25
342.526	1219.25
342.754	1221.25
342.981	1204.25
343.209	1197.25
343.437	1228.25
343.665	1229.25
343.893	1231.25
344.12	1228.25
344.348	1261.25
344.576	1196.25
344.804	1179.25
345.031	1154.25
345.259	1144.25
345.487	1120.25
345.714	1112.25
345.942	1124.25
346.17	1127.25
346.397	1145.25
346.625	1076.25
346.853	1122.25
347.08	1108.25
347.308	1100.25
347.535	1121.25
347.763	1108.25
347.99	1113.25
348.218	1100.25
348.445	1093.25
348.673	1076.25
348.9	1097.25
349.128	1068.25
349.355	1057.25
349.583	1080.25
349.81	1079.25
350.037	1079.25
350.265	1057.25
350.492	1078.25
350.72	1060.25
350.947	1038.25
351.174	1075.25
351.402	1062.25
351.629	1074.25
351.856	1038.25
352.083	1044.25
352.311	1035.25
352.538	1063.25
352.765	1048.25
352.992	1053.25
353.22	1062.25
353.447	1067.25
353.674	1040.25
353.901	1086.25
354.128	1047.25
354.355	1064.25
354.583	1081.25
354.81	1091.25
355.037	1070.25
355.264	1055.25
355.491	1055.25
355.718	1085.25
355.945	1088.25
356.172	1066.25
356.399	1077.25
356.626	1084.25
356.853	1110.25
357.08	1113.25
357.307	1114.25
357.534	1115.25
357.761	1141.25
357.988	1117.25
358.215	1128.25
358.441	1097.25
358.668	1102.25
358.895	1112.25
359.122	1090.25
359.349	1098.25
359.576	1126.25
359.802	1131.25
360.029	1092.25
360.256	1113.25
360.483	1129.25
360.709	1118.25
360.936	1129.25
361.163	1128.25
361.39	1098.25
361.616	1122.25
361.843	1139.25
362.07	1146.25
362.296	1113.25
362.523	1118.25
362.749	1172.25
362.976	1132.25
363.203	1096.25
363.429	1113.25
363.656	1134.25
363.882	1146.25
364.109	1114.25
364.335	1121.25
364.562	1104.25
364.788	1145.25
365.015	1129.25
365.241	1177.25
365.468	1215.25
365.694	1253.25
365.92	1212.25
366.147	1098.25
366.373	1150.25
366.599	1160.25
366.826	1147.25
367.052	1138.25
367.278	1126.25
367.505	1156.25
367.731	1153.25
367.957	1130.25
368.184	1159.25
368.41	1178.25
368.636	1183.25
368.862	1196.25
369.089	1180.25
369.315	1161.25
369.541	1167.25
369.767	1177.25
369.993	1187.25
370.219	1169.25
370.445	1166.25
370.672	1169.25
370.898	1176.25
371.124	1200.25
371.35	1199.25
371.576	1182.25
371.802	1212.25
372.028	1208.25
372.254	1202.25
372.48	1235.25
372.706	1223.25
372.932	1218.25
373.158	1251.25
373.384	1252.25
373.61	1218.25
373.835	1254.25
374.061	1206.25
374.287	1246.25
374.513	1215.25
374.739	1264.25
374.965	1283.25
375.191	1296.25
375.416	1245.25
375.642	1228.25
375.868	1268.25
376.094	1244.25
376.319	1226.25
376.545	1241.25
376.771	1219.25
376.997	1181.25
377.222	1219.25
377.448	1166.25
377.674	1233.25
377.899	1220.25
378.125	1204.25
378.35	1199.25
378.576	1198.25
378.802	1232.25
379.027	1250.25
379.253	1297.25
379.478	1327.25
379.704	1522.25
379.929	2235.25
380.155	3397.25
380.38	3684.25
380.606	2183.25
380.831	1557.25
381.057	1389.25
381.282	1268.25
381.507	1237.25
381.733	1237.25
381.958	1234.25
382.184	1224.25
382.409	1216.25
382.634	1194.25
382.86	1217.25
383.085	1229.25
383.31	1184.25
383.535	1184.25
383.761	1221.25
383.986	1202.25
384.211	1233.25
384.436	1219.25
384.662	1232.25
384.887	1246.25
385.112	1226.25
385.337	1223.25
385.562	1204.25
385.787	1236.25
386.013	1282.25
386.238	1246.25
386.463	1241.25
386.688	1277.25
386.913	1203.25
387.138	1216.25
387.363	1223.25
387.588	1202.25
387.813	1212.25
388.038	1252.25
388.263	1242.25
388.488	1226.25
388.713	1224.25
388.938	1236.25
389.163	1229.25
389.387	1248.25
389.612	1234.25
389.837	1205.25
390.062	1221.25
390.287	1265.25
390.512	1247.25
390.736	1246.25
390.961	1285.25
391.186	1237.25
391.411	1265.25
391.636	1299.25
391.86	1324.25
392.085	1308.25
392.31	1305.25
392.534	1313.25
392.759	1297.25
392.984	1251.25
393.208	1255.25
393.433	1313.25
393.658	1318.25
393.882	1232.25
394.107	1258.25
394.331	1278.25
394.556	1232.25
394.78	1249.25
395.005	1261.25
395.229	1277.25
395.454	1290.25
395.678	1295.25
395.903	1282.25
396.127	1313.25
396.352	1245.25
396.576	1268.25
396.801	1274.25
397.025	1285.25
397.249	1310.25
397.474	1316.25
397.698	1334.25
397.922	1351.25
398.147	1303.25
398.371	1354.25
398.595	1362.25
398.82	1361.25
399.044	1456.25
399.268	1480.25
399.492	1592.25
399.717	1624.25
399.941	1630.25
400.165	1603.25
400.389	1532.25
400.613	1461.25
400.837	1419.25
401.062	1391.25
401.286	1421.25
401.51	1340.25
401.734	1369.25
401.958	1383.25
402.182	1374.25
402.406	1341.25
402.63	1374.25
402.854	1379.25
403.078	1398.25
403.302	1411.25
403.526	1400.25
403.75	1404.25
403.974	1433.25
404.198	1388.25
404.422	1433.25
404.645	1412.25
404.869	1408.25
405.093	1441.25
405.317	1393.25
405.541	1437.25
405.765	1430.25
405.988	1436.25
406.212	1456.25
406.436	1417.25
406.66	1441.25
406.883	1438.25
407.107	1487.25
407.331	1550.25
407.555	1543.25
407.778	1501.25
408.002	1480.25
408.226	1488.25
408.449	1468.25
408.673	1480.25
408.896	1450.25
409.12	1421.25
409.344	1445.25
409.567	1387.25
409.791	1433.25
410.014	1437.25
410.238	1396.25
410.461	1393.25
410.685	1391.25
410.908	1373.25
411.132	1362.25
411.355	1384.25
411.578	1386.25
411.802	1356.25
412.025	1360.25
412.249	1361.25
412.472	1385.25
412.695	1362.25
412.919	1371.25
413.142	1377.25
413.365	1358.25
413.589	1354.25
413.812	1316.25
414.035	1335.25
414.258	1361.25
414.482	1336.25
414.705	1390.25
414.928	1336.25
415.151	1349.25
415.374	1325.25
415.597	1323.25
415.821	1297.25
416.044	1309.25
416.267	1289.25
416.49	1331.25
416.713	1291.25
416.936	1278.25
417.159	1281.25
417.382	1273.25
417.605	1264.25
417.828	1272.25
418.051	1260.25
418.274	1279.25
418.497	1334.25
418.72	1336.25
418.943	1314.25
419.166	1364.25
419.389	1443.25
419.611	1398.25
419.834	1381.25
420.057	1332.25
420.28	1304.25
420.503	1297.25
420.726	1312.25
420.948	1301.25
421.171	1292.25
421.394	1262.25
421.617	1257.25
421.839	1296.25
422.062	1329.25
422.285	1286.25
422.507	1327.25
422.73	1326.25
422.953	1314.25
423.175	1310.25
423.398	1342.25
423.621	1299.25
423.843	1316.25
424.066	1293.25
424.288	1332.25
424.511	1297.25
424.733	1302.25
424.956	1270.25
425.178	1288.25
425.401	1301.25
425.623	1300.25
425.846	1280.25
426.068	1249.25
426.291	1280.25
426.513	1216.25
426.735	1210.25
426.958	1224.25
427.18	1160.25
427.402	1235.25
427.625	1256.25
427.847	1246.25
428.069	1188.25
428.292	1230.25
428.514	1233.25
428.736	1208.25
428.958	1202.25
429.181	1193.25
429.403	1176.25
429.625	1198.25
429.847	1166.25
430.069	1217.25
430.292	1248.25
430.514	1262.25
430.736	1280.25
430.958	1190.25
431.18	1203.25
431.402	1217.25
431.624	1188.25
431.846	1164.25
432.068	1169.25
432.29	1202.25
432.512	1154.25
432.734	1223.25
432.956	1186.25
433.178	1204.25
433.4	1231.25
433.622	1212.25
433.844	1216.25
434.066	1203.25
434.287	1163.25
434.509	1190.25
434.731	1223.25
434.953	1213.25
435.175	1215.25
435.397	1241.25
435.618	1224.25
435.84	1177.25
436.062	1177.25
436.284	1194.25
436.505	1183.25
436.727	1185.25
436.949	1152.25
437.17	1201.25
437.392	1168.25
437.614	1155.25
437.835	1112.25
438.057	1128.25
438.278	1118.25
438.5	1165.25
438.721	1182.25
438.943	1210.25
439.165	1246.25
439.386	1233.25
439.608	1225.25
439.829	1226.25
440.05	1249.25
440.272	1287.25
440.493	1240.25
440.715	1229.25
440.936	1233.25
441.158	1259.25
441.379	1251.25
441.6	1308.25
441.822	1327.25
442.043	1401.25
442.264	1454.25
442.486	1363.25
442.707	1329.25
442.928	1270.25
443.149	1303.25
443.371	1282.25
443.592	1270.25
443.813	1272.25
444.034	1307.25
444.255	1327.25
444.476	1342.25
444.698	1382.25
444.919	1402.25
445.14	1475.25
445.361	1391.25
445.582	1299.25
445.803	1310.25
446.024	1260.25
446.245	1287.25
446.466	1282.25
446.687	1253.25
446.908	1272.25
447.129	1214.25
447.35	1219.25
447.571	1191.25
447.792	1205.25
448.013	1212.25
448.234	1180.25
448.455	1162.25
448.675	1191.25
448.896	1239.25
449.117	1239.25
449.338	1363.25
449.559	1462.25
449.779	1304.25
450	1198.25
450.221	1177.25
450.442	1127.25
450.662	1149.25
450.883	1148.25
451.104	1182.25
451.324	1143.25
451.545	1123.25
451.766	1115.25
451.986	1170.25
452.207	1227.25
452.428	1449.25
452.648	2227.25
452.869	1856.25
453.089	1363.25
453.31	1273.25
453.53	1247.25
453.751	1317.25
453.971	1441.25
454.192	1385.25
454.412	1212.25
454.633	1144.25
454.853	1109.25
455.073	1077.25
455.294	1092.25
455.514	1096.25
455.734	1095.25
455.955	1070.25
456.175	1086.25
456.395	1082.25
456.616	1086.25
456.836	1118.25
457.056	1103.25
457.276	1125.25
457.497	1152.25
457.717	1178.25
457.937	1157.25
458.157	1143.25
458.377	1144.25
458.598	1149.25
458.818	1180.25
459.038	1141.25
459.258	1157.25
459.478	1188.25
459.698	1191.25
459.918	1240.25
460.138	1222.25
460.358	1278.25
460.578	1306.25
460.798	1286.25
461.018	1291.25
461.238	1291.25
461.458	1304.25
461.678	1327.25
461.898	1316.25
462.118	1326.25
462.338	1382.25
462.558	1357.25
462.777	1421.25
462.997	1486.25
463.217	1517.25
463.437	1543.25
463.657	1557.25
463.876	1600.25
464.096	1495.25
464.316	1449.25
464.536	1398.25
464.755	1416.25
464.975	1373.25
465.195	1317.25
465.414	1288.25
465.634	1266.25
465.854	1220.25
466.073	1202.25
466.293	1189.25
466.512	1216.25
466.732	1195.25
466.951	1250.25
467.171	1380.25
467.391	1342.25
467.61	1231.25
467.829	1190.25
468.049	1192.25
468.268	1182.25
468.488	1183.25
468.707	1146.25
468.927	1161.25
469.146	1152.25
469.365	1221.25
469.585	1204.25
469.804	1199.25
470.023	1242.25
470.243	1262.25
470.462	1291.25
470.681	1404.25
470.901	1483.25
471.12	1727.25
471.339	1754.25
471.558	1402.25
471.777	1288.25
471.997	1241.25
472.216	1176.25
472.435	1187.25
472.654	1152.25
472.873	1174.25
473.092	1175.25
473.311	1164.25
473.53	1197.25
473.749	1217.25
473.968	1245.25
474.187	1188.25
474.406	1188.25
474.625	1175.25
474.844	1195.25
475.063	1191.25
475.282	1184.25
475.501	1152.25
475.72	1177.25
475.939	1218.25
476.158	1228.25
476.377	1238.25
476.596	1251.25
476.814	1233.25
477.033	1234.25
477.252	1280.25
477.471	1289.25
477.69	1280.25
477.908	1304.25
478.127	1309.25
478.346	1329.25
478.564	1354.25
478.783	1363.25
479.002	1394.25
479.22	1424.25
479.439	1407.25
479.658	1373.25
479.876	1390.25
480.095	1377.25
480.313	1415.25
480.532	1447.25
480.751	1436.25
480.969	1404.25
481.188	1399.25
481.406	1381.25
481.624	1347.25
481.843	1399.25
482.061	1364.25
482.28	1404.25
482.498	1421.25
482.717	1388.25
482.935	1414.25
483.153	1426.25
483.372	1456.25
483.59	1457.25
483.808	1495.25
484.027	1531.25
484.245	1609.25
484.463	1830.25
484.681	2002.25
484.9	1817.25
485.118	1683.25
485.336	1646.25
485.554	1653.25
485.772	1748.25
485.99	2028.25
486.209	2180.25
486.427	1820.25
486.645	1619.25
486.863	1548.25
487.081	1556.25
487.299	1527.25
487.517	1484.25
487.735	1495.25
487.953	1524.25
488.171	1521.25
488.389	1511.25
488.607	1468.25
488.825	1446.25
489.043	1468.25
489.261	1465.25
489.479	1460.25
489.696	1484.25
489.914	1471.25
490.132	1456.25
490.35	1505.25
490.568	1509.25
490.786	1499.25
