Data from SnStandardFlinnAPT0064_LampEnergy5.5_LIBS07252019.E.O._I.C._HRD10591_15-14-39-491.txt Node
Date: Thu Jul 25 15:14:39 EDT 2019
User: cochatt
Spectrometer: HR+D1059
Trigger mode: 1
Integration Time (sec): 1.000000E-1
Scans to average: 1
Electric dark correction enabled: true
Nonlinearity correction enabled: false
Boxcar width: 0
XAxis mode: Wavelengths
Number of Pixels in Spectrum: 2048
>>>>>Begin Spectral Data<<<<<
223.165	5.75
223.4	5.75
223.635	5.75
223.869	-13.25
224.104	-21.25
224.338	-13.25
224.573	-16.25
224.808	-16.25
225.042	11.75
225.277	-5.25
225.511	-11.25
225.746	9.75
225.98	11.75
226.215	9.75
226.449	5.75
226.683	-0.25
226.918	19.75
227.152	22.75
227.387	35.75
227.621	34.75
227.856	42.75
228.09	42.75
228.324	46.75
228.559	59.75
228.793	81.75
229.027	148.75
229.262	150.75
229.496	151.75
229.73	145.75
229.964	150.75
230.199	159.75
230.433	139.75
230.667	159.75
230.901	145.75
231.136	171.75
231.37	164.75
231.604	175.75
231.838	197.75
232.072	211.75
232.306	223.75
232.541	198.75
232.775	193.75
233.009	193.75
233.243	207.75
233.477	202.75
233.711	219.75
233.945	241.75
234.179	219.75
234.413	207.75
234.647	203.75
234.881	203.75
235.115	232.75
235.349	255.75
235.583	309.75
235.817	373.75
236.051	378.75
236.285	262.75
236.519	215.75
236.753	213.75
236.987	218.75
237.221	239.75
237.455	218.75
237.689	207.75
237.922	211.75
238.156	209.75
238.39	218.75
238.624	214.75
238.858	219.75
239.091	228.75
239.325	216.75
239.559	222.75
239.793	229.75
240.027	235.75
240.26	247.75
240.494	239.75
240.728	237.75
240.961	255.75
241.195	267.75
241.429	285.75
241.662	295.75
241.896	302.75
242.13	356.75
242.363	411.75
242.597	529.75
242.83	535.75
243.064	526.75
243.298	625.75
243.531	529.75
243.765	367.75
243.998	314.75
244.232	298.75
244.465	277.75
244.699	298.75
244.932	286.75
245.166	271.75
245.399	289.75
245.633	282.75
245.866	285.75
246.099	292.75
246.333	292.75
246.566	282.75
246.8	268.75
247.033	286.75
247.266	296.75
247.5	279.75
247.733	286.75
247.966	288.75
248.2	324.75
248.433	340.75
248.666	356.75
248.899	359.75
249.133	338.75
249.366	342.75
249.599	372.75
249.832	395.75
250.066	417.75
250.299	348.75
250.532	304.75
250.765	311.75
250.998	302.75
251.231	311.75
251.465	323.75
251.698	310.75
251.931	302.75
252.164	312.75
252.397	323.75
252.63	330.75
252.863	325.75
253.096	328.75
253.329	347.75
253.562	329.75
253.795	346.75
254.028	337.75
254.261	349.75
254.494	352.75
254.727	401.75
254.96	453.75
255.193	449.75
255.426	385.75
255.659	341.75
255.892	373.75
256.124	337.75
256.357	370.75
256.59	358.75
256.823	387.75
257.056	414.75
257.289	457.75
257.521	526.75
257.754	443.75
257.987	367.75
258.22	407.75
258.452	381.75
258.685	385.75
258.918	397.75
259.151	396.75
259.383	406.75
259.616	458.75
259.849	453.75
260.081	437.75
260.314	411.75
260.547	384.75
260.779	410.75
261.012	424.75
261.244	414.75
261.477	424.75
261.71	430.75
261.942	431.75
262.175	429.75
262.407	418.75
262.64	458.75
262.872	457.75
263.105	480.75
263.337	504.75
263.57	524.75
263.802	544.75
264.035	568.75
264.267	558.75
264.499	552.75
264.732	593.75
264.964	605.75
265.197	583.75
265.429	594.75
265.661	613.75
265.894	630.75
266.126	683.75
266.358	773.75
266.591	717.75
266.823	686.75
267.055	631.75
267.287	566.75
267.52	543.75
267.752	538.75
267.984	531.75
268.216	523.75
268.448	515.75
268.681	522.75
268.913	503.75
269.145	511.75
269.377	507.75
269.609	497.75
269.841	544.75
270.073	537.75
270.306	607.75
270.538	778.75
270.77	1070.75
271.002	1272.75
271.234	925.75
271.466	681.75
271.698	586.75
271.93	538.75
272.162	542.75
272.394	529.75
272.626	525.75
272.858	501.75
273.09	498.75
273.322	490.75
273.553	508.75
273.785	507.75
274.017	511.75
274.249	519.75
274.481	494.75
274.713	514.75
274.945	505.75
275.176	513.75
275.408	527.75
275.64	510.75
275.872	532.75
276.104	501.75
276.335	521.75
276.567	526.75
276.799	533.75
277.031	528.75
277.262	517.75
277.494	551.75
277.726	581.75
277.957	668.75
278.189	680.75
278.421	667.75
278.652	612.75
278.884	609.75
279.115	567.75
279.347	567.75
279.579	541.75
279.81	546.75
280.042	559.75
280.273	547.75
280.505	571.75
280.736	577.75
280.968	602.75
281.199	634.75
281.431	699.75
281.662	709.75
281.894	627.75
282.125	599.75
282.356	649.75
282.588	629.75
282.819	641.75
283.051	698.75
283.282	742.75
283.513	886.75
283.745	1178.75
283.976	1821.75
284.207	2479.75
284.439	2284.75
284.67	1459.75
284.901	1176.75
285.132	1157.75
285.364	1098.75
285.595	896.75
285.826	853.75
286.057	959.75
286.288	1256.75
286.52	1617.75
286.751	1506.75
286.982	1060.75
287.213	846.75
287.444	747.75
287.675	716.75
287.906	695.75
288.138	695.75
288.369	674.75
288.6	671.75
288.831	674.75
289.062	658.75
289.293	665.75
289.524	661.75
289.755	674.75
289.986	691.75
290.217	678.75
290.448	682.75
290.679	664.75
290.91	668.75
291.141	715.75
291.371	716.75
291.602	739.75
291.833	682.75
292.064	661.75
292.295	671.75
292.526	642.75
292.757	641.75
292.987	637.75
293.218	643.75
293.449	654.75
293.68	633.75
293.91	658.75
294.141	638.75
294.372	607.75
294.603	637.75
294.833	648.75
295.064	605.75
295.295	611.75
295.525	638.75
295.756	623.75
295.987	613.75
296.217	636.75
296.448	625.75
296.679	628.75
296.909	626.75
297.14	644.75
297.37	634.75
297.601	672.75
297.831	645.75
298.062	649.75
298.292	646.75
298.523	662.75
298.753	654.75
298.984	655.75
299.214	687.75
299.445	676.75
299.675	701.75
299.905	704.75
300.136	738.75
300.366	801.75
300.597	941.75
300.827	1226.75
301.057	1633.75
301.288	1625.75
301.518	1107.75
301.748	908.75
301.979	837.75
302.209	846.75
302.439	827.75
302.669	883.75
302.9	1004.75
303.13	1326.75
303.36	1811.75
303.59	2373.75
303.82	2114.75
304.051	1382.75
304.281	1033.75
304.511	887.75
304.741	859.75
304.971	809.75
305.201	776.75
305.431	772.75
305.661	765.75
305.891	771.75
306.121	734.75
306.352	734.75
306.582	723.75
306.812	711.75
307.042	744.75
307.272	718.75
307.502	732.75
307.731	735.75
307.961	722.75
308.191	717.75
308.421	729.75
308.651	758.75
308.881	724.75
309.111	717.75
309.341	711.75
309.571	723.75
309.8	753.75
310.03	749.75
310.26	755.75
310.49	731.75
310.72	743.75
310.949	738.75
311.179	774.75
311.409	729.75
311.639	773.75
311.868	760.75
312.098	780.75
312.328	763.75
312.557	762.75
312.787	758.75
313.017	788.75
313.246	785.75
313.476	781.75
313.706	795.75
313.935	845.75
314.165	852.75
314.394	895.75
314.624	868.75
314.853	815.75
315.083	829.75
315.312	831.75
315.542	847.75
315.771	859.75
316.001	853.75
316.23	873.75
316.46	908.75
316.689	962.75
316.919	1134.75
317.148	1514.75
317.377	2205.75
317.607	3159.75
317.836	3239.75
318.065	2062.75
318.295	1416.75
318.524	1176.75
318.753	1064.75
318.983	987.75
319.212	957.75
319.441	939.75
319.67	933.75
319.9	902.75
320.129	922.75
320.358	934.75
320.587	900.75
320.816	904.75
321.046	902.75
321.275	921.75
321.504	908.75
321.733	919.75
321.962	923.75
322.191	945.75
322.42	951.75
322.649	939.75
322.878	956.75
323.108	954.75
323.337	977.75
323.566	969.75
323.795	985.75
324.024	1005.75
324.253	1026.75
324.482	1069.75
324.71	1077.75
324.939	1101.75
325.168	1152.75
325.397	1180.75
325.626	1404.75
325.855	1815.75
326.084	2671.75
326.313	3881.75
326.542	4223.75
326.77	2799.75
326.999	1949.75
327.228	1723.75
327.457	1641.75
327.686	1667.75
327.914	1729.75
328.143	1986.75
328.372	2275.75
328.6	2392.75
328.829	2297.75
329.058	2036.75
329.287	1856.75
329.515	1688.75
329.744	1587.75
329.972	1527.75
330.201	1466.75
330.43	1414.75
330.658	1348.75
330.887	1333.75
331.115	1313.75
331.344	1324.75
331.572	1313.75
331.801	1340.75
332.03	1316.75
332.258	1359.75
332.486	1388.75
332.715	1544.75
332.943	1787.75
333.172	2086.75
333.4	2067.75
333.629	1722.75
333.857	1637.75
334.085	1614.75
334.314	1701.75
334.542	1835.75
334.771	2087.75
334.999	2466.75
335.227	2895.75
335.455	3211.75
335.684	3031.75
335.912	2721.75
336.14	2343.75
336.369	2097.75
336.597	1963.75
336.825	1781.75
337.053	1681.75
337.281	1581.75
337.51	1502.75
337.738	1467.75
337.966	1419.75
338.194	1371.75
338.422	1332.75
338.65	1292.75
338.878	1269.75
339.106	1275.75
339.334	1267.75
339.562	1206.75
339.79	1198.75
340.018	1181.75
340.246	1165.75
340.474	1173.75
340.702	1191.75
340.93	1159.75
341.158	1179.75
341.386	1183.75
341.614	1177.75
341.842	1147.75
342.07	1121.75
342.298	1087.75
342.526	1078.75
342.754	1077.75
342.981	1074.75
343.209	1089.75
343.437	1072.75
343.665	1121.75
343.893	1091.75
344.12	1096.75
344.348	1100.75
344.576	1087.75
344.804	1042.75
345.031	1010.75
345.259	1007.75
345.487	999.75
345.714	1019.75
345.942	1009.75
346.17	1006.75
346.397	1020.75
346.625	983.75
346.853	986.75
347.08	973.75
347.308	1000.75
347.535	989.75
347.763	990.75
347.99	988.75
348.218	970.75
348.445	1002.75
348.673	976.75
348.9	985.75
349.128	974.75
349.355	959.75
349.583	972.75
349.81	963.75
350.037	955.75
350.265	955.75
350.492	958.75
350.72	979.75
350.947	965.75
351.174	954.75
351.402	945.75
351.629	975.75
351.856	950.75
352.083	956.75
352.311	952.75
352.538	939.75
352.765	947.75
352.992	942.75
353.22	934.75
353.447	975.75
353.674	956.75
353.901	929.75
354.128	930.75
354.355	945.75
354.583	970.75
354.81	966.75
355.037	953.75
355.264	974.75
355.491	929.75
355.718	939.75
355.945	991.75
356.172	955.75
356.399	962.75
356.626	978.75
356.853	997.75
357.08	961.75
357.307	1002.75
357.534	1028.75
357.761	996.75
357.988	1029.75
358.215	1009.75
358.441	983.75
358.668	983.75
358.895	1015.75
359.122	1015.75
359.349	1013.75
359.576	986.75
359.802	995.75
360.029	1001.75
360.256	1043.75
360.483	1017.75
360.709	1037.75
360.936	1028.75
361.163	1010.75
361.39	985.75
361.616	1004.75
361.843	1022.75
362.07	1042.75
362.296	1006.75
362.523	1019.75
362.749	1013.75
362.976	1031.75
363.203	1017.75
363.429	1015.75
363.656	1008.75
363.882	1003.75
364.109	989.75
364.335	988.75
364.562	1021.75
364.788	1029.75
365.015	1042.75
365.241	1025.75
365.468	1054.75
365.694	1068.75
365.92	1100.75
366.147	1020.75
366.373	1021.75
366.599	1059.75
366.826	1038.75
367.052	1045.75
367.278	1013.75
367.505	1022.75
367.731	1043.75
367.957	1030.75
368.184	1043.75
368.41	1047.75
368.636	1075.75
368.862	1063.75
369.089	1077.75
369.315	1052.75
369.541	1053.75
369.767	1059.75
369.993	1049.75
370.219	1073.75
370.445	1061.75
370.672	1093.75
370.898	1051.75
371.124	1064.75
371.35	1051.75
371.576	1054.75
371.802	1099.75
372.028	1091.75
372.254	1108.75
372.48	1105.75
372.706	1101.75
372.932	1115.75
373.158	1119.75
373.384	1125.75
373.61	1115.75
373.835	1134.75
374.061	1153.75
374.287	1182.75
374.513	1141.75
374.739	1148.75
374.965	1117.75
375.191	1155.75
375.416	1146.75
375.642	1135.75
375.868	1109.75
376.094	1141.75
376.319	1115.75
376.545	1092.75
376.771	1097.75
376.997	1088.75
377.222	1118.75
377.448	1074.75
377.674	1090.75
377.899	1084.75
378.125	1098.75
378.35	1075.75
378.576	1124.75
378.802	1054.75
379.027	1122.75
379.253	1125.75
379.478	1170.75
379.704	1317.75
379.929	1723.75
380.155	2347.75
380.38	2573.75
380.606	1729.75
380.831	1366.75
381.057	1221.75
381.282	1144.75
381.507	1104.75
381.733	1111.75
381.958	1110.75
382.184	1090.75
382.409	1100.75
382.634	1083.75
382.86	1077.75
383.085	1076.75
383.31	1090.75
383.535	1100.75
383.761	1089.75
383.986	1128.75
384.211	1112.75
384.436	1081.75
384.662	1106.75
384.887	1085.75
385.112	1097.75
385.337	1126.75
385.562	1093.75
385.787	1122.75
386.013	1128.75
386.238	1127.75
386.463	1105.75
386.688	1134.75
386.913	1102.75
387.138	1107.75
387.363	1108.75
387.588	1118.75
387.813	1124.75
388.038	1107.75
388.263	1074.75
388.488	1109.75
388.713	1121.75
388.938	1118.75
389.163	1135.75
389.387	1120.75
389.612	1098.75
389.837	1098.75
390.062	1121.75
390.287	1139.75
390.512	1109.75
390.736	1152.75
390.961	1182.75
391.186	1160.75
391.411	1176.75
391.636	1180.75
391.86	1145.75
392.085	1169.75
392.31	1210.75
392.534	1156.75
392.759	1153.75
392.984	1155.75
393.208	1104.75
393.433	1150.75
393.658	1116.75
393.882	1109.75
394.107	1130.75
394.331	1149.75
394.556	1135.75
394.78	1151.75
395.005	1139.75
395.229	1120.75
395.454	1175.75
395.678	1186.75
395.903	1167.75
396.127	1128.75
396.352	1149.75
396.576	1145.75
396.801	1166.75
397.025	1154.75
397.249	1182.75
397.474	1161.75
397.698	1166.75
397.922	1207.75
398.147	1213.75
398.371	1251.75
398.595	1237.75
398.82	1236.75
399.044	1303.75
399.268	1353.75
399.492	1442.75
399.717	1491.75
399.941	1480.75
400.165	1416.75
400.389	1399.75
400.613	1345.75
400.837	1284.75
401.062	1294.75
401.286	1261.75
401.51	1240.75
401.734	1205.75
401.958	1220.75
402.182	1237.75
402.406	1265.75
402.63	1244.75
402.854	1273.75
403.078	1252.75
403.302	1276.75
403.526	1273.75
403.75	1281.75
403.974	1295.75
404.198	1313.75
404.422	1301.75
404.645	1270.75
404.869	1275.75
405.093	1279.75
405.317	1309.75
405.541	1362.75
405.765	1345.75
405.988	1341.75
406.212	1331.75
406.436	1305.75
406.66	1326.75
406.883	1362.75
407.107	1363.75
407.331	1404.75
407.555	1390.75
407.778	1392.75
408.002	1350.75
408.226	1349.75
408.449	1355.75
408.673	1352.75
408.896	1305.75
409.12	1292.75
409.344	1324.75
409.567	1293.75
409.791	1293.75
410.014	1265.75
410.238	1269.75
410.461	1288.75
410.685	1257.75
410.908	1249.75
411.132	1269.75
411.355	1222.75
411.578	1235.75
411.802	1223.75
412.025	1195.75
412.249	1242.75
412.472	1247.75
412.695	1221.75
412.919	1220.75
413.142	1190.75
413.365	1213.75
413.589	1205.75
413.812	1245.75
414.035	1236.75
414.258	1251.75
414.482	1230.75
414.705	1228.75
414.928	1214.75
415.151	1208.75
415.374	1227.75
415.597	1186.75
415.821	1167.75
416.044	1179.75
416.267	1193.75
416.49	1171.75
416.713	1176.75
416.936	1201.75
417.159	1158.75
417.382	1180.75
417.605	1143.75
417.828	1155.75
418.051	1176.75
418.274	1189.75
418.497	1166.75
418.72	1230.75
418.943	1182.75
419.166	1285.75
419.389	1294.75
419.611	1270.75
419.834	1249.75
420.057	1221.75
420.28	1165.75
420.503	1171.75
420.726	1161.75
420.948	1179.75
421.171	1185.75
421.394	1175.75
421.617	1151.75
421.839	1181.75
422.062	1194.75
422.285	1174.75
422.507	1205.75
422.73	1192.75
422.953	1195.75
423.175	1209.75
423.398	1205.75
423.621	1186.75
423.843	1196.75
424.066	1187.75
424.288	1188.75
424.511	1187.75
424.733	1201.75
424.956	1157.75
425.178	1135.75
425.401	1155.75
425.623	1181.75
425.846	1151.75
426.068	1139.75
426.291	1124.75
426.513	1110.75
426.735	1147.75
426.958	1115.75
427.18	1098.75
427.402	1166.75
427.625	1116.75
427.847	1107.75
428.069	1103.75
428.292	1102.75
428.514	1092.75
428.736	1121.75
428.958	1110.75
429.181	1068.75
429.403	1057.75
429.625	1085.75
429.847	1091.75
430.069	1098.75
430.292	1157.75
430.514	1166.75
430.736	1172.75
430.958	1103.75
431.18	1065.75
431.402	1120.75
431.624	1064.75
431.846	1046.75
432.068	1061.75
432.29	1064.75
432.512	1047.75
432.734	1124.75
432.956	1077.75
433.178	1097.75
433.4	1102.75
433.622	1092.75
433.844	1111.75
434.066	1092.75
434.287	1084.75
434.509	1084.75
434.731	1131.75
434.953	1112.75
435.175	1123.75
435.397	1170.75
435.618	1140.75
435.84	1103.75
436.062	1102.75
436.284	1108.75
436.505	1100.75
436.727	1070.75
436.949	1097.75
437.17	1092.75
437.392	1056.75
437.614	1059.75
437.835	1033.75
438.057	1023.75
438.278	1021.75
438.5	1049.75
438.721	1066.75
438.943	1089.75
439.165	1108.75
439.386	1116.75
439.608	1140.75
439.829	1141.75
440.05	1119.75
440.272	1158.75
440.493	1115.75
440.715	1108.75
440.936	1100.75
441.158	1150.75
441.379	1151.75
441.6	1161.75
441.822	1190.75
442.043	1262.75
442.264	1249.75
442.486	1209.75
442.707	1201.75
442.928	1151.75
443.149	1170.75
443.371	1192.75
443.592	1190.75
443.813	1185.75
444.034	1150.75
444.255	1182.75
444.476	1229.75
444.698	1240.75
444.919	1283.75
445.14	1327.75
445.361	1260.75
445.582	1209.75
445.803	1181.75
446.024	1176.75
446.245	1157.75
446.466	1163.75
446.687	1150.75
446.908	1138.75
447.129	1097.75
447.35	1104.75
447.571	1080.75
447.792	1085.75
448.013	1069.75
448.234	1062.75
448.455	1099.75
448.675	1074.75
448.896	1113.75
449.117	1116.75
449.338	1137.75
449.559	1196.75
449.779	1085.75
450	1055.75
450.221	1027.75
450.442	1053.75
450.662	1023.75
450.883	1053.75
451.104	1042.75
451.324	1033.75
451.545	1029.75
451.766	1062.75
451.986	1059.75
452.207	1098.75
452.428	1261.75
452.648	1636.75
452.869	1464.75
453.089	1178.75
453.31	1135.75
453.53	1115.75
453.751	1128.75
453.971	1166.75
454.192	1157.75
454.412	1074.75
454.633	1053.75
454.853	1005.75
455.073	995.75
455.294	1002.75
455.514	979.75
455.734	996.75
455.955	987.75
456.175	964.75
456.395	982.75
456.616	987.75
456.836	1005.75
457.056	1037.75
457.276	980.75
457.497	1051.75
457.717	1057.75
457.937	1050.75
458.157	1068.75
458.377	1042.75
458.598	1055.75
458.818	1079.75
459.038	1059.75
459.258	1063.75
459.478	1062.75
459.698	1047.75
459.918	1073.75
460.138	1111.75
460.358	1152.75
460.578	1203.75
460.798	1178.75
461.018	1195.75
461.238	1188.75
461.458	1208.75
461.678	1171.75
461.898	1192.75
462.118	1190.75
462.338	1248.75
462.558	1262.75
462.777	1288.75
462.997	1297.75
463.217	1380.75
463.437	1386.75
463.657	1396.75
463.876	1344.75
464.096	1320.75
464.316	1291.75
464.536	1307.75
464.755	1213.75
464.975	1241.75
465.195	1190.75
465.414	1173.75
465.634	1106.75
465.854	1123.75
466.073	1114.75
466.293	1103.75
466.512	1088.75
466.732	1103.75
466.951	1168.75
467.171	1165.75
467.391	1170.75
467.61	1093.75
467.829	1064.75
468.049	1083.75
468.268	1039.75
468.488	1061.75
468.707	1082.75
468.927	1081.75
469.146	1063.75
469.365	1077.75
469.585	1081.75
469.804	1084.75
470.023	1110.75
470.243	1137.75
470.462	1175.75
470.681	1209.75
470.901	1265.75
471.12	1419.75
471.339	1404.75
471.558	1230.75
471.777	1163.75
471.997	1091.75
472.216	1069.75
472.435	1094.75
472.654	1058.75
472.873	1075.75
473.092	1082.75
473.311	1044.75
473.53	1077.75
473.749	1085.75
473.968	1109.75
474.187	1094.75
474.406	1055.75
474.625	1068.75
474.844	1097.75
475.063	1064.75
475.282	1099.75
475.501	1065.75
475.72	1101.75
475.939	1082.75
476.158	1117.75
476.377	1134.75
476.596	1128.75
476.814	1130.75
477.033	1127.75
477.252	1162.75
477.471	1117.75
477.69	1201.75
477.908	1184.75
478.127	1205.75
478.346	1227.75
478.564	1236.75
478.783	1262.75
479.002	1269.75
479.22	1242.75
479.439	1303.75
479.658	1271.75
479.876	1268.75
480.095	1254.75
480.313	1312.75
480.532	1296.75
480.751	1323.75
480.969	1271.75
481.188	1273.75
481.406	1265.75
481.624	1250.75
481.843	1270.75
482.061	1278.75
482.28	1241.75
482.498	1249.75
482.717	1269.75
482.935	1307.75
483.153	1297.75
483.372	1331.75
483.59	1338.75
483.808	1326.75
484.027	1366.75
484.245	1387.75
484.463	1494.75
484.681	1647.75
484.9	1557.75
485.118	1500.75
485.336	1467.75
485.554	1459.75
485.772	1546.75
485.99	1664.75
486.209	1767.75
486.427	1559.75
486.645	1455.75
486.863	1413.75
487.081	1413.75
487.299	1369.75
487.517	1379.75
487.735	1379.75
487.953	1412.75
488.171	1359.75
488.389	1385.75
488.607	1371.75
488.825	1346.75
489.043	1325.75
489.261	1319.75
489.479	1329.75
489.696	1320.75
489.914	1335.75
490.132	1327.75
490.35	1356.75
490.568	1358.75
490.786	1393.75
491.003	1395.75
491.221	1415.75
491.439	1458.75
491.657	1412.75
491.874	1429.75
492.092	1462.75
