Data from SnStandardFlinnAPT0064_LampEnergy10_LIBS07252019.E.O._I.C._HRD10591_15-20-46-494.txt Node
Date: Thu Jul 25 15:20:46 EDT 2019
User: cochatt
Spectrometer: HR+D1059
Trigger mode: 1
Integration Time (sec): 1.000000E-1
Scans to average: 1
Electric dark correction enabled: true
Nonlinearity correction enabled: false
Boxcar width: 0
XAxis mode: Wavelengths
Number of Pixels in Spectrum: 2048
>>>>>Begin Spectral Data<<<<<
223.165	-24.5
223.4	-24.5
223.635	-24.5
223.869	-14.5
224.104	-25.5
224.338	-30.5
224.573	-21.5
224.808	1.5
225.042	5.5
225.277	-2.5
225.511	-10.5
225.746	8.5
225.98	4.5
226.215	6.5
226.449	8.5
226.683	36.5
226.918	31.5
227.152	26.5
227.387	32.5
227.621	23.5
227.856	47.5
228.09	40.5
228.324	40.5
228.559	56.5
228.793	135.5
229.027	312.5
229.262	354.5
229.496	301.5
229.73	291.5
229.964	303.5
230.199	313.5
230.433	303.5
230.667	308.5
230.901	321.5
231.136	354.5
231.37	355.5
231.604	402.5
231.838	455.5
232.072	526.5
232.306	547.5
232.541	466.5
232.775	421.5
233.009	429.5
233.243	440.5
233.477	445.5
233.711	551.5
233.945	575.5
234.179	545.5
234.413	452.5
234.647	433.5
234.881	465.5
235.115	531.5
235.349	631.5
235.583	781.5
235.817	1036.5
236.051	991.5
236.285	676.5
236.519	542.5
236.753	517.5
236.987	507.5
237.221	552.5
237.455	521.5
237.689	494.5
237.922	450.5
238.156	457.5
238.39	495.5
238.624	496.5
238.858	480.5
239.091	488.5
239.325	494.5
239.559	495.5
239.793	528.5
240.027	557.5
240.26	540.5
240.494	545.5
240.728	600.5
240.961	616.5
241.195	655.5
241.429	697.5
241.662	723.5
241.896	795.5
242.13	942.5
242.363	1282.5
242.597	1620.5
242.83	1634.5
243.064	1572.5
243.298	1833.5
243.531	1509.5
243.765	989.5
243.998	787.5
244.232	703.5
244.465	694.5
244.699	641.5
244.932	661.5
245.166	674.5
245.399	697.5
245.633	718.5
245.866	703.5
246.099	684.5
246.333	667.5
246.566	650.5
246.8	630.5
247.033	658.5
247.266	653.5
247.5	639.5
247.733	688.5
247.966	708.5
248.2	793.5
248.433	876.5
248.666	1015.5
248.899	966.5
249.133	847.5
249.366	867.5
249.599	985.5
249.832	1119.5
250.066	1106.5
250.299	859.5
250.532	790.5
250.765	761.5
250.998	729.5
251.231	753.5
251.465	748.5
251.698	744.5
251.931	750.5
252.164	747.5
252.397	781.5
252.63	795.5
252.863	840.5
253.096	802.5
253.329	771.5
253.562	784.5
253.795	767.5
254.028	801.5
254.261	804.5
254.494	891.5
254.727	1078.5
254.96	1267.5
255.193	1245.5
255.426	985.5
255.659	889.5
255.892	885.5
256.124	859.5
256.357	885.5
256.59	934.5
256.823	1001.5
257.056	1126.5
257.289	1374.5
257.521	1524.5
257.754	1236.5
257.987	977.5
258.22	931.5
258.452	926.5
258.685	920.5
258.918	958.5
259.151	1025.5
259.383	1105.5
259.616	1223.5
259.849	1309.5
260.081	1122.5
260.314	1027.5
260.547	937.5
260.779	953.5
261.012	955.5
261.244	980.5
261.477	962.5
261.71	990.5
261.942	1007.5
262.175	1031.5
262.407	1056.5
262.64	1052.5
262.872	1101.5
263.105	1170.5
263.337	1189.5
263.57	1276.5
263.802	1267.5
264.035	1332.5
264.267	1334.5
264.499	1377.5
264.732	1440.5
264.964	1472.5
265.197	1424.5
265.429	1430.5
265.661	1521.5
265.894	1613.5
266.126	1791.5
266.358	1987.5
266.591	1951.5
266.823	1659.5
267.055	1465.5
267.287	1429.5
267.52	1364.5
267.752	1267.5
267.984	1293.5
268.216	1282.5
268.448	1264.5
268.681	1247.5
268.913	1259.5
269.145	1236.5
269.377	1255.5
269.609	1263.5
269.841	1309.5
270.073	1383.5
270.306	1593.5
270.538	2210.5
270.77	3289.5
271.002	4077.5
271.234	2821.5
271.466	1908.5
271.698	1570.5
271.93	1444.5
272.162	1316.5
272.394	1277.5
272.626	1266.5
272.858	1275.5
273.09	1235.5
273.322	1232.5
273.553	1201.5
273.785	1218.5
274.017	1209.5
274.249	1221.5
274.481	1190.5
274.713	1215.5
274.945	1218.5
275.176	1200.5
275.408	1234.5
275.64	1232.5
275.872	1251.5
276.104	1271.5
276.335	1271.5
276.567	1292.5
276.799	1311.5
277.031	1351.5
277.262	1333.5
277.494	1432.5
277.726	1607.5
277.957	1873.5
278.189	2207.5
278.421	1974.5
278.652	1793.5
278.884	1733.5
279.115	1496.5
279.347	1458.5
279.579	1407.5
279.81	1426.5
280.042	1400.5
280.273	1441.5
280.505	1459.5
280.736	1497.5
280.968	1584.5
281.199	1766.5
281.431	2085.5
281.662	2158.5
281.894	1849.5
282.125	1634.5
282.356	1694.5
282.588	1679.5
282.819	1717.5
283.051	1831.5
283.282	2029.5
283.513	2501.5
283.745	3667.5
283.976	5786.5
284.207	8253.5
284.439	7555.5
284.67	4667.5
284.901	3828.5
285.132	3864.5
285.364	3721.5
285.595	2757.5
285.826	2451.5
286.057	2883.5
286.288	3973.5
286.52	5367.5
286.751	5022.5
286.982	3148.5
287.213	2332.5
287.444	2024.5
287.675	1871.5
287.906	1807.5
288.138	1776.5
288.369	1707.5
288.6	1687.5
288.831	1697.5
289.062	1656.5
289.293	1671.5
289.524	1713.5
289.755	1727.5
289.986	1732.5
290.217	1744.5
290.448	1743.5
290.679	1751.5
290.91	1801.5
291.141	1901.5
291.371	2049.5
291.602	2213.5
291.833	1972.5
292.064	1763.5
292.295	1673.5
292.526	1668.5
292.757	1609.5
292.987	1616.5
293.218	1588.5
293.449	1587.5
293.68	1565.5
293.91	1604.5
294.141	1595.5
294.372	1582.5
294.603	1599.5
294.833	1612.5
295.064	1630.5
295.295	1572.5
295.525	1549.5
295.756	1595.5
295.987	1520.5
296.217	1556.5
296.448	1542.5
296.679	1583.5
296.909	1545.5
297.14	1583.5
297.37	1613.5
297.601	1647.5
297.831	1623.5
298.062	1610.5
298.292	1660.5
298.523	1716.5
298.753	1709.5
298.984	1703.5
299.214	1749.5
299.445	1771.5
299.675	1812.5
299.905	1864.5
300.136	1923.5
300.366	2141.5
300.597	2775.5
300.827	3928.5
301.057	5441.5
301.288	5409.5
301.518	3424.5
301.748	2680.5
301.979	2406.5
302.209	2310.5
302.439	2384.5
302.669	2503.5
302.9	3027.5
303.13	4230.5
303.36	6331.5
303.59	8452.5
303.82	7392.5
304.051	4324.5
304.281	3108.5
304.511	2571.5
304.741	2355.5
304.971	2230.5
305.201	2115.5
305.431	2028.5
305.661	1973.5
305.891	1911.5
306.121	1929.5
306.352	1931.5
306.582	1877.5
306.812	1849.5
307.042	1874.5
307.272	1831.5
307.502	1811.5
307.731	1820.5
307.961	1814.5
308.191	1792.5
308.421	1766.5
308.651	1838.5
308.881	1832.5
309.111	1832.5
309.341	1816.5
309.571	1828.5
309.8	1888.5
310.03	1867.5
310.26	1867.5
310.49	1883.5
310.72	1856.5
310.949	1874.5
311.179	1873.5
311.409	1915.5
311.639	1903.5
311.868	1965.5
312.098	1938.5
312.328	1954.5
312.557	2006.5
312.787	1969.5
313.017	2009.5
313.246	2013.5
313.476	2002.5
313.706	2071.5
313.935	2219.5
314.165	2358.5
314.394	2514.5
314.624	2399.5
314.853	2178.5
315.083	2168.5
315.312	2178.5
315.542	2178.5
315.771	2180.5
316.001	2289.5
316.23	2364.5
316.46	2478.5
316.689	2680.5
316.919	3270.5
317.148	4675.5
317.377	7217.5
317.607	10608.5
317.836	11213.5
318.065	6856.5
318.295	4389.5
318.524	3423.5
318.753	2987.5
318.983	2720.5
319.212	2567.5
319.441	2491.5
319.67	2517.5
319.9	2407.5
320.129	2398.5
320.358	2393.5
320.587	2353.5
320.816	2359.5
321.046	2370.5
321.275	2415.5
321.504	2379.5
321.733	2445.5
321.962	2597.5
322.191	2573.5
322.42	2533.5
322.649	2545.5
322.878	2531.5
323.108	2523.5
323.337	2591.5
323.566	2583.5
323.795	2673.5
324.024	2730.5
324.253	2744.5
324.482	2862.5
324.71	3014.5
324.939	3280.5
325.168	3309.5
325.397	3481.5
325.626	4140.5
325.855	5765.5
326.084	9019.5
326.313	12978.5
326.542	13723.5
326.77	9431.5
326.999	6122.5
327.228	5048.5
327.457	4863.5
327.686	4931.5
327.914	5210.5
328.143	6131.5
328.372	7394.5
328.6	8148.5
328.829	7260.5
329.058	5964.5
329.287	5190.5
329.515	4747.5
329.744	4322.5
329.972	4124.5
330.201	3875.5
330.43	3757.5
330.658	3682.5
330.887	3575.5
331.115	3540.5
331.344	3561.5
331.572	3509.5
331.801	3487.5
332.03	3525.5
332.258	3610.5
332.486	3806.5
332.715	4398.5
332.943	5391.5
333.172	6736.5
333.4	6736.5
333.629	5072.5
333.857	4527.5
334.085	4529.5
334.314	4788.5
334.542	5270.5
334.771	6153.5
334.999	7656.5
335.227	9729.5
335.455	10899.5
335.684	9708.5
335.912	7871.5
336.14	6676.5
336.369	5869.5
336.597	5341.5
336.825	4893.5
337.053	4574.5
337.281	4393.5
337.51	4100.5
337.738	3900.5
337.966	3709.5
338.194	3596.5
338.422	3488.5
338.65	3391.5
338.878	3272.5
339.106	3250.5
339.334	3243.5
339.562	3179.5
339.79	3079.5
340.018	3106.5
340.246	3082.5
340.474	3075.5
340.702	3026.5
340.93	3011.5
341.158	3055.5
341.386	3005.5
341.614	2975.5
341.842	2957.5
342.07	2831.5
342.298	2810.5
342.526	2771.5
342.754	2733.5
342.981	2709.5
343.209	2741.5
343.437	2716.5
343.665	2745.5
343.893	2829.5
344.12	2871.5
344.348	2759.5
344.576	2754.5
344.804	2670.5
345.031	2680.5
345.259	2632.5
345.487	2639.5
345.714	2535.5
345.942	2547.5
346.17	2584.5
346.397	2536.5
346.625	2550.5
346.853	2535.5
347.08	2517.5
347.308	2555.5
347.535	2553.5
347.763	2529.5
347.99	2520.5
348.218	2561.5
348.445	2485.5
348.673	2476.5
348.9	2497.5
349.128	2435.5
349.355	2539.5
349.583	2463.5
349.81	2466.5
350.037	2457.5
350.265	2407.5
350.492	2427.5
350.72	2405.5
350.947	2481.5
351.174	2414.5
351.402	2424.5
351.629	2436.5
351.856	2439.5
352.083	2401.5
352.311	2399.5
352.538	2366.5
352.765	2382.5
352.992	2377.5
353.22	2374.5
353.447	2366.5
353.674	2350.5
353.901	2393.5
354.128	2436.5
354.355	2442.5
354.583	2449.5
354.81	2447.5
355.037	2465.5
355.264	2397.5
355.491	2436.5
355.718	2437.5
355.945	2482.5
356.172	2512.5
356.399	2533.5
356.626	2501.5
356.853	2485.5
357.08	2500.5
357.307	2575.5
357.534	2607.5
357.761	2664.5
357.988	2612.5
358.215	2632.5
358.441	2652.5
358.668	2504.5
358.895	2600.5
359.122	2539.5
359.349	2503.5
359.576	2569.5
359.802	2581.5
360.029	2550.5
360.256	2558.5
360.483	2584.5
360.709	2547.5
360.936	2503.5
361.163	2592.5
361.39	2574.5
361.616	2567.5
361.843	2589.5
362.07	2569.5
362.296	2573.5
362.523	2570.5
362.749	2569.5
362.976	2536.5
363.203	2555.5
363.429	2563.5
363.656	2560.5
363.882	2563.5
364.109	2547.5
364.335	2542.5
364.562	2553.5
364.788	2578.5
365.015	2598.5
365.241	2691.5
365.468	2840.5
365.694	2960.5
365.92	2864.5
366.147	2611.5
366.373	2583.5
366.599	2629.5
366.826	2627.5
367.052	2583.5
367.278	2599.5
367.505	2642.5
367.731	2639.5
367.957	2684.5
368.184	2643.5
368.41	2722.5
368.636	2686.5
368.862	2672.5
369.089	2597.5
369.315	2724.5
369.541	2690.5
369.767	2652.5
369.993	2623.5
370.219	2584.5
370.445	2688.5
370.672	2696.5
370.898	2696.5
371.124	2709.5
371.35	2681.5
371.576	2757.5
371.802	2752.5
372.028	2757.5
372.254	2827.5
372.48	2756.5
372.706	2815.5
372.932	2804.5
373.158	2819.5
373.384	2768.5
373.61	2778.5
373.835	2870.5
374.061	2813.5
374.287	2813.5
374.513	2844.5
374.739	2932.5
374.965	2929.5
375.191	2933.5
375.416	2927.5
375.642	2908.5
375.868	2881.5
376.094	2796.5
376.319	2783.5
376.545	2783.5
376.771	2787.5
376.997	2721.5
377.222	2742.5
377.448	2733.5
377.674	2761.5
377.899	2731.5
378.125	2797.5
378.35	2709.5
378.576	2814.5
378.802	2773.5
379.027	2836.5
379.253	2920.5
379.478	3052.5
379.704	3612.5
379.929	5299.5
380.155	8145.5
380.38	8895.5
380.606	5449.5
380.831	3762.5
381.057	3239.5
381.282	2991.5
381.507	2878.5
381.733	2781.5
381.958	2716.5
382.184	2741.5
382.409	2766.5
382.634	2662.5
382.86	2711.5
383.085	2733.5
383.31	2659.5
383.535	2680.5
383.761	2734.5
383.986	2719.5
384.211	2720.5
384.436	2788.5
384.662	2780.5
384.887	2788.5
385.112	2761.5
385.337	2839.5
385.562	2791.5
385.787	2772.5
386.013	2803.5
386.238	2821.5
386.463	2842.5
386.688	2807.5
386.913	2811.5
387.138	2758.5
387.363	2803.5
387.588	2781.5
387.813	2752.5
388.038	2775.5
388.263	2782.5
388.488	2761.5
388.713	2748.5
388.938	2768.5
389.163	2772.5
389.387	2774.5
389.612	2756.5
389.837	2787.5
390.062	2822.5
390.287	2821.5
390.512	2779.5
390.736	2827.5
390.961	2868.5
391.186	2896.5
391.411	2935.5
391.636	2945.5
391.86	2971.5
392.085	2944.5
392.31	2857.5
392.534	2882.5
392.759	2831.5
392.984	2826.5
393.208	2847.5
393.433	2840.5
393.658	2840.5
393.882	2782.5
394.107	2831.5
394.331	2806.5
394.556	2791.5
394.78	2796.5
395.005	2874.5
395.229	2804.5
395.454	2896.5
395.678	2928.5
395.903	2918.5
396.127	2914.5
396.352	2839.5
396.576	2885.5
396.801	2868.5
397.025	2924.5
397.249	2941.5
397.474	2942.5
397.698	2904.5
397.922	2980.5
398.147	2945.5
398.371	2983.5
398.595	3036.5
398.82	3101.5
399.044	3213.5
399.268	3361.5
399.492	3521.5
399.717	3663.5
399.941	3699.5
400.165	3545.5
400.389	3381.5
400.613	3289.5
400.837	3151.5
401.062	3115.5
401.286	3087.5
401.51	3134.5
401.734	3100.5
401.958	3083.5
402.182	3076.5
402.406	3030.5
402.63	3102.5
402.854	3079.5
403.078	3080.5
403.302	3117.5
403.526	3160.5
403.75	3195.5
403.974	3203.5
404.198	3161.5
404.422	3219.5
404.645	3157.5
404.869	3213.5
405.093	3261.5
405.317	3167.5
405.541	3266.5
405.765	3275.5
405.988	3301.5
406.212	3313.5
406.436	3237.5
406.66	3323.5
406.883	3276.5
407.107	3377.5
407.331	3473.5
407.555	3531.5
407.778	3428.5
408.002	3405.5
408.226	3417.5
408.449	3401.5
408.673	3311.5
408.896	3235.5
409.12	3280.5
409.344	3247.5
409.567	3154.5
409.791	3220.5
410.014	3153.5
410.238	3093.5
410.461	3184.5
410.685	3139.5
410.908	3135.5
411.132	3107.5
411.355	3055.5
411.578	3066.5
411.802	3032.5
412.025	3029.5
412.249	3115.5
412.472	3027.5
412.695	2987.5
412.919	3051.5
413.142	2998.5
413.365	3040.5
413.589	3034.5
413.812	2966.5
414.035	3011.5
414.258	3017.5
414.482	3012.5
414.705	2995.5
414.928	2991.5
415.151	3052.5
415.374	2975.5
415.597	2959.5
415.821	2912.5
416.044	2859.5
416.267	2864.5
416.49	2881.5
416.713	2872.5
416.936	2883.5
417.159	2861.5
417.382	2853.5
417.605	2849.5
417.828	2851.5
418.051	2889.5
418.274	2927.5
418.497	2948.5
418.72	2978.5
418.943	2926.5
419.166	3081.5
419.389	3243.5
419.611	3193.5
419.834	3146.5
420.057	3021.5
420.28	2920.5
420.503	2860.5
420.726	2862.5
420.948	2879.5
421.171	2841.5
421.394	2917.5
421.617	2937.5
421.839	2918.5
422.062	2923.5
422.285	2853.5
422.507	2944.5
422.73	2921.5
422.953	3021.5
423.175	3032.5
423.398	2976.5
423.621	2900.5
423.843	2883.5
424.066	2916.5
424.288	2873.5
424.511	2872.5
424.733	2856.5
424.956	2862.5
425.178	2827.5
425.401	2820.5
425.623	2861.5
425.846	2793.5
426.068	2843.5
426.291	2768.5
426.513	2746.5
426.735	2786.5
426.958	2756.5
427.18	2743.5
427.402	2739.5
427.625	2742.5
427.847	2736.5
428.069	2708.5
428.292	2709.5
428.514	2625.5
428.736	2661.5
428.958	2702.5
429.181	2653.5
429.403	2616.5
429.625	2677.5
429.847	2669.5
430.069	2745.5
430.292	2754.5
430.514	2872.5
430.736	2890.5
430.958	2696.5
431.18	2663.5
431.402	2648.5
431.624	2624.5
431.846	2609.5
432.068	2616.5
432.29	2615.5
432.512	2611.5
432.734	2672.5
432.956	2592.5
433.178	2614.5
433.4	2641.5
433.622	2680.5
433.844	2683.5
434.066	2668.5
434.287	2641.5
434.509	2722.5
434.731	2717.5
434.953	2751.5
435.175	2743.5
435.397	2793.5
435.618	2735.5
435.84	2668.5
436.062	2653.5
436.284	2676.5
436.505	2625.5
436.727	2652.5
436.949	2644.5
437.17	2633.5
437.392	2620.5
437.614	2603.5
437.835	2539.5
438.057	2588.5
438.278	2579.5
438.5	2565.5
438.721	2609.5
438.943	2704.5
439.165	2769.5
439.386	2780.5
439.608	2737.5
439.829	2727.5
440.05	2844.5
440.272	2871.5
440.493	2732.5
440.715	2741.5
440.936	2765.5
441.158	2748.5
441.379	2769.5
441.6	2877.5
441.822	2913.5
442.043	3132.5
442.264	3195.5
442.486	2968.5
442.707	2884.5
442.928	2830.5
443.149	2811.5
443.371	2819.5
443.592	2833.5
443.813	2881.5
444.034	2871.5
444.255	2947.5
444.476	2949.5
444.698	3032.5
444.919	3048.5
445.14	3097.5
445.361	2996.5
445.582	2932.5
445.803	2843.5
446.024	2772.5
446.245	2823.5
446.466	2821.5
446.687	2797.5
446.908	2742.5
447.129	2691.5
447.35	2659.5
447.571	2665.5
447.792	2612.5
448.013	2588.5
448.234	2605.5
448.455	2571.5
448.675	2678.5
448.896	2715.5
449.117	2780.5
449.338	3041.5
449.559	3157.5
449.779	2831.5
450	2640.5
450.221	2579.5
450.442	2557.5
450.662	2585.5
450.883	2548.5
451.104	2508.5
451.324	2533.5
451.545	2532.5
451.766	2559.5
451.986	2611.5
452.207	2848.5
452.428	3682.5
452.648	5724.5
452.869	4713.5
453.089	3154.5
453.31	3020.5
453.53	2993.5
453.751	3020.5
453.971	3278.5
454.192	3152.5
454.412	2750.5
454.633	2565.5
454.853	2518.5
455.073	2513.5
455.294	2445.5
455.514	2428.5
455.734	2456.5
455.955	2433.5
456.175	2427.5
456.395	2388.5
456.616	2432.5
456.836	2477.5
457.056	2518.5
457.276	2498.5
457.497	2670.5
457.717	2639.5
457.937	2644.5
458.157	2565.5
458.377	2578.5
458.598	2576.5
458.818	2660.5
459.038	2598.5
459.258	2646.5
459.478	2627.5
459.698	2722.5
459.918	2733.5
460.138	2738.5
460.358	2823.5
460.578	2843.5
460.798	2847.5
461.018	2871.5
461.238	2879.5
461.458	2886.5
461.678	2960.5
461.898	3024.5
462.118	3004.5
462.338	3115.5
462.558	3091.5
462.777	3181.5
462.997	3268.5
463.217	3400.5
463.437	3588.5
463.657	3592.5
463.876	3546.5
464.096	3381.5
464.316	3231.5
464.536	3201.5
464.755	3140.5
464.975	3031.5
465.195	2969.5
465.414	2811.5
465.634	2788.5
465.854	2747.5
466.073	2702.5
466.293	2697.5
466.512	2703.5
466.732	2697.5
466.951	2817.5
467.171	3032.5
467.391	2989.5
467.61	2774.5
467.829	2694.5
468.049	2599.5
468.268	2595.5
468.488	2550.5
468.707	2614.5
468.927	2637.5
469.146	2642.5
469.365	2609.5
469.585	2599.5
469.804	2669.5
470.023	2793.5
470.243	2778.5
470.462	2848.5
470.681	3053.5
470.901	3376.5
471.12	3878.5
471.339	3868.5
471.558	3229.5
471.777	2914.5
471.997	2800.5
472.216	2714.5
472.435	2677.5
472.654	2624.5
472.873	2568.5
473.092	2599.5
473.311	2619.5
473.53	2673.5
473.749	2733.5
473.968	2821.5
474.187	2663.5
474.406	2613.5
474.625	2615.5
474.844	2608.5
475.063	2625.5
475.282	2639.5
475.501	2637.5
475.72	2693.5
475.939	2693.5
476.158	2678.5
476.377	2821.5
476.596	2759.5
476.814	2767.5
477.033	2782.5
477.252	2779.5
477.471	2820.5
477.69	2914.5
477.908	2921.5
478.127	2998.5
478.346	2963.5
478.564	3042.5
478.783	3043.5
479.002	3096.5
479.22	3115.5
479.439	3139.5
479.658	3148.5
479.876	3141.5
480.095	3119.5
480.313	3184.5
480.532	3263.5
480.751	3251.5
480.969	3179.5
481.188	3201.5
481.406	3174.5
481.624	3185.5
481.843	3197.5
482.061	3198.5
482.28	3168.5
482.498	3145.5
482.717	3167.5
482.935	3171.5
483.153	3224.5
483.372	3277.5
483.59	3357.5
483.808	3346.5
484.027	3515.5
484.245	3677.5
484.463	4098.5
484.681	4578.5
484.9	4136.5
485.118	3864.5
485.336	3769.5
485.554	3842.5
485.772	4080.5
485.99	4599.5
486.209	4950.5
486.427	4241.5
486.645	3725.5
486.863	3560.5
487.081	3430.5
487.299	3338.5
487.517	3408.5
487.735	3437.5
487.953	3407.5
488.171	3357.5
488.389	3348.5
488.607	3248.5
488.825	3311.5
489.043	3245.5
489.261	3250.5
489.479	3259.5
489.696	3234.5
489.914	3260.5
490.132	3328.5
490.35	3303.5
490.568	3320.5
490.786	3379.5
491.003	3345.5
491.221	3448.5
491.439	3430.5
491.657	3353.5
491.874	3378.5
492.092	3408.5
492.31	3436.5
492.527	3449.5
492.745	3455.5
492.963	3418.5
493.18	3371.5
493.398	3419.5
493.615	3507.5
493.833	3419.5
494.05	3425.5
494.268	3407.5
494.485	3471.5
494.703	3463.5
494.92	3535.5
495.138	3446.5
495.355	3486.5
495.573	3449.5
495.79	3519.5
496.008	3528.5
496.225	3532.5
496.442	3589.5
496.66	3743.5
496.877	3937.5
497.094	3871.5
497.312	3752.5
497.529	3748.5
497.746	3756.5
497.963	3824.5
498.181	3940.5
498.398	4019.5
498.615	4103.5
498.832	4223.5
499.049	4472.5
499.267	4835.5
499.484	5118.5
499.701	5123.5
499.918	5200.5
500.135	5437.5
500.352	5755.5
500.569	5795.5
500.786	5690.5
501.003	5539.5
501.22	5340.5
501.437	5098.5
501.654	4728.5
501.871	4621.5
502.088	4415.5
502.305	4194.5
502.522	4059.5
502.739	4025.5
502.956	3944.5
503.172	3819.5
503.389	3725.5
503.606	3685.5
503.823	3654.5
