Data from SnStandardFlinnAPT0064_QswitchEnergy10_LIBS07252019.E.O._I.C._HRD10591_15-27-08-973.txt Node
Date: Thu Jul 25 15:27:08 EDT 2019
User: cochatt
Spectrometer: HR+D1059
Trigger mode: 1
Integration Time (sec): 1.000000E-1
Scans to average: 1
Electric dark correction enabled: true
Nonlinearity correction enabled: false
Boxcar width: 0
XAxis mode: Wavelengths
Number of Pixels in Spectrum: 2048
>>>>>Begin Spectral Data<<<<<
223.165	-23.81
223.4	-23.81
223.635	-23.81
223.869	-17.81
224.104	-7.81
224.338	-2.81
224.573	-23.81
224.808	-12.81
225.042	-3.81
225.277	-0.81
225.511	-8.81
225.746	6.19
225.98	2.19
226.215	4.19
226.449	17.19
226.683	18.19
226.918	26.19
227.152	28.19
227.387	25.19
227.621	52.19
227.856	43.19
228.09	44.19
228.324	37.19
228.559	49.19
228.793	64.19
229.027	73.19
229.262	71.19
229.496	65.19
229.73	64.19
229.964	74.19
230.199	73.19
230.433	82.19
230.667	87.19
230.901	77.19
231.136	89.19
231.37	76.19
231.604	96.19
231.838	84.19
232.072	106.19
232.306	115.19
232.541	96.19
232.775	82.19
233.009	79.19
233.243	94.19
233.477	86.19
233.711	96.19
233.945	108.19
234.179	94.19
234.413	99.19
234.647	87.19
234.881	95.19
235.115	90.19
235.349	97.19
235.583	105.19
235.817	117.19
236.051	139.19
236.285	107.19
236.519	81.19
236.753	76.19
236.987	89.19
237.221	83.19
237.455	82.19
237.689	75.19
237.922	83.19
238.156	87.19
238.39	81.19
238.624	92.19
238.858	71.19
239.091	80.19
239.325	82.19
239.559	77.19
239.793	67.19
240.027	72.19
240.26	76.19
240.494	82.19
240.728	74.19
240.961	78.19
241.195	114.19
241.429	85.19
241.662	91.19
241.896	93.19
242.13	97.19
242.363	119.19
242.597	148.19
242.83	123.19
243.064	133.19
243.298	177.19
243.531	154.19
243.765	85.19
243.998	81.19
244.232	70.19
244.465	80.19
244.699	94.19
244.932	81.19
245.166	77.19
245.399	77.19
245.633	91.19
245.866	65.19
246.099	73.19
246.333	88.19
246.566	69.19
246.8	91.19
247.033	77.19
247.266	66.19
247.5	73.19
247.733	95.19
247.966	81.19
248.2	91.19
248.433	105.19
248.666	120.19
248.899	121.19
249.133	84.19
249.366	87.19
249.599	107.19
249.832	114.19
250.066	126.19
250.299	98.19
250.532	83.19
250.765	81.19
250.998	87.19
251.231	71.19
251.465	75.19
251.698	85.19
251.931	75.19
252.164	78.19
252.397	90.19
252.63	87.19
252.863	96.19
253.096	101.19
253.329	90.19
253.562	102.19
253.795	91.19
254.028	86.19
254.261	94.19
254.494	106.19
254.727	119.19
254.96	126.19
255.193	126.19
255.426	100.19
255.659	92.19
255.892	90.19
256.124	99.19
256.357	89.19
256.59	85.19
256.823	102.19
257.056	102.19
257.289	126.19
257.521	168.19
257.754	123.19
257.987	91.19
258.22	91.19
258.452	75.19
258.685	93.19
258.918	82.19
259.151	90.19
259.383	99.19
259.616	124.19
259.849	150.19
260.081	103.19
260.314	93.19
260.547	73.19
260.779	88.19
261.012	80.19
261.244	78.19
261.477	94.19
261.71	78.19
261.942	85.19
262.175	90.19
262.407	84.19
262.64	87.19
262.872	75.19
263.105	88.19
263.337	90.19
263.57	87.19
263.802	87.19
264.035	91.19
264.267	94.19
264.499	81.19
264.732	84.19
264.964	79.19
265.197	87.19
265.429	71.19
265.661	84.19
265.894	88.19
266.126	110.19
266.358	140.19
266.591	138.19
266.823	96.19
267.055	73.19
267.287	94.19
267.52	90.19
267.752	97.19
267.984	76.19
268.216	83.19
268.448	90.19
268.681	98.19
268.913	110.19
269.145	79.19
269.377	87.19
269.609	100.19
269.841	86.19
270.073	103.19
270.306	122.19
270.538	170.19
270.77	294.19
271.002	336.19
271.234	192.19
271.466	99.19
271.698	97.19
271.93	91.19
272.162	84.19
272.394	87.19
272.626	90.19
272.858	85.19
273.09	111.19
273.322	100.19
273.553	84.19
273.785	90.19
274.017	86.19
274.249	76.19
274.481	80.19
274.713	83.19
274.945	83.19
275.176	81.19
275.408	74.19
275.64	89.19
275.872	88.19
276.104	83.19
276.335	104.19
276.567	94.19
276.799	90.19
277.031	90.19
277.262	95.19
277.494	97.19
277.726	111.19
277.957	159.19
278.189	231.19
278.421	211.19
278.652	178.19
278.884	176.19
279.115	127.19
279.347	97.19
279.579	96.19
279.81	98.19
280.042	107.19
280.273	95.19
280.505	111.19
280.736	103.19
280.968	141.19
281.199	167.19
281.431	220.19
281.662	237.19
281.894	140.19
282.125	105.19
282.356	98.19
282.588	110.19
282.819	104.19
283.051	116.19
283.282	134.19
283.513	178.19
283.745	292.19
283.976	490.19
284.207	688.19
284.439	545.19
284.67	230.19
284.901	220.19
285.132	291.19
285.364	337.19
285.595	204.19
285.826	158.19
286.057	229.19
286.288	354.19
286.52	537.19
286.751	432.19
286.982	177.19
287.213	127.19
287.444	106.19
287.675	98.19
287.906	82.19
288.138	109.19
288.369	95.19
288.6	88.19
288.831	94.19
289.062	106.19
289.293	104.19
289.524	89.19
289.755	85.19
289.986	86.19
290.217	101.19
290.448	101.19
290.679	101.19
290.91	113.19
291.141	134.19
291.371	204.19
291.602	247.19
291.833	175.19
292.064	111.19
292.295	107.19
292.526	95.19
292.757	104.19
292.987	95.19
293.218	82.19
293.449	70.19
293.68	84.19
293.91	93.19
294.141	89.19
294.372	86.19
294.603	82.19
294.833	96.19
295.064	89.19
295.295	93.19
295.525	98.19
295.756	98.19
295.987	92.19
296.217	90.19
296.448	82.19
296.679	95.19
296.909	96.19
297.14	104.19
297.37	102.19
297.601	102.19
297.831	91.19
298.062	86.19
298.292	91.19
298.523	98.19
298.753	100.19
298.984	107.19
299.214	95.19
299.445	103.19
299.675	114.19
299.905	116.19
300.136	122.19
300.366	163.19
300.597	240.19
300.827	423.19
301.057	625.19
301.288	536.19
301.518	233.19
301.748	144.19
301.979	127.19
302.209	123.19
302.439	145.19
302.669	140.19
302.9	242.19
303.13	435.19
303.36	745.19
303.59	1042.19
303.82	735.19
304.051	276.19
304.281	157.19
304.511	122.19
304.741	109.19
304.971	113.19
305.201	120.19
305.431	114.19
305.661	95.19
305.891	98.19
306.121	112.19
306.352	106.19
306.582	118.19
306.812	114.19
307.042	110.19
307.272	112.19
307.502	115.19
307.731	118.19
307.961	101.19
308.191	111.19
308.421	97.19
308.651	104.19
308.881	99.19
309.111	95.19
309.341	95.19
309.571	101.19
309.8	118.19
310.03	105.19
310.26	105.19
310.49	114.19
310.72	113.19
310.949	117.19
311.179	108.19
311.409	98.19
311.639	106.19
311.868	107.19
312.098	120.19
312.328	115.19
312.557	84.19
312.787	100.19
313.017	98.19
313.246	101.19
313.476	130.19
313.706	127.19
313.935	147.19
314.165	168.19
314.394	218.19
314.624	156.19
314.853	124.19
315.083	128.19
315.312	132.19
315.542	123.19
315.771	120.19
316.001	123.19
316.23	135.19
316.46	135.19
316.689	164.19
316.919	239.19
317.148	441.19
317.377	790.19
317.607	1314.19
317.836	1184.19
318.065	474.19
318.295	200.19
318.524	152.19
318.753	131.19
318.983	128.19
319.212	127.19
319.441	120.19
319.67	114.19
319.9	98.19
320.129	108.19
320.358	119.19
320.587	110.19
320.816	118.19
321.046	109.19
321.275	131.19
321.504	115.19
321.733	132.19
321.962	151.19
322.191	159.19
322.42	130.19
322.649	114.19
322.878	122.19
323.108	120.19
323.337	129.19
323.566	131.19
323.795	128.19
324.024	129.19
324.253	154.19
324.482	167.19
324.71	187.19
324.939	246.19
325.168	202.19
325.397	179.19
325.626	225.19
325.855	419.19
326.084	841.19
326.313	1404.19
326.542	1351.19
326.77	538.19
326.999	243.19
327.228	183.19
327.457	207.19
327.686	213.19
327.914	141.19
328.143	138.19
328.372	119.19
328.6	121.19
328.829	114.19
329.058	112.19
329.287	116.19
329.515	118.19
329.744	106.19
329.972	127.19
330.201	126.19
330.43	128.19
330.658	110.19
330.887	106.19
331.115	108.19
331.344	107.19
331.572	110.19
331.801	117.19
332.03	117.19
332.258	116.19
332.486	166.19
332.715	259.19
332.943	452.19
333.172	681.19
333.4	622.19
333.629	218.19
333.857	133.19
334.085	117.19
334.314	135.19
334.542	121.19
334.771	105.19
334.999	124.19
335.227	118.19
335.455	131.19
335.684	125.19
335.912	110.19
336.14	118.19
336.369	90.19
336.597	117.19
336.825	105.19
337.053	108.19
337.281	117.19
337.51	114.19
337.738	102.19
337.966	96.19
338.194	102.19
338.422	102.19
338.65	100.19
338.878	118.19
339.106	110.19
339.334	120.19
339.562	109.19
339.79	104.19
340.018	108.19
340.246	109.19
340.474	98.19
340.702	103.19
340.93	109.19
341.158	126.19
341.386	105.19
341.614	126.19
341.842	118.19
342.07	116.19
342.298	115.19
342.526	115.19
342.754	108.19
342.981	108.19
343.209	87.19
343.437	100.19
343.665	115.19
343.893	112.19
344.12	120.19
344.348	110.19
344.576	113.19
344.804	110.19
345.031	89.19
345.259	108.19
345.487	97.19
345.714	117.19
345.942	102.19
346.17	118.19
346.397	101.19
346.625	94.19
346.853	103.19
347.08	110.19
347.308	99.19
347.535	100.19
347.763	106.19
347.99	101.19
348.218	111.19
348.445	114.19
348.673	94.19
348.9	126.19
349.128	112.19
349.355	114.19
349.583	118.19
349.81	130.19
350.037	105.19
350.265	108.19
350.492	112.19
350.72	113.19
350.947	107.19
351.174	95.19
351.402	96.19
351.629	111.19
351.856	118.19
352.083	94.19
352.311	117.19
352.538	100.19
352.765	104.19
352.992	99.19
353.22	106.19
353.447	97.19
353.674	99.19
353.901	86.19
354.128	120.19
354.355	107.19
354.583	107.19
354.81	100.19
355.037	99.19
355.264	93.19
355.491	98.19
355.718	97.19
355.945	104.19
356.172	105.19
356.399	103.19
356.626	97.19
356.853	104.19
357.08	100.19
357.307	110.19
357.534	97.19
357.761	104.19
357.988	112.19
358.215	96.19
358.441	116.19
358.668	107.19
358.895	119.19
359.122	116.19
359.349	120.19
359.576	118.19
359.802	107.19
360.029	99.19
360.256	114.19
360.483	95.19
360.709	113.19
360.936	110.19
361.163	99.19
361.39	100.19
361.616	112.19
361.843	105.19
362.07	108.19
362.296	118.19
362.523	114.19
362.749	108.19
362.976	96.19
363.203	101.19
363.429	98.19
363.656	102.19
363.882	117.19
364.109	115.19
364.335	100.19
364.562	101.19
364.788	113.19
365.015	102.19
365.241	132.19
365.468	187.19
365.694	224.19
365.92	203.19
366.147	118.19
366.373	97.19
366.599	101.19
366.826	115.19
367.052	83.19
367.278	83.19
367.505	97.19
367.731	105.19
367.957	106.19
368.184	89.19
368.41	110.19
368.636	118.19
368.862	100.19
369.089	104.19
369.315	88.19
369.541	89.19
369.767	102.19
369.993	112.19
370.219	87.19
370.445	101.19
370.672	94.19
370.898	93.19
371.124	126.19
371.35	105.19
371.576	114.19
371.802	111.19
372.028	108.19
372.254	113.19
372.48	97.19
372.706	100.19
372.932	98.19
373.158	116.19
373.384	115.19
373.61	119.19
373.835	117.19
374.061	112.19
374.287	94.19
374.513	112.19
374.739	94.19
374.965	121.19
375.191	104.19
375.416	104.19
375.642	97.19
375.868	113.19
376.094	111.19
376.319	131.19
376.545	112.19
376.771	110.19
376.997	103.19
377.222	104.19
377.448	92.19
377.674	113.19
377.899	106.19
378.125	101.19
378.35	130.19
378.576	121.19
378.802	99.19
379.027	128.19
379.253	146.19
379.478	168.19
379.704	300.19
379.929	673.19
380.155	1380.19
380.38	1400.19
380.606	464.19
380.831	165.19
381.057	134.19
381.282	125.19
381.507	109.19
381.733	90.19
381.958	96.19
382.184	128.19
382.409	111.19
382.634	111.19
382.86	103.19
383.085	115.19
383.31	98.19
383.535	81.19
383.761	99.19
383.986	99.19
384.211	103.19
384.436	107.19
384.662	98.19
384.887	91.19
385.112	97.19
385.337	102.19
385.562	107.19
385.787	99.19
386.013	110.19
386.238	104.19
386.463	110.19
386.688	113.19
386.913	98.19
387.138	111.19
387.363	112.19
387.588	94.19
387.813	103.19
388.038	103.19
388.263	91.19
388.488	88.19
388.713	102.19
388.938	109.19
389.163	99.19
389.387	99.19
389.612	99.19
389.837	98.19
390.062	102.19
390.287	115.19
390.512	106.19
390.736	105.19
390.961	98.19
391.186	101.19
391.411	89.19
391.636	93.19
391.86	103.19
392.085	88.19
392.31	88.19
392.534	96.19
392.759	94.19
392.984	106.19
393.208	118.19
393.433	137.19
393.658	123.19
393.882	96.19
394.107	99.19
394.331	97.19
394.556	97.19
394.78	96.19
395.005	86.19
395.229	96.19
395.454	88.19
395.678	98.19
395.903	113.19
396.127	107.19
396.352	98.19
396.576	96.19
396.801	119.19
397.025	117.19
397.249	101.19
397.474	89.19
397.698	94.19
397.922	110.19
398.147	91.19
398.371	88.19
398.595	99.19
398.82	115.19
399.044	90.19
399.268	107.19
399.492	94.19
399.717	101.19
399.941	92.19
400.165	104.19
400.389	97.19
400.613	95.19
400.837	91.19
401.062	97.19
401.286	87.19
401.51	95.19
401.734	92.19
401.958	96.19
402.182	94.19
402.406	98.19
402.63	108.19
402.854	104.19
403.078	90.19
403.302	76.19
403.526	100.19
403.75	102.19
403.974	87.19
404.198	86.19
404.422	87.19
404.645	92.19
404.869	100.19
405.093	107.19
405.317	112.19
405.541	106.19
405.765	120.19
405.988	123.19
406.212	129.19
406.436	102.19
406.66	97.19
406.883	99.19
407.107	86.19
407.331	85.19
407.555	87.19
407.778	92.19
408.002	87.19
408.226	101.19
408.449	102.19
408.673	97.19
408.896	102.19
409.12	79.19
409.344	102.19
409.567	96.19
409.791	86.19
410.014	92.19
410.238	113.19
410.461	103.19
410.685	100.19
410.908	90.19
411.132	107.19
411.355	90.19
411.578	89.19
411.802	95.19
412.025	99.19
412.249	88.19
412.472	104.19
412.695	104.19
412.919	102.19
413.142	112.19
413.365	99.19
413.589	94.19
413.812	102.19
414.035	101.19
414.258	101.19
414.482	103.19
414.705	111.19
414.928	116.19
415.151	95.19
415.374	82.19
415.597	94.19
415.821	91.19
416.044	84.19
416.267	88.19
416.49	109.19
416.713	89.19
416.936	104.19
417.159	95.19
417.382	86.19
417.605	103.19
417.828	89.19
418.051	93.19
418.274	103.19
418.497	104.19
418.72	100.19
418.943	110.19
419.166	96.19
419.389	98.19
419.611	110.19
419.834	110.19
420.057	99.19
420.28	96.19
420.503	107.19
420.726	86.19
420.948	97.19
421.171	93.19
421.394	113.19
421.617	95.19
421.839	91.19
422.062	88.19
422.285	97.19
422.507	89.19
422.73	108.19
422.953	118.19
423.175	102.19
423.398	116.19
423.621	94.19
423.843	100.19
424.066	91.19
424.288	89.19
424.511	94.19
424.733	103.19
424.956	102.19
425.178	86.19
425.401	84.19
425.623	97.19
425.846	111.19
426.068	91.19
426.291	89.19
426.513	90.19
426.735	97.19
426.958	96.19
427.18	92.19
427.402	103.19
427.625	84.19
427.847	90.19
428.069	98.19
428.292	95.19
428.514	107.19
428.736	90.19
428.958	81.19
429.181	103.19
429.403	102.19
429.625	100.19
429.847	85.19
430.069	112.19
430.292	92.19
430.514	101.19
430.736	94.19
430.958	98.19
431.18	94.19
431.402	91.19
431.624	96.19
431.846	93.19
432.068	96.19
432.29	78.19
432.512	87.19
432.734	91.19
432.956	94.19
433.178	97.19
433.4	102.19
433.622	95.19
433.844	82.19
434.066	99.19
434.287	88.19
434.509	95.19
434.731	74.19
434.953	85.19
435.175	86.19
435.397	94.19
435.618	89.19
435.84	99.19
436.062	82.19
436.284	99.19
436.505	95.19
436.727	94.19
436.949	84.19
437.17	97.19
437.392	91.19
437.614	99.19
437.835	81.19
438.057	75.19
438.278	99.19
438.5	88.19
438.721	82.19
438.943	81.19
439.165	103.19
439.386	128.19
439.608	96.19
439.829	91.19
440.05	117.19
440.272	120.19
440.493	105.19
440.715	100.19
440.936	71.19
441.158	95.19
441.379	101.19
441.6	92.19
441.822	99.19
442.043	112.19
442.264	131.19
442.486	111.19
442.707	105.19
442.928	87.19
443.149	84.19
443.371	96.19
443.592	98.19
443.813	88.19
444.034	108.19
444.255	91.19
444.476	72.19
444.698	84.19
444.919	83.19
445.14	195.19
445.361	158.19
445.582	96.19
445.803	112.19
446.024	110.19
446.245	100.19
446.466	103.19
446.687	103.19
446.908	101.19
447.129	100.19
447.35	105.19
447.571	93.19
447.792	93.19
448.013	99.19
448.234	93.19
448.455	102.19
448.675	96.19
448.896	85.19
449.117	114.19
449.338	137.19
449.559	140.19
449.779	119.19
450	108.19
450.221	110.19
450.442	103.19
450.662	117.19
450.883	104.19
451.104	103.19
451.324	117.19
451.545	117.19
451.766	110.19
451.986	130.19
452.207	190.19
452.428	478.19
452.648	1145.19
452.869	654.19
453.089	191.19
453.31	106.19
453.53	113.19
453.751	126.19
453.971	158.19
454.192	151.19
454.412	108.19
454.633	109.19
454.853	95.19
455.073	91.19
455.294	103.19
455.514	89.19
455.734	98.19
455.955	96.19
456.175	91.19
456.395	89.19
456.616	100.19
456.836	91.19
457.056	104.19
457.276	105.19
457.497	109.19
457.717	127.19
457.937	106.19
458.157	96.19
458.377	81.19
458.598	92.19
458.818	78.19
459.038	88.19
459.258	89.19
459.478	86.19
459.698	82.19
459.918	92.19
460.138	94.19
460.358	98.19
460.578	102.19
460.798	88.19
461.018	90.19
461.238	100.19
461.458	103.19
461.678	95.19
461.898	91.19
462.118	97.19
462.338	82.19
462.558	102.19
462.777	98.19
462.997	93.19
463.217	100.19
463.437	118.19
463.657	178.19
463.876	177.19
464.096	117.19
464.316	97.19
464.536	89.19
464.755	97.19
464.975	83.19
465.195	98.19
465.414	95.19
465.634	98.19
465.854	93.19
466.073	83.19
466.293	91.19
466.512	102.19
466.732	81.19
466.951	110.19
467.171	129.19
467.391	131.19
467.61	110.19
467.829	98.19
468.049	89.19
468.268	96.19
468.488	85.19
468.707	98.19
468.927	87.19
469.146	99.19
469.365	98.19
469.585	94.19
469.804	89.19
470.023	88.19
470.243	85.19
470.462	106.19
470.681	98.19
470.901	124.19
471.12	174.19
471.339	169.19
471.558	141.19
471.777	107.19
471.997	94.19
472.216	87.19
472.435	83.19
472.654	88.19
472.873	95.19
473.092	103.19
473.311	99.19
473.53	102.19
473.749	86.19
473.968	101.19
474.187	98.19
474.406	87.19
474.625	96.19
474.844	93.19
475.063	90.19
475.282	85.19
475.501	89.19
475.72	101.19
475.939	101.19
476.158	96.19
476.377	128.19
476.596	108.19
476.814	90.19
477.033	106.19
477.252	106.19
477.471	94.19
477.69	90.19
477.908	99.19
478.127	104.19
478.346	90.19
478.564	91.19
478.783	96.19
479.002	94.19
479.22	82.19
479.439	89.19
479.658	92.19
479.876	79.19
480.095	94.19
480.313	110.19
480.532	91.19
480.751	87.19
480.969	90.19
481.188	103.19
481.406	77.19
481.624	98.19
481.843	103.19
482.061	92.19
482.28	106.19
482.498	96.19
482.717	100.19
482.935	91.19
483.153	102.19
483.372	102.19
483.59	108.19
483.808	109.19
484.027	112.19
484.245	123.19
484.463	158.19
484.681	216.19
484.9	146.19
485.118	114.19
485.336	112.19
485.554	106.19
485.772	116.19
485.99	178.19
486.209	225.19
486.427	139.19
486.645	114.19
486.863	111.19
487.081	97.19
487.299	95.19
487.517	98.19
487.735	107.19
487.953	95.19
488.171	100.19
488.389	96.19
488.607	102.19
488.825	102.19
489.043	89.19
489.261	99.19
489.479	103.19
489.696	104.19
489.914	96.19
490.132	94.19
490.35	94.19
490.568	108.19
490.786	103.19
491.003	99.19
491.221	102.19
491.439	108.19
491.657	95.19
491.874	96.19
492.092	105.19
492.31	114.19
492.527	96.19
492.745	106.19
492.963	100.19
493.18	117.19
493.398	103.19
493.615	91.19
493.833	102.19
494.05	89.19
494.268	94.19
494.485	114.19
494.703	105.19
494.92	101.19
495.138	97.19
495.355	99.19
495.573	106.19
495.79	106.19
496.008	96.19
496.225	97.19
496.442	117.19
496.66	102.19
496.877	148.19
497.094	136.19
497.312	106.19
497.529	94.19
497.746	102.19
497.963	93.19
498.181	104.19
498.398	89.19
498.615	107.19
498.832	111.19
499.049	107.19
499.267	126.19
499.484	138.19
499.701	112.19
499.918	92.19
500.135	104.19
500.352	102.19
500.569	107.19
500.786	110.19
501.003	114.19
501.22	107.19
501.437	105.19
501.654	107.19
501.871	100.19
502.088	90.19
502.305	98.19
502.522	81.19
502.739	94.19
502.956	116.19
503.172	84.19
503.389	84.19
503.606	87.19
503.823	91.19
504.04	103.19
504.256	98.19
504.473	95.19
504.69	105.19
504.907	87.19
505.123	97.19
505.34	107.19
505.557	98.19
505.773	104.19
505.99	99.19
506.207	117.19
506.423	92.19
506.64	112.19
506.856	101.19
507.073	96.19
507.289	95.19
507.506	91.19
507.722	90.19
507.939	95.19
508.155	110.19
508.372	105.19
508.588	95.19
508.805	103.19
509.021	100.19
509.238	96.19
509.454	124.19
