Data from SnStandardFlinnAPT0064_LampEnergy10_LIBS07252019.E.O._I.C._HRD10591_15-20-00-493.txt Node
Date: Thu Jul 25 15:20:00 EDT 2019
User: cochatt
Spectrometer: HR+D1059
Trigger mode: 1
Integration Time (sec): 1.000000E-1
Scans to average: 1
Electric dark correction enabled: true
Nonlinearity correction enabled: false
Boxcar width: 0
XAxis mode: Wavelengths
Number of Pixels in Spectrum: 2048
>>>>>Begin Spectral Data<<<<<
223.165	-15.69
223.4	-15.69
223.635	-15.69
223.869	-7.69
224.104	-12.69
224.338	-9.69
224.573	-4.69
224.808	-22.69
225.042	-15.69
225.277	-11.69
225.511	-9.69
225.746	13.31
225.98	4.31
226.215	12.31
226.449	10.31
226.683	17.31
226.918	16.31
227.152	36.31
227.387	33.31
227.621	30.31
227.856	49.31
228.09	51.31
228.324	60.31
228.559	67.31
228.793	125.31
229.027	313.31
229.262	349.31
229.496	319.31
229.73	307.31
229.964	304.31
230.199	326.31
230.433	318.31
230.667	320.31
230.901	340.31
231.136	355.31
231.37	359.31
231.604	387.31
231.838	461.31
232.072	534.31
232.306	557.31
232.541	480.31
232.775	425.31
233.009	438.31
233.243	434.31
233.477	456.31
233.711	526.31
233.945	590.31
234.179	516.31
234.413	461.31
234.647	442.31
234.881	446.31
235.115	537.31
235.349	613.31
235.583	756.31
235.817	1025.31
236.051	981.31
236.285	657.31
236.519	550.31
236.753	524.31
236.987	514.31
237.221	532.31
237.455	533.31
237.689	487.31
237.922	452.31
238.156	502.31
238.39	504.31
238.624	515.31
238.858	500.31
239.091	501.31
239.325	512.31
239.559	517.31
239.793	513.31
240.027	530.31
240.26	552.31
240.494	564.31
240.728	602.31
240.961	628.31
241.195	675.31
241.429	722.31
241.662	724.31
241.896	800.31
242.13	974.31
242.363	1257.31
242.597	1627.31
242.83	1560.31
243.064	1533.31
243.298	1782.31
243.531	1482.31
243.765	944.31
243.998	772.31
244.232	701.31
244.465	680.31
244.699	669.31
244.932	671.31
245.166	672.31
245.399	674.31
245.633	699.31
245.866	700.31
246.099	702.31
246.333	673.31
246.566	637.31
246.8	648.31
247.033	646.31
247.266	663.31
247.5	662.31
247.733	683.31
247.966	740.31
248.2	759.31
248.433	895.31
248.666	1003.31
248.899	991.31
249.133	884.31
249.366	877.31
249.599	949.31
249.832	1104.31
250.066	1126.31
250.299	885.31
250.532	803.31
250.765	757.31
250.998	733.31
251.231	736.31
251.465	733.31
251.698	754.31
251.931	756.31
252.164	762.31
252.397	788.31
252.63	790.31
252.863	813.31
253.096	795.31
253.329	779.31
253.562	784.31
253.795	774.31
254.028	839.31
254.261	837.31
254.494	902.31
254.727	1013.31
254.96	1222.31
255.193	1221.31
255.426	998.31
255.659	921.31
255.892	900.31
256.124	882.31
256.357	908.31
256.59	928.31
256.823	999.31
257.056	1137.31
257.289	1318.31
257.521	1508.31
257.754	1207.31
257.987	971.31
258.22	915.31
258.452	916.31
258.685	912.31
258.918	970.31
259.151	996.31
259.383	1094.31
259.616	1238.31
259.849	1277.31
260.081	1095.31
260.314	1001.31
260.547	987.31
260.779	938.31
261.012	945.31
261.244	939.31
261.477	968.31
261.71	1005.31
261.942	1018.31
262.175	989.31
262.407	1029.31
262.64	1064.31
262.872	1109.31
263.105	1116.31
263.337	1216.31
263.57	1252.31
263.802	1297.31
264.035	1292.31
264.267	1321.31
264.499	1363.31
264.732	1430.31
264.964	1453.31
265.197	1429.31
265.429	1418.31
265.661	1423.31
265.894	1563.31
266.126	1753.31
266.358	1941.31
266.591	1920.31
266.823	1592.31
267.055	1428.31
267.287	1378.31
267.52	1342.31
267.752	1308.31
267.984	1262.31
268.216	1305.31
268.448	1254.31
268.681	1225.31
268.913	1248.31
269.145	1248.31
269.377	1244.31
269.609	1280.31
269.841	1323.31
270.073	1392.31
270.306	1630.31
270.538	2168.31
270.77	3225.31
271.002	3980.31
271.234	2828.31
271.466	1921.31
271.698	1582.31
271.93	1396.31
272.162	1347.31
272.394	1294.31
272.626	1287.31
272.858	1257.31
273.09	1238.31
273.322	1271.31
273.553	1220.31
273.785	1198.31
274.017	1195.31
274.249	1215.31
274.481	1221.31
274.713	1240.31
274.945	1222.31
275.176	1230.31
275.408	1237.31
275.64	1251.31
275.872	1231.31
276.104	1292.31
276.335	1237.31
276.567	1269.31
276.799	1294.31
277.031	1313.31
277.262	1334.31
277.494	1414.31
277.726	1551.31
277.957	1871.31
278.189	2112.31
278.421	2050.31
278.652	1751.31
278.884	1730.31
279.115	1542.31
279.347	1442.31
279.579	1447.31
279.81	1405.31
280.042	1437.31
280.273	1432.31
280.505	1485.31
280.736	1492.31
280.968	1602.31
281.199	1797.31
281.431	2099.31
281.662	2125.31
281.894	1819.31
282.125	1704.31
282.356	1693.31
282.588	1674.31
282.819	1761.31
283.051	1859.31
283.282	2056.31
283.513	2499.31
283.745	3616.31
283.976	5555.31
284.207	8019.31
284.439	7374.31
284.67	4731.31
284.901	3886.31
285.132	3768.31
285.364	3606.31
285.595	2800.31
285.826	2475.31
286.057	2864.31
286.288	3902.31
286.52	5235.31
286.751	4942.31
286.982	3152.31
287.213	2374.31
287.444	2056.31
287.675	1904.31
287.906	1814.31
288.138	1776.31
288.369	1723.31
288.6	1733.31
288.831	1694.31
289.062	1701.31
289.293	1728.31
289.524	1705.31
289.755	1742.31
289.986	1750.31
290.217	1732.31
290.448	1738.31
290.679	1793.31
290.91	1792.31
291.141	1917.31
291.371	2076.31
291.602	2177.31
291.833	1979.31
292.064	1765.31
292.295	1722.31
292.526	1678.31
292.757	1623.31
292.987	1605.31
293.218	1621.31
293.449	1648.31
293.68	1627.31
293.91	1604.31
294.141	1590.31
294.372	1587.31
294.603	1602.31
294.833	1592.31
295.064	1568.31
295.295	1586.31
295.525	1549.31
295.756	1580.31
295.987	1568.31
296.217	1559.31
296.448	1608.31
296.679	1558.31
296.909	1596.31
297.14	1638.31
297.37	1646.31
297.601	1605.31
297.831	1639.31
298.062	1681.31
298.292	1674.31
298.523	1730.31
298.753	1708.31
298.984	1702.31
299.214	1790.31
299.445	1795.31
299.675	1805.31
299.905	1862.31
300.136	1948.31
300.366	2155.31
300.597	2786.31
300.827	3785.31
301.057	5206.31
301.288	5262.31
301.518	3494.31
301.748	2706.31
301.979	2453.31
302.209	2327.31
302.439	2404.31
302.669	2457.31
302.9	2977.31
303.13	4169.31
303.36	6105.31
303.59	8130.31
303.82	7200.31
304.051	4340.31
304.281	3086.31
304.511	2601.31
304.741	2376.31
304.971	2208.31
305.201	2123.31
305.431	2006.31
305.661	1974.31
305.891	1924.31
306.121	1860.31
306.352	1904.31
306.582	1872.31
306.812	1847.31
307.042	1886.31
307.272	1859.31
307.502	1817.31
307.731	1844.31
307.961	1856.31
308.191	1831.31
308.421	1797.31
308.651	1872.31
308.881	1789.31
309.111	1810.31
309.341	1808.31
309.571	1852.31
309.8	1844.31
310.03	1883.31
310.26	1848.31
310.49	1916.31
310.72	1913.31
310.949	1858.31
311.179	1915.31
311.409	1954.31
311.639	1962.31
311.868	1910.31
312.098	1955.31
312.328	1978.31
312.557	1972.31
312.787	1948.31
313.017	2005.31
313.246	2015.31
313.476	2048.31
313.706	2091.31
313.935	2208.31
314.165	2375.31
314.394	2486.31
314.624	2365.31
314.853	2215.31
315.083	2205.31
315.312	2199.31
315.542	2214.31
315.771	2250.31
316.001	2295.31
316.23	2336.31
316.46	2484.31
316.689	2720.31
316.919	3234.31
317.148	4622.31
317.377	7090.31
317.607	10277.31
317.836	10723.31
318.065	6747.31
318.295	4396.31
318.524	3560.31
318.753	3118.31
318.983	2808.31
319.212	2609.31
319.441	2556.31
319.67	2492.31
319.9	2423.31
320.129	2378.31
320.358	2424.31
320.587	2356.31
320.816	2408.31
321.046	2348.31
321.275	2405.31
321.504	2393.31
321.733	2444.31
321.962	2522.31
322.191	2528.31
322.42	2588.31
322.649	2528.31
322.878	2540.31
323.108	2500.31
323.337	2609.31
323.566	2571.31
323.795	2643.31
324.024	2701.31
324.253	2763.31
324.482	2853.31
324.71	3084.31
324.939	3258.31
325.168	3349.31
325.397	3495.31
325.626	4151.31
325.855	5603.31
326.084	8679.31
326.313	12660.31
326.542	13362.31
326.77	9244.31
326.999	6192.31
327.228	5158.31
327.457	4849.31
327.686	4900.31
327.914	5224.31
328.143	6121.31
328.372	7205.31
328.6	7967.31
328.829	7128.31
329.058	6016.31
329.287	5212.31
329.515	4734.31
329.744	4382.31
329.972	4179.31
330.201	3962.31
330.43	3754.31
330.658	3663.31
330.887	3546.31
331.115	3582.31
331.344	3516.31
331.572	3452.31
331.801	3560.31
332.03	3540.31
332.258	3561.31
332.486	3751.31
332.715	4398.31
332.943	5320.31
333.172	6555.31
333.4	6590.31
333.629	5067.31
333.857	4582.31
334.085	4556.31
334.314	4821.31
334.542	5187.31
334.771	6170.31
334.999	7493.31
335.227	9402.31
335.455	10638.31
335.684	9659.31
335.912	7867.31
336.14	6667.31
336.369	5875.31
336.597	5346.31
336.825	4898.31
337.053	4603.31
337.281	4344.31
337.51	4096.31
337.738	3922.31
337.966	3820.31
338.194	3641.31
338.422	3526.31
338.65	3413.31
338.878	3376.31
339.106	3242.31
339.334	3220.31
339.562	3195.31
339.79	3049.31
340.018	3062.31
340.246	3062.31
340.474	3014.31
340.702	3015.31
340.93	3043.31
341.158	3058.31
341.386	3004.31
341.614	3056.31
341.842	2921.31
342.07	2810.31
342.298	2781.31
342.526	2790.31
342.754	2772.31
342.981	2766.31
343.209	2780.31
343.437	2770.31
343.665	2780.31
343.893	2813.31
344.12	2868.31
344.348	2764.31
344.576	2757.31
344.804	2712.31
345.031	2636.31
345.259	2644.31
345.487	2614.31
345.714	2586.31
345.942	2543.31
346.17	2530.31
346.397	2515.31
346.625	2534.31
346.853	2550.31
347.08	2534.31
347.308	2601.31
347.535	2531.31
347.763	2554.31
347.99	2512.31
348.218	2492.31
348.445	2507.31
348.673	2452.31
348.9	2470.31
349.128	2480.31
349.355	2451.31
349.583	2483.31
349.81	2424.31
350.037	2394.31
350.265	2422.31
350.492	2420.31
350.72	2435.31
350.947	2359.31
351.174	2388.31
351.402	2450.31
351.629	2403.31
351.856	2400.31
352.083	2390.31
352.311	2412.31
352.538	2381.31
352.765	2413.31
352.992	2387.31
353.22	2344.31
353.447	2336.31
353.674	2409.31
353.901	2423.31
354.128	2409.31
354.355	2383.31
354.583	2478.31
354.81	2477.31
355.037	2482.31
355.264	2452.31
355.491	2474.31
355.718	2460.31
355.945	2471.31
356.172	2465.31
356.399	2489.31
356.626	2460.31
356.853	2526.31
357.08	2525.31
357.307	2548.31
357.534	2588.31
357.761	2611.31
357.988	2609.31
358.215	2570.31
358.441	2556.31
358.668	2565.31
358.895	2584.31
359.122	2568.31
359.349	2528.31
359.576	2563.31
359.802	2547.31
360.029	2540.31
360.256	2568.31
360.483	2563.31
360.709	2566.31
360.936	2549.31
361.163	2565.31
361.39	2531.31
361.616	2570.31
361.843	2539.31
362.07	2564.31
362.296	2629.31
362.523	2584.31
362.749	2589.31
362.976	2509.31
363.203	2613.31
363.429	2541.31
363.656	2568.31
363.882	2597.31
364.109	2588.31
364.335	2517.31
364.562	2597.31
364.788	2566.31
365.015	2584.31
365.241	2600.31
365.468	2778.31
365.694	2936.31
365.92	2854.31
366.147	2690.31
366.373	2648.31
366.599	2649.31
366.826	2617.31
367.052	2550.31
367.278	2632.31
367.505	2618.31
367.731	2582.31
367.957	2603.31
368.184	2653.31
368.41	2671.31
368.636	2685.31
368.862	2684.31
369.089	2680.31
369.315	2666.31
369.541	2608.31
369.767	2617.31
369.993	2626.31
370.219	2640.31
370.445	2638.31
370.672	2664.31
370.898	2664.31
371.124	2683.31
371.35	2713.31
371.576	2736.31
371.802	2739.31
372.028	2699.31
372.254	2770.31
372.48	2754.31
372.706	2770.31
372.932	2837.31
373.158	2752.31
373.384	2774.31
373.61	2753.31
373.835	2782.31
374.061	2826.31
374.287	2818.31
374.513	2851.31
374.739	2910.31
374.965	2871.31
375.191	2913.31
375.416	2922.31
375.642	2803.31
375.868	2789.31
376.094	2832.31
376.319	2765.31
376.545	2782.31
376.771	2741.31
376.997	2761.31
377.222	2709.31
377.448	2673.31
377.674	2714.31
377.899	2749.31
378.125	2736.31
378.35	2717.31
378.576	2743.31
378.802	2781.31
379.027	2821.31
379.253	2906.31
379.478	3023.31
379.704	3590.31
379.929	5088.31
380.155	7691.31
380.38	8572.31
380.606	5380.31
380.831	3776.31
381.057	3282.31
381.282	2974.31
381.507	2875.31
381.733	2819.31
381.958	2744.31
382.184	2747.31
382.409	2712.31
382.634	2725.31
382.86	2713.31
383.085	2681.31
383.31	2709.31
383.535	2709.31
383.761	2699.31
383.986	2730.31
384.211	2815.31
384.436	2828.31
384.662	2824.31
384.887	2815.31
385.112	2756.31
385.337	2820.31
385.562	2746.31
385.787	2758.31
386.013	2820.31
386.238	2800.31
386.463	2825.31
386.688	2805.31
386.913	2731.31
387.138	2775.31
387.363	2836.31
387.588	2759.31
387.813	2765.31
388.038	2754.31
388.263	2762.31
388.488	2737.31
388.713	2786.31
388.938	2767.31
389.163	2728.31
389.387	2817.31
389.612	2731.31
389.837	2723.31
390.062	2770.31
390.287	2830.31
390.512	2820.31
390.736	2862.31
390.961	2851.31
391.186	2854.31
391.411	2898.31
391.636	2937.31
391.86	2956.31
392.085	2950.31
392.31	2878.31
392.534	2860.31
392.759	2826.31
392.984	2832.31
393.208	2847.31
393.433	2798.31
393.658	2818.31
393.882	2825.31
394.107	2816.31
394.331	2822.31
394.556	2857.31
394.78	2824.31
395.005	2810.31
395.229	2783.31
395.454	2884.31
395.678	2890.31
395.903	2909.31
396.127	2943.31
396.352	2912.31
396.576	2826.31
396.801	2871.31
397.025	2950.31
397.249	2900.31
397.474	2901.31
397.698	2910.31
397.922	2948.31
398.147	2952.31
398.371	3000.31
398.595	3040.31
398.82	3094.31
399.044	3237.31
399.268	3360.31
399.492	3507.31
399.717	3664.31
399.941	3640.31
400.165	3536.31
400.389	3406.31
400.613	3238.31
400.837	3186.31
401.062	3130.31
401.286	3108.31
401.51	3067.31
401.734	2997.31
401.958	3056.31
402.182	3094.31
402.406	3064.31
402.63	3080.31
402.854	3110.31
403.078	3122.31
403.302	3154.31
403.526	3150.31
403.75	3176.31
403.974	3199.31
404.198	3168.31
404.422	3148.31
404.645	3119.31
404.869	3182.31
405.093	3165.31
405.317	3169.31
405.541	3214.31
405.765	3222.31
405.988	3299.31
406.212	3294.31
406.436	3239.31
406.66	3257.31
406.883	3295.31
407.107	3371.31
407.331	3420.31
407.555	3448.31
407.778	3450.31
408.002	3421.31
408.226	3355.31
408.449	3381.31
408.673	3309.31
408.896	3272.31
409.12	3261.31
409.344	3270.31
409.567	3195.31
409.791	3185.31
410.014	3200.31
410.238	3170.31
410.461	3184.31
410.685	3118.31
410.908	3135.31
411.132	3078.31
411.355	3023.31
411.578	3105.31
411.802	3068.31
412.025	3038.31
412.249	3098.31
412.472	3087.31
412.695	3026.31
412.919	3018.31
413.142	3018.31
413.365	3004.31
413.589	3040.31
413.812	2976.31
414.035	2958.31
414.258	3018.31
414.482	3002.31
414.705	3032.31
414.928	2964.31
415.151	3010.31
415.374	2968.31
415.597	2949.31
415.821	2888.31
416.044	2869.31
416.267	2884.31
416.49	2888.31
416.713	2844.31
416.936	2849.31
417.159	2852.31
417.382	2827.31
417.605	2798.31
417.828	2859.31
418.051	2890.31
418.274	2851.31
418.497	2884.31
418.72	2972.31
418.943	2894.31
419.166	3085.31
419.389	3209.31
419.611	3169.31
419.834	3009.31
420.057	3019.31
420.28	2912.31
420.503	2860.31
420.726	2859.31
420.948	2881.31
421.171	2894.31
421.394	2890.31
421.617	2873.31
421.839	2868.31
422.062	2936.31
422.285	2854.31
422.507	2972.31
422.73	2912.31
422.953	2990.31
423.175	2996.31
423.398	2980.31
423.621	2902.31
423.843	2932.31
424.066	2928.31
424.288	2885.31
424.511	2923.31
424.733	2867.31
424.956	2870.31
425.178	2912.31
425.401	2793.31
425.623	2854.31
425.846	2778.31
426.068	2787.31
426.291	2760.31
426.513	2762.31
426.735	2722.31
426.958	2796.31
427.18	2682.31
427.402	2744.31
427.625	2749.31
427.847	2670.31
428.069	2667.31
428.292	2674.31
428.514	2700.31
428.736	2651.31
428.958	2717.31
429.181	2637.31
429.403	2638.31
429.625	2662.31
429.847	2692.31
430.069	2707.31
430.292	2848.31
430.514	2873.31
430.736	2859.31
430.958	2730.31
431.18	2616.31
431.402	2668.31
431.624	2596.31
431.846	2652.31
432.068	2615.31
432.29	2688.31
432.512	2570.31
432.734	2686.31
432.956	2652.31
433.178	2658.31
433.4	2600.31
433.622	2649.31
433.844	2696.31
434.066	2630.31
434.287	2648.31
434.509	2690.31
434.731	2712.31
434.953	2777.31
435.175	2771.31
435.397	2784.31
435.618	2737.31
435.84	2663.31
436.062	2612.31
436.284	2660.31
436.505	2591.31
436.727	2600.31
436.949	2622.31
437.17	2612.31
437.392	2577.31
437.614	2534.31
437.835	2534.31
438.057	2567.31
438.278	2528.31
438.5	2569.31
438.721	2626.31
438.943	2703.31
439.165	2749.31
439.386	2744.31
439.608	2786.31
439.829	2748.31
440.05	2860.31
440.272	2889.31
440.493	2802.31
440.715	2721.31
440.936	2737.31
441.158	2774.31
441.379	2778.31
441.6	2896.31
441.822	2959.31
442.043	3122.31
442.264	3165.31
442.486	2960.31
442.707	2868.31
442.928	2826.31
443.149	2866.31
443.371	2803.31
443.592	2848.31
443.813	2836.31
444.034	2862.31
444.255	2887.31
444.476	2896.31
444.698	3020.31
444.919	3081.31
445.14	3118.31
445.361	2944.31
445.582	2878.31
445.803	2821.31
446.024	2834.31
446.245	2797.31
446.466	2836.31
446.687	2730.31
446.908	2759.31
447.129	2676.31
447.35	2650.31
447.571	2649.31
447.792	2601.31
448.013	2627.31
448.234	2583.31
448.455	2596.31
448.675	2665.31
448.896	2706.31
449.117	2811.31
449.338	3038.31
449.559	3156.31
449.779	2849.31
450	2658.31
450.221	2553.31
450.442	2584.31
450.662	2573.31
450.883	2556.31
451.104	2604.31
451.324	2498.31
451.545	2576.31
451.766	2572.31
451.986	2642.31
452.207	2801.31
452.428	3625.31
452.648	5483.31
452.869	4613.31
453.089	3242.31
453.31	2944.31
453.53	2958.31
453.751	3053.31
453.971	3145.31
454.192	3069.31
454.412	2705.31
454.633	2557.31
454.853	2522.31
455.073	2480.31
455.294	2502.31
455.514	2461.31
455.734	2456.31
455.955	2388.31
456.175	2434.31
456.395	2420.31
456.616	2458.31
456.836	2486.31
457.056	2477.31
457.276	2517.31
457.497	2604.31
457.717	2673.31
457.937	2576.31
458.157	2566.31
458.377	2610.31
458.598	2619.31
458.818	2603.31
459.038	2632.31
459.258	2644.31
459.478	2640.31
459.698	2668.31
459.918	2727.31
460.138	2731.31
460.358	2776.31
460.578	2860.31
460.798	2806.31
461.018	2868.31
461.238	2875.31
461.458	2886.31
461.678	2917.31
461.898	3018.31
462.118	3016.31
462.338	3049.31
462.558	3064.31
462.777	3134.31
462.997	3220.31
463.217	3417.31
463.437	3497.31
463.657	3548.31
463.876	3510.31
464.096	3398.31
464.316	3260.31
464.536	3165.31
464.755	3072.31
464.975	3012.31
465.195	2961.31
465.414	2838.31
465.634	2795.31
465.854	2740.31
466.073	2703.31
466.293	2673.31
466.512	2694.31
466.732	2693.31
466.951	2783.31
467.171	2983.31
467.391	2928.31
467.61	2770.31
467.829	2631.31
468.049	2580.31
468.268	2530.31
468.488	2561.31
468.707	2585.31
468.927	2645.31
469.146	2617.31
469.365	2702.31
469.585	2646.31
469.804	2688.31
470.023	2750.31
470.243	2786.31
470.462	2910.31
470.681	3027.31
470.901	3274.31
471.12	3732.31
471.339	3785.31
471.558	3175.31
471.777	2946.31
471.997	2823.31
472.216	2728.31
472.435	2665.31
472.654	2592.31
472.873	2544.31
473.092	2605.31
473.311	2605.31
473.53	2678.31
473.749	2684.31
473.968	2797.31
474.187	2681.31
474.406	2567.31
474.625	2611.31
474.844	2629.31
475.063	2592.31
475.282	2563.31
475.501	2659.31
475.72	2661.31
475.939	2682.31
476.158	2758.31
476.377	2835.31
476.596	2780.31
476.814	2765.31
477.033	2790.31
477.252	2783.31
477.471	2845.31
477.69	2953.31
477.908	2936.31
478.127	2974.31
478.346	2952.31
478.564	3017.31
478.783	3026.31
479.002	3104.31
479.22	3104.31
479.439	3147.31
479.658	3120.31
479.876	3148.31
480.095	3153.31
480.313	3259.31
480.532	3284.31
480.751	3286.31
480.969	3201.31
481.188	3117.31
481.406	3178.31
481.624	3173.31
481.843	3188.31
482.061	3173.31
482.28	3158.31
482.498	3173.31
482.717	3165.31
482.935	3253.31
483.153	3233.31
483.372	3288.31
483.59	3334.31
483.808	3352.31
484.027	3459.31
484.245	3638.31
484.463	4050.31
484.681	4466.31
484.9	4111.31
485.118	3842.31
485.336	3804.31
485.554	3796.31
485.772	4067.31
485.99	4475.31
486.209	4804.31
486.427	4210.31
486.645	3705.31
486.863	3617.31
487.081	3500.31
487.299	3444.31
487.517	3435.31
487.735	3378.31
