Data from SnStandardFlinnAPT0064_LampEnergy5.5_LIBS07252019.E.O._I.C._HRD10591_15-16-07-491.txt Node
Date: Thu Jul 25 15:16:07 EDT 2019
User: cochatt
Spectrometer: HR+D1059
Trigger mode: 1
Integration Time (sec): 1.000000E-1
Scans to average: 1
Electric dark correction enabled: true
Nonlinearity correction enabled: false
Boxcar width: 0
XAxis mode: Wavelengths
Number of Pixels in Spectrum: 2048
>>>>>Begin Spectral Data<<<<<
223.165	-4.12
223.4	-4.12
223.635	-4.12
223.869	-23.12
224.104	-13.12
224.338	-26.12
224.573	-15.12
224.808	-21.12
225.042	-4.12
225.277	5.88
225.511	8.88
225.746	13.88
225.98	-0.12
226.215	6.88
226.449	2.88
226.683	23.88
226.918	20.88
227.152	23.88
227.387	32.88
227.621	45.88
227.856	33.88
228.09	40.88
228.324	51.88
228.559	60.88
228.793	84.88
229.027	154.88
229.262	163.88
229.496	164.88
229.73	152.88
229.964	154.88
230.199	150.88
230.433	161.88
230.667	172.88
230.901	167.88
231.136	168.88
231.37	172.88
231.604	181.88
231.838	201.88
232.072	213.88
232.306	235.88
232.541	228.88
232.775	215.88
233.009	211.88
233.243	221.88
233.477	236.88
233.711	253.88
233.945	262.88
234.179	217.88
234.413	201.88
234.647	216.88
234.881	228.88
235.115	241.88
235.349	285.88
235.583	345.88
235.817	427.88
236.051	414.88
236.285	308.88
236.519	261.88
236.753	233.88
236.987	253.88
237.221	255.88
237.455	240.88
237.689	202.88
237.922	232.88
238.156	221.88
238.39	241.88
238.624	226.88
238.858	251.88
239.091	223.88
239.325	231.88
239.559	242.88
239.793	254.88
240.027	255.88
240.26	253.88
240.494	260.88
240.728	253.88
240.961	275.88
241.195	307.88
241.429	297.88
241.662	311.88
241.896	329.88
242.13	388.88
242.363	493.88
242.597	625.88
242.83	629.88
243.064	606.88
243.298	695.88
243.531	598.88
243.765	413.88
243.998	347.88
244.232	306.88
244.465	320.88
244.699	304.88
244.932	298.88
245.166	289.88
245.399	294.88
245.633	321.88
245.866	324.88
246.099	320.88
246.333	298.88
246.566	313.88
246.8	289.88
247.033	298.88
247.266	298.88
247.5	292.88
247.733	307.88
247.966	319.88
248.2	350.88
248.433	374.88
248.666	394.88
248.899	393.88
249.133	371.88
249.366	354.88
249.599	395.88
249.832	459.88
250.066	429.88
250.299	360.88
250.532	354.88
250.765	339.88
250.998	347.88
251.231	335.88
251.465	341.88
251.698	346.88
251.931	320.88
252.164	337.88
252.397	351.88
252.63	348.88
252.863	355.88
253.096	343.88
253.329	333.88
253.562	362.88
253.795	337.88
254.028	360.88
254.261	360.88
254.494	395.88
254.727	427.88
254.96	498.88
255.193	486.88
255.426	399.88
255.659	375.88
255.892	382.88
256.124	373.88
256.357	365.88
256.59	396.88
256.823	423.88
257.056	463.88
257.289	514.88
257.521	585.88
257.754	488.88
257.987	408.88
258.22	423.88
258.452	396.88
258.685	398.88
258.918	422.88
259.151	426.88
259.383	465.88
259.616	517.88
259.849	501.88
260.081	467.88
260.314	444.88
260.547	429.88
260.779	439.88
261.012	415.88
261.244	448.88
261.477	455.88
261.71	424.88
261.942	449.88
262.175	448.88
262.407	465.88
262.64	466.88
262.872	499.88
263.105	513.88
263.337	554.88
263.57	559.88
263.802	569.88
264.035	593.88
264.267	570.88
264.499	631.88
264.732	639.88
264.964	641.88
265.197	633.88
265.429	620.88
265.661	665.88
265.894	685.88
266.126	730.88
266.358	841.88
266.591	773.88
266.823	692.88
267.055	617.88
267.287	595.88
267.52	599.88
267.752	575.88
267.984	574.88
268.216	573.88
268.448	562.88
268.681	559.88
268.913	540.88
269.145	562.88
269.377	563.88
269.609	528.88
269.841	539.88
270.073	577.88
270.306	667.88
270.538	869.88
270.77	1219.88
271.002	1461.88
271.234	1077.88
271.466	749.88
271.698	636.88
271.93	583.88
272.162	575.88
272.394	555.88
272.626	548.88
272.858	528.88
273.09	552.88
273.322	543.88
273.553	524.88
273.785	528.88
274.017	516.88
274.249	529.88
274.481	541.88
274.713	535.88
274.945	531.88
275.176	526.88
275.408	531.88
275.64	558.88
275.872	541.88
276.104	545.88
276.335	556.88
276.567	556.88
276.799	557.88
277.031	541.88
277.262	557.88
277.494	590.88
277.726	643.88
277.957	708.88
278.189	796.88
278.421	747.88
278.652	688.88
278.884	684.88
279.115	623.88
279.347	604.88
279.579	602.88
279.81	610.88
280.042	601.88
280.273	605.88
280.505	610.88
280.736	606.88
280.968	632.88
281.199	689.88
281.431	781.88
281.662	794.88
281.894	722.88
282.125	691.88
282.356	671.88
282.588	698.88
282.819	706.88
283.051	747.88
283.282	846.88
283.513	979.88
283.745	1402.88
283.976	2155.88
284.207	3051.88
284.439	2647.88
284.67	1676.88
284.901	1349.88
285.132	1316.88
285.364	1284.88
285.595	1059.88
285.826	963.88
286.057	1073.88
286.288	1454.88
286.52	1946.88
286.751	1780.88
286.982	1146.88
287.213	926.88
287.444	817.88
287.675	770.88
287.906	727.88
288.138	713.88
288.369	716.88
288.6	720.88
288.831	699.88
289.062	681.88
289.293	722.88
289.524	720.88
289.755	704.88
289.986	721.88
290.217	719.88
290.448	706.88
290.679	704.88
290.91	732.88
291.141	771.88
291.371	785.88
291.602	808.88
291.833	784.88
292.064	729.88
292.295	693.88
292.526	696.88
292.757	695.88
292.987	676.88
293.218	677.88
293.449	681.88
293.68	687.88
293.91	676.88
294.141	680.88
294.372	663.88
294.603	676.88
294.833	695.88
295.064	679.88
295.295	679.88
295.525	669.88
295.756	680.88
295.987	646.88
296.217	665.88
296.448	659.88
296.679	664.88
296.909	667.88
297.14	675.88
297.37	710.88
297.601	701.88
297.831	701.88
298.062	677.88
298.292	706.88
298.523	729.88
298.753	711.88
298.984	715.88
299.214	725.88
299.445	732.88
299.675	737.88
299.905	772.88
300.136	793.88
300.366	863.88
300.597	1073.88
300.827	1452.88
301.057	1910.88
301.288	1879.88
301.518	1275.88
301.748	1029.88
301.979	929.88
302.209	892.88
302.439	907.88
302.669	963.88
302.9	1124.88
303.13	1551.88
303.36	2193.88
303.59	2871.88
303.82	2625.88
304.051	1579.88
304.281	1159.88
304.511	977.88
304.741	920.88
304.971	886.88
305.201	817.88
305.431	834.88
305.661	805.88
305.891	801.88
306.121	761.88
306.352	771.88
306.582	786.88
306.812	794.88
307.042	767.88
307.272	769.88
307.502	770.88
307.731	779.88
307.961	770.88
308.191	778.88
308.421	766.88
308.651	730.88
308.881	781.88
309.111	758.88
309.341	765.88
309.571	748.88
309.8	789.88
310.03	800.88
310.26	780.88
310.49	773.88
310.72	799.88
310.949	811.88
311.179	810.88
311.409	807.88
311.639	801.88
311.868	819.88
312.098	823.88
312.328	823.88
312.557	847.88
312.787	826.88
313.017	811.88
313.246	852.88
313.476	820.88
313.706	849.88
313.935	891.88
314.165	953.88
314.394	970.88
314.624	927.88
314.853	890.88
315.083	886.88
315.312	903.88
315.542	909.88
315.771	880.88
316.001	923.88
316.23	928.88
316.46	972.88
316.689	1081.88
316.919	1248.88
317.148	1797.88
317.377	2645.88
317.607	3835.88
317.836	4005.88
318.065	2405.88
318.295	1567.88
318.524	1304.88
318.753	1158.88
318.983	1061.88
319.212	1038.88
319.441	1017.88
319.67	1014.88
319.9	985.88
320.129	938.88
320.358	954.88
320.587	970.88
320.816	955.88
321.046	976.88
321.275	991.88
321.504	951.88
321.733	978.88
321.962	1021.88
322.191	1031.88
322.42	996.88
322.649	1009.88
322.878	1005.88
323.108	1023.88
323.337	1049.88
323.566	1059.88
323.795	1074.88
324.024	1106.88
324.253	1101.88
324.482	1139.88
324.71	1183.88
324.939	1251.88
325.168	1267.88
325.397	1356.88
325.626	1540.88
325.855	2116.88
326.084	3275.88
326.313	4789.88
326.542	5021.88
326.77	3243.88
326.999	2167.88
327.228	1845.88
327.457	1741.88
327.686	1801.88
327.914	1873.88
328.143	2132.88
328.372	2486.88
328.6	2649.88
328.829	2485.88
329.058	2196.88
329.287	1952.88
329.515	1780.88
329.744	1661.88
329.972	1589.88
330.201	1539.88
330.43	1475.88
330.658	1411.88
330.887	1432.88
331.115	1425.88
331.344	1409.88
331.572	1385.88
331.801	1407.88
332.03	1409.88
332.258	1421.88
332.486	1508.88
332.715	1659.88
332.943	1961.88
333.172	2378.88
333.4	2369.88
333.629	1892.88
333.857	1720.88
334.085	1747.88
334.314	1845.88
334.542	1951.88
334.771	2254.88
334.999	2646.88
335.227	3161.88
335.455	3544.88
335.684	3312.88
335.912	2824.88
336.14	2493.88
336.369	2205.88
336.597	2035.88
336.825	1864.88
337.053	1773.88
337.281	1664.88
337.51	1616.88
337.738	1566.88
337.966	1522.88
338.194	1440.88
338.422	1410.88
338.65	1348.88
338.878	1377.88
339.106	1281.88
339.334	1314.88
339.562	1297.88
339.79	1267.88
340.018	1258.88
340.246	1218.88
340.474	1240.88
340.702	1267.88
340.93	1259.88
341.158	1255.88
341.386	1263.88
341.614	1205.88
341.842	1187.88
342.07	1194.88
342.298	1174.88
342.526	1165.88
342.754	1146.88
342.981	1151.88
343.209	1140.88
343.437	1158.88
343.665	1165.88
343.893	1164.88
344.12	1179.88
344.348	1186.88
344.576	1144.88
344.804	1123.88
345.031	1072.88
345.259	1117.88
345.487	1086.88
345.714	1049.88
345.942	1084.88
346.17	1073.88
346.397	1065.88
346.625	1065.88
346.853	1035.88
347.08	1059.88
347.308	1060.88
347.535	1065.88
347.763	1055.88
347.99	1029.88
348.218	1059.88
348.445	1035.88
348.673	1031.88
348.9	1059.88
349.128	1015.88
349.355	1019.88
349.583	1035.88
349.81	1031.88
350.037	1027.88
350.265	1011.88
350.492	1014.88
350.72	1028.88
350.947	992.88
351.174	999.88
351.402	1045.88
351.629	996.88
351.856	995.88
352.083	1003.88
352.311	1026.88
352.538	988.88
352.765	987.88
352.992	1004.88
353.22	1010.88
353.447	995.88
353.674	986.88
353.901	1031.88
354.128	1026.88
354.355	1026.88
354.583	1024.88
354.81	1009.88
355.037	1011.88
355.264	1060.88
355.491	1019.88
355.718	1014.88
355.945	1036.88
356.172	1064.88
356.399	1054.88
356.626	1035.88
356.853	1040.88
357.08	1064.88
357.307	1066.88
357.534	1059.88
357.761	1057.88
357.988	1083.88
358.215	1076.88
358.441	1084.88
358.668	1056.88
358.895	1055.88
359.122	1050.88
359.349	1065.88
359.576	1078.88
359.802	1084.88
360.029	1067.88
360.256	1093.88
360.483	1059.88
360.709	1075.88
360.936	1060.88
361.163	1066.88
361.39	1076.88
361.616	1065.88
361.843	1091.88
362.07	1100.88
362.296	1079.88
362.523	1081.88
362.749	1081.88
362.976	1091.88
363.203	1100.88
363.429	1059.88
363.656	1067.88
363.882	1079.88
364.109	1060.88
364.335	1075.88
364.562	1048.88
364.788	1067.88
365.015	1105.88
365.241	1099.88
365.468	1141.88
365.694	1189.88
365.92	1131.88
366.147	1112.88
366.373	1099.88
366.599	1094.88
366.826	1090.88
367.052	1105.88
367.278	1086.88
367.505	1110.88
367.731	1144.88
367.957	1096.88
368.184	1110.88
368.41	1117.88
368.636	1146.88
368.862	1109.88
369.089	1105.88
369.315	1123.88
369.541	1138.88
369.767	1126.88
369.993	1119.88
370.219	1111.88
370.445	1112.88
370.672	1152.88
370.898	1127.88
371.124	1129.88
371.35	1145.88
371.576	1149.88
371.802	1138.88
372.028	1151.88
372.254	1191.88
372.48	1186.88
372.706	1159.88
372.932	1165.88
373.158	1188.88
373.384	1159.88
373.61	1183.88
373.835	1203.88
374.061	1169.88
374.287	1204.88
374.513	1201.88
374.739	1193.88
374.965	1215.88
375.191	1215.88
375.416	1209.88
375.642	1195.88
375.868	1220.88
376.094	1173.88
376.319	1181.88
376.545	1171.88
376.771	1156.88
376.997	1173.88
377.222	1138.88
377.448	1162.88
377.674	1154.88
377.899	1141.88
378.125	1171.88
378.35	1130.88
378.576	1163.88
378.802	1151.88
379.027	1193.88
379.253	1220.88
379.478	1260.88
379.704	1421.88
379.929	1977.88
380.155	2854.88
380.38	3046.88
380.606	1949.88
380.831	1434.88
381.057	1320.88
381.282	1229.88
381.507	1215.88
381.733	1171.88
381.958	1155.88
382.184	1176.88
382.409	1151.88
382.634	1175.88
382.86	1147.88
383.085	1156.88
383.31	1158.88
383.535	1145.88
383.761	1193.88
383.986	1192.88
384.211	1162.88
384.436	1195.88
384.662	1157.88
384.887	1188.88
385.112	1166.88
385.337	1187.88
385.562	1187.88
385.787	1213.88
386.013	1209.88
386.238	1190.88
386.463	1204.88
386.688	1191.88
386.913	1140.88
387.138	1175.88
387.363	1185.88
387.588	1188.88
387.813	1163.88
388.038	1203.88
388.263	1177.88
388.488	1171.88
388.713	1173.88
388.938	1208.88
389.163	1190.88
389.387	1194.88
389.612	1167.88
389.837	1191.88
390.062	1183.88
390.287	1217.88
390.512	1219.88
390.736	1217.88
390.961	1259.88
391.186	1241.88
391.411	1215.88
391.636	1236.88
391.86	1244.88
392.085	1245.88
392.31	1214.88
392.534	1269.88
392.759	1205.88
392.984	1193.88
393.208	1254.88
393.433	1248.88
393.658	1257.88
393.882	1220.88
394.107	1195.88
394.331	1197.88
394.556	1194.88
394.78	1229.88
395.005	1229.88
395.229	1226.88
395.454	1236.88
395.678	1226.88
395.903	1226.88
396.127	1227.88
396.352	1212.88
396.576	1233.88
396.801	1298.88
397.025	1284.88
397.249	1271.88
397.474	1267.88
397.698	1287.88
397.922	1281.88
398.147	1251.88
398.371	1246.88
398.595	1345.88
398.82	1343.88
399.044	1380.88
399.268	1441.88
399.492	1540.88
399.717	1565.88
399.941	1610.88
400.165	1525.88
400.389	1493.88
400.613	1422.88
400.837	1386.88
401.062	1358.88
401.286	1311.88
401.51	1354.88
401.734	1322.88
401.958	1337.88
402.182	1332.88
402.406	1346.88
402.63	1336.88
402.854	1330.88
403.078	1339.88
403.302	1324.88
403.526	1380.88
403.75	1382.88
403.974	1385.88
404.198	1346.88
404.422	1372.88
404.645	1357.88
404.869	1392.88
405.093	1367.88
405.317	1360.88
405.541	1371.88
405.765	1376.88
405.988	1391.88
406.212	1401.88
406.436	1371.88
406.66	1418.88
406.883	1398.88
407.107	1401.88
407.331	1485.88
407.555	1498.88
407.778	1485.88
408.002	1448.88
408.226	1440.88
408.449	1474.88
408.673	1426.88
408.896	1391.88
409.12	1381.88
409.344	1393.88
409.567	1370.88
409.791	1379.88
410.014	1341.88
410.238	1372.88
410.461	1362.88
410.685	1369.88
410.908	1367.88
411.132	1382.88
411.355	1311.88
411.578	1288.88
411.802	1331.88
412.025	1344.88
412.249	1296.88
412.472	1374.88
412.695	1317.88
412.919	1293.88
413.142	1282.88
413.365	1306.88
413.589	1315.88
413.812	1299.88
414.035	1273.88
414.258	1292.88
414.482	1267.88
414.705	1279.88
414.928	1267.88
415.151	1280.88
415.374	1264.88
415.597	1249.88
415.821	1215.88
416.044	1237.88
416.267	1260.88
416.49	1240.88
416.713	1274.88
416.936	1247.88
417.159	1219.88
417.382	1209.88
417.605	1233.88
417.828	1243.88
418.051	1274.88
418.274	1238.88
418.497	1257.88
418.72	1292.88
418.943	1256.88
419.166	1343.88
419.389	1418.88
419.611	1409.88
419.834	1343.88
420.057	1303.88
420.28	1245.88
420.503	1270.88
420.726	1234.88
420.948	1247.88
421.171	1255.88
421.394	1247.88
421.617	1232.88
421.839	1252.88
422.062	1294.88
422.285	1230.88
422.507	1271.88
422.73	1292.88
422.953	1290.88
423.175	1306.88
423.398	1280.88
423.621	1246.88
423.843	1271.88
424.066	1266.88
424.288	1285.88
424.511	1257.88
424.733	1265.88
424.956	1227.88
425.178	1219.88
425.401	1222.88
425.623	1247.88
425.846	1248.88
426.068	1205.88
426.291	1166.88
426.513	1199.88
426.735	1207.88
426.958	1208.88
427.18	1160.88
427.402	1212.88
427.625	1188.88
427.847	1159.88
428.069	1162.88
428.292	1178.88
428.514	1140.88
428.736	1158.88
428.958	1214.88
429.181	1124.88
429.403	1147.88
429.625	1147.88
429.847	1152.88
430.069	1177.88
430.292	1211.88
430.514	1236.88
430.736	1224.88
430.958	1171.88
431.18	1173.88
431.402	1153.88
431.624	1147.88
431.846	1132.88
432.068	1109.88
432.29	1152.88
432.512	1127.88
432.734	1127.88
432.956	1132.88
433.178	1167.88
433.4	1152.88
433.622	1159.88
433.844	1190.88
434.066	1148.88
434.287	1117.88
434.509	1179.88
434.731	1189.88
434.953	1185.88
435.175	1168.88
435.397	1220.88
435.618	1154.88
435.84	1161.88
436.062	1164.88
436.284	1148.88
436.505	1154.88
436.727	1127.88
436.949	1148.88
437.17	1133.88
437.392	1126.88
437.614	1105.88
437.835	1099.88
438.057	1093.88
438.278	1106.88
438.5	1136.88
438.721	1146.88
438.943	1159.88
439.165	1185.88
439.386	1195.88
439.608	1167.88
439.829	1208.88
440.05	1227.88
440.272	1233.88
440.493	1190.88
440.715	1184.88
440.936	1190.88
441.158	1240.88
441.379	1220.88
441.6	1266.88
441.822	1311.88
442.043	1329.88
442.264	1362.88
442.486	1271.88
442.707	1232.88
442.928	1259.88
443.149	1236.88
443.371	1190.88
443.592	1221.88
443.813	1268.88
444.034	1259.88
444.255	1259.88
444.476	1271.88
444.698	1321.88
444.919	1347.88
445.14	1377.88
445.361	1286.88
445.582	1281.88
445.803	1250.88
446.024	1198.88
446.245	1236.88
446.466	1241.88
446.687	1182.88
446.908	1207.88
447.129	1163.88
447.35	1189.88
447.571	1200.88
447.792	1151.88
448.013	1121.88
448.234	1107.88
448.455	1143.88
448.675	1130.88
448.896	1161.88
449.117	1199.88
449.338	1276.88
449.559	1311.88
449.779	1236.88
450	1159.88
450.221	1121.88
450.442	1131.88
450.662	1115.88
450.883	1091.88
451.104	1067.88
451.324	1098.88
451.545	1124.88
451.766	1096.88
451.986	1097.88
452.207	1200.88
452.428	1375.88
452.648	1895.88
452.869	1661.88
453.089	1249.88
453.31	1201.88
453.53	1184.88
453.751	1224.88
453.971	1286.88
454.192	1303.88
454.412	1156.88
454.633	1103.88
454.853	1068.88
455.073	1062.88
455.294	1052.88
455.514	1043.88
455.734	1049.88
455.955	1001.88
456.175	1055.88
456.395	1048.88
456.616	1069.88
456.836	1052.88
457.056	1060.88
457.276	1079.88
457.497	1116.88
457.717	1114.88
457.937	1098.88
458.157	1082.88
458.377	1088.88
458.598	1102.88
458.818	1140.88
459.038	1118.88
459.258	1123.88
459.478	1140.88
459.698	1143.88
459.918	1147.88
460.138	1172.88
460.358	1197.88
460.578	1231.88
460.798	1233.88
461.018	1264.88
461.238	1243.88
461.458	1251.88
461.678	1262.88
461.898	1265.88
462.118	1272.88
462.338	1287.88
462.558	1348.88
462.777	1375.88
462.997	1391.88
463.217	1433.88
463.437	1476.88
463.657	1472.88
463.876	1476.88
464.096	1415.88
464.316	1356.88
464.536	1363.88
464.755	1348.88
464.975	1260.88
465.195	1254.88
465.414	1225.88
465.634	1190.88
465.854	1192.88
466.073	1201.88
466.293	1152.88
466.512	1178.88
466.732	1186.88
466.951	1223.88
467.171	1247.88
467.391	1279.88
467.61	1172.88
467.829	1139.88
468.049	1155.88
468.268	1151.88
468.488	1121.88
468.707	1127.88
468.927	1139.88
469.146	1121.88
469.365	1127.88
469.585	1189.88
469.804	1173.88
470.023	1154.88
470.243	1174.88
470.462	1233.88
470.681	1293.88
470.901	1408.88
471.12	1559.88
471.339	1575.88
471.558	1345.88
471.777	1216.88
471.997	1207.88
472.216	1188.88
472.435	1147.88
472.654	1147.88
472.873	1116.88
473.092	1132.88
473.311	1128.88
473.53	1147.88
473.749	1155.88
473.968	1185.88
474.187	1151.88
474.406	1116.88
474.625	1123.88
474.844	1131.88
475.063	1149.88
475.282	1141.88
475.501	1135.88
475.72	1167.88
475.939	1153.88
476.158	1153.88
476.377	1178.88
476.596	1169.88
476.814	1188.88
477.033	1175.88
477.252	1183.88
477.471	1219.88
477.69	1218.88
477.908	1280.88
478.127	1314.88
478.346	1281.88
478.564	1308.88
478.783	1320.88
479.002	1364.88
479.22	1347.88
479.439	1367.88
479.658	1338.88
479.876	1315.88
480.095	1357.88
480.313	1374.88
480.532	1411.88
480.751	1385.88
480.969	1357.88
481.188	1355.88
481.406	1329.88
481.624	1313.88
481.843	1336.88
482.061	1354.88
482.28	1365.88
482.498	1320.88
482.717	1329.88
482.935	1386.88
483.153	1388.88
483.372	1395.88
483.59	1391.88
483.808	1406.88
484.027	1437.88
484.245	1496.88
484.463	1685.88
484.681	1843.88
484.9	1715.88
485.118	1586.88
485.336	1543.88
485.554	1591.88
485.772	1653.88
485.99	1839.88
486.209	2008.88
486.427	1667.88
486.645	1542.88
486.863	1516.88
487.081	1472.88
487.299	1433.88
487.517	1440.88
487.735	1432.88
487.953	1468.88
488.171	1494.88
488.389	1455.88
488.607	1420.88
488.825	1395.88
489.043	1404.88
489.261	1378.88
489.479	1399.88
489.696	1391.88
489.914	1418.88
490.132	1455.88
490.35	1410.88
490.568	1443.88
490.786	1472.88
491.003	1461.88
