Data from SnStandardFlinnAPT0064_LampEnergy5.5_LIBS07252019.E.O._I.C._HRD10591_15-16-52-528.txt Node
Date: Thu Jul 25 15:16:52 EDT 2019
User: cochatt
Spectrometer: HR+D1059
Trigger mode: 1
Integration Time (sec): 1.000000E-1
Scans to average: 1
Electric dark correction enabled: true
Nonlinearity correction enabled: false
Boxcar width: 0
XAxis mode: Wavelengths
Number of Pixels in Spectrum: 2048
>>>>>Begin Spectral Data<<<<<
223.165	-20.38
223.4	-20.38
223.635	-20.38
223.869	-23.38
224.104	-12.38
224.338	-0.38
224.573	-19.38
224.808	-4.38
225.042	0.62
225.277	-8.38
225.511	-0.38
225.746	19.62
225.98	-3.38
226.215	0.62
226.449	14.62
226.683	17.62
226.918	9.62
227.152	29.62
227.387	28.62
227.621	38.62
227.856	38.62
228.09	39.62
228.324	47.62
228.559	51.62
228.793	87.62
229.027	147.62
229.262	165.62
229.496	148.62
229.73	144.62
229.964	166.62
230.199	161.62
230.433	167.62
230.667	156.62
230.901	156.62
231.136	160.62
231.37	180.62
231.604	201.62
231.838	205.62
232.072	242.62
232.306	263.62
232.541	206.62
232.775	201.62
233.009	208.62
233.243	199.62
233.477	225.62
233.711	240.62
233.945	259.62
234.179	246.62
234.413	205.62
234.647	221.62
234.881	238.62
235.115	263.62
235.349	290.62
235.583	365.62
235.817	443.62
236.051	435.62
236.285	299.62
236.519	256.62
236.753	241.62
236.987	235.62
237.221	237.62
237.455	239.62
237.689	220.62
237.922	216.62
238.156	217.62
238.39	241.62
238.624	223.62
238.858	237.62
239.091	217.62
239.325	231.62
239.559	236.62
239.793	237.62
240.027	254.62
240.26	246.62
240.494	261.62
240.728	261.62
240.961	287.62
241.195	284.62
241.429	291.62
241.662	312.62
241.896	341.62
242.13	413.62
242.363	511.62
242.597	665.62
242.83	641.62
243.064	619.62
243.298	747.62
243.531	657.62
243.765	403.62
243.998	345.62
244.232	328.62
244.465	293.62
244.699	289.62
244.932	291.62
245.166	278.62
245.399	292.62
245.633	306.62
245.866	315.62
246.099	300.62
246.333	298.62
246.566	283.62
246.8	290.62
247.033	299.62
247.266	286.62
247.5	278.62
247.733	296.62
247.966	323.62
248.2	344.62
248.433	363.62
248.666	431.62
248.899	403.62
249.133	365.62
249.366	384.62
249.599	413.62
249.832	443.62
250.066	434.62
250.299	345.62
250.532	347.62
250.765	333.62
250.998	322.62
251.231	342.62
251.465	308.62
251.698	333.62
251.931	357.62
252.164	343.62
252.397	326.62
252.63	335.62
252.863	346.62
253.096	354.62
253.329	354.62
253.562	342.62
253.795	344.62
254.028	363.62
254.261	384.62
254.494	384.62
254.727	442.62
254.96	510.62
255.193	521.62
255.426	402.62
255.659	366.62
255.892	383.62
256.124	385.62
256.357	371.62
256.59	379.62
256.823	407.62
257.056	474.62
257.289	546.62
257.521	592.62
257.754	481.62
257.987	415.62
258.22	419.62
258.452	398.62
258.685	411.62
258.918	413.62
259.151	442.62
259.383	442.62
259.616	477.62
259.849	516.62
260.081	458.62
260.314	435.62
260.547	436.62
260.779	407.62
261.012	435.62
261.244	446.62
261.477	443.62
261.71	434.62
261.942	454.62
262.175	447.62
262.407	448.62
262.64	463.62
262.872	487.62
263.105	499.62
263.337	527.62
263.57	542.62
263.802	588.62
264.035	576.62
264.267	577.62
264.499	619.62
264.732	632.62
264.964	621.62
265.197	639.62
265.429	624.62
265.661	643.62
265.894	691.62
266.126	734.62
266.358	813.62
266.591	811.62
266.823	685.62
267.055	627.62
267.287	582.62
267.52	575.62
267.752	585.62
267.984	570.62
268.216	558.62
268.448	529.62
268.681	529.62
268.913	547.62
269.145	544.62
269.377	564.62
269.609	556.62
269.841	544.62
270.073	583.62
270.306	706.62
270.538	908.62
270.77	1295.62
271.002	1616.62
271.234	1093.62
271.466	755.62
271.698	620.62
271.93	584.62
272.162	558.62
272.394	536.62
272.626	527.62
272.858	538.62
273.09	531.62
273.322	549.62
273.553	509.62
273.785	521.62
274.017	524.62
274.249	519.62
274.481	536.62
274.713	525.62
274.945	523.62
275.176	534.62
275.408	535.62
275.64	512.62
275.872	531.62
276.104	553.62
276.335	554.62
276.567	564.62
276.799	557.62
277.031	577.62
277.262	580.62
277.494	599.62
277.726	646.62
277.957	739.62
278.189	835.62
278.421	777.62
278.652	703.62
278.884	687.62
279.115	637.62
279.347	630.62
279.579	575.62
279.81	601.62
280.042	579.62
280.273	614.62
280.505	621.62
280.736	635.62
280.968	668.62
281.199	752.62
281.431	796.62
281.662	848.62
281.894	734.62
282.125	680.62
282.356	679.62
282.588	710.62
282.819	734.62
283.051	732.62
283.282	813.62
283.513	1023.62
283.745	1461.62
283.976	2348.62
284.207	3337.62
284.439	2884.62
284.67	1737.62
284.901	1409.62
285.132	1412.62
285.364	1333.62
285.595	1066.62
285.826	971.62
286.057	1135.62
286.288	1588.62
286.52	2125.62
286.751	1900.62
286.982	1218.62
287.213	915.62
287.444	805.62
287.675	747.62
287.906	750.62
288.138	726.62
288.369	725.62
288.6	703.62
288.831	702.62
289.062	723.62
289.293	720.62
289.524	727.62
289.755	697.62
289.986	694.62
290.217	703.62
290.448	729.62
290.679	709.62
290.91	731.62
291.141	757.62
291.371	799.62
291.602	834.62
291.833	785.62
292.064	725.62
292.295	683.62
292.526	703.62
292.757	675.62
292.987	670.62
293.218	670.62
293.449	686.62
293.68	675.62
293.91	676.62
294.141	658.62
294.372	661.62
294.603	664.62
294.833	661.62
295.064	640.62
295.295	680.62
295.525	655.62
295.756	641.62
295.987	652.62
296.217	657.62
296.448	672.62
296.679	674.62
296.909	684.62
297.14	687.62
297.37	702.62
297.601	709.62
297.831	683.62
298.062	693.62
298.292	701.62
298.523	694.62
298.753	719.62
298.984	707.62
299.214	727.62
299.445	724.62
299.675	766.62
299.905	761.62
300.136	782.62
300.366	884.62
300.597	1129.62
300.827	1572.62
301.057	2109.62
301.288	2071.62
301.518	1319.62
301.748	1019.62
301.979	910.62
302.209	911.62
302.439	909.62
302.669	1012.62
302.9	1167.62
303.13	1620.62
303.36	2411.62
303.59	3231.62
303.82	2834.62
304.051	1639.62
304.281	1193.62
304.511	996.62
304.741	917.62
304.971	894.62
305.201	848.62
305.431	811.62
305.661	829.62
305.891	789.62
306.121	758.62
306.352	779.62
306.582	755.62
306.812	757.62
307.042	763.62
307.272	791.62
307.502	739.62
307.731	753.62
307.961	775.62
308.191	788.62
308.421	743.62
308.651	768.62
308.881	766.62
309.111	757.62
309.341	796.62
309.571	795.62
309.8	783.62
310.03	804.62
310.26	787.62
310.49	771.62
310.72	815.62
310.949	796.62
311.179	823.62
311.409	795.62
311.639	808.62
311.868	807.62
312.098	809.62
312.328	840.62
312.557	841.62
312.787	856.62
313.017	842.62
313.246	841.62
313.476	858.62
313.706	864.62
313.935	913.62
314.165	969.62
314.394	976.62
314.624	953.62
314.853	902.62
315.083	896.62
315.312	928.62
315.542	929.62
315.771	934.62
316.001	948.62
316.23	962.62
316.46	984.62
316.689	1088.62
316.919	1299.62
317.148	1897.62
317.377	2931.62
317.607	4245.62
317.836	4379.62
318.065	2511.62
318.295	1636.62
318.524	1319.62
318.753	1163.62
318.983	1096.62
319.212	1002.62
319.441	1047.62
319.67	1003.62
319.9	984.62
320.129	993.62
320.358	983.62
320.587	953.62
320.816	958.62
321.046	961.62
321.275	983.62
321.504	1013.62
321.733	997.62
321.962	1036.62
322.191	1043.62
322.42	1027.62
322.649	1017.62
322.878	998.62
323.108	1029.62
323.337	1037.62
323.566	1058.62
323.795	1086.62
324.024	1101.62
324.253	1155.62
324.482	1149.62
324.71	1219.62
324.939	1290.62
325.168	1298.62
325.397	1353.62
325.626	1577.62
325.855	2275.62
326.084	3510.62
326.313	5190.62
326.542	5527.62
326.77	3464.62
326.999	2224.62
327.228	1881.62
327.457	1824.62
327.686	1820.62
327.914	1917.62
328.143	2160.62
328.372	2483.62
328.6	2725.62
328.829	2554.62
329.058	2191.62
329.287	1979.62
329.515	1805.62
329.744	1689.62
329.972	1617.62
330.201	1512.62
330.43	1521.62
330.658	1438.62
330.887	1452.62
331.115	1388.62
331.344	1404.62
331.572	1393.62
331.801	1394.62
332.03	1413.62
332.258	1462.62
332.486	1531.62
332.715	1712.62
332.943	2083.62
333.172	2545.62
333.4	2544.62
333.629	1937.62
333.857	1805.62
334.085	1784.62
334.314	1829.62
334.542	1943.62
334.771	2250.62
334.999	2681.62
335.227	3255.62
335.455	3633.62
335.684	3336.62
335.912	2865.62
336.14	2483.62
336.369	2208.62
336.597	2033.62
336.825	1925.62
337.053	1783.62
337.281	1693.62
337.51	1616.62
337.738	1560.62
337.966	1479.62
338.194	1467.62
338.422	1416.62
338.65	1387.62
338.878	1374.62
339.106	1325.62
339.334	1319.62
339.562	1329.62
339.79	1257.62
340.018	1239.62
340.246	1248.62
340.474	1259.62
340.702	1222.62
340.93	1249.62
341.158	1271.62
341.386	1246.62
341.614	1222.62
341.842	1212.62
342.07	1177.62
342.298	1180.62
342.526	1143.62
342.754	1143.62
342.981	1133.62
343.209	1166.62
343.437	1145.62
343.665	1161.62
343.893	1177.62
344.12	1183.62
344.348	1177.62
344.576	1167.62
344.804	1143.62
345.031	1118.62
345.259	1106.62
345.487	1092.62
345.714	1089.62
345.942	1078.62
346.17	1074.62
346.397	1082.62
346.625	1052.62
346.853	1043.62
347.08	1025.62
347.308	1025.62
347.535	1036.62
347.763	1062.62
347.99	1059.62
348.218	1024.62
348.445	1040.62
348.673	1043.62
348.9	1015.62
349.128	1042.62
349.355	1049.62
349.583	1044.62
349.81	1031.62
350.037	1053.62
350.265	1016.62
350.492	1002.62
350.72	1003.62
350.947	1005.62
351.174	1052.62
351.402	1031.62
351.629	1001.62
351.856	978.62
352.083	1023.62
352.311	1011.62
352.538	1021.62
352.765	1019.62
352.992	981.62
353.22	989.62
353.447	999.62
353.674	994.62
353.901	1007.62
354.128	1021.62
354.355	1031.62
354.583	1037.62
354.81	1037.62
355.037	1042.62
355.264	1043.62
355.491	1015.62
355.718	1029.62
355.945	1059.62
356.172	1027.62
356.399	1017.62
356.626	1049.62
356.853	1048.62
357.08	1051.62
357.307	1015.62
357.534	1073.62
357.761	1094.62
357.988	1088.62
358.215	1107.62
358.441	1093.62
358.668	1059.62
358.895	1083.62
359.122	1079.62
359.349	1051.62
359.576	1051.62
359.802	1057.62
360.029	1076.62
360.256	1063.62
360.483	1087.62
360.709	1033.62
360.936	1061.62
361.163	1110.62
361.39	1070.62
361.616	1105.62
361.843	1110.62
362.07	1075.62
362.296	1075.62
362.523	1100.62
362.749	1124.62
362.976	1091.62
363.203	1089.62
363.429	1073.62
363.656	1099.62
363.882	1097.62
364.109	1085.62
364.335	1086.62
364.562	1088.62
364.788	1064.62
365.015	1102.62
365.241	1119.62
365.468	1152.62
365.694	1203.62
365.92	1164.62
366.147	1122.62
366.373	1105.62
366.599	1137.62
366.826	1122.62
367.052	1101.62
367.278	1062.62
367.505	1132.62
367.731	1095.62
367.957	1103.62
368.184	1126.62
368.41	1097.62
368.636	1109.62
368.862	1133.62
369.089	1116.62
369.315	1125.62
369.541	1141.62
369.767	1115.62
369.993	1107.62
370.219	1115.62
370.445	1122.62
370.672	1113.62
370.898	1124.62
371.124	1145.62
371.35	1123.62
371.576	1159.62
371.802	1147.62
372.028	1180.62
372.254	1157.62
372.48	1164.62
372.706	1189.62
372.932	1192.62
373.158	1188.62
373.384	1186.62
373.61	1203.62
373.835	1186.62
374.061	1180.62
374.287	1192.62
374.513	1199.62
374.739	1222.62
374.965	1228.62
375.191	1241.62
375.416	1218.62
375.642	1211.62
375.868	1200.62
376.094	1191.62
376.319	1190.62
376.545	1174.62
376.771	1182.62
376.997	1166.62
377.222	1175.62
377.448	1153.62
377.674	1139.62
377.899	1164.62
378.125	1143.62
378.35	1185.62
378.576	1159.62
378.802	1149.62
379.027	1174.62
379.253	1198.62
379.478	1310.62
379.704	1517.62
379.929	2088.62
380.155	3122.62
380.38	3399.62
380.606	2068.62
380.831	1475.62
381.057	1279.62
381.282	1227.62
381.507	1185.62
381.733	1164.62
381.958	1156.62
382.184	1148.62
382.409	1138.62
382.634	1149.62
382.86	1144.62
383.085	1149.62
383.31	1137.62
383.535	1180.62
383.761	1161.62
383.986	1167.62
384.211	1157.62
384.436	1159.62
384.662	1175.62
384.887	1189.62
385.112	1180.62
385.337	1204.62
385.562	1148.62
385.787	1197.62
386.013	1209.62
386.238	1222.62
386.463	1210.62
386.688	1179.62
386.913	1188.62
387.138	1192.62
387.363	1187.62
387.588	1197.62
387.813	1200.62
388.038	1173.62
388.263	1168.62
388.488	1173.62
388.713	1183.62
388.938	1179.62
389.163	1187.62
389.387	1190.62
389.612	1180.62
389.837	1190.62
390.062	1186.62
390.287	1202.62
390.512	1189.62
390.736	1225.62
390.961	1206.62
391.186	1256.62
391.411	1245.62
391.636	1271.62
391.86	1246.62
392.085	1277.62
392.31	1228.62
392.534	1224.62
392.759	1232.62
392.984	1241.62
393.208	1207.62
393.433	1273.62
393.658	1209.62
393.882	1171.62
394.107	1159.62
394.331	1165.62
394.556	1203.62
394.78	1209.62
395.005	1244.62
395.229	1201.62
395.454	1232.62
395.678	1266.62
395.903	1250.62
396.127	1228.62
396.352	1233.62
396.576	1212.62
396.801	1245.62
397.025	1251.62
397.249	1262.62
397.474	1241.62
397.698	1242.62
397.922	1271.62
398.147	1250.62
398.371	1277.62
398.595	1303.62
398.82	1346.62
399.044	1364.62
399.268	1433.62
399.492	1521.62
399.717	1583.62
399.941	1567.62
400.165	1520.62
400.389	1447.62
400.613	1384.62
400.837	1331.62
401.062	1352.62
401.286	1346.62
401.51	1318.62
401.734	1283.62
401.958	1286.62
402.182	1307.62
402.406	1309.62
402.63	1307.62
402.854	1340.62
403.078	1302.62
403.302	1344.62
403.526	1339.62
403.75	1363.62
403.974	1356.62
404.198	1347.62
404.422	1366.62
404.645	1340.62
404.869	1377.62
405.093	1349.62
405.317	1400.62
405.541	1361.62
405.765	1397.62
405.988	1419.62
406.212	1363.62
406.436	1318.62
406.66	1443.62
406.883	1376.62
407.107	1439.62
407.331	1444.62
407.555	1479.62
407.778	1461.62
408.002	1469.62
408.226	1444.62
408.449	1437.62
408.673	1417.62
408.896	1394.62
409.12	1387.62
409.344	1383.62
409.567	1361.62
409.791	1360.62
410.014	1350.62
410.238	1334.62
410.461	1348.62
410.685	1357.62
410.908	1344.62
411.132	1332.62
411.355	1296.62
411.578	1311.62
411.802	1281.62
412.025	1309.62
412.249	1320.62
412.472	1343.62
412.695	1296.62
412.919	1310.62
413.142	1308.62
413.365	1298.62
413.589	1319.62
413.812	1294.62
414.035	1320.62
414.258	1293.62
414.482	1259.62
414.705	1301.62
414.928	1281.62
415.151	1273.62
415.374	1260.62
415.597	1249.62
415.821	1263.62
416.044	1228.62
416.267	1252.62
416.49	1229.62
416.713	1266.62
416.936	1260.62
417.159	1219.62
417.382	1201.62
417.605	1227.62
417.828	1232.62
418.051	1238.62
418.274	1246.62
418.497	1242.62
418.72	1272.62
418.943	1246.62
419.166	1341.62
419.389	1387.62
419.611	1352.62
419.834	1305.62
420.057	1315.62
420.28	1247.62
420.503	1244.62
420.726	1241.62
420.948	1207.62
421.171	1224.62
421.394	1251.62
421.617	1265.62
421.839	1265.62
422.062	1285.62
422.285	1240.62
422.507	1249.62
422.73	1293.62
422.953	1286.62
423.175	1305.62
423.398	1275.62
423.621	1252.62
423.843	1301.62
424.066	1243.62
424.288	1239.62
424.511	1228.62
424.733	1247.62
424.956	1249.62
425.178	1230.62
425.401	1230.62
425.623	1251.62
425.846	1213.62
426.068	1211.62
426.291	1206.62
426.513	1232.62
426.735	1192.62
426.958	1188.62
427.18	1139.62
427.402	1178.62
427.625	1193.62
427.847	1144.62
428.069	1173.62
428.292	1192.62
428.514	1173.62
428.736	1155.62
428.958	1178.62
429.181	1150.62
429.403	1128.62
429.625	1120.62
429.847	1156.62
430.069	1151.62
430.292	1208.62
430.514	1219.62
430.736	1216.62
430.958	1192.62
431.18	1145.62
431.402	1151.62
431.624	1133.62
431.846	1149.62
432.068	1129.62
432.29	1120.62
432.512	1122.62
432.734	1171.62
432.956	1133.62
433.178	1159.62
433.4	1175.62
433.622	1158.62
433.844	1158.62
434.066	1146.62
434.287	1181.62
434.509	1149.62
434.731	1156.62
434.953	1177.62
435.175	1250.62
435.397	1179.62
435.618	1161.62
435.84	1132.62
436.062	1118.62
436.284	1122.62
436.505	1127.62
436.727	1158.62
436.949	1155.62
437.17	1146.62
437.392	1102.62
437.614	1132.62
437.835	1083.62
438.057	1097.62
438.278	1079.62
438.5	1106.62
438.721	1131.62
438.943	1169.62
439.165	1176.62
439.386	1176.62
439.608	1199.62
439.829	1184.62
440.05	1229.62
440.272	1244.62
440.493	1196.62
440.715	1190.62
440.936	1184.62
441.158	1191.62
441.379	1197.62
441.6	1253.62
441.822	1300.62
442.043	1315.62
442.264	1348.62
442.486	1300.62
442.707	1227.62
442.928	1201.62
443.149	1210.62
443.371	1208.62
443.592	1236.62
443.813	1234.62
444.034	1271.62
444.255	1263.62
444.476	1281.62
444.698	1315.62
444.919	1331.62
445.14	1383.62
445.361	1307.62
445.582	1259.62
445.803	1241.62
446.024	1280.62
446.245	1247.62
446.466	1239.62
446.687	1216.62
446.908	1219.62
447.129	1173.62
447.35	1162.62
447.571	1176.62
447.792	1141.62
448.013	1145.62
448.234	1140.62
448.455	1157.62
448.675	1157.62
448.896	1168.62
449.117	1202.62
449.338	1289.62
449.559	1344.62
449.779	1218.62
450	1125.62
450.221	1115.62
450.442	1112.62
450.662	1116.62
450.883	1095.62
451.104	1111.62
451.324	1097.62
451.545	1083.62
451.766	1115.62
451.986	1098.62
452.207	1185.62
452.428	1452.62
452.648	2085.62
452.869	1755.62
453.089	1277.62
453.31	1219.62
453.53	1233.62
453.751	1270.62
453.971	1307.62
454.192	1323.62
454.412	1128.62
454.633	1107.62
454.853	1064.62
455.073	1084.62
455.294	1074.62
455.514	1046.62
455.734	1039.62
455.955	1056.62
456.175	1059.62
456.395	1031.62
456.616	1049.62
456.836	1062.62
457.056	1075.62
457.276	1034.62
457.497	1096.62
457.717	1117.62
457.937	1135.62
458.157	1097.62
458.377	1094.62
458.598	1122.62
458.818	1092.62
459.038	1118.62
459.258	1141.62
459.478	1134.62
459.698	1136.62
459.918	1172.62
460.138	1228.62
460.358	1212.62
460.578	1214.62
460.798	1229.62
461.018	1228.62
461.238	1230.62
461.458	1265.62
461.678	1244.62
461.898	1268.62
462.118	1294.62
462.338	1307.62
462.558	1305.62
462.777	1323.62
462.997	1402.62
463.217	1424.62
463.437	1470.62
463.657	1515.62
463.876	1520.62
464.096	1419.62
464.316	1363.62
464.536	1349.62
464.755	1316.62
464.975	1302.62
465.195	1221.62
465.414	1228.62
465.634	1203.62
465.854	1182.62
466.073	1187.62
466.293	1157.62
466.512	1180.62
466.732	1177.62
466.951	1234.62
467.171	1289.62
467.391	1271.62
467.61	1180.62
467.829	1161.62
468.049	1135.62
468.268	1122.62
468.488	1129.62
468.707	1124.62
468.927	1135.62
469.146	1128.62
469.365	1143.62
469.585	1147.62
469.804	1175.62
470.023	1196.62
470.243	1212.62
470.462	1245.62
470.681	1258.62
470.901	1390.62
471.12	1619.62
471.339	1637.62
471.558	1326.62
471.777	1229.62
471.997	1174.62
472.216	1177.62
472.435	1163.62
472.654	1155.62
472.873	1115.62
473.092	1123.62
473.311	1127.62
473.53	1136.62
473.749	1156.62
473.968	1223.62
474.187	1157.62
474.406	1120.62
474.625	1121.62
474.844	1153.62
475.063	1164.62
475.282	1133.62
475.501	1127.62
475.72	1122.62
475.939	1169.62
476.158	1181.62
476.377	1192.62
476.596	1219.62
476.814	1182.62
477.033	1196.62
477.252	1190.62
477.471	1208.62
477.69	1233.62
477.908	1248.62
478.127	1293.62
478.346	1291.62
478.564	1302.62
478.783	1309.62
479.002	1312.62
479.22	1329.62
479.439	1323.62
479.658	1332.62
479.876	1335.62
480.095	1354.62
480.313	1387.62
480.532	1393.62
480.751	1364.62
480.969	1342.62
481.188	1317.62
481.406	1316.62
481.624	1339.62
481.843	1357.62
482.061	1345.62
482.28	1353.62
482.498	1338.62
482.717	1326.62
482.935	1373.62
483.153	1399.62
483.372	1403.62
483.59	1426.62
483.808	1431.62
484.027	1407.62
484.245	1490.62
484.463	1675.62
484.681	1895.62
484.9	1714.62
485.118	1593.62
485.336	1555.62
485.554	1566.62
485.772	1656.62
485.99	1904.62
486.209	2057.62
486.427	1677.62
486.645	1548.62
486.863	1536.62
487.081	1461.62
487.299	1457.62
487.517	1469.62
487.735	1487.62
487.953	1458.62
488.171	1455.62
488.389	1442.62
488.607	1435.62
488.825	1398.62
489.043	1370.62
489.261	1417.62
489.479	1405.62
489.696	1392.62
489.914	1394.62
490.132	1406.62
490.35	1398.62
490.568	1423.62
490.786	1475.62
491.003	1475.62
