Data from SnStandardFlinnAPT0064_LampEnergy5.5_LIBS07252019.E.O._I.C._HRD10591_15-16-41-492.txt Node
Date: Thu Jul 25 15:16:41 EDT 2019
User: cochatt
Spectrometer: HR+D1059
Trigger mode: 1
Integration Time (sec): 1.000000E-1
Scans to average: 1
Electric dark correction enabled: true
Nonlinearity correction enabled: false
Boxcar width: 0
XAxis mode: Wavelengths
Number of Pixels in Spectrum: 2048
>>>>>Begin Spectral Data<<<<<
223.165	-15.31
223.4	-15.31
223.635	-15.31
223.869	-14.31
224.104	-24.31
224.338	-5.31
224.573	-16.31
224.808	-9.31
225.042	-16.31
225.277	0.69
225.511	-19.31
225.746	-7.31
225.98	9.69
226.215	4.69
226.449	29.69
226.683	21.69
226.918	35.69
227.152	25.69
227.387	26.69
227.621	37.69
227.856	43.69
228.09	35.69
228.324	45.69
228.559	65.69
228.793	87.69
229.027	154.69
229.262	171.69
229.496	151.69
229.73	160.69
229.964	161.69
230.199	188.69
230.433	167.69
230.667	164.69
230.901	168.69
231.136	177.69
231.37	177.69
231.604	195.69
231.838	216.69
232.072	243.69
232.306	245.69
232.541	217.69
232.775	211.69
233.009	197.69
233.243	200.69
233.477	220.69
233.711	253.69
233.945	275.69
234.179	239.69
234.413	202.69
234.647	218.69
234.881	236.69
235.115	248.69
235.349	281.69
235.583	369.69
235.817	453.69
236.051	425.69
236.285	315.69
236.519	255.69
236.753	229.69
236.987	228.69
237.221	256.69
237.455	231.69
237.689	231.69
237.922	225.69
238.156	236.69
238.39	235.69
238.624	215.69
238.858	226.69
239.091	242.69
239.325	234.69
239.559	239.69
239.793	244.69
240.027	232.69
240.26	245.69
240.494	258.69
240.728	267.69
240.961	275.69
241.195	291.69
241.429	315.69
241.662	330.69
241.896	352.69
242.13	409.69
242.363	534.69
242.597	674.69
242.83	637.69
243.064	629.69
243.298	769.69
243.531	649.69
243.765	400.69
243.998	356.69
244.232	316.69
244.465	274.69
244.699	306.69
244.932	297.69
245.166	301.69
245.399	314.69
245.633	294.69
245.866	300.69
246.099	318.69
246.333	300.69
246.566	297.69
246.8	294.69
247.033	299.69
247.266	283.69
247.5	283.69
247.733	298.69
247.966	314.69
248.2	344.69
248.433	389.69
248.666	433.69
248.899	411.69
249.133	374.69
249.366	390.69
249.599	413.69
249.832	457.69
250.066	444.69
250.299	379.69
250.532	332.69
250.765	339.69
250.998	345.69
251.231	340.69
251.465	335.69
251.698	346.69
251.931	362.69
252.164	331.69
252.397	351.69
252.63	353.69
252.863	354.69
253.096	356.69
253.329	362.69
253.562	369.69
253.795	344.69
254.028	363.69
254.261	378.69
254.494	403.69
254.727	445.69
254.96	529.69
255.193	511.69
255.426	416.69
255.659	389.69
255.892	373.69
256.124	378.69
256.357	403.69
256.59	391.69
256.823	427.69
257.056	473.69
257.289	560.69
257.521	599.69
257.754	488.69
257.987	432.69
258.22	427.69
258.452	401.69
258.685	420.69
258.918	422.69
259.151	428.69
259.383	444.69
259.616	517.69
259.849	506.69
260.081	444.69
260.314	432.69
260.547	427.69
260.779	426.69
261.012	424.69
261.244	427.69
261.477	433.69
261.71	447.69
261.942	459.69
262.175	462.69
262.407	459.69
262.64	472.69
262.872	499.69
263.105	519.69
263.337	523.69
263.57	574.69
263.802	586.69
264.035	564.69
264.267	563.69
264.499	586.69
264.732	604.69
264.964	630.69
265.197	641.69
265.429	635.69
265.661	612.69
265.894	701.69
266.126	741.69
266.358	828.69
266.591	810.69
266.823	693.69
267.055	614.69
267.287	608.69
267.52	589.69
267.752	571.69
267.984	567.69
268.216	561.69
268.448	562.69
268.681	545.69
268.913	575.69
269.145	566.69
269.377	534.69
269.609	549.69
269.841	555.69
270.073	611.69
270.306	673.69
270.538	892.69
270.77	1341.69
271.002	1639.69
271.234	1109.69
271.466	772.69
271.698	651.69
271.93	583.69
272.162	567.69
272.394	526.69
272.626	541.69
272.858	529.69
273.09	531.69
273.322	559.69
273.553	520.69
273.785	520.69
274.017	521.69
274.249	535.69
274.481	537.69
274.713	552.69
274.945	548.69
275.176	528.69
275.408	516.69
275.64	552.69
275.872	529.69
276.104	547.69
276.335	564.69
276.567	538.69
276.799	551.69
277.031	584.69
277.262	549.69
277.494	596.69
277.726	653.69
277.957	747.69
278.189	810.69
278.421	785.69
278.652	704.69
278.884	667.69
279.115	621.69
279.347	585.69
279.579	619.69
279.81	598.69
280.042	619.69
280.273	616.69
280.505	627.69
280.736	649.69
280.968	657.69
281.199	704.69
281.431	794.69
281.662	827.69
281.894	719.69
282.125	689.69
282.356	682.69
282.588	699.69
282.819	711.69
283.051	745.69
283.282	797.69
283.513	1020.69
283.745	1452.69
283.976	2329.69
284.207	3405.69
284.439	2961.69
284.67	1741.69
284.901	1397.69
285.132	1391.69
285.364	1348.69
285.595	1061.69
285.826	963.69
286.057	1105.69
286.288	1561.69
286.52	2105.69
286.751	1895.69
286.982	1174.69
287.213	915.69
287.444	797.69
287.675	790.69
287.906	761.69
288.138	746.69
288.369	725.69
288.6	704.69
288.831	730.69
289.062	727.69
289.293	701.69
289.524	710.69
289.755	711.69
289.986	721.69
290.217	699.69
290.448	725.69
290.679	732.69
290.91	732.69
291.141	778.69
291.371	812.69
291.602	841.69
291.833	796.69
292.064	725.69
292.295	711.69
292.526	672.69
292.757	666.69
292.987	700.69
293.218	677.69
293.449	655.69
293.68	683.69
293.91	656.69
294.141	675.69
294.372	679.69
294.603	680.69
294.833	665.69
295.064	682.69
295.295	670.69
295.525	678.69
295.756	691.69
295.987	666.69
296.217	667.69
296.448	677.69
296.679	686.69
296.909	675.69
297.14	682.69
297.37	681.69
297.601	691.69
297.831	678.69
298.062	708.69
298.292	705.69
298.523	727.69
298.753	724.69
298.984	710.69
299.214	729.69
299.445	701.69
299.675	736.69
299.905	775.69
300.136	797.69
300.366	901.69
300.597	1108.69
300.827	1532.69
301.057	2111.69
301.288	2076.69
301.518	1300.69
301.748	1042.69
301.979	943.69
302.209	927.69
302.439	909.69
302.669	984.69
302.9	1197.69
303.13	1611.69
303.36	2441.69
303.59	3286.69
303.82	2753.69
304.051	1633.69
304.281	1163.69
304.511	970.69
304.741	923.69
304.971	880.69
305.201	832.69
305.431	848.69
305.661	805.69
305.891	800.69
306.121	794.69
306.352	812.69
306.582	776.69
306.812	784.69
307.042	798.69
307.272	768.69
307.502	774.69
307.731	780.69
307.961	799.69
308.191	768.69
308.421	760.69
308.651	762.69
308.881	789.69
309.111	780.69
309.341	788.69
309.571	785.69
309.8	819.69
310.03	790.69
310.26	803.69
310.49	808.69
310.72	791.69
310.949	793.69
311.179	805.69
311.409	815.69
311.639	790.69
311.868	811.69
312.098	832.69
312.328	830.69
312.557	834.69
312.787	848.69
313.017	843.69
313.246	836.69
313.476	850.69
313.706	892.69
313.935	909.69
314.165	931.69
314.394	978.69
314.624	954.69
314.853	912.69
315.083	874.69
315.312	931.69
315.542	924.69
315.771	912.69
316.001	945.69
316.23	969.69
316.46	1007.69
316.689	1105.69
316.919	1299.69
317.148	1890.69
317.377	2843.69
317.607	4341.69
317.836	4447.69
318.065	2527.69
318.295	1644.69
318.524	1331.69
318.753	1187.69
318.983	1066.69
319.212	1064.69
319.441	1000.69
319.67	1004.69
319.9	985.69
320.129	960.69
320.358	968.69
320.587	979.69
320.816	988.69
321.046	957.69
321.275	982.69
321.504	986.69
321.733	1009.69
321.962	1023.69
322.191	1044.69
322.42	1033.69
322.649	1023.69
322.878	1003.69
323.108	1039.69
323.337	1040.69
323.566	1052.69
323.795	1073.69
324.024	1093.69
324.253	1095.69
324.482	1183.69
324.71	1212.69
324.939	1284.69
325.168	1297.69
325.397	1362.69
325.626	1609.69
325.855	2239.69
326.084	3521.69
326.313	5290.69
326.542	5563.69
326.77	3437.69
326.999	2249.69
327.228	1893.69
327.457	1804.69
327.686	1828.69
327.914	1940.69
328.143	2249.69
328.372	2589.69
328.6	2823.69
328.829	2592.69
329.058	2230.69
329.287	2016.69
329.515	1859.69
329.744	1690.69
329.972	1636.69
330.201	1539.69
330.43	1527.69
330.658	1466.69
330.887	1426.69
331.115	1411.69
331.344	1383.69
331.572	1392.69
331.801	1375.69
332.03	1424.69
332.258	1481.69
332.486	1529.69
332.715	1718.69
332.943	2128.69
333.172	2529.69
333.4	2505.69
333.629	1904.69
333.857	1809.69
334.085	1786.69
334.314	1882.69
334.542	1979.69
334.771	2332.69
334.999	2839.69
335.227	3412.69
335.455	3741.69
335.684	3505.69
335.912	2950.69
336.14	2517.69
336.369	2229.69
336.597	2105.69
336.825	1940.69
337.053	1801.69
337.281	1720.69
337.51	1629.69
337.738	1569.69
337.966	1487.69
338.194	1460.69
338.422	1379.69
338.65	1388.69
338.878	1377.69
339.106	1348.69
339.334	1364.69
339.562	1305.69
339.79	1267.69
340.018	1250.69
340.246	1257.69
340.474	1272.69
340.702	1235.69
340.93	1258.69
341.158	1248.69
341.386	1226.69
341.614	1260.69
341.842	1233.69
342.07	1186.69
342.298	1165.69
342.526	1135.69
342.754	1177.69
342.981	1179.69
343.209	1157.69
343.437	1148.69
343.665	1205.69
343.893	1189.69
344.12	1172.69
344.348	1169.69
344.576	1146.69
344.804	1126.69
345.031	1124.69
345.259	1106.69
345.487	1085.69
345.714	1059.69
345.942	1061.69
346.17	1068.69
346.397	1067.69
346.625	1086.69
346.853	1053.69
347.08	1069.69
347.308	1095.69
347.535	1053.69
347.763	1080.69
347.99	1041.69
348.218	1075.69
348.445	1062.69
348.673	1046.69
348.9	1030.69
349.128	1031.69
349.355	1029.69
349.583	1012.69
349.81	1059.69
350.037	1034.69
350.265	1054.69
350.492	1017.69
350.72	1042.69
350.947	1046.69
351.174	1046.69
351.402	1023.69
351.629	1013.69
351.856	1020.69
352.083	1009.69
352.311	1028.69
352.538	1021.69
352.765	999.69
352.992	1012.69
353.22	1034.69
353.447	1007.69
353.674	1049.69
353.901	1007.69
354.128	1034.69
354.355	1018.69
354.583	1041.69
354.81	1050.69
355.037	1031.69
355.264	1026.69
355.491	1055.69
355.718	1036.69
355.945	1056.69
356.172	1047.69
356.399	1094.69
356.626	1060.69
356.853	1096.69
357.08	1063.69
357.307	1071.69
357.534	1082.69
357.761	1085.69
357.988	1091.69
358.215	1073.69
358.441	1077.69
358.668	1061.69
358.895	1083.69
359.122	1091.69
359.349	1105.69
359.576	1066.69
359.802	1088.69
360.029	1052.69
360.256	1087.69
360.483	1111.69
360.709	1071.69
360.936	1087.69
361.163	1091.69
361.39	1077.69
361.616	1082.69
361.843	1121.69
362.07	1079.69
362.296	1113.69
362.523	1119.69
362.749	1116.69
362.976	1095.69
363.203	1102.69
363.429	1085.69
363.656	1096.69
363.882	1092.69
364.109	1057.69
364.335	1079.69
364.562	1076.69
364.788	1067.69
365.015	1095.69
365.241	1141.69
365.468	1167.69
365.694	1200.69
365.92	1162.69
366.147	1116.69
366.373	1108.69
366.599	1110.69
366.826	1095.69
367.052	1110.69
367.278	1105.69
367.505	1126.69
367.731	1091.69
367.957	1121.69
368.184	1130.69
368.41	1141.69
368.636	1129.69
368.862	1135.69
369.089	1125.69
369.315	1151.69
369.541	1149.69
369.767	1152.69
369.993	1101.69
370.219	1124.69
370.445	1125.69
370.672	1132.69
370.898	1139.69
371.124	1157.69
371.35	1164.69
371.576	1157.69
371.802	1156.69
372.028	1183.69
372.254	1159.69
372.48	1187.69
372.706	1183.69
372.932	1203.69
373.158	1195.69
373.384	1201.69
373.61	1187.69
373.835	1189.69
374.061	1213.69
374.287	1195.69
374.513	1181.69
374.739	1201.69
374.965	1221.69
375.191	1249.69
375.416	1229.69
375.642	1183.69
375.868	1199.69
376.094	1215.69
376.319	1188.69
376.545	1164.69
376.771	1171.69
376.997	1154.69
377.222	1195.69
377.448	1172.69
377.674	1196.69
377.899	1140.69
378.125	1184.69
378.35	1152.69
378.576	1168.69
378.802	1146.69
379.027	1196.69
379.253	1204.69
379.478	1311.69
379.704	1477.69
379.929	2069.69
380.155	3094.69
380.38	3337.69
380.606	2055.69
380.831	1439.69
381.057	1313.69
381.282	1226.69
381.507	1181.69
381.733	1187.69
381.958	1185.69
382.184	1170.69
382.409	1132.69
382.634	1173.69
382.86	1166.69
383.085	1179.69
383.31	1163.69
383.535	1189.69
383.761	1170.69
383.986	1146.69
384.211	1167.69
384.436	1199.69
384.662	1161.69
384.887	1164.69
385.112	1171.69
385.337	1201.69
385.562	1208.69
385.787	1177.69
386.013	1225.69
386.238	1173.69
386.463	1219.69
386.688	1203.69
386.913	1171.69
387.138	1203.69
387.363	1216.69
387.588	1178.69
387.813	1203.69
388.038	1185.69
388.263	1203.69
388.488	1192.69
388.713	1196.69
388.938	1205.69
389.163	1168.69
389.387	1184.69
389.612	1208.69
389.837	1207.69
390.062	1177.69
390.287	1200.69
390.512	1204.69
390.736	1203.69
390.961	1239.69
391.186	1274.69
391.411	1241.69
391.636	1269.69
391.86	1248.69
392.085	1229.69
392.31	1249.69
392.534	1225.69
392.759	1239.69
392.984	1171.69
393.208	1229.69
393.433	1276.69
393.658	1254.69
393.882	1197.69
394.107	1218.69
394.331	1224.69
394.556	1194.69
394.78	1215.69
395.005	1228.69
395.229	1211.69
395.454	1244.69
395.678	1253.69
395.903	1212.69
396.127	1248.69
396.352	1228.69
396.576	1239.69
396.801	1263.69
397.025	1270.69
397.249	1233.69
397.474	1255.69
397.698	1255.69
397.922	1283.69
398.147	1251.69
398.371	1269.69
398.595	1267.69
398.82	1323.69
399.044	1386.69
399.268	1437.69
399.492	1523.69
399.717	1592.69
399.941	1593.69
400.165	1535.69
400.389	1472.69
400.613	1429.69
400.837	1377.69
401.062	1354.69
401.286	1313.69
401.51	1313.69
401.734	1337.69
401.958	1329.69
402.182	1320.69
402.406	1317.69
402.63	1347.69
402.854	1345.69
403.078	1314.69
403.302	1365.69
403.526	1337.69
403.75	1361.69
403.974	1394.69
404.198	1374.69
404.422	1370.69
404.645	1383.69
404.869	1329.69
405.093	1356.69
405.317	1381.69
405.541	1380.69
405.765	1397.69
405.988	1429.69
406.212	1440.69
406.436	1399.69
406.66	1422.69
406.883	1431.69
407.107	1493.69
407.331	1449.69
407.555	1481.69
407.778	1467.69
408.002	1449.69
408.226	1467.69
408.449	1437.69
408.673	1431.69
408.896	1415.69
409.12	1371.69
409.344	1407.69
409.567	1359.69
409.791	1353.69
410.014	1333.69
410.238	1348.69
410.461	1353.69
410.685	1369.69
410.908	1360.69
411.132	1327.69
411.355	1302.69
411.578	1312.69
411.802	1343.69
412.025	1336.69
412.249	1345.69
412.472	1324.69
412.695	1271.69
412.919	1290.69
413.142	1308.69
413.365	1273.69
413.589	1277.69
413.812	1316.69
414.035	1291.69
414.258	1281.69
414.482	1298.69
414.705	1274.69
414.928	1287.69
415.151	1301.69
415.374	1258.69
415.597	1282.69
415.821	1249.69
416.044	1258.69
416.267	1239.69
416.49	1232.69
416.713	1259.69
416.936	1251.69
417.159	1261.69
417.382	1246.69
417.605	1242.69
417.828	1274.69
418.051	1275.69
418.274	1245.69
418.497	1301.69
418.72	1273.69
418.943	1293.69
419.166	1336.69
419.389	1398.69
419.611	1386.69
419.834	1338.69
420.057	1309.69
420.28	1303.69
420.503	1273.69
420.726	1239.69
420.948	1279.69
421.171	1238.69
421.394	1252.69
421.617	1253.69
421.839	1216.69
422.062	1271.69
422.285	1217.69
422.507	1271.69
422.73	1285.69
422.953	1306.69
423.175	1296.69
423.398	1290.69
423.621	1245.69
423.843	1267.69
424.066	1260.69
424.288	1255.69
424.511	1242.69
424.733	1247.69
424.956	1220.69
425.178	1265.69
425.401	1240.69
425.623	1244.69
425.846	1212.69
426.068	1213.69
426.291	1217.69
426.513	1212.69
426.735	1219.69
426.958	1189.69
427.18	1173.69
427.402	1167.69
427.625	1164.69
427.847	1167.69
428.069	1166.69
428.292	1191.69
428.514	1150.69
428.736	1144.69
428.958	1167.69
429.181	1164.69
429.403	1152.69
429.625	1145.69
429.847	1145.69
430.069	1182.69
430.292	1205.69
430.514	1239.69
430.736	1233.69
430.958	1184.69
431.18	1185.69
431.402	1147.69
431.624	1129.69
431.846	1149.69
432.068	1132.69
432.29	1143.69
432.512	1159.69
432.734	1169.69
432.956	1163.69
433.178	1168.69
433.4	1124.69
433.622	1172.69
433.844	1155.69
434.066	1171.69
434.287	1169.69
434.509	1169.69
434.731	1176.69
434.953	1201.69
435.175	1187.69
435.397	1236.69
435.618	1182.69
435.84	1140.69
436.062	1147.69
436.284	1127.69
436.505	1138.69
436.727	1182.69
436.949	1160.69
437.17	1126.69
437.392	1126.69
437.614	1136.69
437.835	1089.69
438.057	1091.69
438.278	1095.69
438.5	1092.69
438.721	1130.69
438.943	1154.69
439.165	1188.69
439.386	1219.69
439.608	1161.69
439.829	1236.69
440.05	1228.69
440.272	1257.69
440.493	1213.69
440.715	1179.69
440.936	1187.69
441.158	1195.69
441.379	1222.69
441.6	1258.69
441.822	1295.69
442.043	1356.69
442.264	1388.69
442.486	1293.69
442.707	1252.69
442.928	1236.69
443.149	1251.69
443.371	1221.69
443.592	1279.69
443.813	1245.69
444.034	1248.69
444.255	1249.69
444.476	1284.69
444.698	1317.69
444.919	1338.69
445.14	1391.69
445.361	1319.69
445.582	1261.69
445.803	1206.69
446.024	1221.69
446.245	1254.69
446.466	1252.69
446.687	1244.69
446.908	1232.69
447.129	1169.69
447.35	1185.69
447.571	1192.69
447.792	1189.69
448.013	1146.69
448.234	1135.69
448.455	1145.69
448.675	1168.69
448.896	1199.69
449.117	1193.69
449.338	1320.69
449.559	1369.69
449.779	1227.69
450	1145.69
450.221	1109.69
450.442	1128.69
450.662	1104.69
450.883	1117.69
451.104	1108.69
451.324	1101.69
451.545	1105.69
451.766	1111.69
451.986	1117.69
452.207	1217.69
452.428	1458.69
452.648	2027.69
452.869	1780.69
453.089	1272.69
453.31	1200.69
453.53	1219.69
453.751	1254.69
453.971	1331.69
454.192	1337.69
454.412	1153.69
454.633	1087.69
454.853	1099.69
455.073	1065.69
455.294	1082.69
455.514	1050.69
455.734	1073.69
455.955	1039.69
456.175	1052.69
456.395	1068.69
456.616	1043.69
456.836	1087.69
457.056	1063.69
457.276	1077.69
457.497	1108.69
457.717	1124.69
457.937	1099.69
458.157	1106.69
458.377	1082.69
458.598	1124.69
458.818	1110.69
459.038	1127.69
459.258	1155.69
459.478	1125.69
459.698	1160.69
459.918	1155.69
460.138	1188.69
460.358	1228.69
460.578	1235.69
460.798	1240.69
461.018	1232.69
461.238	1248.69
461.458	1251.69
461.678	1222.69
461.898	1297.69
462.118	1320.69
462.338	1316.69
462.558	1325.69
462.777	1373.69
462.997	1405.69
463.217	1417.69
463.437	1487.69
463.657	1508.69
463.876	1494.69
464.096	1420.69
464.316	1373.69
464.536	1358.69
464.755	1337.69
464.975	1281.69
465.195	1274.69
465.414	1265.69
465.634	1203.69
465.854	1205.69
466.073	1195.69
466.293	1177.69
466.512	1180.69
466.732	1170.69
466.951	1217.69
467.171	1351.69
467.391	1280.69
467.61	1185.69
467.829	1142.69
468.049	1158.69
468.268	1122.69
468.488	1139.69
468.707	1126.69
468.927	1115.69
469.146	1132.69
469.365	1179.69
469.585	1131.69
469.804	1133.69
470.023	1184.69
470.243	1222.69
470.462	1227.69
470.681	1315.69
470.901	1403.69
471.12	1595.69
471.339	1677.69
471.558	1368.69
471.777	1248.69
471.997	1183.69
472.216	1164.69
472.435	1119.69
472.654	1153.69
472.873	1103.69
473.092	1119.69
473.311	1127.69
473.53	1140.69
473.749	1161.69
473.968	1239.69
474.187	1122.69
474.406	1123.69
474.625	1142.69
474.844	1134.69
475.063	1136.69
475.282	1128.69
475.501	1154.69
475.72	1147.69
475.939	1161.69
476.158	1174.69
476.377	1235.69
476.596	1219.69
476.814	1220.69
477.033	1175.69
477.252	1201.69
477.471	1236.69
477.69	1255.69
477.908	1301.69
478.127	1286.69
478.346	1311.69
478.564	1329.69
478.783	1334.69
479.002	1371.69
479.22	1363.69
479.439	1340.69
479.658	1306.69
479.876	1352.69
480.095	1350.69
480.313	1412.69
480.532	1405.69
480.751	1398.69
480.969	1370.69
481.188	1356.69
481.406	1300.69
481.624	1293.69
481.843	1333.69
482.061	1344.69
482.28	1351.69
482.498	1357.69
482.717	1291.69
482.935	1348.69
483.153	1396.69
483.372	1415.69
483.59	1410.69
483.808	1434.69
484.027	1455.69
484.245	1510.69
484.463	1692.69
484.681	1913.69
484.9	1699.69
485.118	1636.69
485.336	1539.69
485.554	1542.69
485.772	1640.69
485.99	1922.69
486.209	2010.69
486.427	1733.69
486.645	1526.69
486.863	1514.69
487.081	1469.69
487.299	1438.69
487.517	1445.69
487.735	1457.69
487.953	1493.69
488.171	1444.69
488.389	1448.69
488.607	1433.69
488.825	1383.69
489.043	1373.69
489.261	1384.69
489.479	1409.69
489.696	1400.69
489.914	1378.69
490.132	1423.69
490.35	1411.69
490.568	1428.69
490.786	1471.69
