Data from SnStandardFlinnAPT0064_QswitchEnergy10_LIBS07252019.E.O._I.C._HRD10591_15-28-49-973.txt Node
Date: Thu Jul 25 15:28:49 EDT 2019
User: cochatt
Spectrometer: HR+D1059
Trigger mode: 1
Integration Time (sec): 1.000000E-1
Scans to average: 1
Electric dark correction enabled: true
Nonlinearity correction enabled: false
Boxcar width: 0
XAxis mode: Wavelengths
Number of Pixels in Spectrum: 2048
>>>>>Begin Spectral Data<<<<<
223.165	-17.81
223.4	-17.81
223.635	-17.81
223.869	-19.81
224.104	-7.81
224.338	-8.81
224.573	-22.81
224.808	-14.81
225.042	-5.81
225.277	-7.81
225.511	-3.81
225.746	3.19
225.98	4.19
226.215	19.19
226.449	-0.81
226.683	21.19
226.918	25.19
227.152	37.19
227.387	37.19
227.621	27.19
227.856	49.19
228.09	53.19
228.324	50.19
228.559	56.19
228.793	53.19
229.027	64.19
229.262	79.19
229.496	67.19
229.73	75.19
229.964	81.19
230.199	74.19
230.433	70.19
230.667	74.19
230.901	72.19
231.136	96.19
231.37	86.19
231.604	97.19
231.838	95.19
232.072	139.19
232.306	126.19
232.541	93.19
232.775	78.19
233.009	75.19
233.243	87.19
233.477	82.19
233.711	98.19
233.945	117.19
234.179	95.19
234.413	86.19
234.647	82.19
234.881	88.19
235.115	104.19
235.349	88.19
235.583	92.19
235.817	129.19
236.051	135.19
236.285	100.19
236.519	79.19
236.753	80.19
236.987	89.19
237.221	81.19
237.455	76.19
237.689	65.19
237.922	94.19
238.156	93.19
238.39	90.19
238.624	90.19
238.858	82.19
239.091	81.19
239.325	63.19
239.559	80.19
239.793	79.19
240.027	84.19
240.26	79.19
240.494	93.19
240.728	74.19
240.961	88.19
241.195	97.19
241.429	88.19
241.662	93.19
241.896	86.19
242.13	107.19
242.363	137.19
242.597	162.19
242.83	161.19
243.064	136.19
243.298	182.19
243.531	147.19
243.765	96.19
243.998	91.19
244.232	92.19
244.465	97.19
244.699	87.19
244.932	83.19
245.166	74.19
245.399	88.19
245.633	86.19
245.866	85.19
246.099	83.19
246.333	82.19
246.566	95.19
246.8	86.19
247.033	90.19
247.266	87.19
247.5	84.19
247.733	77.19
247.966	81.19
248.2	81.19
248.433	115.19
248.666	124.19
248.899	120.19
249.133	95.19
249.366	107.19
249.599	111.19
249.832	135.19
250.066	149.19
250.299	92.19
250.532	98.19
250.765	87.19
250.998	81.19
251.231	74.19
251.465	83.19
251.698	85.19
251.931	85.19
252.164	88.19
252.397	81.19
252.63	106.19
252.863	100.19
253.096	101.19
253.329	100.19
253.562	91.19
253.795	102.19
254.028	103.19
254.261	78.19
254.494	96.19
254.727	135.19
254.96	155.19
255.193	143.19
255.426	106.19
255.659	88.19
255.892	92.19
256.124	89.19
256.357	73.19
256.59	84.19
256.823	113.19
257.056	115.19
257.289	163.19
257.521	194.19
257.754	122.19
257.987	86.19
258.22	82.19
258.452	89.19
258.685	83.19
258.918	85.19
259.151	109.19
259.383	110.19
259.616	147.19
259.849	152.19
260.081	115.19
260.314	94.19
260.547	96.19
260.779	81.19
261.012	88.19
261.244	79.19
261.477	95.19
261.71	80.19
261.942	91.19
262.175	97.19
262.407	79.19
262.64	77.19
262.872	88.19
263.105	86.19
263.337	94.19
263.57	87.19
263.802	95.19
264.035	81.19
264.267	86.19
264.499	81.19
264.732	86.19
264.964	98.19
265.197	95.19
265.429	109.19
265.661	89.19
265.894	106.19
266.126	118.19
266.358	167.19
266.591	145.19
266.823	90.19
267.055	88.19
267.287	88.19
267.52	82.19
267.752	86.19
267.984	90.19
268.216	90.19
268.448	93.19
268.681	89.19
268.913	85.19
269.145	88.19
269.377	89.19
269.609	89.19
269.841	102.19
270.073	104.19
270.306	123.19
270.538	215.19
270.77	339.19
271.002	402.19
271.234	224.19
271.466	127.19
271.698	106.19
271.93	91.19
272.162	89.19
272.394	97.19
272.626	87.19
272.858	104.19
273.09	87.19
273.322	88.19
273.553	89.19
273.785	93.19
274.017	93.19
274.249	88.19
274.481	74.19
274.713	82.19
274.945	86.19
275.176	79.19
275.408	98.19
275.64	88.19
275.872	90.19
276.104	83.19
276.335	106.19
276.567	106.19
276.799	87.19
277.031	98.19
277.262	97.19
277.494	101.19
277.726	144.19
277.957	173.19
278.189	277.19
278.421	259.19
278.652	199.19
278.884	213.19
279.115	143.19
279.347	122.19
279.579	106.19
279.81	98.19
280.042	95.19
280.273	105.19
280.505	112.19
280.736	99.19
280.968	121.19
281.199	181.19
281.431	250.19
281.662	282.19
281.894	170.19
282.125	111.19
282.356	109.19
282.588	112.19
282.819	118.19
283.051	114.19
283.282	151.19
283.513	209.19
283.745	335.19
283.976	603.19
284.207	854.19
284.439	636.19
284.67	288.19
284.901	281.19
285.132	373.19
285.364	433.19
285.595	241.19
285.826	167.19
286.057	265.19
286.288	436.19
286.52	678.19
286.751	531.19
286.982	200.19
287.213	125.19
287.444	109.19
287.675	126.19
287.906	104.19
288.138	112.19
288.369	94.19
288.6	93.19
288.831	75.19
289.062	91.19
289.293	96.19
289.524	73.19
289.755	102.19
289.986	86.19
290.217	90.19
290.448	106.19
290.679	103.19
290.91	113.19
291.141	170.19
291.371	255.19
291.602	325.19
291.833	225.19
292.064	117.19
292.295	98.19
292.526	100.19
292.757	101.19
292.987	95.19
293.218	98.19
293.449	94.19
293.68	97.19
293.91	100.19
294.141	92.19
294.372	96.19
294.603	96.19
294.833	99.19
295.064	91.19
295.295	85.19
295.525	96.19
295.756	82.19
295.987	98.19
296.217	85.19
296.448	90.19
296.679	97.19
296.909	77.19
297.14	95.19
297.37	94.19
297.601	90.19
297.831	98.19
298.062	94.19
298.292	103.19
298.523	106.19
298.753	102.19
298.984	112.19
299.214	117.19
299.445	111.19
299.675	122.19
299.905	137.19
300.136	138.19
300.366	175.19
300.597	290.19
300.827	460.19
301.057	736.19
301.288	652.19
301.518	259.19
301.748	168.19
301.979	166.19
302.209	138.19
302.439	148.19
302.669	184.19
302.9	297.19
303.13	541.19
303.36	967.19
303.59	1349.19
303.82	932.19
304.051	325.19
304.281	181.19
304.511	123.19
304.741	116.19
304.971	133.19
305.201	113.19
305.431	113.19
305.661	111.19
305.891	112.19
306.121	106.19
306.352	109.19
306.582	106.19
306.812	106.19
307.042	123.19
307.272	104.19
307.502	91.19
307.731	94.19
307.961	99.19
308.191	102.19
308.421	107.19
308.651	108.19
308.881	114.19
309.111	110.19
309.341	111.19
309.571	112.19
309.8	104.19
310.03	113.19
310.26	101.19
310.49	105.19
310.72	115.19
310.949	114.19
311.179	113.19
311.409	96.19
311.639	126.19
311.868	123.19
312.098	125.19
312.328	118.19
312.557	116.19
312.787	103.19
313.017	120.19
313.246	113.19
313.476	147.19
313.706	131.19
313.935	166.19
314.165	200.19
314.394	273.19
314.624	200.19
314.853	121.19
315.083	133.19
315.312	129.19
315.542	125.19
315.771	129.19
316.001	148.19
316.23	153.19
316.46	142.19
316.689	197.19
316.919	279.19
317.148	508.19
317.377	1002.19
317.607	1627.19
317.836	1497.19
318.065	575.19
318.295	219.19
318.524	167.19
318.753	140.19
318.983	126.19
319.212	122.19
319.441	121.19
319.67	125.19
319.9	122.19
320.129	109.19
320.358	125.19
320.587	130.19
320.816	131.19
321.046	120.19
321.275	129.19
321.504	139.19
321.733	153.19
321.962	174.19
322.191	169.19
322.42	145.19
322.649	134.19
322.878	127.19
323.108	112.19
323.337	131.19
323.566	137.19
323.795	144.19
324.024	145.19
324.253	151.19
324.482	187.19
324.71	256.19
324.939	295.19
325.168	266.19
325.397	201.19
325.626	269.19
325.855	538.19
326.084	1001.19
326.313	1776.19
326.542	1728.19
326.77	670.19
326.999	283.19
327.228	229.19
327.457	256.19
327.686	251.19
327.914	173.19
328.143	149.19
328.372	137.19
328.6	140.19
328.829	119.19
329.058	137.19
329.287	121.19
329.515	117.19
329.744	131.19
329.972	119.19
330.201	115.19
330.43	105.19
330.658	101.19
330.887	126.19
331.115	117.19
331.344	129.19
331.572	122.19
331.801	121.19
332.03	137.19
332.258	152.19
332.486	189.19
332.715	324.19
332.943	537.19
333.172	822.19
333.4	709.19
333.629	274.19
333.857	165.19
334.085	142.19
334.314	128.19
334.542	129.19
334.771	128.19
334.999	125.19
335.227	133.19
335.455	130.19
335.684	123.19
335.912	133.19
336.14	114.19
336.369	102.19
336.597	124.19
336.825	113.19
337.053	119.19
337.281	120.19
337.51	111.19
337.738	113.19
337.966	118.19
338.194	114.19
338.422	130.19
338.65	112.19
338.878	116.19
339.106	130.19
339.334	116.19
339.562	134.19
339.79	124.19
340.018	129.19
340.246	124.19
340.474	113.19
340.702	104.19
340.93	112.19
341.158	110.19
341.386	109.19
341.614	131.19
341.842	113.19
342.07	117.19
342.298	123.19
342.526	128.19
342.754	121.19
342.981	120.19
343.209	102.19
343.437	117.19
343.665	111.19
343.893	91.19
344.12	96.19
344.348	100.19
344.576	97.19
344.804	125.19
345.031	106.19
345.259	121.19
345.487	106.19
345.714	101.19
345.942	113.19
346.17	121.19
346.397	115.19
346.625	120.19
346.853	91.19
347.08	109.19
347.308	98.19
347.535	100.19
347.763	110.19
347.99	110.19
348.218	111.19
348.445	117.19
348.673	106.19
348.9	133.19
349.128	120.19
349.355	126.19
349.583	127.19
349.81	131.19
350.037	127.19
350.265	114.19
350.492	118.19
350.72	118.19
350.947	123.19
351.174	118.19
351.402	132.19
351.629	116.19
351.856	120.19
352.083	111.19
352.311	123.19
352.538	117.19
352.765	104.19
352.992	113.19
353.22	127.19
353.447	108.19
353.674	106.19
353.901	95.19
354.128	105.19
354.355	110.19
354.583	115.19
354.81	103.19
355.037	112.19
355.264	101.19
355.491	112.19
355.718	105.19
355.945	105.19
356.172	102.19
356.399	118.19
356.626	109.19
356.853	125.19
357.08	112.19
357.307	111.19
357.534	97.19
357.761	100.19
357.988	111.19
358.215	120.19
358.441	129.19
358.668	122.19
358.895	112.19
359.122	113.19
359.349	120.19
359.576	124.19
359.802	114.19
360.029	113.19
360.256	117.19
360.483	107.19
360.709	123.19
360.936	125.19
361.163	118.19
361.39	105.19
361.616	113.19
361.843	117.19
362.07	117.19
362.296	126.19
362.523	108.19
362.749	113.19
362.976	111.19
363.203	99.19
363.429	107.19
363.656	102.19
363.882	115.19
364.109	107.19
364.335	127.19
364.562	106.19
364.788	111.19
365.015	112.19
365.241	161.19
365.468	209.19
365.694	267.19
365.92	209.19
366.147	128.19
366.373	101.19
366.599	101.19
366.826	109.19
367.052	104.19
367.278	102.19
367.505	102.19
367.731	85.19
367.957	94.19
368.184	109.19
368.41	121.19
368.636	135.19
368.862	102.19
369.089	107.19
369.315	122.19
369.541	127.19
369.767	119.19
369.993	115.19
370.219	102.19
370.445	117.19
370.672	126.19
370.898	118.19
371.124	103.19
371.35	100.19
371.576	111.19
371.802	111.19
372.028	115.19
372.254	128.19
372.48	106.19
372.706	103.19
372.932	124.19
373.158	115.19
373.384	115.19
373.61	120.19
373.835	113.19
374.061	118.19
374.287	123.19
374.513	129.19
374.739	127.19
374.965	128.19
375.191	119.19
375.416	107.19
375.642	112.19
375.868	101.19
376.094	107.19
376.319	94.19
376.545	113.19
376.771	117.19
376.997	110.19
377.222	119.19
377.448	112.19
377.674	98.19
377.899	96.19
378.125	113.19
378.35	120.19
378.576	114.19
378.802	102.19
379.027	140.19
379.253	148.19
379.478	187.19
379.704	346.19
379.929	842.19
380.155	1706.19
380.38	1801.19
380.606	566.19
380.831	219.19
381.057	147.19
381.282	129.19
381.507	94.19
381.733	137.19
381.958	105.19
382.184	102.19
382.409	98.19
382.634	118.19
382.86	112.19
383.085	110.19
383.31	105.19
383.535	111.19
383.761	117.19
383.986	111.19
384.211	114.19
384.436	107.19
384.662	119.19
384.887	106.19
385.112	94.19
385.337	119.19
385.562	109.19
385.787	111.19
386.013	118.19
386.238	114.19
386.463	97.19
386.688	109.19
386.913	121.19
387.138	115.19
387.363	119.19
387.588	113.19
387.813	105.19
388.038	106.19
388.263	115.19
388.488	111.19
388.713	122.19
388.938	101.19
389.163	103.19
389.387	109.19
389.612	97.19
389.837	104.19
390.062	105.19
390.287	118.19
390.512	115.19
390.736	118.19
390.961	109.19
391.186	106.19
391.411	98.19
391.636	92.19
391.86	88.19
392.085	88.19
392.31	97.19
392.534	103.19
392.759	103.19
392.984	98.19
393.208	118.19
393.433	166.19
393.658	169.19
393.882	123.19
394.107	98.19
394.331	102.19
394.556	100.19
394.78	110.19
395.005	105.19
395.229	111.19
395.454	106.19
395.678	109.19
395.903	83.19
396.127	113.19
396.352	96.19
396.576	94.19
396.801	122.19
397.025	143.19
397.249	111.19
397.474	111.19
397.698	97.19
397.922	103.19
398.147	103.19
398.371	86.19
398.595	98.19
398.82	109.19
399.044	109.19
399.268	99.19
399.492	85.19
399.717	100.19
399.941	101.19
400.165	99.19
400.389	90.19
400.613	97.19
400.837	85.19
401.062	89.19
401.286	89.19
401.51	100.19
401.734	113.19
401.958	106.19
402.182	93.19
402.406	98.19
402.63	93.19
402.854	86.19
403.078	90.19
403.302	95.19
403.526	101.19
403.75	101.19
403.974	104.19
404.198	101.19
404.422	99.19
404.645	99.19
404.869	115.19
405.093	96.19
405.317	121.19
405.541	118.19
405.765	141.19
405.988	170.19
406.212	127.19
406.436	98.19
406.66	105.19
406.883	94.19
407.107	121.19
407.331	113.19
407.555	91.19
407.778	98.19
408.002	103.19
408.226	110.19
408.449	109.19
408.673	110.19
408.896	113.19
409.12	90.19
409.344	101.19
409.567	91.19
409.791	84.19
410.014	89.19
410.238	111.19
410.461	109.19
410.685	106.19
410.908	106.19
411.132	111.19
411.355	109.19
411.578	103.19
411.802	113.19
412.025	104.19
412.249	89.19
412.472	91.19
412.695	105.19
412.919	111.19
413.142	103.19
413.365	92.19
413.589	91.19
413.812	106.19
414.035	106.19
414.258	109.19
414.482	98.19
414.705	97.19
414.928	110.19
415.151	119.19
415.374	113.19
415.597	94.19
415.821	98.19
416.044	89.19
416.267	97.19
416.49	89.19
416.713	108.19
416.936	85.19
417.159	91.19
417.382	95.19
417.605	93.19
417.828	101.19
418.051	109.19
418.274	109.19
418.497	108.19
418.72	107.19
418.943	100.19
419.166	109.19
419.389	116.19
419.611	116.19
419.834	106.19
420.057	106.19
420.28	101.19
420.503	110.19
420.726	76.19
420.948	83.19
421.171	94.19
421.394	95.19
421.617	83.19
421.839	100.19
422.062	95.19
422.285	97.19
422.507	105.19
422.73	119.19
422.953	129.19
423.175	122.19
423.398	96.19
423.621	105.19
423.843	102.19
424.066	100.19
424.288	93.19
424.511	95.19
424.733	103.19
424.956	89.19
425.178	86.19
425.401	91.19
425.623	96.19
425.846	88.19
426.068	105.19
426.291	111.19
426.513	97.19
426.735	92.19
426.958	99.19
427.18	90.19
427.402	94.19
427.625	94.19
427.847	101.19
428.069	114.19
428.292	101.19
428.514	111.19
428.736	86.19
428.958	93.19
429.181	103.19
429.403	100.19
429.625	106.19
429.847	96.19
430.069	103.19
430.292	106.19
430.514	117.19
430.736	119.19
430.958	89.19
431.18	99.19
431.402	91.19
431.624	109.19
431.846	93.19
432.068	82.19
432.29	97.19
432.512	98.19
432.734	100.19
432.956	95.19
433.178	96.19
433.4	74.19
433.622	90.19
433.844	105.19
434.066	89.19
434.287	97.19
434.509	101.19
434.731	107.19
434.953	116.19
435.175	87.19
435.397	89.19
435.618	89.19
435.84	91.19
436.062	102.19
436.284	98.19
436.505	100.19
436.727	100.19
436.949	103.19
437.17	78.19
437.392	86.19
437.614	84.19
437.835	85.19
438.057	80.19
438.278	87.19
438.5	93.19
438.721	94.19
438.943	101.19
439.165	112.19
439.386	91.19
439.608	104.19
439.829	95.19
440.05	105.19
440.272	128.19
440.493	113.19
440.715	97.19
440.936	88.19
441.158	114.19
441.379	98.19
441.6	103.19
441.822	98.19
442.043	123.19
442.264	145.19
442.486	127.19
442.707	112.19
442.928	103.19
443.149	94.19
443.371	107.19
443.592	89.19
443.813	88.19
444.034	89.19
444.255	84.19
444.476	100.19
444.698	101.19
444.919	86.19
445.14	184.19
445.361	138.19
445.582	99.19
445.803	92.19
446.024	119.19
446.245	103.19
446.466	113.19
446.687	114.19
446.908	107.19
447.129	102.19
447.35	93.19
447.571	94.19
447.792	101.19
448.013	110.19
448.234	106.19
448.455	100.19
448.675	93.19
448.896	107.19
449.117	115.19
449.338	138.19
449.559	165.19
449.779	135.19
450	121.19
450.221	108.19
450.442	105.19
450.662	123.19
450.883	119.19
451.104	99.19
451.324	111.19
451.545	109.19
451.766	122.19
451.986	141.19
452.207	247.19
452.428	616.19
452.648	1545.19
452.869	861.19
453.089	220.19
453.31	127.19
453.53	131.19
453.751	142.19
453.971	173.19
454.192	160.19
454.412	115.19
454.633	98.19
454.853	95.19
455.073	90.19
455.294	86.19
455.514	83.19
455.734	86.19
455.955	91.19
456.175	86.19
456.395	111.19
456.616	97.19
456.836	101.19
457.056	110.19
457.276	96.19
457.497	113.19
457.717	128.19
457.937	102.19
458.157	94.19
458.377	96.19
458.598	85.19
458.818	90.19
459.038	90.19
459.258	109.19
459.478	89.19
459.698	83.19
459.918	91.19
460.138	90.19
460.358	82.19
460.578	104.19
460.798	106.19
461.018	99.19
461.238	95.19
461.458	80.19
461.678	100.19
461.898	101.19
462.118	90.19
462.338	103.19
462.558	104.19
462.777	101.19
462.997	103.19
463.217	121.19
463.437	133.19
463.657	189.19
463.876	194.19
464.096	141.19
464.316	100.19
464.536	95.19
464.755	95.19
464.975	96.19
465.195	95.19
465.414	95.19
465.634	96.19
465.854	94.19
466.073	87.19
466.293	98.19
466.512	97.19
466.732	97.19
466.951	101.19
467.171	157.19
467.391	139.19
467.61	118.19
467.829	97.19
468.049	105.19
468.268	87.19
468.488	115.19
468.707	90.19
468.927	102.19
469.146	101.19
469.365	99.19
469.585	102.19
469.804	99.19
470.023	106.19
470.243	98.19
470.462	91.19
470.681	107.19
470.901	134.19
471.12	205.19
471.339	221.19
471.558	148.19
471.777	107.19
471.997	118.19
472.216	85.19
472.435	104.19
472.654	89.19
472.873	88.19
473.092	98.19
473.311	93.19
473.53	97.19
473.749	101.19
473.968	113.19
474.187	93.19
474.406	98.19
474.625	97.19
474.844	103.19
475.063	93.19
475.282	99.19
475.501	101.19
475.72	111.19
475.939	103.19
476.158	97.19
476.377	99.19
476.596	117.19
476.814	96.19
477.033	93.19
477.252	97.19
477.471	100.19
477.69	103.19
477.908	89.19
478.127	97.19
478.346	104.19
478.564	108.19
478.783	106.19
479.002	89.19
479.22	101.19
479.439	106.19
479.658	98.19
479.876	86.19
480.095	109.19
480.313	81.19
480.532	94.19
480.751	98.19
480.969	88.19
481.188	99.19
481.406	99.19
481.624	103.19
481.843	116.19
482.061	125.19
482.28	98.19
482.498	101.19
482.717	103.19
482.935	98.19
483.153	96.19
483.372	98.19
483.59	106.19
483.808	112.19
484.027	103.19
484.245	119.19
484.463	187.19
484.681	255.19
484.9	157.19
485.118	125.19
485.336	123.19
485.554	95.19
485.772	115.19
485.99	190.19
486.209	267.19
486.427	165.19
486.645	131.19
486.863	115.19
487.081	113.19
487.299	100.19
487.517	89.19
487.735	94.19
487.953	112.19
488.171	115.19
488.389	107.19
488.607	97.19
488.825	77.19
489.043	103.19
489.261	90.19
489.479	100.19
489.696	87.19
489.914	86.19
490.132	117.19
490.35	100.19
490.568	113.19
490.786	104.19
491.003	119.19
491.221	122.19
491.439	132.19
491.657	99.19
491.874	107.19
492.092	111.19
492.31	105.19
492.527	98.19
492.745	99.19
492.963	119.19
493.18	111.19
493.398	120.19
493.615	106.19
493.833	107.19
494.05	101.19
494.268	109.19
494.485	106.19
494.703	105.19
494.92	110.19
495.138	98.19
495.355	99.19
495.573	109.19
495.79	103.19
496.008	113.19
496.225	113.19
496.442	114.19
496.66	114.19
496.877	154.19
497.094	157.19
497.312	115.19
497.529	95.19
497.746	113.19
497.963	104.19
498.181	117.19
498.398	109.19
498.615	102.19
498.832	118.19
499.049	101.19
499.267	125.19
499.484	173.19
499.701	103.19
499.918	97.19
500.135	101.19
500.352	99.19
500.569	99.19
500.786	86.19
501.003	104.19
501.22	105.19
501.437	101.19
501.654	107.19
501.871	95.19
502.088	103.19
502.305	105.19
502.522	105.19
502.739	106.19
502.956	93.19
503.172	109.19
503.389	106.19
503.606	101.19
503.823	104.19
504.04	100.19
504.256	110.19
504.473	100.19
504.69	94.19
504.907	118.19
505.123	114.19
505.34	108.19
505.557	89.19
505.773	102.19
505.99	97.19
506.207	111.19
506.423	114.19
506.64	110.19
506.856	106.19
507.073	91.19
507.289	90.19
507.506	112.19
