Data from SnStandardFlinnAPT0064_LampEnergy10_LIBS07252019.E.O._I.C._HRD10591_15-20-14-494.txt Node
Date: Thu Jul 25 15:20:14 EDT 2019
User: cochatt
Spectrometer: HR+D1059
Trigger mode: 1
Integration Time (sec): 1.000000E-1
Scans to average: 1
Electric dark correction enabled: true
Nonlinearity correction enabled: false
Boxcar width: 0
XAxis mode: Wavelengths
Number of Pixels in Spectrum: 2048
>>>>>Begin Spectral Data<<<<<
223.165	-13.12
223.4	-13.12
223.635	-13.12
223.869	-13.12
224.104	-19.12
224.338	-21.12
224.573	-7.12
224.808	-9.12
225.042	-10.12
225.277	-13.12
225.511	-8.12
225.746	8.88
225.98	13.88
226.215	12.88
226.449	17.88
226.683	10.88
226.918	11.88
227.152	37.88
227.387	40.88
227.621	37.88
227.856	42.88
228.09	43.88
228.324	60.88
228.559	49.88
228.793	108.88
229.027	294.88
229.262	351.88
229.496	292.88
229.73	299.88
229.964	300.88
230.199	311.88
230.433	327.88
230.667	340.88
230.901	331.88
231.136	332.88
231.37	350.88
231.604	381.88
231.838	462.88
232.072	552.88
232.306	592.88
232.541	509.88
232.775	443.88
233.009	418.88
233.243	436.88
233.477	501.88
233.711	534.88
233.945	603.88
234.179	532.88
234.413	466.88
234.647	450.88
234.881	476.88
235.115	529.88
235.349	626.88
235.583	801.88
235.817	1045.88
236.051	1030.88
236.285	682.88
236.519	557.88
236.753	530.88
236.987	525.88
237.221	548.88
237.455	524.88
237.689	466.88
237.922	480.88
238.156	460.88
238.39	476.88
238.624	510.88
238.858	496.88
239.091	502.88
239.325	504.88
239.559	504.88
239.793	530.88
240.027	527.88
240.26	563.88
240.494	557.88
240.728	604.88
240.961	640.88
241.195	647.88
241.429	713.88
241.662	736.88
241.896	794.88
242.13	1002.88
242.363	1304.88
242.597	1720.88
242.83	1629.88
243.064	1627.88
243.298	1877.88
243.531	1575.88
243.765	994.88
243.998	813.88
244.232	725.88
244.465	662.88
244.699	662.88
244.932	649.88
245.166	700.88
245.399	700.88
245.633	702.88
245.866	694.88
246.099	670.88
246.333	630.88
246.566	667.88
246.8	638.88
247.033	659.88
247.266	673.88
247.5	675.88
247.733	705.88
247.966	715.88
248.2	796.88
248.433	917.88
248.666	1032.88
248.899	978.88
249.133	860.88
249.366	910.88
249.599	1000.88
249.832	1136.88
250.066	1133.88
250.299	874.88
250.532	788.88
250.765	756.88
250.998	756.88
251.231	750.88
251.465	760.88
251.698	762.88
251.931	741.88
252.164	734.88
252.397	754.88
252.63	810.88
252.863	817.88
253.096	788.88
253.329	793.88
253.562	805.88
253.795	810.88
254.028	808.88
254.261	841.88
254.494	896.88
254.727	1057.88
254.96	1290.88
255.193	1298.88
255.426	989.88
255.659	874.88
255.892	882.88
256.124	884.88
256.357	902.88
256.59	933.88
256.823	1012.88
257.056	1152.88
257.289	1412.88
257.521	1602.88
257.754	1224.88
257.987	997.88
258.22	943.88
258.452	915.88
258.685	937.88
258.918	982.88
259.151	1015.88
259.383	1131.88
259.616	1273.88
259.849	1277.88
260.081	1097.88
260.314	989.88
260.547	961.88
260.779	956.88
261.012	963.88
261.244	997.88
261.477	982.88
261.71	968.88
261.942	976.88
262.175	1015.88
262.407	1050.88
262.64	1040.88
262.872	1112.88
263.105	1141.88
263.337	1176.88
263.57	1251.88
263.802	1315.88
264.035	1317.88
264.267	1320.88
264.499	1351.88
264.732	1437.88
264.964	1446.88
265.197	1389.88
265.429	1426.88
265.661	1460.88
265.894	1577.88
266.126	1800.88
266.358	1986.88
266.591	1962.88
266.823	1606.88
267.055	1449.88
267.287	1383.88
267.52	1318.88
267.752	1310.88
267.984	1318.88
268.216	1285.88
268.448	1245.88
268.681	1233.88
268.913	1229.88
269.145	1230.88
269.377	1248.88
269.609	1254.88
269.841	1269.88
270.073	1406.88
270.306	1589.88
270.538	2240.88
270.77	3307.88
271.002	4165.88
271.234	2937.88
271.466	1948.88
271.698	1557.88
271.93	1421.88
272.162	1339.88
272.394	1321.88
272.626	1280.88
272.858	1252.88
273.09	1236.88
273.322	1237.88
273.553	1239.88
273.785	1197.88
274.017	1229.88
274.249	1220.88
274.481	1221.88
274.713	1206.88
274.945	1236.88
275.176	1225.88
275.408	1243.88
275.64	1268.88
275.872	1248.88
276.104	1257.88
276.335	1303.88
276.567	1295.88
276.799	1314.88
277.031	1311.88
277.262	1349.88
277.494	1440.88
277.726	1594.88
277.957	1866.88
278.189	2173.88
278.421	2003.88
278.652	1837.88
278.884	1722.88
279.115	1520.88
279.347	1438.88
279.579	1412.88
279.81	1407.88
280.042	1421.88
280.273	1436.88
280.505	1458.88
280.736	1515.88
280.968	1638.88
281.199	1861.88
281.431	2105.88
281.662	2208.88
281.894	1847.88
282.125	1678.88
282.356	1672.88
282.588	1699.88
282.819	1760.88
283.051	1847.88
283.282	2104.88
283.513	2606.88
283.745	3724.88
283.976	5975.88
284.207	8442.88
284.439	7684.88
284.67	4743.88
284.901	3897.88
285.132	3922.88
285.364	3811.88
285.595	2822.88
285.826	2524.88
286.057	2905.88
286.288	4080.88
286.52	5496.88
286.751	5116.88
286.982	3192.88
287.213	2363.88
287.444	2077.88
287.675	1933.88
287.906	1820.88
288.138	1756.88
288.369	1717.88
288.6	1741.88
288.831	1698.88
289.062	1717.88
289.293	1724.88
289.524	1710.88
289.755	1713.88
289.986	1724.88
290.217	1740.88
290.448	1725.88
290.679	1745.88
290.91	1796.88
291.141	1913.88
291.371	2083.88
291.602	2187.88
291.833	1977.88
292.064	1769.88
292.295	1722.88
292.526	1678.88
292.757	1695.88
292.987	1616.88
293.218	1618.88
293.449	1652.88
293.68	1629.88
293.91	1603.88
294.141	1588.88
294.372	1568.88
294.603	1595.88
294.833	1544.88
295.064	1583.88
295.295	1556.88
295.525	1558.88
295.756	1580.88
295.987	1577.88
296.217	1557.88
296.448	1612.88
296.679	1582.88
296.909	1585.88
297.14	1601.88
297.37	1619.88
297.601	1649.88
297.831	1641.88
298.062	1623.88
298.292	1608.88
298.523	1703.88
298.753	1732.88
298.984	1753.88
299.214	1768.88
299.445	1750.88
299.675	1805.88
299.905	1890.88
300.136	1962.88
300.366	2203.88
300.597	2803.88
300.827	4018.88
301.057	5476.88
301.288	5531.88
301.518	3568.88
301.748	2684.88
301.979	2409.88
302.209	2368.88
302.439	2384.88
302.669	2522.88
302.9	3069.88
303.13	4377.88
303.36	6481.88
303.59	8674.88
303.82	7521.88
304.051	4482.88
304.281	3118.88
304.511	2655.88
304.741	2418.88
304.971	2248.88
305.201	2136.88
305.431	2045.88
305.661	2015.88
305.891	1916.88
306.121	1935.88
306.352	1909.88
306.582	1885.88
306.812	1852.88
307.042	1859.88
307.272	1829.88
307.502	1848.88
307.731	1830.88
307.961	1847.88
308.191	1897.88
308.421	1800.88
308.651	1828.88
308.881	1822.88
309.111	1819.88
309.341	1828.88
309.571	1825.88
309.8	1862.88
310.03	1888.88
310.26	1855.88
310.49	1853.88
310.72	1922.88
310.949	1876.88
311.179	1925.88
311.409	1897.88
311.639	1928.88
311.868	1960.88
312.098	1950.88
312.328	1963.88
312.557	1974.88
312.787	2020.88
313.017	1970.88
313.246	2021.88
313.476	2032.88
313.706	2127.88
313.935	2233.88
314.165	2403.88
314.394	2525.88
314.624	2441.88
314.853	2225.88
315.083	2208.88
315.312	2209.88
315.542	2247.88
315.771	2231.88
316.001	2301.88
316.23	2356.88
316.46	2506.88
316.689	2761.88
316.919	3321.88
317.148	4809.88
317.377	7386.88
317.607	10973.88
317.836	11396.88
318.065	7001.88
318.295	4426.88
318.524	3571.88
318.753	3049.88
318.983	2820.88
319.212	2600.88
319.441	2508.88
319.67	2479.88
319.9	2416.88
320.129	2425.88
320.358	2365.88
320.587	2390.88
320.816	2367.88
321.046	2366.88
321.275	2394.88
321.504	2399.88
321.733	2472.88
321.962	2573.88
322.191	2582.88
322.42	2552.88
322.649	2574.88
322.878	2581.88
323.108	2529.88
323.337	2562.88
323.566	2521.88
323.795	2641.88
324.024	2695.88
324.253	2787.88
324.482	2905.88
324.71	3096.88
324.939	3336.88
325.168	3359.88
325.397	3454.88
325.626	4106.88
325.855	5848.88
326.084	9114.88
326.313	13102.88
326.542	13869.88
326.77	9466.88
326.999	6164.88
327.228	5099.88
327.457	4864.88
327.686	4962.88
327.914	5344.88
328.143	6249.88
328.372	7448.88
328.6	8087.88
328.829	7221.88
329.058	5972.88
329.287	5223.88
329.515	4780.88
329.744	4311.88
329.972	4135.88
330.201	3928.88
330.43	3802.88
330.658	3639.88
330.887	3621.88
331.115	3548.88
331.344	3520.88
331.572	3469.88
331.801	3481.88
332.03	3601.88
332.258	3669.88
332.486	3769.88
332.715	4342.88
332.943	5446.88
333.172	6885.88
333.4	6851.88
333.629	5081.88
333.857	4554.88
334.085	4530.88
334.314	4741.88
334.542	5245.88
334.771	6161.88
334.999	7702.88
335.227	9603.88
335.455	10828.88
335.684	9739.88
335.912	7869.88
336.14	6693.88
336.369	5843.88
336.597	5347.88
336.825	4918.88
337.053	4622.88
337.281	4317.88
337.51	4059.88
337.738	3904.88
337.966	3757.88
338.194	3653.88
338.422	3510.88
338.65	3393.88
338.878	3335.88
339.106	3268.88
339.334	3230.88
339.562	3145.88
339.79	3103.88
340.018	3045.88
340.246	3113.88
340.474	3101.88
340.702	3028.88
340.93	3086.88
341.158	3056.88
341.386	2997.88
341.614	2985.88
341.842	2934.88
342.07	2854.88
342.298	2838.88
342.526	2834.88
342.754	2760.88
342.981	2796.88
343.209	2733.88
343.437	2785.88
343.665	2794.88
343.893	2838.88
344.12	2841.88
344.348	2800.88
344.576	2759.88
344.804	2755.88
345.031	2671.88
345.259	2595.88
345.487	2584.88
345.714	2622.88
345.942	2532.88
346.17	2568.88
346.397	2553.88
346.625	2519.88
346.853	2564.88
347.08	2553.88
347.308	2530.88
347.535	2560.88
347.763	2534.88
347.99	2447.88
348.218	2551.88
348.445	2505.88
348.673	2475.88
348.9	2499.88
349.128	2468.88
349.355	2415.88
349.583	2498.88
349.81	2459.88
350.037	2394.88
350.265	2440.88
350.492	2426.88
350.72	2385.88
350.947	2395.88
351.174	2477.88
351.402	2395.88
351.629	2416.88
351.856	2392.88
352.083	2416.88
352.311	2394.88
352.538	2422.88
352.765	2415.88
352.992	2360.88
353.22	2359.88
353.447	2391.88
353.674	2405.88
353.901	2385.88
354.128	2421.88
354.355	2412.88
354.583	2473.88
354.81	2412.88
355.037	2441.88
355.264	2440.88
355.491	2440.88
355.718	2411.88
355.945	2417.88
356.172	2502.88
356.399	2454.88
356.626	2482.88
356.853	2505.88
357.08	2531.88
357.307	2577.88
357.534	2619.88
357.761	2639.88
357.988	2596.88
358.215	2597.88
358.441	2540.88
358.668	2540.88
358.895	2571.88
359.122	2586.88
359.349	2566.88
359.576	2581.88
359.802	2548.88
360.029	2589.88
360.256	2610.88
360.483	2549.88
360.709	2545.88
360.936	2559.88
361.163	2577.88
361.39	2573.88
361.616	2610.88
361.843	2566.88
362.07	2620.88
362.296	2580.88
362.523	2590.88
362.749	2551.88
362.976	2597.88
363.203	2550.88
363.429	2533.88
363.656	2576.88
363.882	2565.88
364.109	2551.88
364.335	2589.88
364.562	2567.88
364.788	2558.88
365.015	2589.88
365.241	2678.88
365.468	2825.88
365.694	3010.88
365.92	2913.88
366.147	2706.88
366.373	2610.88
366.599	2613.88
366.826	2631.88
367.052	2569.88
367.278	2620.88
367.505	2658.88
367.731	2628.88
367.957	2632.88
368.184	2662.88
368.41	2703.88
368.636	2713.88
368.862	2689.88
369.089	2653.88
369.315	2673.88
369.541	2648.88
369.767	2687.88
369.993	2637.88
370.219	2668.88
370.445	2673.88
370.672	2679.88
370.898	2685.88
371.124	2711.88
371.35	2697.88
371.576	2739.88
371.802	2737.88
372.028	2773.88
372.254	2785.88
372.48	2757.88
372.706	2780.88
372.932	2822.88
373.158	2824.88
373.384	2776.88
373.61	2761.88
373.835	2789.88
374.061	2811.88
374.287	2815.88
374.513	2888.88
374.739	2899.88
374.965	2902.88
375.191	2916.88
375.416	2892.88
375.642	2891.88
375.868	2849.88
376.094	2803.88
376.319	2794.88
376.545	2820.88
376.771	2815.88
376.997	2762.88
377.222	2757.88
377.448	2736.88
377.674	2730.88
377.899	2732.88
378.125	2746.88
378.35	2760.88
378.576	2765.88
378.802	2782.88
379.027	2818.88
379.253	2874.88
379.478	3107.88
379.704	3614.88
379.929	5341.88
380.155	8308.88
380.38	9198.88
380.606	5542.88
380.831	3796.88
381.057	3293.88
381.282	3024.88
381.507	2898.88
381.733	2838.88
381.958	2757.88
382.184	2722.88
382.409	2712.88
382.634	2699.88
382.86	2682.88
383.085	2652.88
383.31	2708.88
383.535	2746.88
383.761	2733.88
383.986	2750.88
384.211	2721.88
384.436	2746.88
384.662	2787.88
384.887	2780.88
385.112	2761.88
385.337	2817.88
385.562	2789.88
385.787	2804.88
386.013	2807.88
386.238	2842.88
386.463	2826.88
386.688	2794.88
386.913	2780.88
387.138	2819.88
387.363	2806.88
387.588	2713.88
387.813	2758.88
388.038	2756.88
388.263	2794.88
388.488	2800.88
388.713	2826.88
388.938	2832.88
389.163	2785.88
389.387	2764.88
389.612	2751.88
389.837	2817.88
390.062	2770.88
390.287	2835.88
390.512	2795.88
390.736	2813.88
390.961	2882.88
391.186	2900.88
391.411	2937.88
391.636	2912.88
391.86	2933.88
392.085	2921.88
392.31	2915.88
392.534	2904.88
392.759	2886.88
392.984	2835.88
393.208	2904.88
393.433	2867.88
393.658	2849.88
393.882	2848.88
394.107	2781.88
394.331	2840.88
394.556	2842.88
394.78	2894.88
395.005	2846.88
395.229	2800.88
395.454	2891.88
395.678	2904.88
395.903	2906.88
396.127	2871.88
396.352	2862.88
396.576	2882.88
396.801	2883.88
397.025	2934.88
397.249	2928.88
397.474	2933.88
397.698	2952.88
397.922	2974.88
398.147	2926.88
398.371	3033.88
398.595	3026.88
398.82	3057.88
399.044	3231.88
399.268	3344.88
399.492	3481.88
399.717	3632.88
399.941	3640.88
400.165	3562.88
400.389	3376.88
400.613	3214.88
400.837	3137.88
401.062	3138.88
401.286	3097.88
401.51	3102.88
401.734	3004.88
401.958	3076.88
402.182	3086.88
402.406	3082.88
402.63	3072.88
402.854	3114.88
403.078	3121.88
403.302	3130.88
403.526	3136.88
403.75	3165.88
403.974	3114.88
404.198	3186.88
404.422	3224.88
404.645	3160.88
404.869	3150.88
405.093	3190.88
405.317	3154.88
405.541	3268.88
405.765	3225.88
405.988	3279.88
406.212	3329.88
406.436	3252.88
406.66	3278.88
406.883	3268.88
407.107	3381.88
407.331	3453.88
407.555	3508.88
407.778	3460.88
408.002	3463.88
408.226	3437.88
408.449	3416.88
408.673	3351.88
408.896	3253.88
409.12	3214.88
409.344	3284.88
409.567	3195.88
409.791	3217.88
410.014	3181.88
410.238	3150.88
410.461	3164.88
410.685	3142.88
410.908	3102.88
411.132	3132.88
411.355	3054.88
411.578	3063.88
411.802	3100.88
412.025	3027.88
412.249	3062.88
412.472	3032.88
412.695	3019.88
412.919	3033.88
413.142	3004.88
413.365	2984.88
413.589	3059.88
413.812	3045.88
414.035	3059.88
414.258	3022.88
414.482	3004.88
414.705	3026.88
414.928	2982.88
415.151	3028.88
415.374	2970.88
415.597	2953.88
415.821	2897.88
416.044	2875.88
416.267	2899.88
416.49	2890.88
416.713	2902.88
416.936	2931.88
417.159	2890.88
417.382	2868.88
417.605	2825.88
417.828	2900.88
418.051	2895.88
418.274	2942.88
418.497	2902.88
418.72	2989.88
418.943	2919.88
419.166	3093.88
419.389	3228.88
419.611	3197.88
419.834	3033.88
420.057	2995.88
420.28	2947.88
420.503	2883.88
420.726	2875.88
420.948	2845.88
421.171	2928.88
421.394	2900.88
421.617	2873.88
421.839	2921.88
422.062	2968.88
422.285	2887.88
422.507	2925.88
422.73	2937.88
422.953	3017.88
423.175	3037.88
423.398	2994.88
423.621	2883.88
423.843	2948.88
424.066	2907.88
424.288	2873.88
424.511	2869.88
424.733	2872.88
424.956	2933.88
425.178	2772.88
425.401	2769.88
425.623	2868.88
425.846	2733.88
426.068	2836.88
426.291	2736.88
426.513	2738.88
426.735	2793.88
426.958	2774.88
427.18	2708.88
427.402	2754.88
427.625	2749.88
427.847	2684.88
428.069	2621.88
428.292	2816.88
428.514	2669.88
428.736	2635.88
428.958	2720.88
429.181	2626.88
429.403	2665.88
429.625	2665.88
429.847	2643.88
430.069	2760.88
430.292	2866.88
430.514	2898.88
430.736	2883.88
430.958	2707.88
431.18	2644.88
431.402	2674.88
431.624	2638.88
431.846	2627.88
432.068	2614.88
432.29	2689.88
432.512	2610.88
432.734	2653.88
432.956	2593.88
433.178	2652.88
433.4	2704.88
433.622	2637.88
433.844	2695.88
434.066	2638.88
434.287	2694.88
434.509	2716.88
434.731	2731.88
434.953	2753.88
435.175	2795.88
435.397	2765.88
435.618	2681.88
435.84	2665.88
436.062	2661.88
436.284	2620.88
436.505	2646.88
436.727	2661.88
436.949	2651.88
437.17	2632.88
437.392	2539.88
437.614	2584.88
437.835	2520.88
438.057	2602.88
438.278	2508.88
438.5	2556.88
438.721	2594.88
438.943	2716.88
439.165	2773.88
439.386	2750.88
439.608	2765.88
439.829	2752.88
440.05	2874.88
440.272	2984.88
440.493	2800.88
440.715	2796.88
440.936	2779.88
441.158	2810.88
441.379	2795.88
441.6	2904.88
441.822	2981.88
442.043	3124.88
442.264	3194.88
442.486	2975.88
442.707	2880.88
442.928	2870.88
443.149	2864.88
443.371	2790.88
443.592	2805.88
443.813	2865.88
444.034	2895.88
444.255	2873.88
444.476	2920.88
444.698	3003.88
444.919	3080.88
445.14	3078.88
445.361	2991.88
445.582	2899.88
445.803	2840.88
446.024	2753.88
446.245	2824.88
446.466	2860.88
446.687	2834.88
446.908	2748.88
447.129	2681.88
447.35	2725.88
447.571	2639.88
447.792	2626.88
448.013	2612.88
448.234	2605.88
448.455	2624.88
448.675	2672.88
448.896	2737.88
449.117	2822.88
449.338	3025.88
449.559	3144.88
449.779	2847.88
450	2661.88
450.221	2591.88
450.442	2574.88
450.662	2587.88
450.883	2590.88
451.104	2553.88
451.324	2566.88
451.545	2580.88
451.766	2585.88
451.986	2605.88
452.207	2852.88
452.428	3708.88
452.648	5734.88
452.869	4813.88
453.089	3232.88
453.31	3049.88
453.53	2996.88
453.751	3099.88
453.971	3218.88
454.192	3142.88
454.412	2762.88
454.633	2553.88
454.853	2523.88
455.073	2499.88
455.294	2460.88
455.514	2421.88
455.734	2464.88
455.955	2421.88
456.175	2395.88
456.395	2408.88
456.616	2409.88
456.836	2471.88
457.056	2503.88
457.276	2480.88
457.497	2640.88
457.717	2654.88
457.937	2615.88
458.157	2534.88
458.377	2589.88
458.598	2611.88
458.818	2612.88
459.038	2619.88
459.258	2573.88
459.478	2627.88
459.698	2683.88
459.918	2746.88
460.138	2769.88
460.358	2784.88
460.578	2869.88
460.798	2872.88
461.018	2850.88
461.238	2896.88
461.458	2956.88
461.678	2883.88
461.898	3002.88
462.118	3045.88
462.338	3107.88
462.558	3074.88
462.777	3179.88
462.997	3300.88
463.217	3414.88
463.437	3531.88
463.657	3579.88
463.876	3576.88
464.096	3418.88
464.316	3238.88
464.536	3172.88
464.755	3049.88
464.975	3072.88
465.195	2915.88
465.414	2858.88
465.634	2785.88
465.854	2810.88
466.073	2693.88
466.293	2662.88
466.512	2676.88
466.732	2694.88
466.951	2837.88
467.171	3068.88
467.391	3002.88
467.61	2786.88
467.829	2632.88
468.049	2642.88
468.268	2617.88
468.488	2597.88
468.707	2612.88
468.927	2610.88
469.146	2593.88
469.365	2606.88
469.585	2688.88
469.804	2710.88
470.023	2762.88
470.243	2792.88
470.462	2932.88
470.681	3058.88
470.901	3428.88
471.12	3882.88
471.339	3850.88
471.558	3246.88
471.777	2954.88
471.997	2802.88
472.216	2720.88
472.435	2667.88
472.654	2681.88
472.873	2606.88
473.092	2647.88
473.311	2649.88
473.53	2656.88
473.749	2739.88
473.968	2834.88
474.187	2684.88
474.406	2575.88
474.625	2646.88
474.844	2641.88
475.063	2675.88
475.282	2620.88
475.501	2660.88
475.72	2679.88
475.939	2672.88
476.158	2749.88
476.377	2824.88
476.596	2779.88
476.814	2810.88
477.033	2745.88
477.252	2795.88
477.471	2812.88
477.69	2888.88
477.908	2902.88
478.127	2898.88
478.346	2953.88
478.564	3045.88
478.783	3061.88
479.002	3137.88
479.22	3106.88
479.439	3129.88
479.658	3153.88
479.876	3087.88
480.095	3157.88
480.313	3230.88
480.532	3280.88
480.751	3221.88
480.969	3225.88
481.188	3219.88
481.406	3167.88
481.624	3191.88
481.843	3204.88
482.061	3198.88
482.28	3145.88
482.498	3194.88
482.717	3154.88
482.935	3252.88
483.153	3256.88
483.372	3295.88
483.59	3317.88
483.808	3385.88
484.027	3425.88
484.245	3681.88
484.463	4128.88
484.681	4588.88
484.9	4193.88
485.118	3892.88
485.336	3787.88
485.554	3870.88
485.772	4081.88
485.99	4642.88
486.209	5010.88
486.427	4163.88
486.645	3707.88
486.863	3566.88
487.081	3524.88
487.299	3405.88
487.517	3425.88
487.735	3427.88
