Data from SnStandardFlinnAPT0064_LampEnergy5.5_LIBS07252019.E.O._I.C._HRD10591_15-15-07-491.txt Node
Date: Thu Jul 25 15:15:07 EDT 2019
User: cochatt
Spectrometer: HR+D1059
Trigger mode: 1
Integration Time (sec): 1.000000E-1
Scans to average: 1
Electric dark correction enabled: true
Nonlinearity correction enabled: false
Boxcar width: 0
XAxis mode: Wavelengths
Number of Pixels in Spectrum: 2048
>>>>>Begin Spectral Data<<<<<
223.165	-23.31
223.4	-23.31
223.635	-23.31
223.869	-4.31
224.104	-21.31
224.338	-29.31
224.573	-9.31
224.808	-15.31
225.042	0.69
225.277	-1.31
225.511	-7.31
225.746	-7.31
225.98	9.69
226.215	0.69
226.449	10.69
226.683	35.69
226.918	29.69
227.152	31.69
227.387	32.69
227.621	42.69
227.856	49.69
228.09	48.69
228.324	56.69
228.559	52.69
228.793	70.69
229.027	150.69
229.262	143.69
229.496	130.69
229.73	149.69
229.964	154.69
230.199	167.69
230.433	146.69
230.667	134.69
230.901	156.69
231.136	183.69
231.37	148.69
231.604	170.69
231.838	197.69
232.072	215.69
232.306	216.69
232.541	198.69
232.775	182.69
233.009	198.69
233.243	184.69
233.477	191.69
233.711	203.69
233.945	214.69
234.179	222.69
234.413	204.69
234.647	192.69
234.881	217.69
235.115	241.69
235.349	253.69
235.583	285.69
235.817	368.69
236.051	346.69
236.285	272.69
236.519	218.69
236.753	232.69
236.987	214.69
237.221	244.69
237.455	220.69
237.689	212.69
237.922	211.69
238.156	199.69
238.39	202.69
238.624	217.69
238.858	225.69
239.091	229.69
239.325	215.69
239.559	211.69
239.793	215.69
240.027	234.69
240.26	231.69
240.494	244.69
240.728	248.69
240.961	248.69
241.195	266.69
241.429	282.69
241.662	274.69
241.896	324.69
242.13	322.69
242.363	411.69
242.597	538.69
242.83	499.69
243.064	514.69
243.298	598.69
243.531	504.69
243.765	356.69
243.998	290.69
244.232	279.69
244.465	272.69
244.699	277.69
244.932	286.69
245.166	280.69
245.399	287.69
245.633	282.69
245.866	288.69
246.099	269.69
246.333	272.69
246.566	274.69
246.8	277.69
247.033	270.69
247.266	269.69
247.5	267.69
247.733	278.69
247.966	292.69
248.2	313.69
248.433	323.69
248.666	358.69
248.899	345.69
249.133	331.69
249.366	326.69
249.599	348.69
249.832	376.69
250.066	394.69
250.299	345.69
250.532	323.69
250.765	320.69
250.998	304.69
251.231	312.69
251.465	310.69
251.698	311.69
251.931	310.69
252.164	326.69
252.397	304.69
252.63	318.69
252.863	316.69
253.096	314.69
253.329	337.69
253.562	322.69
253.795	320.69
254.028	338.69
254.261	329.69
254.494	356.69
254.727	396.69
254.96	450.69
255.193	437.69
255.426	375.69
255.659	355.69
255.892	328.69
256.124	327.69
256.357	347.69
256.59	354.69
256.823	375.69
257.056	416.69
257.289	453.69
257.521	497.69
257.754	422.69
257.987	387.69
258.22	376.69
258.452	386.69
258.685	380.69
258.918	391.69
259.151	403.69
259.383	401.69
259.616	448.69
259.849	454.69
260.081	418.69
260.314	416.69
260.547	381.69
260.779	392.69
261.012	383.69
261.244	380.69
261.477	422.69
261.71	420.69
261.942	419.69
262.175	427.69
262.407	447.69
262.64	442.69
262.872	458.69
263.105	463.69
263.337	486.69
263.57	530.69
263.802	534.69
264.035	525.69
264.267	549.69
264.499	576.69
264.732	605.69
264.964	599.69
265.197	604.69
265.429	582.69
265.661	594.69
265.894	633.69
266.126	672.69
266.358	715.69
266.591	707.69
266.823	651.69
267.055	610.69
267.287	588.69
267.52	556.69
267.752	553.69
267.984	527.69
268.216	504.69
268.448	513.69
268.681	489.69
268.913	508.69
269.145	507.69
269.377	503.69
269.609	511.69
269.841	520.69
270.073	552.69
270.306	578.69
270.538	752.69
270.77	1050.69
271.002	1232.69
271.234	921.69
271.466	657.69
271.698	580.69
271.93	524.69
272.162	500.69
272.394	514.69
272.626	503.69
272.858	494.69
273.09	492.69
273.322	488.69
273.553	494.69
273.785	490.69
274.017	498.69
274.249	482.69
274.481	479.69
274.713	475.69
274.945	496.69
275.176	480.69
275.408	475.69
275.64	496.69
275.872	502.69
276.104	508.69
276.335	488.69
276.567	494.69
276.799	524.69
277.031	515.69
277.262	518.69
277.494	527.69
277.726	565.69
277.957	626.69
278.189	683.69
278.421	650.69
278.652	624.69
278.884	626.69
279.115	565.69
279.347	562.69
279.579	572.69
279.81	558.69
280.042	531.69
280.273	552.69
280.505	571.69
280.736	560.69
280.968	592.69
281.199	628.69
281.431	679.69
281.662	698.69
281.894	663.69
282.125	608.69
282.356	621.69
282.588	634.69
282.819	664.69
283.051	663.69
283.282	697.69
283.513	869.69
283.745	1181.69
283.976	1774.69
284.207	2460.69
284.439	2256.69
284.67	1436.69
284.901	1156.69
285.132	1149.69
285.364	1118.69
285.595	896.69
285.826	835.69
286.057	967.69
286.288	1262.69
286.52	1642.69
286.751	1519.69
286.982	1008.69
287.213	800.69
287.444	729.69
287.675	684.69
287.906	690.69
288.138	679.69
288.369	638.69
288.6	640.69
288.831	643.69
289.062	641.69
289.293	648.69
289.524	666.69
289.755	666.69
289.986	677.69
290.217	646.69
290.448	672.69
290.679	670.69
290.91	664.69
291.141	671.69
291.371	695.69
291.602	712.69
291.833	699.69
292.064	652.69
292.295	648.69
292.526	636.69
292.757	630.69
292.987	620.69
293.218	628.69
293.449	624.69
293.68	623.69
293.91	604.69
294.141	628.69
294.372	598.69
294.603	610.69
294.833	613.69
295.064	648.69
295.295	630.69
295.525	608.69
295.756	620.69
295.987	589.69
296.217	595.69
296.448	609.69
296.679	642.69
296.909	623.69
297.14	632.69
297.37	654.69
297.601	625.69
297.831	650.69
298.062	607.69
298.292	636.69
298.523	648.69
298.753	664.69
298.984	679.69
299.214	661.69
299.445	673.69
299.675	672.69
299.905	689.69
300.136	708.69
300.366	768.69
300.597	932.69
300.827	1225.69
301.057	1580.69
301.288	1614.69
301.518	1090.69
301.748	894.69
301.979	840.69
302.209	810.69
302.439	817.69
302.669	832.69
302.9	970.69
303.13	1298.69
303.36	1848.69
303.59	2375.69
303.82	2130.69
304.051	1329.69
304.281	1030.69
304.511	882.69
304.741	843.69
304.971	782.69
305.201	790.69
305.431	785.69
305.661	758.69
305.891	745.69
306.121	711.69
306.352	699.69
306.582	739.69
306.812	735.69
307.042	737.69
307.272	682.69
307.502	725.69
307.731	677.69
307.961	677.69
308.191	708.69
308.421	716.69
308.651	713.69
308.881	695.69
309.111	696.69
309.341	695.69
309.571	712.69
309.8	742.69
310.03	741.69
310.26	743.69
310.49	744.69
310.72	733.69
310.949	721.69
311.179	740.69
311.409	753.69
311.639	734.69
311.868	758.69
312.098	738.69
312.328	745.69
312.557	777.69
312.787	743.69
313.017	746.69
313.246	766.69
313.476	745.69
313.706	788.69
313.935	801.69
314.165	835.69
314.394	850.69
314.624	835.69
314.853	829.69
315.083	801.69
315.312	820.69
315.542	858.69
315.771	840.69
316.001	812.69
316.23	882.69
316.46	886.69
316.689	963.69
316.919	1097.69
317.148	1498.69
317.377	2182.69
317.607	3082.69
317.836	3199.69
318.065	1998.69
318.295	1397.69
318.524	1154.69
318.753	1040.69
318.983	998.69
319.212	935.69
319.441	909.69
319.67	908.69
319.9	922.69
320.129	893.69
320.358	885.69
320.587	894.69
320.816	891.69
321.046	876.69
321.275	889.69
321.504	880.69
321.733	908.69
321.962	919.69
322.191	914.69
322.42	919.69
322.649	928.69
322.878	913.69
323.108	962.69
323.337	953.69
323.566	957.69
323.795	965.69
324.024	998.69
324.253	987.69
324.482	1011.69
324.71	1074.69
324.939	1128.69
325.168	1115.69
325.397	1195.69
325.626	1348.69
325.855	1761.69
326.084	2696.69
326.313	3851.69
326.542	4131.69
326.77	2745.69
326.999	1914.69
327.228	1634.69
327.457	1586.69
327.686	1609.69
327.914	1695.69
328.143	1927.69
328.372	2229.69
328.6	2426.69
328.829	2226.69
329.058	1985.69
329.287	1822.69
329.515	1658.69
329.744	1542.69
329.972	1431.69
330.201	1423.69
330.43	1371.69
330.658	1355.69
330.887	1303.69
331.115	1295.69
331.344	1306.69
331.572	1269.69
331.801	1320.69
332.03	1306.69
332.258	1293.69
332.486	1356.69
332.715	1480.69
332.943	1744.69
333.172	2036.69
333.4	2042.69
333.629	1699.69
333.857	1608.69
334.085	1617.69
334.314	1662.69
334.542	1815.69
334.771	2034.69
334.999	2418.69
335.227	2877.69
335.455	3160.69
335.684	2924.69
335.912	2571.69
336.14	2292.69
336.369	2048.69
336.597	1870.69
336.825	1739.69
337.053	1625.69
337.281	1590.69
337.51	1472.69
337.738	1451.69
337.966	1399.69
338.194	1355.69
338.422	1306.69
338.65	1306.69
338.878	1271.69
339.106	1217.69
339.334	1198.69
339.562	1198.69
339.79	1181.69
340.018	1177.69
340.246	1134.69
340.474	1138.69
340.702	1146.69
340.93	1127.69
341.158	1160.69
341.386	1175.69
341.614	1160.69
341.842	1091.69
342.07	1114.69
342.298	1074.69
342.526	1068.69
342.754	1062.69
342.981	1042.69
343.209	1052.69
343.437	1093.69
343.665	1074.69
343.893	1072.69
344.12	1110.69
344.348	1124.69
344.576	1092.69
344.804	1042.69
345.031	1033.69
345.259	1008.69
345.487	1014.69
345.714	991.69
345.942	982.69
346.17	999.69
346.397	976.69
346.625	960.69
346.853	953.69
347.08	960.69
347.308	985.69
347.535	959.69
347.763	971.69
347.99	966.69
348.218	956.69
348.445	948.69
348.673	954.69
348.9	958.69
349.128	938.69
349.355	966.69
349.583	942.69
349.81	956.69
350.037	948.69
350.265	919.69
350.492	952.69
350.72	934.69
350.947	952.69
351.174	933.69
351.402	935.69
351.629	916.69
351.856	922.69
352.083	908.69
352.311	913.69
352.538	946.69
352.765	917.69
352.992	951.69
353.22	946.69
353.447	930.69
353.674	941.69
353.901	943.69
354.128	952.69
354.355	938.69
354.583	931.69
354.81	939.69
355.037	933.69
355.264	928.69
355.491	933.69
355.718	952.69
355.945	978.69
356.172	955.69
356.399	948.69
356.626	983.69
356.853	968.69
357.08	961.69
357.307	970.69
357.534	1022.69
357.761	1007.69
357.988	994.69
358.215	1006.69
358.441	1014.69
358.668	983.69
358.895	992.69
359.122	991.69
359.349	991.69
359.576	984.69
359.802	1001.69
360.029	996.69
360.256	1014.69
360.483	986.69
360.709	978.69
360.936	1001.69
361.163	982.69
361.39	1012.69
361.616	984.69
361.843	1010.69
362.07	1015.69
362.296	1008.69
362.523	1004.69
362.749	998.69
362.976	967.69
363.203	981.69
363.429	985.69
363.656	993.69
363.882	967.69
364.109	987.69
364.335	977.69
364.562	968.69
364.788	1003.69
365.015	991.69
365.241	1008.69
365.468	1062.69
365.694	1051.69
365.92	1048.69
366.147	1024.69
366.373	1024.69
366.599	1012.69
366.826	1058.69
367.052	1037.69
367.278	1044.69
367.505	992.69
367.731	1036.69
367.957	1041.69
368.184	1020.69
368.41	1055.69
368.636	1033.69
368.862	1001.69
369.089	1009.69
369.315	1006.69
369.541	1021.69
369.767	1016.69
369.993	1033.69
370.219	1036.69
370.445	1030.69
370.672	1048.69
370.898	1059.69
371.124	1048.69
371.35	1046.69
371.576	1035.69
371.802	1074.69
372.028	1088.69
372.254	1075.69
372.48	1100.69
372.706	1089.69
372.932	1098.69
373.158	1077.69
373.384	1078.69
373.61	1094.69
373.835	1100.69
374.061	1090.69
374.287	1096.69
374.513	1112.69
374.739	1124.69
374.965	1146.69
375.191	1133.69
375.416	1131.69
375.642	1104.69
375.868	1147.69
376.094	1086.69
376.319	1104.69
376.545	1104.69
376.771	1086.69
376.997	1104.69
377.222	1077.69
377.448	1088.69
377.674	1085.69
377.899	1081.69
378.125	1066.69
378.35	1072.69
378.576	1060.69
378.802	1055.69
379.027	1072.69
379.253	1100.69
379.478	1132.69
379.704	1318.69
379.929	1671.69
380.155	2360.69
380.38	2499.69
380.606	1705.69
380.831	1288.69
381.057	1210.69
381.282	1116.69
381.507	1106.69
381.733	1078.69
381.958	1078.69
382.184	1084.69
382.409	1065.69
382.634	1072.69
382.86	1100.69
383.085	1059.69
383.31	1074.69
383.535	1090.69
383.761	1054.69
383.986	1088.69
384.211	1102.69
384.436	1073.69
384.662	1088.69
384.887	1100.69
385.112	1092.69
385.337	1098.69
385.562	1118.69
385.787	1102.69
386.013	1114.69
386.238	1109.69
386.463	1099.69
386.688	1101.69
386.913	1123.69
387.138	1098.69
387.363	1077.69
387.588	1102.69
387.813	1100.69
388.038	1110.69
388.263	1108.69
388.488	1089.69
388.713	1083.69
388.938	1074.69
389.163	1090.69
389.387	1082.69
389.612	1107.69
389.837	1104.69
390.062	1121.69
390.287	1081.69
390.512	1112.69
390.736	1142.69
390.961	1131.69
391.186	1121.69
391.411	1126.69
391.636	1172.69
391.86	1172.69
392.085	1162.69
392.31	1135.69
392.534	1132.69
392.759	1094.69
392.984	1134.69
393.208	1138.69
393.433	1095.69
393.658	1122.69
393.882	1116.69
394.107	1110.69
394.331	1107.69
394.556	1108.69
394.78	1107.69
395.005	1122.69
395.229	1138.69
395.454	1113.69
395.678	1131.69
395.903	1195.69
396.127	1168.69
396.352	1146.69
396.576	1112.69
396.801	1138.69
397.025	1092.69
397.249	1178.69
397.474	1174.69
397.698	1147.69
397.922	1181.69
398.147	1172.69
398.371	1208.69
398.595	1194.69
398.82	1176.69
399.044	1278.69
399.268	1336.69
399.492	1412.69
399.717	1472.69
399.941	1472.69
400.165	1365.69
400.389	1319.69
400.613	1293.69
400.837	1237.69
401.062	1250.69
401.286	1201.69
401.51	1224.69
401.734	1226.69
401.958	1205.69
402.182	1226.69
402.406	1240.69
402.63	1205.69
402.854	1240.69
403.078	1246.69
403.302	1244.69
403.526	1233.69
403.75	1242.69
403.974	1297.69
404.198	1261.69
404.422	1266.69
404.645	1272.69
404.869	1264.69
405.093	1256.69
405.317	1256.69
405.541	1284.69
405.765	1285.69
405.988	1304.69
406.212	1280.69
406.436	1258.69
406.66	1322.69
406.883	1312.69
407.107	1345.69
407.331	1378.69
407.555	1384.69
407.778	1374.69
408.002	1322.69
408.226	1310.69
408.449	1336.69
408.673	1347.69
408.896	1294.69
409.12	1304.69
409.344	1297.69
409.567	1267.69
409.791	1258.69
410.014	1247.69
410.238	1278.69
410.461	1280.69
410.685	1251.69
410.908	1242.69
411.132	1215.69
411.355	1210.69
411.578	1214.69
411.802	1211.69
412.025	1204.69
412.249	1202.69
412.472	1216.69
412.695	1218.69
412.919	1241.69
413.142	1193.69
413.365	1202.69
413.589	1189.69
413.812	1207.69
414.035	1173.69
414.258	1195.69
414.482	1198.69
414.705	1212.69
414.928	1182.69
415.151	1203.69
415.374	1178.69
415.597	1164.69
415.821	1171.69
416.044	1156.69
416.267	1130.69
416.49	1163.69
416.713	1148.69
416.936	1166.69
417.159	1144.69
417.382	1122.69
417.605	1134.69
417.828	1141.69
418.051	1150.69
418.274	1165.69
418.497	1160.69
418.72	1151.69
418.943	1164.69
419.166	1202.69
419.389	1255.69
419.611	1248.69
419.834	1205.69
420.057	1226.69
420.28	1158.69
420.503	1172.69
420.726	1150.69
420.948	1146.69
421.171	1130.69
421.394	1160.69
421.617	1138.69
421.839	1188.69
422.062	1199.69
422.285	1160.69
422.507	1184.69
422.73	1171.69
422.953	1171.69
423.175	1186.69
423.398	1199.69
423.621	1152.69
423.843	1174.69
424.066	1147.69
424.288	1145.69
424.511	1162.69
424.733	1175.69
424.956	1179.69
425.178	1143.69
425.401	1146.69
425.623	1158.69
425.846	1126.69
426.068	1147.69
426.291	1131.69
426.513	1126.69
426.735	1107.69
426.958	1134.69
427.18	1074.69
427.402	1090.69
427.625	1118.69
427.847	1049.69
428.069	1114.69
428.292	1106.69
428.514	1063.69
428.736	1058.69
428.958	1050.69
429.181	1060.69
429.403	1046.69
429.625	1059.69
429.847	1091.69
430.069	1064.69
430.292	1122.69
430.514	1127.69
430.736	1151.69
430.958	1073.69
431.18	1083.69
431.402	1074.69
431.624	1065.69
431.846	1074.69
432.068	1041.69
432.29	1000.69
432.512	1040.69
432.734	1070.69
432.956	1046.69
433.178	1072.69
433.4	1069.69
433.622	1116.69
433.844	1103.69
434.066	1057.69
434.287	1056.69
434.509	1078.69
434.731	1099.69
434.953	1088.69
435.175	1106.69
435.397	1122.69
435.618	1086.69
435.84	1040.69
436.062	1080.69
436.284	1057.69
436.505	1057.69
436.727	1075.69
436.949	1072.69
437.17	1091.69
437.392	1026.69
437.614	1059.69
437.835	1026.69
438.057	1035.69
438.278	1024.69
438.5	1026.69
438.721	1073.69
438.943	1084.69
439.165	1064.69
439.386	1070.69
439.608	1087.69
439.829	1060.69
440.05	1130.69
440.272	1154.69
440.493	1118.69
440.715	1115.69
440.936	1113.69
441.158	1095.69
441.379	1114.69
441.6	1152.69
441.822	1163.69
442.043	1182.69
442.264	1226.69
442.486	1192.69
442.707	1141.69
442.928	1140.69
443.149	1165.69
443.371	1151.69
443.592	1148.69
443.813	1178.69
444.034	1160.69
444.255	1190.69
444.476	1222.69
444.698	1217.69
444.919	1220.69
445.14	1319.69
445.361	1227.69
445.582	1194.69
445.803	1142.69
446.024	1118.69
446.245	1186.69
446.466	1145.69
446.687	1113.69
446.908	1104.69
447.129	1073.69
447.35	1125.69
447.571	1098.69
447.792	1096.69
448.013	1076.69
448.234	1028.69
448.455	1070.69
448.675	1080.69
448.896	1085.69
449.117	1117.69
449.338	1144.69
449.559	1192.69
449.779	1097.69
450	1050.69
450.221	1036.69
450.442	1021.69
450.662	1001.69
450.883	1028.69
451.104	1038.69
451.324	1009.69
451.545	1037.69
451.766	1064.69
451.986	1040.69
452.207	1083.69
452.428	1243.69
452.648	1650.69
452.869	1421.69
453.089	1144.69
453.31	1110.69
453.53	1104.69
453.751	1132.69
453.971	1149.69
454.192	1150.69
454.412	1001.69
454.633	972.69
454.853	1008.69
455.073	987.69
455.294	983.69
455.514	993.69
455.734	969.69
455.955	995.69
456.175	974.69
456.395	969.69
456.616	986.69
456.836	960.69
457.056	1008.69
457.276	980.69
457.497	1009.69
457.717	1040.69
457.937	1020.69
458.157	1008.69
458.377	1042.69
458.598	1025.69
458.818	1048.69
459.038	1040.69
459.258	1033.69
459.478	1074.69
459.698	1080.69
459.918	1079.69
460.138	1096.69
460.358	1104.69
460.578	1133.69
460.798	1145.69
461.018	1177.69
461.238	1179.69
461.458	1172.69
461.678	1144.69
461.898	1174.69
462.118	1167.69
462.338	1191.69
462.558	1234.69
462.777	1269.69
462.997	1299.69
463.217	1345.69
463.437	1363.69
463.657	1320.69
463.876	1342.69
464.096	1305.69
464.316	1256.69
464.536	1251.69
464.755	1222.69
464.975	1214.69
465.195	1167.69
465.414	1167.69
465.634	1099.69
465.854	1097.69
466.073	1048.69
466.293	1075.69
466.512	1072.69
466.732	1102.69
466.951	1119.69
467.171	1189.69
467.391	1162.69
467.61	1090.69
467.829	1058.69
468.049	1070.69
468.268	1033.69
468.488	1038.69
468.707	1056.69
468.927	1050.69
469.146	1032.69
469.365	1060.69
469.585	1066.69
469.804	1058.69
470.023	1122.69
470.243	1107.69
470.462	1128.69
470.681	1160.69
470.901	1227.69
471.12	1386.69
471.339	1431.69
471.558	1208.69
471.777	1147.69
471.997	1083.69
472.216	1055.69
472.435	1047.69
472.654	1064.69
472.873	1014.69
473.092	1055.69
473.311	1058.69
473.53	1049.69
473.749	1057.69
473.968	1109.69
474.187	1056.69
474.406	1052.69
474.625	1054.69
474.844	1052.69
475.063	1070.69
475.282	1059.69
475.501	1056.69
475.72	1075.69
475.939	1059.69
476.158	1119.69
476.377	1137.69
476.596	1052.69
476.814	1085.69
477.033	1101.69
477.252	1088.69
477.471	1137.69
477.69	1134.69
477.908	1178.69
478.127	1180.69
478.346	1199.69
478.564	1227.69
478.783	1219.69
479.002	1264.69
479.22	1269.69
479.439	1253.69
479.658	1233.69
479.876	1246.69
480.095	1245.69
480.313	1251.69
480.532	1290.69
480.751	1280.69
480.969	1274.69
481.188	1246.69
481.406	1249.69
481.624	1218.69
481.843	1259.69
482.061	1247.69
482.28	1264.69
482.498	1210.69
482.717	1277.69
482.935	1247.69
483.153	1257.69
483.372	1295.69
483.59	1330.69
483.808	1310.69
484.027	1311.69
484.245	1425.69
484.463	1507.69
484.681	1636.69
484.9	1513.69
485.118	1445.69
485.336	1444.69
485.554	1449.69
485.772	1466.69
485.99	1626.69
486.209	1793.69
486.427	1518.69
486.645	1414.69
486.863	1383.69
487.081	1336.69
487.299	1361.69
487.517	1349.69
487.735	1330.69
487.953	1368.69
488.171	1363.69
488.389	1345.69
488.607	1299.69
488.825	1318.69
489.043	1314.69
489.261	1278.69
489.479	1292.69
489.696	1308.69
489.914	1301.69
490.132	1312.69
490.35	1340.69
490.568	1350.69
490.786	1337.69
491.003	1367.69
491.221	1398.69
491.439	1405.69
491.657	1376.69
491.874	1410.69
492.092	1438.69
492.31	1424.69
