Data from SnStandardFlinnAPT0064_LampEnergy5.5_LIBS07252019.E.O._I.C._HRD10591_15-16-53-492.txt Node
Date: Thu Jul 25 15:16:53 EDT 2019
User: cochatt
Spectrometer: HR+D1059
Trigger mode: 1
Integration Time (sec): 1.000000E-1
Scans to average: 1
Electric dark correction enabled: true
Nonlinearity correction enabled: false
Boxcar width: 0
XAxis mode: Wavelengths
Number of Pixels in Spectrum: 2048
>>>>>Begin Spectral Data<<<<<
223.165	-2.81
223.4	-2.81
223.635	-2.81
223.869	-16.81
224.104	-18.81
224.338	-18.81
224.573	-19.81
224.808	-0.81
225.042	-0.81
225.277	-4.81
225.511	-11.81
225.746	7.19
225.98	-5.81
226.215	17.19
226.449	17.19
226.683	22.19
226.918	20.19
227.152	17.19
227.387	26.19
227.621	27.19
227.856	64.19
228.09	63.19
228.324	50.19
228.559	65.19
228.793	89.19
229.027	164.19
229.262	169.19
229.496	159.19
229.73	140.19
229.964	160.19
230.199	173.19
230.433	171.19
230.667	179.19
230.901	182.19
231.136	166.19
231.37	184.19
231.604	192.19
231.838	229.19
232.072	241.19
232.306	245.19
232.541	228.19
232.775	210.19
233.009	217.19
233.243	207.19
233.477	236.19
233.711	263.19
233.945	268.19
234.179	241.19
234.413	224.19
234.647	220.19
234.881	244.19
235.115	260.19
235.349	275.19
235.583	371.19
235.817	465.19
236.051	448.19
236.285	283.19
236.519	257.19
236.753	243.19
236.987	230.19
237.221	239.19
237.455	240.19
237.689	232.19
237.922	224.19
238.156	230.19
238.39	220.19
238.624	226.19
238.858	236.19
239.091	217.19
239.325	242.19
239.559	241.19
239.793	241.19
240.027	255.19
240.26	269.19
240.494	279.19
240.728	260.19
240.961	277.19
241.195	296.19
241.429	305.19
241.662	309.19
241.896	357.19
242.13	419.19
242.363	533.19
242.597	666.19
242.83	663.19
243.064	668.19
243.298	793.19
243.531	656.19
243.765	411.19
243.998	338.19
244.232	318.19
244.465	307.19
244.699	298.19
244.932	320.19
245.166	313.19
245.399	319.19
245.633	322.19
245.866	312.19
246.099	327.19
246.333	298.19
246.566	314.19
246.8	303.19
247.033	307.19
247.266	315.19
247.5	314.19
247.733	307.19
247.966	332.19
248.2	345.19
248.433	394.19
248.666	427.19
248.899	406.19
249.133	396.19
249.366	398.19
249.599	417.19
249.832	467.19
250.066	461.19
250.299	387.19
250.532	363.19
250.765	343.19
250.998	351.19
251.231	325.19
251.465	347.19
251.698	345.19
251.931	332.19
252.164	331.19
252.397	340.19
252.63	343.19
252.863	371.19
253.096	352.19
253.329	358.19
253.562	351.19
253.795	327.19
254.028	359.19
254.261	368.19
254.494	395.19
254.727	455.19
254.96	539.19
255.193	523.19
255.426	454.19
255.659	384.19
255.892	378.19
256.124	376.19
256.357	378.19
256.59	401.19
256.823	435.19
257.056	448.19
257.289	553.19
257.521	610.19
257.754	501.19
257.987	441.19
258.22	410.19
258.452	391.19
258.685	403.19
258.918	426.19
259.151	417.19
259.383	475.19
259.616	527.19
259.849	521.19
260.081	467.19
260.314	462.19
260.547	453.19
260.779	432.19
261.012	437.19
261.244	455.19
261.477	448.19
261.71	444.19
261.942	450.19
262.175	464.19
262.407	475.19
262.64	472.19
262.872	465.19
263.105	531.19
263.337	535.19
263.57	573.19
263.802	565.19
264.035	607.19
264.267	596.19
264.499	602.19
264.732	635.19
264.964	635.19
265.197	640.19
265.429	658.19
265.661	655.19
265.894	684.19
266.126	739.19
266.358	838.19
266.591	808.19
266.823	691.19
267.055	624.19
267.287	617.19
267.52	593.19
267.752	592.19
267.984	553.19
268.216	578.19
268.448	542.19
268.681	569.19
268.913	579.19
269.145	563.19
269.377	540.19
269.609	559.19
269.841	571.19
270.073	594.19
270.306	690.19
270.538	937.19
270.77	1381.19
271.002	1663.19
271.234	1111.19
271.466	769.19
271.698	642.19
271.93	600.19
272.162	568.19
272.394	561.19
272.626	542.19
272.858	563.19
273.09	525.19
273.322	538.19
273.553	523.19
273.785	526.19
274.017	536.19
274.249	552.19
274.481	567.19
274.713	540.19
274.945	544.19
275.176	536.19
275.408	540.19
275.64	561.19
275.872	545.19
276.104	554.19
276.335	564.19
276.567	575.19
276.799	569.19
277.031	574.19
277.262	582.19
277.494	603.19
277.726	671.19
277.957	729.19
278.189	855.19
278.421	787.19
278.652	726.19
278.884	681.19
279.115	631.19
279.347	608.19
279.579	624.19
279.81	585.19
280.042	610.19
280.273	597.19
280.505	634.19
280.736	627.19
280.968	658.19
281.199	733.19
281.431	812.19
281.662	842.19
281.894	736.19
282.125	682.19
282.356	712.19
282.588	729.19
282.819	714.19
283.051	739.19
283.282	824.19
283.513	998.19
283.745	1462.19
283.976	2372.19
284.207	3348.19
284.439	2941.19
284.67	1792.19
284.901	1413.19
285.132	1399.19
285.364	1386.19
285.595	1087.19
285.826	987.19
286.057	1166.19
286.288	1587.19
286.52	2108.19
286.751	1963.19
286.982	1195.19
287.213	906.19
287.444	807.19
287.675	774.19
287.906	752.19
288.138	737.19
288.369	730.19
288.6	711.19
288.831	731.19
289.062	705.19
289.293	709.19
289.524	733.19
289.755	716.19
289.986	746.19
290.217	721.19
290.448	731.19
290.679	747.19
290.91	738.19
291.141	765.19
291.371	783.19
291.602	843.19
291.833	767.19
292.064	740.19
292.295	723.19
292.526	712.19
292.757	691.19
292.987	682.19
293.218	674.19
293.449	683.19
293.68	685.19
293.91	673.19
294.141	671.19
294.372	665.19
294.603	680.19
294.833	681.19
295.064	674.19
295.295	659.19
295.525	646.19
295.756	673.19
295.987	694.19
296.217	681.19
296.448	681.19
296.679	682.19
296.909	676.19
297.14	660.19
297.37	699.19
297.601	697.19
297.831	704.19
298.062	741.19
298.292	722.19
298.523	727.19
298.753	741.19
298.984	716.19
299.214	744.19
299.445	762.19
299.675	746.19
299.905	796.19
300.136	808.19
300.366	890.19
300.597	1141.19
300.827	1557.19
301.057	2145.19
301.288	2110.19
301.518	1333.19
301.748	1063.19
301.979	956.19
302.209	933.19
302.439	980.19
302.669	1007.19
302.9	1187.19
303.13	1673.19
303.36	2468.19
303.59	3223.19
303.82	2823.19
304.051	1649.19
304.281	1199.19
304.511	997.19
304.741	948.19
304.971	899.19
305.201	852.19
305.431	847.19
305.661	824.19
305.891	813.19
306.121	773.19
306.352	783.19
306.582	788.19
306.812	789.19
307.042	815.19
307.272	780.19
307.502	783.19
307.731	787.19
307.961	772.19
308.191	778.19
308.421	799.19
308.651	797.19
308.881	780.19
309.111	779.19
309.341	805.19
309.571	797.19
309.8	818.19
310.03	787.19
310.26	827.19
310.49	793.19
310.72	817.19
310.949	840.19
311.179	821.19
311.409	807.19
311.639	832.19
311.868	819.19
312.098	815.19
312.328	856.19
312.557	817.19
312.787	827.19
313.017	826.19
313.246	863.19
313.476	849.19
313.706	890.19
313.935	919.19
314.165	956.19
314.394	982.19
314.624	989.19
314.853	936.19
315.083	905.19
315.312	902.19
315.542	941.19
315.771	934.19
316.001	924.19
316.23	986.19
316.46	993.19
316.689	1130.19
316.919	1311.19
317.148	1946.19
317.377	2971.19
317.607	4384.19
317.836	4400.19
318.065	2578.19
318.295	1659.19
318.524	1327.19
318.753	1176.19
318.983	1093.19
319.212	1041.19
319.441	995.19
319.67	1011.19
319.9	1023.19
320.129	968.19
320.358	987.19
320.587	979.19
320.816	990.19
321.046	991.19
321.275	986.19
321.504	974.19
321.733	1025.19
321.962	1044.19
322.191	1046.19
322.42	1050.19
322.649	1100.19
322.878	1035.19
323.108	1068.19
323.337	1074.19
323.566	1078.19
323.795	1083.19
324.024	1097.19
324.253	1122.19
324.482	1165.19
324.71	1235.19
324.939	1271.19
325.168	1343.19
325.397	1361.19
325.626	1603.19
325.855	2250.19
326.084	3557.19
326.313	5250.19
326.542	5583.19
326.77	3482.19
326.999	2275.19
327.228	1920.19
327.457	1837.19
327.686	1819.19
327.914	1984.19
328.143	2279.19
328.372	2596.19
328.6	2804.19
328.829	2582.19
329.058	2258.19
329.287	1984.19
329.515	1832.19
329.744	1715.19
329.972	1639.19
330.201	1566.19
330.43	1511.19
330.658	1462.19
330.887	1471.19
331.115	1406.19
331.344	1434.19
331.572	1427.19
331.801	1430.19
332.03	1439.19
332.258	1470.19
332.486	1536.19
332.715	1738.19
332.943	2109.19
333.172	2529.19
333.4	2538.19
333.629	1910.19
333.857	1770.19
334.085	1751.19
334.314	1867.19
334.542	2010.19
334.771	2340.19
334.999	2817.19
335.227	3413.19
335.455	3782.19
335.684	3467.19
335.912	2889.19
336.14	2535.19
336.369	2213.19
336.597	2120.19
336.825	1920.19
337.053	1785.19
337.281	1691.19
337.51	1665.19
337.738	1592.19
337.966	1555.19
338.194	1476.19
338.422	1425.19
338.65	1402.19
338.878	1407.19
339.106	1369.19
339.334	1353.19
339.562	1330.19
339.79	1282.19
340.018	1288.19
340.246	1263.19
340.474	1271.19
340.702	1257.19
340.93	1268.19
341.158	1256.19
341.386	1265.19
341.614	1276.19
341.842	1210.19
342.07	1203.19
342.298	1196.19
342.526	1179.19
342.754	1164.19
342.981	1130.19
343.209	1140.19
343.437	1185.19
343.665	1185.19
343.893	1206.19
344.12	1197.19
344.348	1171.19
344.576	1148.19
344.804	1179.19
345.031	1147.19
345.259	1132.19
345.487	1154.19
345.714	1090.19
345.942	1096.19
346.17	1092.19
346.397	1104.19
346.625	1095.19
346.853	1077.19
347.08	1074.19
347.308	1065.19
347.535	1083.19
347.763	1075.19
347.99	1059.19
348.218	1068.19
348.445	1060.19
348.673	1034.19
348.9	1067.19
349.128	1049.19
349.355	1049.19
349.583	1048.19
349.81	1052.19
350.037	1043.19
350.265	1061.19
350.492	1020.19
350.72	1024.19
350.947	1048.19
351.174	1040.19
351.402	996.19
351.629	1035.19
351.856	1029.19
352.083	1025.19
352.311	1007.19
352.538	984.19
352.765	1033.19
352.992	1032.19
353.22	1031.19
353.447	1027.19
353.674	1026.19
353.901	1044.19
354.128	1033.19
354.355	977.19
354.583	1049.19
354.81	1052.19
355.037	1049.19
355.264	1033.19
355.491	1058.19
355.718	1041.19
355.945	1040.19
356.172	1048.19
356.399	1052.19
356.626	1046.19
356.853	1035.19
357.08	1066.19
357.307	1092.19
357.534	1072.19
357.761	1094.19
357.988	1084.19
358.215	1107.19
358.441	1087.19
358.668	1075.19
358.895	1108.19
359.122	1085.19
359.349	1077.19
359.576	1096.19
359.802	1080.19
360.029	1089.19
360.256	1084.19
360.483	1075.19
360.709	1132.19
360.936	1088.19
361.163	1080.19
361.39	1084.19
361.616	1087.19
361.843	1096.19
362.07	1091.19
362.296	1087.19
362.523	1076.19
362.749	1098.19
362.976	1118.19
363.203	1076.19
363.429	1091.19
363.656	1108.19
363.882	1112.19
364.109	1099.19
364.335	1088.19
364.562	1102.19
364.788	1100.19
365.015	1085.19
365.241	1125.19
365.468	1131.19
365.694	1219.19
365.92	1188.19
366.147	1083.19
366.373	1132.19
366.599	1119.19
366.826	1101.19
367.052	1112.19
367.278	1107.19
367.505	1113.19
367.731	1154.19
367.957	1137.19
368.184	1094.19
368.41	1135.19
368.636	1144.19
368.862	1107.19
369.089	1153.19
369.315	1155.19
369.541	1139.19
369.767	1123.19
369.993	1135.19
370.219	1116.19
370.445	1109.19
370.672	1157.19
370.898	1137.19
371.124	1158.19
371.35	1183.19
371.576	1157.19
371.802	1165.19
372.028	1156.19
372.254	1205.19
372.48	1164.19
372.706	1207.19
372.932	1201.19
373.158	1184.19
373.384	1212.19
373.61	1163.19
373.835	1215.19
374.061	1211.19
374.287	1186.19
374.513	1190.19
374.739	1208.19
374.965	1213.19
375.191	1248.19
375.416	1216.19
375.642	1218.19
375.868	1227.19
376.094	1193.19
376.319	1215.19
376.545	1180.19
376.771	1193.19
376.997	1216.19
377.222	1184.19
377.448	1147.19
377.674	1201.19
377.899	1187.19
378.125	1182.19
378.35	1169.19
378.576	1196.19
378.802	1156.19
379.027	1195.19
379.253	1256.19
379.478	1323.19
379.704	1519.19
379.929	2137.19
380.155	3195.19
380.38	3417.19
380.606	2073.19
380.831	1511.19
381.057	1323.19
381.282	1246.19
381.507	1201.19
381.733	1203.19
381.958	1189.19
382.184	1162.19
382.409	1169.19
382.634	1145.19
382.86	1179.19
383.085	1171.19
383.31	1172.19
383.535	1167.19
383.761	1163.19
383.986	1175.19
384.211	1168.19
384.436	1162.19
384.662	1201.19
384.887	1212.19
385.112	1184.19
385.337	1194.19
385.562	1190.19
385.787	1210.19
386.013	1197.19
386.238	1203.19
386.463	1195.19
386.688	1184.19
386.913	1179.19
387.138	1234.19
387.363	1197.19
387.588	1164.19
387.813	1208.19
388.038	1221.19
388.263	1181.19
388.488	1176.19
388.713	1200.19
388.938	1193.19
389.163	1225.19
389.387	1227.19
389.612	1176.19
389.837	1215.19
390.062	1230.19
390.287	1199.19
390.512	1221.19
390.736	1235.19
390.961	1250.19
391.186	1269.19
391.411	1256.19
391.636	1268.19
391.86	1268.19
392.085	1269.19
392.31	1260.19
392.534	1228.19
392.759	1262.19
392.984	1258.19
393.208	1233.19
393.433	1293.19
393.658	1247.19
393.882	1207.19
394.107	1194.19
394.331	1222.19
394.556	1215.19
394.78	1240.19
395.005	1240.19
395.229	1248.19
395.454	1255.19
395.678	1260.19
395.903	1246.19
396.127	1257.19
396.352	1227.19
396.576	1248.19
396.801	1280.19
397.025	1278.19
397.249	1266.19
397.474	1298.19
397.698	1266.19
397.922	1311.19
398.147	1257.19
398.371	1295.19
398.595	1324.19
398.82	1349.19
399.044	1401.19
399.268	1449.19
399.492	1549.19
399.717	1593.19
399.941	1596.19
400.165	1517.19
400.389	1474.19
400.613	1421.19
400.837	1396.19
401.062	1328.19
401.286	1321.19
401.51	1331.19
401.734	1337.19
401.958	1333.19
402.182	1322.19
402.406	1335.19
402.63	1325.19
402.854	1349.19
403.078	1364.19
403.302	1343.19
403.526	1411.19
403.75	1389.19
403.974	1387.19
404.198	1329.19
404.422	1348.19
404.645	1391.19
404.869	1381.19
405.093	1400.19
405.317	1361.19
405.541	1381.19
405.765	1395.19
405.988	1378.19
406.212	1391.19
406.436	1397.19
406.66	1424.19
406.883	1380.19
407.107	1475.19
407.331	1482.19
407.555	1515.19
407.778	1500.19
408.002	1447.19
408.226	1433.19
408.449	1468.19
408.673	1439.19
408.896	1415.19
409.12	1378.19
409.344	1365.19
409.567	1385.19
409.791	1379.19
410.014	1357.19
410.238	1342.19
410.461	1365.19
410.685	1358.19
410.908	1356.19
411.132	1342.19
411.355	1328.19
411.578	1322.19
411.802	1347.19
412.025	1322.19
412.249	1306.19
412.472	1350.19
412.695	1334.19
412.919	1318.19
413.142	1308.19
413.365	1292.19
413.589	1311.19
413.812	1291.19
414.035	1301.19
414.258	1304.19
414.482	1315.19
414.705	1338.19
414.928	1303.19
415.151	1299.19
415.374	1275.19
415.597	1297.19
415.821	1287.19
416.044	1268.19
416.267	1256.19
416.49	1273.19
416.713	1257.19
416.936	1274.19
417.159	1259.19
417.382	1244.19
417.605	1230.19
417.828	1243.19
418.051	1285.19
418.274	1289.19
418.497	1305.19
418.72	1284.19
418.943	1293.19
419.166	1333.19
419.389	1401.19
419.611	1376.19
419.834	1351.19
420.057	1303.19
420.28	1301.19
420.503	1259.19
420.726	1265.19
420.948	1260.19
421.171	1240.19
421.394	1250.19
421.617	1268.19
421.839	1257.19
422.062	1225.19
422.285	1251.19
422.507	1311.19
422.73	1297.19
422.953	1306.19
423.175	1306.19
423.398	1310.19
423.621	1267.19
423.843	1283.19
424.066	1280.19
424.288	1284.19
424.511	1237.19
424.733	1267.19
424.956	1248.19
425.178	1199.19
425.401	1277.19
425.623	1273.19
425.846	1207.19
426.068	1225.19
426.291	1186.19
426.513	1233.19
426.735	1200.19
426.958	1200.19
427.18	1191.19
427.402	1174.19
427.625	1194.19
427.847	1182.19
428.069	1197.19
428.292	1179.19
428.514	1185.19
428.736	1180.19
428.958	1201.19
429.181	1141.19
429.403	1138.19
429.625	1177.19
429.847	1177.19
430.069	1177.19
430.292	1233.19
430.514	1256.19
430.736	1253.19
430.958	1163.19
431.18	1148.19
431.402	1195.19
431.624	1151.19
431.846	1125.19
432.068	1115.19
432.29	1153.19
432.512	1126.19
432.734	1156.19
432.956	1175.19
433.178	1143.19
433.4	1159.19
433.622	1175.19
433.844	1160.19
434.066	1133.19
434.287	1138.19
434.509	1170.19
434.731	1179.19
434.953	1224.19
435.175	1240.19
435.397	1204.19
435.618	1193.19
435.84	1183.19
436.062	1140.19
436.284	1187.19
436.505	1169.19
436.727	1187.19
436.949	1155.19
437.17	1201.19
437.392	1141.19
437.614	1103.19
437.835	1104.19
438.057	1102.19
438.278	1125.19
438.5	1127.19
438.721	1168.19
438.943	1162.19
439.165	1226.19
439.386	1184.19
439.608	1179.19
439.829	1224.19
440.05	1253.19
440.272	1279.19
440.493	1206.19
440.715	1227.19
440.936	1201.19
441.158	1240.19
441.379	1215.19
441.6	1263.19
441.822	1289.19
442.043	1359.19
442.264	1398.19
442.486	1283.19
442.707	1283.19
442.928	1264.19
443.149	1241.19
443.371	1221.19
443.592	1275.19
443.813	1240.19
444.034	1291.19
444.255	1285.19
444.476	1307.19
444.698	1321.19
444.919	1347.19
445.14	1403.19
445.361	1366.19
445.582	1298.19
445.803	1227.19
446.024	1253.19
446.245	1255.19
446.466	1263.19
446.687	1203.19
446.908	1255.19
447.129	1226.19
447.35	1191.19
447.571	1206.19
447.792	1162.19
448.013	1140.19
448.234	1153.19
448.455	1161.19
448.675	1160.19
448.896	1185.19
449.117	1188.19
449.338	1302.19
449.559	1365.19
449.779	1211.19
450	1139.19
450.221	1137.19
450.442	1154.19
450.662	1127.19
450.883	1135.19
451.104	1124.19
451.324	1125.19
451.545	1087.19
451.766	1105.19
451.986	1151.19
452.207	1200.19
452.428	1483.19
452.648	2090.19
452.869	1803.19
453.089	1320.19
453.31	1250.19
453.53	1260.19
453.751	1244.19
453.971	1350.19
454.192	1357.19
454.412	1172.19
454.633	1147.19
454.853	1089.19
455.073	1055.19
455.294	1075.19
455.514	1063.19
455.734	1068.19
455.955	1060.19
456.175	1060.19
456.395	1053.19
456.616	1054.19
456.836	1071.19
457.056	1107.19
457.276	1066.19
457.497	1132.19
457.717	1157.19
457.937	1133.19
458.157	1080.19
458.377	1084.19
458.598	1133.19
458.818	1145.19
459.038	1128.19
459.258	1111.19
459.478	1142.19
459.698	1155.19
459.918	1169.19
460.138	1208.19
460.358	1209.19
460.578	1215.19
460.798	1280.19
461.018	1245.19
461.238	1246.19
461.458	1288.19
461.678	1267.19
461.898	1303.19
462.118	1310.19
462.338	1351.19
462.558	1345.19
462.777	1361.19
462.997	1400.19
463.217	1436.19
463.437	1499.19
463.657	1495.19
463.876	1492.19
464.096	1445.19
464.316	1399.19
464.536	1393.19
464.755	1334.19
464.975	1320.19
465.195	1288.19
465.414	1247.19
465.634	1201.19
465.854	1187.19
466.073	1182.19
466.293	1185.19
466.512	1166.19
466.732	1202.19
466.951	1229.19
467.171	1318.19
467.391	1321.19
467.61	1226.19
467.829	1148.19
468.049	1121.19
468.268	1145.19
468.488	1096.19
468.707	1158.19
468.927	1119.19
469.146	1132.19
469.365	1189.19
469.585	1160.19
469.804	1187.19
470.023	1219.19
470.243	1229.19
470.462	1268.19
470.681	1311.19
470.901	1399.19
471.12	1634.19
471.339	1674.19
471.558	1374.19
471.777	1270.19
471.997	1205.19
472.216	1159.19
472.435	1183.19
472.654	1156.19
472.873	1103.19
473.092	1164.19
473.311	1159.19
473.53	1170.19
473.749	1181.19
473.968	1209.19
474.187	1167.19
474.406	1127.19
474.625	1147.19
474.844	1145.19
475.063	1147.19
475.282	1158.19
475.501	1145.19
475.72	1140.19
475.939	1171.19
476.158	1187.19
476.377	1209.19
476.596	1225.19
476.814	1183.19
477.033	1209.19
477.252	1201.19
477.471	1240.19
477.69	1273.19
477.908	1303.19
478.127	1318.19
478.346	1294.19
478.564	1343.19
478.783	1331.19
479.002	1341.19
479.22	1347.19
479.439	1346.19
479.658	1330.19
479.876	1350.19
480.095	1388.19
480.313	1389.19
480.532	1396.19
480.751	1365.19
480.969	1331.19
481.188	1369.19
481.406	1356.19
481.624	1309.19
481.843	1334.19
482.061	1389.19
482.28	1359.19
482.498	1384.19
482.717	1355.19
482.935	1360.19
483.153	1364.19
483.372	1400.19
483.59	1444.19
483.808	1478.19
484.027	1447.19
484.245	1550.19
484.463	1708.19
484.681	1919.19
484.9	1762.19
485.118	1569.19
485.336	1587.19
485.554	1623.19
485.772	1691.19
485.99	1962.19
486.209	2089.19
486.427	1738.19
486.645	1545.19
486.863	1529.19
487.081	1506.19
487.299	1447.19
487.517	1460.19
487.735	1480.19
487.953	1483.19
488.171	1494.19
488.389	1471.19
488.607	1456.19
488.825	1410.19
489.043	1389.19
489.261	1417.19
489.479	1416.19
489.696	1415.19
489.914	1458.19
490.132	1446.19
490.35	1422.19
490.568	1491.19
490.786	1486.19
491.003	1481.19
