Data from SnStandardFlinnAPT0064_QswitchEnergy10_LIBS07252019.E.O._I.C._HRD10591_15-27-48-973.txt Node
Date: Thu Jul 25 15:27:48 EDT 2019
User: cochatt
Spectrometer: HR+D1059
Trigger mode: 1
Integration Time (sec): 1.000000E-1
Scans to average: 1
Electric dark correction enabled: true
Nonlinearity correction enabled: false
Boxcar width: 0
XAxis mode: Wavelengths
Number of Pixels in Spectrum: 2048
>>>>>Begin Spectral Data<<<<<
223.165	-7.81
223.4	-7.81
223.635	-7.81
223.869	-9.81
224.104	-18.81
224.338	-31.81
224.573	-7.81
224.808	-11.81
225.042	-18.81
225.277	3.19
225.511	-1.81
225.746	-10.81
225.98	16.19
226.215	13.19
226.449	18.19
226.683	18.19
226.918	20.19
227.152	30.19
227.387	29.19
227.621	43.19
227.856	32.19
228.09	47.19
228.324	55.19
228.559	60.19
228.793	75.19
229.027	71.19
229.262	74.19
229.496	75.19
229.73	68.19
229.964	80.19
230.199	66.19
230.433	69.19
230.667	90.19
230.901	95.19
231.136	89.19
231.37	95.19
231.604	88.19
231.838	95.19
232.072	102.19
232.306	110.19
232.541	103.19
232.775	103.19
233.009	75.19
233.243	90.19
233.477	84.19
233.711	90.19
233.945	92.19
234.179	95.19
234.413	87.19
234.647	75.19
234.881	92.19
235.115	83.19
235.349	94.19
235.583	105.19
235.817	115.19
236.051	135.19
236.285	87.19
236.519	81.19
236.753	74.19
236.987	81.19
237.221	64.19
237.455	79.19
237.689	77.19
237.922	78.19
238.156	86.19
238.39	83.19
238.624	72.19
238.858	69.19
239.091	80.19
239.325	74.19
239.559	84.19
239.793	86.19
240.027	92.19
240.26	80.19
240.494	80.19
240.728	86.19
240.961	85.19
241.195	77.19
241.429	101.19
241.662	78.19
241.896	77.19
242.13	95.19
242.363	124.19
242.597	152.19
242.83	138.19
243.064	137.19
243.298	145.19
243.531	135.19
243.765	99.19
243.998	77.19
244.232	83.19
244.465	76.19
244.699	73.19
244.932	65.19
245.166	79.19
245.399	80.19
245.633	87.19
245.866	94.19
246.099	87.19
246.333	85.19
246.566	78.19
246.8	78.19
247.033	71.19
247.266	75.19
247.5	67.19
247.733	94.19
247.966	93.19
248.2	85.19
248.433	93.19
248.666	126.19
248.899	113.19
249.133	80.19
249.366	90.19
249.599	100.19
249.832	114.19
250.066	119.19
250.299	88.19
250.532	95.19
250.765	70.19
250.998	72.19
251.231	82.19
251.465	91.19
251.698	82.19
251.931	92.19
252.164	77.19
252.397	105.19
252.63	93.19
252.863	90.19
253.096	93.19
253.329	88.19
253.562	87.19
253.795	89.19
254.028	89.19
254.261	97.19
254.494	91.19
254.727	109.19
254.96	137.19
255.193	120.19
255.426	92.19
255.659	95.19
255.892	98.19
256.124	87.19
256.357	74.19
256.59	104.19
256.823	89.19
257.056	99.19
257.289	135.19
257.521	155.19
257.754	117.19
257.987	101.19
258.22	92.19
258.452	73.19
258.685	73.19
258.918	101.19
259.151	95.19
259.383	108.19
259.616	129.19
259.849	126.19
260.081	98.19
260.314	83.19
260.547	87.19
260.779	89.19
261.012	72.19
261.244	76.19
261.477	102.19
261.71	81.19
261.942	83.19
262.175	87.19
262.407	92.19
262.64	87.19
262.872	86.19
263.105	77.19
263.337	82.19
263.57	89.19
263.802	94.19
264.035	89.19
264.267	95.19
264.499	73.19
264.732	80.19
264.964	89.19
265.197	85.19
265.429	87.19
265.661	83.19
265.894	88.19
266.126	111.19
266.358	142.19
266.591	134.19
266.823	96.19
267.055	95.19
267.287	82.19
267.52	75.19
267.752	93.19
267.984	83.19
268.216	100.19
268.448	105.19
268.681	81.19
268.913	104.19
269.145	97.19
269.377	87.19
269.609	89.19
269.841	87.19
270.073	95.19
270.306	118.19
270.538	155.19
270.77	294.19
271.002	342.19
271.234	189.19
271.466	108.19
271.698	88.19
271.93	85.19
272.162	95.19
272.394	75.19
272.626	82.19
272.858	83.19
273.09	84.19
273.322	103.19
273.553	104.19
273.785	91.19
274.017	83.19
274.249	86.19
274.481	88.19
274.713	81.19
274.945	89.19
275.176	87.19
275.408	89.19
275.64	87.19
275.872	80.19
276.104	101.19
276.335	105.19
276.567	113.19
276.799	92.19
277.031	91.19
277.262	99.19
277.494	94.19
277.726	104.19
277.957	164.19
278.189	207.19
278.421	208.19
278.652	164.19
278.884	167.19
279.115	121.19
279.347	103.19
279.579	100.19
279.81	100.19
280.042	79.19
280.273	103.19
280.505	98.19
280.736	93.19
280.968	98.19
281.199	146.19
281.431	192.19
281.662	230.19
281.894	140.19
282.125	117.19
282.356	106.19
282.588	91.19
282.819	99.19
283.051	116.19
283.282	136.19
283.513	171.19
283.745	274.19
283.976	466.19
284.207	689.19
284.439	533.19
284.67	257.19
284.901	220.19
285.132	310.19
285.364	339.19
285.595	207.19
285.826	148.19
286.057	213.19
286.288	359.19
286.52	551.19
286.751	436.19
286.982	183.19
287.213	111.19
287.444	101.19
287.675	92.19
287.906	104.19
288.138	82.19
288.369	81.19
288.6	90.19
288.831	89.19
289.062	87.19
289.293	95.19
289.524	92.19
289.755	104.19
289.986	104.19
290.217	98.19
290.448	93.19
290.679	104.19
290.91	121.19
291.141	122.19
291.371	180.19
291.602	207.19
291.833	145.19
292.064	111.19
292.295	89.19
292.526	97.19
292.757	96.19
292.987	87.19
293.218	102.19
293.449	92.19
293.68	86.19
293.91	77.19
294.141	92.19
294.372	98.19
294.603	83.19
294.833	96.19
295.064	104.19
295.295	95.19
295.525	88.19
295.756	104.19
295.987	99.19
296.217	95.19
296.448	107.19
296.679	95.19
296.909	96.19
297.14	107.19
297.37	107.19
297.601	90.19
297.831	97.19
298.062	94.19
298.292	109.19
298.523	95.19
298.753	96.19
298.984	97.19
299.214	100.19
299.445	99.19
299.675	103.19
299.905	119.19
300.136	115.19
300.366	152.19
300.597	246.19
300.827	396.19
301.057	625.19
301.288	569.19
301.518	219.19
301.748	133.19
301.979	119.19
302.209	120.19
302.439	115.19
302.669	154.19
302.9	209.19
303.13	416.19
303.36	759.19
303.59	1031.19
303.82	717.19
304.051	259.19
304.281	151.19
304.511	122.19
304.741	106.19
304.971	105.19
305.201	109.19
305.431	92.19
305.661	109.19
305.891	115.19
306.121	97.19
306.352	101.19
306.582	100.19
306.812	111.19
307.042	120.19
307.272	101.19
307.502	104.19
307.731	107.19
307.961	118.19
308.191	99.19
308.421	96.19
308.651	104.19
308.881	100.19
309.111	102.19
309.341	95.19
309.571	117.19
309.8	97.19
310.03	106.19
310.26	119.19
310.49	110.19
310.72	93.19
310.949	108.19
311.179	105.19
311.409	107.19
311.639	84.19
311.868	106.19
312.098	101.19
312.328	108.19
312.557	105.19
312.787	105.19
313.017	108.19
313.246	118.19
313.476	119.19
313.706	116.19
313.935	132.19
314.165	153.19
314.394	202.19
314.624	143.19
314.853	117.19
315.083	118.19
315.312	117.19
315.542	132.19
315.771	127.19
316.001	113.19
316.23	144.19
316.46	141.19
316.689	169.19
316.919	227.19
317.148	439.19
317.377	796.19
317.607	1291.19
317.836	1250.19
318.065	448.19
318.295	193.19
318.524	156.19
318.753	135.19
318.983	123.19
319.212	125.19
319.441	108.19
319.67	105.19
319.9	119.19
320.129	113.19
320.358	102.19
320.587	109.19
320.816	119.19
321.046	121.19
321.275	113.19
321.504	122.19
321.733	132.19
321.962	125.19
322.191	150.19
322.42	139.19
322.649	121.19
322.878	118.19
323.108	116.19
323.337	126.19
323.566	112.19
323.795	119.19
324.024	140.19
324.253	143.19
324.482	153.19
324.71	195.19
324.939	233.19
325.168	199.19
325.397	152.19
325.626	225.19
325.855	413.19
326.084	823.19
326.313	1417.19
326.542	1413.19
326.77	530.19
326.999	231.19
327.228	161.19
327.457	210.19
327.686	197.19
327.914	144.19
328.143	132.19
328.372	129.19
328.6	123.19
328.829	123.19
329.058	115.19
329.287	114.19
329.515	106.19
329.744	110.19
329.972	119.19
330.201	115.19
330.43	114.19
330.658	113.19
330.887	106.19
331.115	121.19
331.344	119.19
331.572	114.19
331.801	95.19
332.03	113.19
332.258	129.19
332.486	166.19
332.715	252.19
332.943	440.19
333.172	649.19
333.4	573.19
333.629	233.19
333.857	127.19
334.085	119.19
334.314	112.19
334.542	124.19
334.771	114.19
334.999	118.19
335.227	109.19
335.455	118.19
335.684	121.19
335.912	124.19
336.14	116.19
336.369	100.19
336.597	119.19
336.825	104.19
337.053	104.19
337.281	104.19
337.51	107.19
337.738	111.19
337.966	112.19
338.194	106.19
338.422	111.19
338.65	115.19
338.878	124.19
339.106	100.19
339.334	126.19
339.562	119.19
339.79	118.19
340.018	107.19
340.246	108.19
340.474	121.19
340.702	117.19
340.93	123.19
341.158	97.19
341.386	116.19
341.614	125.19
341.842	111.19
342.07	115.19
342.298	113.19
342.526	87.19
342.754	105.19
342.981	114.19
343.209	103.19
343.437	107.19
343.665	104.19
343.893	105.19
344.12	104.19
344.348	101.19
344.576	119.19
344.804	104.19
345.031	115.19
345.259	99.19
345.487	114.19
345.714	98.19
345.942	113.19
346.17	100.19
346.397	106.19
346.625	103.19
346.853	92.19
347.08	98.19
347.308	107.19
347.535	107.19
347.763	122.19
347.99	97.19
348.218	82.19
348.445	105.19
348.673	115.19
348.9	115.19
349.128	121.19
349.355	109.19
349.583	124.19
349.81	101.19
350.037	107.19
350.265	112.19
350.492	97.19
350.72	97.19
350.947	115.19
351.174	122.19
351.402	100.19
351.629	102.19
351.856	109.19
352.083	95.19
352.311	114.19
352.538	129.19
352.765	113.19
352.992	101.19
353.22	107.19
353.447	109.19
353.674	103.19
353.901	103.19
354.128	115.19
354.355	106.19
354.583	114.19
354.81	92.19
355.037	91.19
355.264	122.19
355.491	94.19
355.718	109.19
355.945	106.19
356.172	105.19
356.399	98.19
356.626	95.19
356.853	101.19
357.08	104.19
357.307	109.19
357.534	97.19
357.761	113.19
357.988	103.19
358.215	101.19
358.441	107.19
358.668	116.19
358.895	107.19
359.122	120.19
359.349	108.19
359.576	93.19
359.802	98.19
360.029	98.19
360.256	98.19
360.483	98.19
360.709	110.19
360.936	112.19
361.163	102.19
361.39	93.19
361.616	104.19
361.843	102.19
362.07	103.19
362.296	95.19
362.523	105.19
362.749	126.19
362.976	105.19
363.203	101.19
363.429	99.19
363.656	114.19
363.882	99.19
364.109	109.19
364.335	108.19
364.562	108.19
364.788	108.19
365.015	99.19
365.241	120.19
365.468	167.19
365.694	180.19
365.92	177.19
366.147	111.19
366.373	107.19
366.599	103.19
366.826	92.19
367.052	98.19
367.278	107.19
367.505	104.19
367.731	94.19
367.957	106.19
368.184	106.19
368.41	104.19
368.636	109.19
368.862	100.19
369.089	111.19
369.315	104.19
369.541	99.19
369.767	113.19
369.993	117.19
370.219	120.19
370.445	108.19
370.672	106.19
370.898	112.19
371.124	114.19
371.35	92.19
371.576	88.19
371.802	99.19
372.028	120.19
372.254	115.19
372.48	118.19
372.706	116.19
372.932	105.19
373.158	106.19
373.384	115.19
373.61	128.19
373.835	125.19
374.061	104.19
374.287	111.19
374.513	113.19
374.739	106.19
374.965	101.19
375.191	100.19
375.416	89.19
375.642	118.19
375.868	97.19
376.094	104.19
376.319	103.19
376.545	112.19
376.771	106.19
376.997	103.19
377.222	105.19
377.448	109.19
377.674	108.19
377.899	102.19
378.125	116.19
378.35	103.19
378.576	112.19
378.802	119.19
379.027	115.19
379.253	134.19
379.478	147.19
379.704	263.19
379.929	671.19
380.155	1356.19
380.38	1401.19
380.606	440.19
380.831	175.19
381.057	116.19
381.282	105.19
381.507	102.19
381.733	99.19
381.958	107.19
382.184	115.19
382.409	101.19
382.634	95.19
382.86	103.19
383.085	97.19
383.31	105.19
383.535	102.19
383.761	117.19
383.986	103.19
384.211	102.19
384.436	91.19
384.662	105.19
384.887	98.19
385.112	109.19
385.337	112.19
385.562	105.19
385.787	94.19
386.013	114.19
386.238	110.19
386.463	101.19
386.688	107.19
386.913	92.19
387.138	93.19
387.363	95.19
387.588	108.19
387.813	97.19
388.038	116.19
388.263	95.19
388.488	115.19
388.713	102.19
388.938	101.19
389.163	106.19
389.387	101.19
389.612	102.19
389.837	108.19
390.062	112.19
390.287	105.19
390.512	105.19
390.736	111.19
390.961	96.19
391.186	111.19
391.411	93.19
391.636	87.19
391.86	94.19
392.085	93.19
392.31	106.19
392.534	97.19
392.759	93.19
392.984	107.19
393.208	113.19
393.433	123.19
393.658	113.19
393.882	89.19
394.107	85.19
394.331	99.19
394.556	89.19
394.78	96.19
395.005	105.19
395.229	97.19
395.454	99.19
395.678	91.19
395.903	88.19
396.127	102.19
396.352	89.19
396.576	95.19
396.801	116.19
397.025	109.19
397.249	98.19
397.474	109.19
397.698	108.19
397.922	104.19
398.147	94.19
398.371	104.19
398.595	99.19
398.82	100.19
399.044	87.19
399.268	85.19
399.492	95.19
399.717	102.19
399.941	102.19
400.165	107.19
400.389	88.19
400.613	98.19
400.837	103.19
401.062	93.19
401.286	113.19
401.51	103.19
401.734	99.19
401.958	83.19
402.182	97.19
402.406	99.19
402.63	91.19
402.854	97.19
403.078	85.19
403.302	95.19
403.526	83.19
403.75	99.19
403.974	98.19
404.198	107.19
404.422	97.19
404.645	109.19
404.869	101.19
405.093	92.19
405.317	111.19
405.541	105.19
405.765	116.19
405.988	127.19
406.212	111.19
406.436	81.19
406.66	104.19
406.883	88.19
407.107	89.19
407.331	101.19
407.555	101.19
407.778	105.19
408.002	101.19
408.226	101.19
408.449	98.19
408.673	100.19
408.896	84.19
409.12	89.19
409.344	85.19
409.567	89.19
409.791	105.19
410.014	96.19
410.238	87.19
410.461	97.19
410.685	119.19
410.908	99.19
411.132	105.19
411.355	96.19
411.578	107.19
411.802	99.19
412.025	101.19
412.249	96.19
412.472	102.19
412.695	88.19
412.919	99.19
413.142	100.19
413.365	102.19
413.589	92.19
413.812	111.19
414.035	104.19
414.258	102.19
414.482	93.19
414.705	101.19
414.928	104.19
415.151	103.19
415.374	106.19
415.597	89.19
415.821	79.19
416.044	89.19
416.267	101.19
416.49	93.19
416.713	103.19
416.936	101.19
417.159	100.19
417.382	97.19
417.605	94.19
417.828	106.19
418.051	93.19
418.274	94.19
418.497	87.19
418.72	107.19
418.943	96.19
419.166	111.19
419.389	111.19
419.611	107.19
419.834	104.19
420.057	103.19
420.28	83.19
420.503	100.19
420.726	95.19
420.948	101.19
421.171	97.19
421.394	91.19
421.617	95.19
421.839	103.19
422.062	87.19
422.285	105.19
422.507	107.19
422.73	108.19
422.953	138.19
423.175	112.19
423.398	94.19
423.621	94.19
423.843	99.19
424.066	90.19
424.288	85.19
424.511	89.19
424.733	107.19
424.956	100.19
425.178	100.19
425.401	87.19
425.623	91.19
425.846	109.19
426.068	100.19
426.291	89.19
426.513	115.19
426.735	93.19
426.958	98.19
427.18	105.19
427.402	82.19
427.625	99.19
427.847	95.19
428.069	99.19
428.292	96.19
428.514	95.19
428.736	95.19
428.958	81.19
429.181	91.19
429.403	96.19
429.625	99.19
429.847	93.19
430.069	90.19
430.292	97.19
430.514	101.19
430.736	99.19
430.958	79.19
431.18	99.19
431.402	96.19
431.624	88.19
431.846	97.19
432.068	104.19
432.29	97.19
432.512	100.19
432.734	87.19
432.956	100.19
433.178	91.19
433.4	90.19
433.622	104.19
433.844	95.19
434.066	103.19
434.287	94.19
434.509	89.19
434.731	87.19
434.953	91.19
435.175	89.19
435.397	105.19
435.618	88.19
435.84	80.19
436.062	97.19
436.284	94.19
436.505	83.19
436.727	97.19
436.949	94.19
437.17	91.19
437.392	101.19
437.614	89.19
437.835	87.19
438.057	89.19
438.278	87.19
438.5	94.19
438.721	104.19
438.943	104.19
439.165	107.19
439.386	96.19
439.608	95.19
439.829	92.19
440.05	114.19
440.272	130.19
440.493	111.19
440.715	93.19
440.936	87.19
441.158	109.19
441.379	119.19
441.6	93.19
441.822	100.19
442.043	118.19
442.264	135.19
442.486	106.19
442.707	108.19
442.928	101.19
443.149	96.19
443.371	92.19
443.592	99.19
443.813	103.19
444.034	94.19
444.255	98.19
444.476	90.19
444.698	89.19
444.919	82.19
445.14	190.19
445.361	148.19
445.582	84.19
445.803	100.19
446.024	96.19
446.245	115.19
446.466	108.19
446.687	111.19
446.908	105.19
447.129	97.19
447.35	98.19
447.571	88.19
447.792	91.19
448.013	102.19
448.234	90.19
448.455	74.19
448.675	99.19
448.896	105.19
449.117	113.19
449.338	125.19
449.559	139.19
449.779	119.19
450	90.19
450.221	116.19
450.442	123.19
450.662	102.19
450.883	102.19
451.104	115.19
451.324	101.19
451.545	112.19
451.766	119.19
451.986	123.19
452.207	187.19
452.428	427.19
452.648	1050.19
452.869	597.19
453.089	176.19
453.31	112.19
453.53	116.19
453.751	144.19
453.971	155.19
454.192	156.19
454.412	91.19
454.633	95.19
454.853	87.19
455.073	85.19
455.294	100.19
455.514	108.19
455.734	93.19
455.955	98.19
456.175	86.19
456.395	108.19
456.616	98.19
456.836	103.19
457.056	93.19
457.276	107.19
457.497	104.19
457.717	117.19
457.937	104.19
458.157	95.19
458.377	94.19
458.598	75.19
458.818	96.19
459.038	78.19
459.258	85.19
459.478	83.19
459.698	89.19
459.918	92.19
460.138	87.19
460.358	70.19
460.578	88.19
460.798	96.19
461.018	103.19
461.238	107.19
461.458	90.19
461.678	99.19
461.898	100.19
462.118	90.19
462.338	92.19
462.558	97.19
462.777	88.19
462.997	97.19
463.217	95.19
463.437	123.19
463.657	179.19
463.876	168.19
464.096	117.19
464.316	87.19
464.536	100.19
464.755	85.19
464.975	96.19
465.195	104.19
465.414	90.19
465.634	90.19
465.854	85.19
466.073	84.19
466.293	80.19
466.512	89.19
466.732	83.19
466.951	102.19
467.171	130.19
467.391	135.19
467.61	99.19
467.829	103.19
468.049	104.19
468.268	100.19
468.488	94.19
468.707	95.19
468.927	95.19
469.146	102.19
469.365	92.19
469.585	92.19
469.804	103.19
470.023	83.19
470.243	97.19
470.462	99.19
470.681	95.19
470.901	114.19
471.12	184.19
471.339	203.19
471.558	123.19
471.777	112.19
471.997	97.19
472.216	99.19
472.435	92.19
472.654	99.19
472.873	98.19
473.092	101.19
473.311	92.19
473.53	75.19
473.749	93.19
473.968	102.19
474.187	89.19
474.406	89.19
474.625	95.19
474.844	83.19
475.063	94.19
475.282	102.19
475.501	103.19
475.72	82.19
475.939	93.19
476.158	97.19
476.377	102.19
476.596	104.19
476.814	80.19
477.033	91.19
477.252	103.19
477.471	87.19
477.69	89.19
477.908	100.19
478.127	110.19
478.346	103.19
478.564	97.19
478.783	90.19
479.002	92.19
479.22	100.19
479.439	92.19
479.658	92.19
479.876	90.19
480.095	82.19
480.313	99.19
480.532	97.19
480.751	90.19
480.969	90.19
481.188	104.19
481.406	96.19
481.624	89.19
481.843	120.19
482.061	104.19
482.28	101.19
482.498	98.19
482.717	73.19
482.935	97.19
483.153	102.19
483.372	92.19
483.59	111.19
483.808	104.19
484.027	122.19
484.245	115.19
484.463	171.19
484.681	210.19
484.9	134.19
485.118	115.19
485.336	103.19
485.554	112.19
485.772	115.19
485.99	184.19
486.209	266.19
486.427	156.19
486.645	114.19
486.863	111.19
487.081	107.19
487.299	90.19
487.517	105.19
487.735	105.19
487.953	87.19
488.171	87.19
488.389	108.19
488.607	98.19
488.825	94.19
489.043	93.19
489.261	98.19
489.479	82.19
489.696	107.19
489.914	95.19
490.132	109.19
490.35	98.19
490.568	91.19
490.786	84.19
491.003	108.19
491.221	98.19
491.439	97.19
491.657	99.19
491.874	105.19
492.092	103.19
492.31	111.19
492.527	112.19
492.745	94.19
492.963	89.19
493.18	118.19
493.398	101.19
493.615	108.19
493.833	108.19
494.05	100.19
494.268	111.19
494.485	113.19
494.703	111.19
494.92	115.19
495.138	102.19
495.355	98.19
495.573	89.19
495.79	99.19
496.008	101.19
496.225	89.19
496.442	121.19
496.66	132.19
496.877	147.19
497.094	156.19
497.312	94.19
497.529	114.19
497.746	98.19
497.963	105.19
498.181	109.19
498.398	107.19
498.615	82.19
498.832	95.19
499.049	96.19
499.267	129.19
499.484	137.19
499.701	115.19
499.918	106.19
500.135	91.19
500.352	97.19
500.569	99.19
500.786	97.19
501.003	112.19
501.22	121.19
501.437	92.19
501.654	97.19
501.871	96.19
502.088	89.19
502.305	85.19
502.522	101.19
502.739	94.19
502.956	101.19
503.172	83.19
503.389	84.19
503.606	89.19
503.823	88.19
504.04	107.19
504.256	86.19
504.473	99.19
504.69	103.19
504.907	118.19
505.123	113.19
505.34	113.19
505.557	103.19
505.773	111.19
505.99	99.19
506.207	103.19
506.423	87.19
506.64	106.19
506.856	107.19
507.073	100.19
507.289	99.19
507.506	110.19
507.722	106.19
507.939	90.19
508.155	97.19
508.372	99.19
508.588	90.19
508.805	80.19
509.021	105.19
509.238	108.19
