Data from SnStandardFlinnAPT0064_LampEnergy5.5_LIBS07252019.E.O._I.C._HRD10591_15-15-34-491.txt Node
Date: Thu Jul 25 15:15:34 EDT 2019
User: cochatt
Spectrometer: HR+D1059
Trigger mode: 1
Integration Time (sec): 1.000000E-1
Scans to average: 1
Electric dark correction enabled: true
Nonlinearity correction enabled: false
Boxcar width: 0
XAxis mode: Wavelengths
Number of Pixels in Spectrum: 2048
>>>>>Begin Spectral Data<<<<<
223.165	-16.69
223.4	-16.69
223.635	-16.69
223.869	-22.69
224.104	-9.69
224.338	-23.69
224.573	-18.69
224.808	-13.69
225.042	-3.69
225.277	0.31
225.511	6.31
225.746	4.31
225.98	18.31
226.215	5.31
226.449	14.31
226.683	27.31
226.918	12.31
227.152	20.31
227.387	33.31
227.621	24.31
227.856	44.31
228.09	53.31
228.324	70.31
228.559	53.31
228.793	81.31
229.027	132.31
229.262	151.31
229.496	134.31
229.73	148.31
229.964	140.31
230.199	154.31
230.433	164.31
230.667	147.31
230.901	166.31
231.136	163.31
231.37	181.31
231.604	184.31
231.838	185.31
232.072	208.31
232.306	212.31
232.541	195.31
232.775	187.31
233.009	198.31
233.243	209.31
233.477	209.31
233.711	223.31
233.945	248.31
234.179	221.31
234.413	207.31
234.647	206.31
234.881	211.31
235.115	234.31
235.349	260.31
235.583	299.31
235.817	372.31
236.051	361.31
236.285	258.31
236.519	213.31
236.753	228.31
236.987	226.31
237.221	228.31
237.455	219.31
237.689	204.31
237.922	214.31
238.156	208.31
238.39	230.31
238.624	214.31
238.858	231.31
239.091	215.31
239.325	235.31
239.559	222.31
239.793	224.31
240.027	226.31
240.26	230.31
240.494	235.31
240.728	247.31
240.961	269.31
241.195	284.31
241.429	276.31
241.662	278.31
241.896	304.31
242.13	369.31
242.363	440.31
242.597	564.31
242.83	543.31
243.064	551.31
243.298	636.31
243.531	536.31
243.765	376.31
243.998	319.31
244.232	289.31
244.465	298.31
244.699	284.31
244.932	303.31
245.166	278.31
245.399	279.31
245.633	282.31
245.866	291.31
246.099	290.31
246.333	296.31
246.566	276.31
246.8	267.31
247.033	278.31
247.266	276.31
247.5	289.31
247.733	310.31
247.966	293.31
248.2	321.31
248.433	340.31
248.666	392.31
248.899	363.31
249.133	331.31
249.366	359.31
249.599	377.31
249.832	399.31
250.066	417.31
250.299	347.31
250.532	325.31
250.765	308.31
250.998	304.31
251.231	317.31
251.465	335.31
251.698	343.31
251.931	326.31
252.164	328.31
252.397	334.31
252.63	336.31
252.863	329.31
253.096	332.31
253.329	345.31
253.562	331.31
253.795	326.31
254.028	363.31
254.261	322.31
254.494	357.31
254.727	394.31
254.96	466.31
255.193	463.31
255.426	389.31
255.659	346.31
255.892	361.31
256.124	378.31
256.357	366.31
256.59	378.31
256.823	375.31
257.056	416.31
257.289	502.31
257.521	531.31
257.754	466.31
257.987	404.31
258.22	376.31
258.452	381.31
258.685	387.31
258.918	409.31
259.151	404.31
259.383	436.31
259.616	433.31
259.849	507.31
260.081	451.31
260.314	426.31
260.547	395.31
260.779	404.31
261.012	418.31
261.244	414.31
261.477	415.31
261.71	433.31
261.942	421.31
262.175	399.31
262.407	428.31
262.64	458.31
262.872	461.31
263.105	486.31
263.337	518.31
263.57	532.31
263.802	533.31
264.035	549.31
264.267	582.31
264.499	579.31
264.732	616.31
264.964	613.31
265.197	591.31
265.429	573.31
265.661	606.31
265.894	654.31
266.126	691.31
266.358	749.31
266.591	727.31
266.823	657.31
267.055	603.31
267.287	583.31
267.52	586.31
267.752	530.31
267.984	532.31
268.216	524.31
268.448	558.31
268.681	532.31
268.913	518.31
269.145	524.31
269.377	533.31
269.609	542.31
269.841	532.31
270.073	550.31
270.306	628.31
270.538	792.31
270.77	1137.31
271.002	1343.31
271.234	956.31
271.466	679.31
271.698	593.31
271.93	554.31
272.162	579.31
272.394	516.31
272.626	529.31
272.858	507.31
273.09	506.31
273.322	530.31
273.553	518.31
273.785	494.31
274.017	498.31
274.249	520.31
274.481	510.31
274.713	496.31
274.945	488.31
275.176	495.31
275.408	489.31
275.64	531.31
275.872	528.31
276.104	552.31
276.335	527.31
276.567	520.31
276.799	527.31
277.031	530.31
277.262	551.31
277.494	554.31
277.726	588.31
277.957	682.31
278.189	720.31
278.421	711.31
278.652	630.31
278.884	602.31
279.115	571.31
279.347	580.31
279.579	540.31
279.81	534.31
280.042	579.31
280.273	562.31
280.505	571.31
280.736	576.31
280.968	598.31
281.199	657.31
281.431	719.31
281.662	729.31
281.894	646.31
282.125	600.31
282.356	654.31
282.588	647.31
282.819	648.31
283.051	695.31
283.282	730.31
283.513	894.31
283.745	1249.31
283.976	1954.31
284.207	2697.31
284.439	2424.31
284.67	1499.31
284.901	1223.31
285.132	1214.31
285.364	1167.31
285.595	947.31
285.826	875.31
286.057	1009.31
286.288	1313.31
286.52	1694.31
286.751	1606.31
286.982	1056.31
287.213	816.31
287.444	792.31
287.675	712.31
287.906	718.31
288.138	698.31
288.369	661.31
288.6	698.31
288.831	645.31
289.062	676.31
289.293	648.31
289.524	672.31
289.755	668.31
289.986	683.31
290.217	677.31
290.448	699.31
290.679	700.31
290.91	719.31
291.141	704.31
291.371	735.31
291.602	743.31
291.833	744.31
292.064	700.31
292.295	649.31
292.526	668.31
292.757	666.31
292.987	667.31
293.218	659.31
293.449	668.31
293.68	628.31
293.91	640.31
294.141	640.31
294.372	628.31
294.603	639.31
294.833	623.31
295.064	644.31
295.295	639.31
295.525	632.31
295.756	657.31
295.987	646.31
296.217	620.31
296.448	638.31
296.679	655.31
296.909	642.31
297.14	634.31
297.37	659.31
297.601	666.31
297.831	678.31
298.062	647.31
298.292	665.31
298.523	683.31
298.753	675.31
298.984	690.31
299.214	648.31
299.445	687.31
299.675	683.31
299.905	726.31
300.136	740.31
300.366	817.31
300.597	999.31
300.827	1339.31
301.057	1698.31
301.288	1720.31
301.518	1128.31
301.748	920.31
301.979	867.31
302.209	839.31
302.439	856.31
302.669	893.31
302.9	1036.31
303.13	1361.31
303.36	1944.31
303.59	2528.31
303.82	2241.31
304.051	1379.31
304.281	1081.31
304.511	914.31
304.741	847.31
304.971	818.31
305.201	790.31
305.431	770.31
305.661	747.31
305.891	758.31
306.121	744.31
306.352	744.31
306.582	743.31
306.812	718.31
307.042	731.31
307.272	754.31
307.502	742.31
307.731	751.31
307.961	714.31
308.191	730.31
308.421	751.31
308.651	739.31
308.881	724.31
309.111	744.31
309.341	739.31
309.571	730.31
309.8	742.31
310.03	742.31
310.26	739.31
310.49	770.31
310.72	784.31
310.949	775.31
311.179	754.31
311.409	766.31
311.639	805.31
311.868	769.31
312.098	786.31
312.328	801.31
312.557	776.31
312.787	798.31
313.017	802.31
313.246	800.31
313.476	801.31
313.706	842.31
313.935	858.31
314.165	865.31
314.394	892.31
314.624	893.31
314.853	827.31
315.083	851.31
315.312	848.31
315.542	882.31
315.771	860.31
316.001	867.31
316.23	904.31
316.46	930.31
316.689	996.31
316.919	1170.31
317.148	1565.31
317.377	2338.31
317.607	3359.31
317.836	3486.31
318.065	2122.31
318.295	1430.31
318.524	1204.31
318.753	1065.31
318.983	1028.31
319.212	967.31
319.441	964.31
319.67	975.31
319.9	933.31
320.129	918.31
320.358	894.31
320.587	934.31
320.816	925.31
321.046	915.31
321.275	931.31
321.504	934.31
321.733	932.31
321.962	950.31
322.191	942.31
322.42	985.31
322.649	939.31
322.878	983.31
323.108	976.31
323.337	985.31
323.566	1019.31
323.795	1020.31
324.024	1044.31
324.253	1055.31
324.482	1072.31
324.71	1128.31
324.939	1166.31
325.168	1192.31
325.397	1268.31
325.626	1466.31
325.855	1956.31
326.084	2874.31
326.313	4180.31
326.542	4474.31
326.77	2956.31
326.999	2025.31
327.228	1743.31
327.457	1651.31
327.686	1664.31
327.914	1827.31
328.143	2006.31
328.372	2339.31
328.6	2516.31
328.829	2336.31
329.058	2067.31
329.287	1873.31
329.515	1705.31
329.744	1582.31
329.972	1546.31
330.201	1485.31
330.43	1428.31
330.658	1409.31
330.887	1367.31
331.115	1340.31
331.344	1319.31
331.572	1343.31
331.801	1312.31
332.03	1357.31
332.258	1344.31
332.486	1374.31
332.715	1555.31
332.943	1833.31
333.172	2178.31
333.4	2159.31
333.629	1731.31
333.857	1682.31
334.085	1660.31
334.314	1790.31
334.542	1866.31
334.771	2062.31
334.999	2509.31
335.227	3034.31
335.455	3327.31
335.684	3151.31
335.912	2701.31
336.14	2354.31
336.369	2124.31
336.597	1957.31
336.825	1821.31
337.053	1682.31
337.281	1646.31
337.51	1529.31
337.738	1472.31
337.966	1418.31
338.194	1390.31
338.422	1342.31
338.65	1316.31
338.878	1305.31
339.106	1289.31
339.334	1260.31
339.562	1219.31
339.79	1194.31
340.018	1189.31
340.246	1186.31
340.474	1176.31
340.702	1193.31
340.93	1194.31
341.158	1171.31
341.386	1201.31
341.614	1170.31
341.842	1160.31
342.07	1146.31
342.298	1104.31
342.526	1092.31
342.754	1096.31
342.981	1090.31
343.209	1089.31
343.437	1103.31
343.665	1117.31
343.893	1154.31
344.12	1118.31
344.348	1110.31
344.576	1084.31
344.804	1070.31
345.031	1036.31
345.259	1035.31
345.487	1022.31
345.714	1046.31
345.942	1007.31
346.17	1011.31
346.397	1039.31
346.625	1004.31
346.853	1004.31
347.08	1001.31
347.308	1009.31
347.535	1016.31
347.763	998.31
347.99	1012.31
348.218	1024.31
348.445	1002.31
348.673	996.31
348.9	1004.31
349.128	992.31
349.355	980.31
349.583	972.31
349.81	980.31
350.037	972.31
350.265	989.31
350.492	967.31
350.72	993.31
350.947	997.31
351.174	991.31
351.402	978.31
351.629	992.31
351.856	976.31
352.083	975.31
352.311	963.31
352.538	940.31
352.765	955.31
352.992	984.31
353.22	945.31
353.447	958.31
353.674	986.31
353.901	972.31
354.128	967.31
354.355	952.31
354.583	990.31
354.81	987.31
355.037	959.31
355.264	980.31
355.491	977.31
355.718	998.31
355.945	968.31
356.172	987.31
356.399	966.31
356.626	952.31
356.853	989.31
357.08	998.31
357.307	1023.31
357.534	1008.31
357.761	1032.31
357.988	1011.31
358.215	1013.31
358.441	1015.31
358.668	1019.31
358.895	1025.31
359.122	1044.31
359.349	1039.31
359.576	1035.31
359.802	1028.31
360.029	1010.31
360.256	1059.31
360.483	1042.31
360.709	1011.31
360.936	1038.31
361.163	1020.31
361.39	1009.31
361.616	1022.31
361.843	1050.31
362.07	1023.31
362.296	1047.31
362.523	1039.31
362.749	1026.31
362.976	1020.31
363.203	1035.31
363.429	1038.31
363.656	1022.31
363.882	1016.31
364.109	1024.31
364.335	1049.31
364.562	1040.31
364.788	1053.31
365.015	1036.31
365.241	1054.31
365.468	1074.31
365.694	1090.31
365.92	1067.31
366.147	1044.31
366.373	1025.31
366.599	1058.31
366.826	1027.31
367.052	1072.31
367.278	1074.31
367.505	1059.31
367.731	1073.31
367.957	1049.31
368.184	1062.31
368.41	1056.31
368.636	1045.31
368.862	1086.31
369.089	1093.31
369.315	1062.31
369.541	1065.31
369.767	1094.31
369.993	1049.31
370.219	1088.31
370.445	1074.31
370.672	1071.31
370.898	1084.31
371.124	1084.31
371.35	1110.31
371.576	1076.31
371.802	1119.31
372.028	1090.31
372.254	1082.31
372.48	1098.31
372.706	1138.31
372.932	1120.31
373.158	1109.31
373.384	1131.31
373.61	1110.31
373.835	1112.31
374.061	1122.31
374.287	1122.31
374.513	1128.31
374.739	1148.31
374.965	1181.31
375.191	1184.31
375.416	1156.31
375.642	1129.31
375.868	1120.31
376.094	1128.31
376.319	1147.31
376.545	1132.31
376.771	1118.31
376.997	1089.31
377.222	1107.31
377.448	1118.31
377.674	1143.31
377.899	1110.31
378.125	1085.31
378.35	1118.31
378.576	1090.31
378.802	1117.31
379.027	1143.31
379.253	1167.31
379.478	1176.31
379.704	1295.31
379.929	1766.31
380.155	2502.31
380.38	2675.31
380.606	1756.31
380.831	1349.31
381.057	1243.31
381.282	1162.31
381.507	1134.31
381.733	1125.31
381.958	1113.31
382.184	1109.31
382.409	1109.31
382.634	1098.31
382.86	1104.31
383.085	1113.31
383.31	1081.31
383.535	1112.31
383.761	1088.31
383.986	1124.31
384.211	1146.31
384.436	1126.31
384.662	1109.31
384.887	1137.31
385.112	1128.31
385.337	1144.31
385.562	1139.31
385.787	1128.31
386.013	1152.31
386.238	1143.31
386.463	1124.31
386.688	1146.31
386.913	1119.31
387.138	1101.31
387.363	1132.31
387.588	1147.31
387.813	1154.31
388.038	1142.31
388.263	1141.31
388.488	1143.31
388.713	1118.31
388.938	1142.31
389.163	1144.31
389.387	1135.31
389.612	1145.31
389.837	1148.31
390.062	1116.31
390.287	1127.31
390.512	1129.31
390.736	1164.31
390.961	1167.31
391.186	1182.31
391.411	1185.31
391.636	1190.31
391.86	1178.31
392.085	1171.31
392.31	1190.31
392.534	1170.31
392.759	1191.31
392.984	1176.31
393.208	1159.31
393.433	1130.31
393.658	1160.31
393.882	1174.31
394.107	1139.31
394.331	1139.31
394.556	1191.31
394.78	1161.31
395.005	1172.31
395.229	1168.31
395.454	1194.31
395.678	1205.31
395.903	1179.31
396.127	1186.31
396.352	1171.31
396.576	1128.31
396.801	1172.31
397.025	1178.31
397.249	1189.31
397.474	1209.31
397.698	1171.31
397.922	1206.31
398.147	1226.31
398.371	1214.31
398.595	1231.31
398.82	1279.31
399.044	1316.31
399.268	1390.31
399.492	1463.31
399.717	1527.31
399.941	1489.31
400.165	1455.31
400.389	1372.31
400.613	1330.31
400.837	1304.31
401.062	1286.31
401.286	1288.31
401.51	1268.31
401.734	1294.31
401.958	1272.31
402.182	1309.31
402.406	1258.31
402.63	1254.31
402.854	1283.31
403.078	1284.31
403.302	1324.31
403.526	1340.31
403.75	1303.31
403.974	1306.31
404.198	1283.31
404.422	1307.31
404.645	1320.31
404.869	1311.31
405.093	1321.31
405.317	1283.31
405.541	1307.31
405.765	1313.31
405.988	1346.31
406.212	1344.31
406.436	1324.31
406.66	1361.31
406.883	1319.31
407.107	1376.31
407.331	1439.31
407.555	1442.31
407.778	1391.31
408.002	1415.31
408.226	1401.31
408.449	1380.31
408.673	1360.31
408.896	1355.31
409.12	1326.31
409.344	1347.31
409.567	1318.31
409.791	1330.31
410.014	1321.31
410.238	1326.31
410.461	1306.31
410.685	1285.31
410.908	1272.31
411.132	1302.31
411.355	1271.31
411.578	1302.31
411.802	1251.31
412.025	1263.31
412.249	1257.31
412.472	1289.31
412.695	1277.31
412.919	1248.31
413.142	1238.31
413.365	1247.31
413.589	1247.31
413.812	1218.31
414.035	1240.31
414.258	1232.31
414.482	1242.31
414.705	1253.31
414.928	1219.31
415.151	1228.31
415.374	1236.31
415.597	1184.31
415.821	1194.31
416.044	1173.31
416.267	1210.31
416.49	1223.31
416.713	1208.31
416.936	1192.31
417.159	1193.31
417.382	1165.31
417.605	1170.31
417.828	1198.31
418.051	1224.31
418.274	1194.31
418.497	1206.31
418.72	1206.31
418.943	1233.31
419.166	1264.31
419.389	1308.31
419.611	1337.31
419.834	1259.31
420.057	1233.31
420.28	1172.31
420.503	1174.31
420.726	1203.31
420.948	1171.31
421.171	1176.31
421.394	1225.31
421.617	1240.31
421.839	1209.31
422.062	1224.31
422.285	1199.31
422.507	1214.31
422.73	1189.31
422.953	1214.31
423.175	1257.31
423.398	1220.31
423.621	1195.31
423.843	1243.31
424.066	1207.31
424.288	1201.31
424.511	1222.31
424.733	1230.31
424.956	1222.31
425.178	1185.31
425.401	1192.31
425.623	1221.31
425.846	1141.31
426.068	1177.31
426.291	1172.31
426.513	1146.31
426.735	1154.31
426.958	1162.31
427.18	1117.31
427.402	1145.31
427.625	1140.31
427.847	1110.31
428.069	1109.31
428.292	1147.31
428.514	1115.31
428.736	1091.31
428.958	1139.31
429.181	1094.31
429.403	1096.31
429.625	1107.31
429.847	1107.31
430.069	1118.31
430.292	1144.31
430.514	1170.31
430.736	1165.31
430.958	1124.31
431.18	1096.31
431.402	1088.31
431.624	1099.31
431.846	1067.31
432.068	1083.31
432.29	1104.31
432.512	1061.31
432.734	1103.31
432.956	1095.31
433.178	1126.31
433.4	1097.31
433.622	1103.31
433.844	1110.31
434.066	1110.31
434.287	1094.31
434.509	1099.31
434.731	1104.31
434.953	1131.31
435.175	1148.31
435.397	1162.31
435.618	1138.31
435.84	1120.31
436.062	1074.31
436.284	1085.31
436.505	1079.31
436.727	1107.31
436.949	1089.31
437.17	1098.31
437.392	1100.31
437.614	1091.31
437.835	1049.31
438.057	1025.31
438.278	1078.31
438.5	1073.31
438.721	1095.31
438.943	1114.31
439.165	1121.31
439.386	1106.31
439.608	1147.31
439.829	1134.31
440.05	1148.31
440.272	1181.31
440.493	1156.31
440.715	1152.31
440.936	1142.31
441.158	1164.31
441.379	1125.31
441.6	1196.31
441.822	1231.31
442.043	1267.31
442.264	1331.31
442.486	1211.31
442.707	1201.31
442.928	1165.31
443.149	1159.31
443.371	1174.31
443.592	1198.31
443.813	1194.31
444.034	1194.31
444.255	1229.31
444.476	1266.31
444.698	1291.31
444.919	1317.31
445.14	1360.31
445.361	1268.31
445.582	1227.31
445.803	1170.31
446.024	1182.31
446.245	1202.31
446.466	1178.31
446.687	1176.31
446.908	1167.31
447.129	1138.31
447.35	1097.31
447.571	1108.31
447.792	1098.31
448.013	1112.31
448.234	1109.31
448.455	1087.31
448.675	1106.31
448.896	1103.31
449.117	1145.31
449.338	1205.31
449.559	1246.31
449.779	1122.31
450	1060.31
450.221	1068.31
450.442	1046.31
450.662	1058.31
450.883	1037.31
451.104	1065.31
451.324	1046.31
451.545	1074.31
451.766	1089.31
451.986	1062.31
452.207	1109.31
452.428	1300.31
452.648	1717.31
452.869	1472.31
453.089	1187.31
453.31	1119.31
453.53	1130.31
453.751	1164.31
453.971	1227.31
454.192	1194.31
454.412	1105.31
454.633	1042.31
454.853	1025.31
455.073	1026.31
455.294	1017.31
455.514	1025.31
455.734	991.31
455.955	1018.31
456.175	1010.31
456.395	1001.31
456.616	1006.31
456.836	1019.31
457.056	1033.31
457.276	1026.31
457.497	1079.31
457.717	1054.31
457.937	1036.31
458.157	1061.31
458.377	1060.31
458.598	1088.31
458.818	1104.31
459.038	1069.31
459.258	1063.31
459.478	1053.31
459.698	1074.31
459.918	1095.31
460.138	1137.31
460.358	1158.31
460.578	1192.31
460.798	1180.31
461.018	1210.31
461.238	1207.31
461.458	1194.31
461.678	1166.31
461.898	1219.31
462.118	1262.31
462.338	1261.31
462.558	1273.31
462.777	1302.31
462.997	1331.31
463.217	1366.31
463.437	1422.31
463.657	1379.31
463.876	1394.31
464.096	1378.31
464.316	1280.31
464.536	1312.31
464.755	1262.31
464.975	1250.31
465.195	1204.31
465.414	1201.31
465.634	1145.31
465.854	1111.31
466.073	1101.31
466.293	1128.31
466.512	1127.31
466.732	1146.31
466.951	1147.31
467.171	1178.31
467.391	1192.31
467.61	1164.31
467.829	1101.31
468.049	1122.31
468.268	1073.31
468.488	1041.31
468.707	1078.31
468.927	1064.31
469.146	1064.31
469.365	1082.31
469.585	1067.31
469.804	1101.31
470.023	1135.31
470.243	1134.31
470.462	1167.31
470.681	1209.31
470.901	1305.31
471.12	1438.31
471.339	1452.31
471.558	1251.31
471.777	1165.31
471.997	1153.31
472.216	1108.31
472.435	1100.31
472.654	1085.31
472.873	1063.31
473.092	1071.31
473.311	1070.31
473.53	1089.31
473.749	1132.31
473.968	1126.31
474.187	1083.31
474.406	1072.31
474.625	1091.31
474.844	1108.31
475.063	1120.31
475.282	1071.31
475.501	1087.31
475.72	1128.31
475.939	1078.31
476.158	1151.31
476.377	1172.31
476.596	1116.31
476.814	1174.31
477.033	1128.31
477.252	1154.31
477.471	1138.31
477.69	1203.31
477.908	1216.31
478.127	1228.31
478.346	1219.31
478.564	1251.31
478.783	1271.31
479.002	1308.31
479.22	1304.31
479.439	1297.31
479.658	1314.31
479.876	1303.31
480.095	1298.31
480.313	1332.31
480.532	1348.31
480.751	1320.31
480.969	1282.31
481.188	1280.31
481.406	1255.31
481.624	1290.31
481.843	1258.31
482.061	1279.31
482.28	1292.31
482.498	1278.31
482.717	1251.31
482.935	1321.31
483.153	1332.31
483.372	1326.31
483.59	1347.31
483.808	1359.31
484.027	1367.31
484.245	1419.31
484.463	1579.31
484.681	1715.31
484.9	1588.31
485.118	1511.31
485.336	1493.31
485.554	1489.31
485.772	1568.31
485.99	1707.31
486.209	1819.31
486.427	1577.31
486.645	1467.31
486.863	1437.31
487.081	1413.31
487.299	1399.31
487.517	1399.31
487.735	1393.31
487.953	1448.31
488.171	1428.31
488.389	1404.31
488.607	1368.31
488.825	1342.31
489.043	1346.31
489.261	1347.31
489.479	1345.31
489.696	1326.31
489.914	1329.31
490.132	1327.31
490.35	1367.31
490.568	1383.31
490.786	1387.31
491.003	1388.31
491.221	1414.31
491.439	1431.31
491.657	1428.31
