Data from SnStandardFlinnAPT0064_LampEnergy5.5_LIBS07252019.E.O._I.C._HRD10591_15-15-10-491.txt Node
Date: Thu Jul 25 15:15:10 EDT 2019
User: cochatt
Spectrometer: HR+D1059
Trigger mode: 1
Integration Time (sec): 1.000000E-1
Scans to average: 1
Electric dark correction enabled: true
Nonlinearity correction enabled: false
Boxcar width: 0
XAxis mode: Wavelengths
Number of Pixels in Spectrum: 2048
>>>>>Begin Spectral Data<<<<<
223.165	-17.31
223.4	-17.31
223.635	-17.31
223.869	-25.31
224.104	-19.31
224.338	2.69
224.573	-17.31
224.808	0.69
225.042	-8.31
225.277	1.69
225.511	0.69
225.746	9.69
225.98	0.69
226.215	-1.31
226.449	18.69
226.683	6.69
226.918	23.69
227.152	23.69
227.387	43.69
227.621	35.69
227.856	40.69
228.09	44.69
228.324	39.69
228.559	49.69
228.793	84.69
229.027	149.69
229.262	150.69
229.496	145.69
229.73	155.69
229.964	160.69
230.199	153.69
230.433	168.69
230.667	166.69
230.901	161.69
231.136	161.69
231.37	169.69
231.604	194.69
231.838	215.69
232.072	232.69
232.306	238.69
232.541	208.69
232.775	174.69
233.009	191.69
233.243	205.69
233.477	210.69
233.711	228.69
233.945	259.69
234.179	224.69
234.413	228.69
234.647	219.69
234.881	216.69
235.115	229.69
235.349	260.69
235.583	324.69
235.817	394.69
236.051	382.69
236.285	277.69
236.519	224.69
236.753	240.69
236.987	222.69
237.221	246.69
237.455	240.69
237.689	213.69
237.922	215.69
238.156	230.69
238.39	221.69
238.624	212.69
238.858	246.69
239.091	221.69
239.325	231.69
239.559	247.69
239.793	233.69
240.027	246.69
240.26	266.69
240.494	251.69
240.728	257.69
240.961	260.69
241.195	276.69
241.429	299.69
241.662	314.69
241.896	331.69
242.13	391.69
242.363	468.69
242.597	580.69
242.83	568.69
243.064	575.69
243.298	674.69
243.531	576.69
243.765	378.69
243.998	341.69
244.232	310.69
244.465	297.69
244.699	300.69
244.932	311.69
245.166	297.69
245.399	306.69
245.633	297.69
245.866	285.69
246.099	300.69
246.333	301.69
246.566	302.69
246.8	286.69
247.033	284.69
247.266	292.69
247.5	293.69
247.733	302.69
247.966	302.69
248.2	313.69
248.433	350.69
248.666	386.69
248.899	375.69
249.133	352.69
249.366	358.69
249.599	394.69
249.832	428.69
250.066	420.69
250.299	364.69
250.532	323.69
250.765	334.69
250.998	351.69
251.231	316.69
251.465	357.69
251.698	332.69
251.931	332.69
252.164	349.69
252.397	343.69
252.63	353.69
252.863	344.69
253.096	332.69
253.329	335.69
253.562	347.69
253.795	354.69
254.028	348.69
254.261	358.69
254.494	379.69
254.727	404.69
254.96	460.69
255.193	479.69
255.426	395.69
255.659	372.69
255.892	380.69
256.124	375.69
256.357	382.69
256.59	395.69
256.823	402.69
257.056	452.69
257.289	505.69
257.521	530.69
257.754	482.69
257.987	405.69
258.22	398.69
258.452	394.69
258.685	415.69
258.918	398.69
259.151	418.69
259.383	439.69
259.616	475.69
259.849	492.69
260.081	447.69
260.314	416.69
260.547	407.69
260.779	400.69
261.012	445.69
261.244	420.69
261.477	440.69
261.71	434.69
261.942	452.69
262.175	455.69
262.407	466.69
262.64	476.69
262.872	494.69
263.105	502.69
263.337	547.69
263.57	571.69
263.802	582.69
264.035	572.69
264.267	583.69
264.499	624.69
264.732	624.69
264.964	657.69
265.197	630.69
265.429	616.69
265.661	636.69
265.894	680.69
266.126	740.69
266.358	770.69
266.591	779.69
266.823	663.69
267.055	620.69
267.287	626.69
267.52	586.69
267.752	558.69
267.984	551.69
268.216	566.69
268.448	552.69
268.681	538.69
268.913	520.69
269.145	530.69
269.377	541.69
269.609	546.69
269.841	566.69
270.073	566.69
270.306	650.69
270.538	813.69
270.77	1139.69
271.002	1370.69
271.234	1032.69
271.466	743.69
271.698	624.69
271.93	568.69
272.162	559.69
272.394	552.69
272.626	533.69
272.858	531.69
273.09	533.69
273.322	534.69
273.553	499.69
273.785	520.69
274.017	502.69
274.249	527.69
274.481	533.69
274.713	524.69
274.945	508.69
275.176	558.69
275.408	517.69
275.64	524.69
275.872	539.69
276.104	532.69
276.335	539.69
276.567	548.69
276.799	531.69
277.031	560.69
277.262	557.69
277.494	581.69
277.726	609.69
277.957	656.69
278.189	747.69
278.421	728.69
278.652	664.69
278.884	628.69
279.115	604.69
279.347	582.69
279.579	585.69
279.81	583.69
280.042	603.69
280.273	619.69
280.505	599.69
280.736	605.69
280.968	628.69
281.199	670.69
281.431	718.69
281.662	747.69
281.894	706.69
282.125	663.69
282.356	659.69
282.588	675.69
282.819	698.69
283.051	727.69
283.282	785.69
283.513	947.69
283.745	1286.69
283.976	2001.69
284.207	2756.69
284.439	2514.69
284.67	1574.69
284.901	1297.69
285.132	1244.69
285.364	1181.69
285.595	984.69
285.826	900.69
286.057	1033.69
286.288	1353.69
286.52	1817.69
286.751	1657.69
286.982	1107.69
287.213	864.69
287.444	780.69
287.675	723.69
287.906	728.69
288.138	724.69
288.369	676.69
288.6	709.69
288.831	692.69
289.062	692.69
289.293	698.69
289.524	708.69
289.755	727.69
289.986	716.69
290.217	725.69
290.448	727.69
290.679	734.69
290.91	735.69
291.141	743.69
291.371	762.69
291.602	774.69
291.833	743.69
292.064	710.69
292.295	706.69
292.526	690.69
292.757	670.69
292.987	651.69
293.218	656.69
293.449	671.69
293.68	672.69
293.91	650.69
294.141	642.69
294.372	645.69
294.603	683.69
294.833	668.69
295.064	654.69
295.295	678.69
295.525	677.69
295.756	657.69
295.987	643.69
296.217	646.69
296.448	687.69
296.679	674.69
296.909	649.69
297.14	668.69
297.37	684.69
297.601	690.69
297.831	676.69
298.062	669.69
298.292	672.69
298.523	701.69
298.753	718.69
298.984	717.69
299.214	718.69
299.445	723.69
299.675	717.69
299.905	738.69
300.136	796.69
300.366	842.69
300.597	1015.69
300.827	1328.69
301.057	1761.69
301.288	1787.69
301.518	1225.69
301.748	978.69
301.979	908.69
302.209	911.69
302.439	900.69
302.669	907.69
302.9	1063.69
303.13	1384.69
303.36	2054.69
303.59	2657.69
303.82	2356.69
304.051	1460.69
304.281	1102.69
304.511	962.69
304.741	891.69
304.971	859.69
305.201	833.69
305.431	809.69
305.661	790.69
305.891	787.69
306.121	771.69
306.352	772.69
306.582	769.69
306.812	767.69
307.042	791.69
307.272	775.69
307.502	797.69
307.731	756.69
307.961	758.69
308.191	753.69
308.421	750.69
308.651	770.69
308.881	762.69
309.111	746.69
309.341	771.69
309.571	765.69
309.8	770.69
310.03	777.69
310.26	802.69
310.49	766.69
310.72	794.69
310.949	773.69
311.179	792.69
311.409	778.69
311.639	808.69
311.868	799.69
312.098	806.69
312.328	830.69
312.557	842.69
312.787	800.69
313.017	800.69
313.246	838.69
313.476	812.69
313.706	847.69
313.935	888.69
314.165	934.69
314.394	939.69
314.624	905.69
314.853	878.69
315.083	890.69
315.312	884.69
315.542	861.69
315.771	902.69
316.001	912.69
316.23	929.69
316.46	959.69
316.689	1038.69
316.919	1197.69
317.148	1657.69
317.377	2413.69
317.607	3535.69
317.836	3626.69
318.065	2238.69
318.295	1534.69
318.524	1253.69
318.753	1110.69
318.983	1029.69
319.212	1014.69
319.441	1004.69
319.67	955.69
319.9	970.69
320.129	950.69
320.358	908.69
320.587	935.69
320.816	934.69
321.046	976.69
321.275	956.69
321.504	956.69
321.733	987.69
321.962	1000.69
322.191	1011.69
322.42	1010.69
322.649	997.69
322.878	1013.69
323.108	1006.69
323.337	1003.69
323.566	1034.69
323.795	1054.69
324.024	1063.69
324.253	1087.69
324.482	1110.69
324.71	1151.69
324.939	1223.69
325.168	1242.69
325.397	1310.69
325.626	1414.69
325.855	1972.69
326.084	3007.69
326.313	4386.69
326.542	4616.69
326.77	3033.69
326.999	2054.69
327.228	1806.69
327.457	1702.69
327.686	1738.69
327.914	1833.69
328.143	2099.69
328.372	2434.69
328.6	2628.69
328.829	2427.69
329.058	2182.69
329.287	1960.69
329.515	1797.69
329.744	1684.69
329.972	1602.69
330.201	1519.69
330.43	1464.69
330.658	1419.69
330.887	1402.69
331.115	1388.69
331.344	1403.69
331.572	1380.69
331.801	1373.69
332.03	1363.69
332.258	1420.69
332.486	1466.69
332.715	1580.69
332.943	1939.69
333.172	2265.69
333.4	2258.69
333.629	1819.69
333.857	1742.69
334.085	1709.69
334.314	1780.69
334.542	1940.69
334.771	2197.69
334.999	2585.69
335.227	3138.69
335.455	3467.69
335.684	3308.69
335.912	2802.69
336.14	2445.69
336.369	2222.69
336.597	2028.69
336.825	1860.69
337.053	1794.69
337.281	1668.69
337.51	1629.69
337.738	1574.69
337.966	1476.69
338.194	1418.69
338.422	1402.69
338.65	1357.69
338.878	1355.69
339.106	1330.69
339.334	1286.69
339.562	1291.69
339.79	1243.69
340.018	1245.69
340.246	1208.69
340.474	1213.69
340.702	1220.69
340.93	1267.69
341.158	1215.69
341.386	1218.69
341.614	1200.69
341.842	1210.69
342.07	1159.69
342.298	1158.69
342.526	1133.69
342.754	1164.69
342.981	1118.69
343.209	1138.69
343.437	1134.69
343.665	1166.69
343.893	1159.69
344.12	1215.69
344.348	1116.69
344.576	1140.69
344.804	1129.69
345.031	1092.69
345.259	1102.69
345.487	1084.69
345.714	1062.69
345.942	1067.69
346.17	1072.69
346.397	1055.69
346.625	1049.69
346.853	1059.69
347.08	1029.69
347.308	1018.69
347.535	1026.69
347.763	1022.69
347.99	1042.69
348.218	1034.69
348.445	1010.69
348.673	1051.69
348.9	1036.69
349.128	1019.69
349.355	1033.69
349.583	1028.69
349.81	1006.69
350.037	1014.69
350.265	1003.69
350.492	1021.69
350.72	1005.69
350.947	997.69
351.174	1025.69
351.402	1016.69
351.629	1011.69
351.856	1027.69
352.083	995.69
352.311	985.69
352.538	988.69
352.765	995.69
352.992	975.69
353.22	980.69
353.447	995.69
353.674	986.69
353.901	1000.69
354.128	1004.69
354.355	1015.69
354.583	977.69
354.81	1034.69
355.037	1030.69
355.264	1012.69
355.491	1015.69
355.718	1019.69
355.945	1024.69
356.172	1021.69
356.399	1032.69
356.626	1032.69
356.853	1043.69
357.08	1054.69
357.307	1049.69
357.534	1055.69
357.761	1068.69
357.988	1070.69
358.215	1055.69
358.441	1056.69
358.668	1063.69
358.895	1056.69
359.122	1054.69
359.349	1068.69
359.576	1050.69
359.802	1065.69
360.029	1057.69
360.256	1102.69
360.483	1066.69
360.709	1035.69
360.936	1080.69
361.163	1066.69
361.39	1038.69
361.616	1085.69
361.843	1037.69
362.07	1065.69
362.296	1067.69
362.523	1059.69
362.749	1065.69
362.976	1068.69
363.203	1055.69
363.429	1030.69
363.656	1066.69
363.882	1068.69
364.109	1075.69
364.335	1053.69
364.562	1060.69
364.788	1053.69
365.015	1084.69
365.241	1094.69
365.468	1113.69
365.694	1155.69
365.92	1119.69
366.147	1077.69
366.373	1120.69
366.599	1076.69
366.826	1092.69
367.052	1103.69
367.278	1116.69
367.505	1096.69
367.731	1103.69
367.957	1102.69
368.184	1112.69
368.41	1114.69
368.636	1115.69
368.862	1111.69
369.089	1102.69
369.315	1093.69
369.541	1094.69
369.767	1111.69
369.993	1096.69
370.219	1102.69
370.445	1118.69
370.672	1144.69
370.898	1127.69
371.124	1139.69
371.35	1166.69
371.576	1158.69
371.802	1119.69
372.028	1162.69
372.254	1172.69
372.48	1122.69
372.706	1147.69
372.932	1182.69
373.158	1140.69
373.384	1166.69
373.61	1142.69
373.835	1154.69
374.061	1179.69
374.287	1204.69
374.513	1193.69
374.739	1207.69
374.965	1239.69
375.191	1222.69
375.416	1198.69
375.642	1219.69
375.868	1188.69
376.094	1192.69
376.319	1192.69
376.545	1164.69
376.771	1199.69
376.997	1163.69
377.222	1177.69
377.448	1145.69
377.674	1163.69
377.899	1124.69
378.125	1166.69
378.35	1140.69
378.576	1143.69
378.802	1152.69
379.027	1180.69
379.253	1203.69
379.478	1244.69
379.704	1372.69
379.929	1814.69
380.155	2632.69
380.38	2814.69
380.606	1848.69
380.831	1426.69
381.057	1294.69
381.282	1204.69
381.507	1180.69
381.733	1169.69
381.958	1171.69
382.184	1156.69
382.409	1156.69
382.634	1136.69
382.86	1109.69
383.085	1124.69
383.31	1140.69
383.535	1139.69
383.761	1167.69
383.986	1153.69
384.211	1134.69
384.436	1155.69
384.662	1158.69
384.887	1202.69
385.112	1148.69
385.337	1164.69
385.562	1182.69
385.787	1163.69
386.013	1162.69
386.238	1218.69
386.463	1206.69
386.688	1238.69
386.913	1168.69
387.138	1168.69
387.363	1183.69
387.588	1152.69
387.813	1179.69
388.038	1180.69
388.263	1209.69
388.488	1190.69
388.713	1220.69
388.938	1171.69
389.163	1180.69
389.387	1166.69
389.612	1177.69
389.837	1194.69
390.062	1183.69
390.287	1233.69
390.512	1149.69
390.736	1194.69
390.961	1226.69
391.186	1233.69
391.411	1241.69
391.636	1242.69
391.86	1248.69
392.085	1246.69
392.31	1230.69
392.534	1248.69
392.759	1210.69
392.984	1204.69
393.208	1178.69
393.433	1207.69
393.658	1202.69
393.882	1183.69
394.107	1164.69
394.331	1212.69
394.556	1210.69
394.78	1187.69
395.005	1206.69
395.229	1204.69
395.454	1217.69
395.678	1227.69
395.903	1219.69
396.127	1234.69
396.352	1199.69
396.576	1215.69
396.801	1209.69
397.025	1236.69
397.249	1206.69
397.474	1250.69
397.698	1232.69
397.922	1249.69
398.147	1242.69
398.371	1275.69
398.595	1307.69
398.82	1326.69
399.044	1388.69
399.268	1437.69
399.492	1526.69
399.717	1594.69
399.941	1593.69
400.165	1519.69
400.389	1450.69
400.613	1429.69
400.837	1339.69
401.062	1334.69
401.286	1347.69
401.51	1315.69
401.734	1293.69
401.958	1317.69
402.182	1318.69
402.406	1347.69
402.63	1320.69
402.854	1355.69
403.078	1350.69
403.302	1339.69
403.526	1392.69
403.75	1343.69
403.974	1387.69
404.198	1384.69
404.422	1404.69
404.645	1379.69
404.869	1369.69
405.093	1376.69
405.317	1319.69
405.541	1331.69
405.765	1386.69
405.988	1369.69
406.212	1378.69
406.436	1382.69
406.66	1436.69
406.883	1389.69
407.107	1451.69
407.331	1448.69
407.555	1544.69
407.778	1482.69
408.002	1455.69
408.226	1431.69
408.449	1439.69
408.673	1388.69
408.896	1365.69
409.12	1386.69
409.344	1361.69
409.567	1383.69
409.791	1366.69
410.014	1374.69
410.238	1354.69
410.461	1320.69
410.685	1321.69
410.908	1351.69
411.132	1306.69
411.355	1325.69
411.578	1315.69
411.802	1311.69
412.025	1307.69
412.249	1312.69
412.472	1318.69
412.695	1275.69
412.919	1276.69
413.142	1267.69
413.365	1282.69
413.589	1298.69
413.812	1263.69
414.035	1256.69
414.258	1295.69
414.482	1293.69
414.705	1301.69
414.928	1281.69
415.151	1262.69
415.374	1251.69
415.597	1258.69
415.821	1232.69
416.044	1248.69
416.267	1220.69
416.49	1244.69
416.713	1245.69
416.936	1223.69
417.159	1227.69
417.382	1240.69
417.605	1233.69
417.828	1236.69
418.051	1252.69
418.274	1234.69
418.497	1239.69
418.72	1270.69
418.943	1256.69
419.166	1306.69
419.389	1376.69
419.611	1346.69
419.834	1306.69
420.057	1286.69
420.28	1283.69
420.503	1266.69
420.726	1226.69
420.948	1266.69
421.171	1263.69
421.394	1278.69
421.617	1284.69
421.839	1274.69
422.062	1282.69
422.285	1257.69
422.507	1287.69
422.73	1308.69
422.953	1288.69
423.175	1268.69
423.398	1299.69
423.621	1245.69
423.843	1272.69
424.066	1288.69
424.288	1237.69
424.511	1244.69
424.733	1286.69
424.956	1246.69
425.178	1235.69
425.401	1238.69
425.623	1220.69
425.846	1200.69
426.068	1231.69
426.291	1241.69
426.513	1226.69
426.735	1204.69
426.958	1199.69
427.18	1170.69
427.402	1182.69
427.625	1187.69
427.847	1178.69
428.069	1150.69
428.292	1158.69
428.514	1155.69
428.736	1124.69
428.958	1154.69
429.181	1117.69
429.403	1142.69
429.625	1139.69
429.847	1130.69
430.069	1178.69
430.292	1182.69
430.514	1216.69
430.736	1228.69
430.958	1162.69
431.18	1133.69
431.402	1135.69
431.624	1130.69
431.846	1136.69
432.068	1124.69
432.29	1151.69
432.512	1103.69
432.734	1150.69
432.956	1131.69
433.178	1169.69
433.4	1149.69
433.622	1184.69
433.844	1167.69
434.066	1158.69
434.287	1142.69
434.509	1146.69
434.731	1191.69
434.953	1196.69
435.175	1216.69
435.397	1216.69
435.618	1159.69
435.84	1147.69
436.062	1130.69
436.284	1138.69
436.505	1143.69
436.727	1139.69
436.949	1130.69
437.17	1140.69
437.392	1132.69
437.614	1110.69
437.835	1112.69
438.057	1102.69
438.278	1093.69
438.5	1135.69
438.721	1160.69
438.943	1167.69
439.165	1158.69
439.386	1168.69
439.608	1169.69
439.829	1165.69
440.05	1197.69
440.272	1205.69
440.493	1191.69
440.715	1202.69
440.936	1194.69
441.158	1216.69
441.379	1235.69
441.6	1253.69
441.822	1268.69
442.043	1317.69
442.264	1336.69
442.486	1290.69
442.707	1252.69
442.928	1236.69
443.149	1232.69
443.371	1214.69
443.592	1255.69
443.813	1244.69
444.034	1247.69
444.255	1253.69
444.476	1326.69
444.698	1323.69
444.919	1345.69
445.14	1424.69
445.361	1320.69
445.582	1288.69
445.803	1225.69
446.024	1213.69
446.245	1223.69
446.466	1231.69
446.687	1218.69
446.908	1216.69
447.129	1168.69
447.35	1156.69
447.571	1152.69
447.792	1115.69
448.013	1106.69
448.234	1134.69
448.455	1141.69
448.675	1114.69
448.896	1145.69
449.117	1192.69
449.338	1280.69
449.559	1277.69
449.779	1173.69
450	1131.69
450.221	1120.69
450.442	1094.69
450.662	1114.69
450.883	1064.69
451.104	1078.69
451.324	1107.69
451.545	1071.69
451.766	1118.69
451.986	1130.69
452.207	1150.69
452.428	1347.69
452.648	1754.69
452.869	1566.69
453.089	1225.69
453.31	1204.69
453.53	1174.69
453.751	1188.69
453.971	1284.69
454.192	1253.69
454.412	1113.69
454.633	1074.69
454.853	1072.69
455.073	1074.69
455.294	1085.69
455.514	1054.69
455.734	1028.69
455.955	1071.69
456.175	1030.69
456.395	1046.69
456.616	1048.69
456.836	1074.69
457.056	1088.69
457.276	1051.69
457.497	1126.69
457.717	1120.69
457.937	1105.69
458.157	1126.69
458.377	1081.69
458.598	1112.69
458.818	1119.69
459.038	1120.69
459.258	1133.69
459.478	1149.69
459.698	1153.69
459.918	1204.69
460.138	1168.69
460.358	1221.69
460.578	1238.69
460.798	1244.69
461.018	1239.69
461.238	1243.69
461.458	1246.69
461.678	1247.69
461.898	1237.69
462.118	1280.69
462.338	1292.69
462.558	1331.69
462.777	1344.69
462.997	1368.69
463.217	1420.69
463.437	1484.69
463.657	1485.69
463.876	1424.69
464.096	1391.69
464.316	1364.69
464.536	1379.69
464.755	1333.69
464.975	1284.69
465.195	1254.69
465.414	1209.69
465.634	1164.69
465.854	1175.69
466.073	1169.69
466.293	1167.69
466.512	1138.69
466.732	1145.69
466.951	1226.69
467.171	1250.69
467.391	1244.69
467.61	1156.69
467.829	1183.69
468.049	1158.69
468.268	1136.69
468.488	1124.69
468.707	1110.69
468.927	1113.69
469.146	1095.69
469.365	1131.69
469.585	1143.69
469.804	1179.69
470.023	1184.69
470.243	1203.69
470.462	1222.69
470.681	1245.69
470.901	1353.69
471.12	1487.69
471.339	1489.69
471.558	1295.69
471.777	1223.69
471.997	1172.69
472.216	1186.69
472.435	1135.69
472.654	1122.69
472.873	1130.69
473.092	1099.69
473.311	1139.69
473.53	1144.69
473.749	1168.69
473.968	1160.69
474.187	1159.69
474.406	1111.69
474.625	1145.69
474.844	1138.69
475.063	1130.69
475.282	1140.69
475.501	1154.69
475.72	1142.69
475.939	1162.69
476.158	1167.69
476.377	1205.69
476.596	1205.69
476.814	1172.69
477.033	1165.69
477.252	1199.69
477.471	1236.69
477.69	1252.69
477.908	1276.69
478.127	1288.69
478.346	1270.69
478.564	1292.69
478.783	1356.69
479.002	1383.69
479.22	1343.69
479.439	1352.69
479.658	1362.69
479.876	1325.69
480.095	1339.69
480.313	1360.69
480.532	1372.69
480.751	1397.69
480.969	1341.69
481.188	1338.69
481.406	1308.69
481.624	1310.69
481.843	1324.69
482.061	1334.69
482.28	1334.69
482.498	1292.69
482.717	1321.69
482.935	1346.69
483.153	1386.69
483.372	1391.69
483.59	1409.69
483.808	1389.69
484.027	1396.69
484.245	1498.69
484.463	1615.69
484.681	1749.69
484.9	1656.69
485.118	1618.69
485.336	1557.69
485.554	1548.69
485.772	1595.69
485.99	1804.69
486.209	1950.69
486.427	1676.69
486.645	1536.69
486.863	1455.69
487.081	1483.69
487.299	1470.69
487.517	1435.69
487.735	1448.69
487.953	1476.69
488.171	1475.69
488.389	1436.69
488.607	1427.69
488.825	1415.69
489.043	1384.69
489.261	1372.69
489.479	1389.69
489.696	1406.69
489.914	1400.69
490.132	1430.69
490.35	1425.69
490.568	1460.69
490.786	1439.69
491.003	1501.69
491.221	1507.69
