Data from SnStandardFlinnAPT0064_QswitchEnergy10_LIBS07252019.E.O._I.C._HRD10591_15-28-04-974.txt Node
Date: Thu Jul 25 15:28:04 EDT 2019
User: cochatt
Spectrometer: HR+D1059
Trigger mode: 1
Integration Time (sec): 1.000000E-1
Scans to average: 1
Electric dark correction enabled: true
Nonlinearity correction enabled: false
Boxcar width: 0
XAxis mode: Wavelengths
Number of Pixels in Spectrum: 2048
>>>>>Begin Spectral Data<<<<<
223.165	-11.69
223.4	-11.69
223.635	-11.69
223.869	-30.69
224.104	-27.69
224.338	-23.69
224.573	-27.69
224.808	-10.69
225.042	-4.69
225.277	-14.69
225.511	-1.69
225.746	6.31
225.98	11.31
226.215	19.31
226.449	8.31
226.683	26.31
226.918	39.31
227.152	42.31
227.387	36.31
227.621	32.31
227.856	46.31
228.09	45.31
228.324	40.31
228.559	57.31
228.793	65.31
229.027	70.31
229.262	66.31
229.496	67.31
229.73	59.31
229.964	68.31
230.199	64.31
230.433	85.31
230.667	77.31
230.901	76.31
231.136	67.31
231.37	81.31
231.604	89.31
231.838	75.31
232.072	110.31
232.306	128.31
232.541	88.31
232.775	87.31
233.009	86.31
233.243	76.31
233.477	79.31
233.711	77.31
233.945	109.31
234.179	108.31
234.413	94.31
234.647	83.31
234.881	72.31
235.115	97.31
235.349	78.31
235.583	118.31
235.817	121.31
236.051	141.31
236.285	92.31
236.519	82.31
236.753	67.31
236.987	76.31
237.221	81.31
237.455	82.31
237.689	75.31
237.922	73.31
238.156	74.31
238.39	81.31
238.624	72.31
238.858	76.31
239.091	88.31
239.325	90.31
239.559	75.31
239.793	78.31
240.027	77.31
240.26	71.31
240.494	84.31
240.728	87.31
240.961	90.31
241.195	99.31
241.429	82.31
241.662	90.31
241.896	94.31
242.13	101.31
242.363	129.31
242.597	158.31
242.83	139.31
243.064	145.31
243.298	184.31
243.531	165.31
243.765	106.31
243.998	89.31
244.232	97.31
244.465	85.31
244.699	85.31
244.932	71.31
245.166	75.31
245.399	86.31
245.633	86.31
245.866	88.31
246.099	95.31
246.333	80.31
246.566	76.31
246.8	73.31
247.033	80.31
247.266	71.31
247.5	79.31
247.733	86.31
247.966	80.31
248.2	88.31
248.433	97.31
248.666	118.31
248.899	120.31
249.133	103.31
249.366	109.31
249.599	105.31
249.832	123.31
250.066	114.31
250.299	97.31
250.532	81.31
250.765	85.31
250.998	85.31
251.231	84.31
251.465	80.31
251.698	94.31
251.931	83.31
252.164	91.31
252.397	87.31
252.63	91.31
252.863	96.31
253.096	86.31
253.329	101.31
253.562	79.31
253.795	97.31
254.028	82.31
254.261	98.31
254.494	113.31
254.727	125.31
254.96	148.31
255.193	136.31
255.426	95.31
255.659	95.31
255.892	109.31
256.124	83.31
256.357	88.31
256.59	91.31
256.823	91.31
257.056	103.31
257.289	144.31
257.521	179.31
257.754	129.31
257.987	99.31
258.22	91.31
258.452	89.31
258.685	98.31
258.918	85.31
259.151	90.31
259.383	98.31
259.616	120.31
259.849	155.31
260.081	106.31
260.314	85.31
260.547	81.31
260.779	82.31
261.012	80.31
261.244	90.31
261.477	90.31
261.71	81.31
261.942	91.31
262.175	80.31
262.407	78.31
262.64	85.31
262.872	74.31
263.105	88.31
263.337	90.31
263.57	80.31
263.802	98.31
264.035	99.31
264.267	89.31
264.499	90.31
264.732	86.31
264.964	97.31
265.197	93.31
265.429	91.31
265.661	100.31
265.894	112.31
266.126	127.31
266.358	161.31
266.591	129.31
266.823	95.31
267.055	85.31
267.287	91.31
267.52	94.31
267.752	82.31
267.984	96.31
268.216	95.31
268.448	86.31
268.681	84.31
268.913	88.31
269.145	100.31
269.377	94.31
269.609	95.31
269.841	91.31
270.073	116.31
270.306	135.31
270.538	203.31
270.77	321.31
271.002	361.31
271.234	177.31
271.466	112.31
271.698	98.31
271.93	94.31
272.162	84.31
272.394	99.31
272.626	88.31
272.858	87.31
273.09	97.31
273.322	86.31
273.553	72.31
273.785	82.31
274.017	96.31
274.249	89.31
274.481	88.31
274.713	93.31
274.945	79.31
275.176	79.31
275.408	88.31
275.64	96.31
275.872	85.31
276.104	87.31
276.335	107.31
276.567	92.31
276.799	86.31
277.031	101.31
277.262	91.31
277.494	102.31
277.726	146.31
277.957	192.31
278.189	255.31
278.421	239.31
278.652	202.31
278.884	165.31
279.115	140.31
279.347	111.31
279.579	107.31
279.81	96.31
280.042	91.31
280.273	95.31
280.505	96.31
280.736	121.31
280.968	117.31
281.199	168.31
281.431	246.31
281.662	254.31
281.894	154.31
282.125	118.31
282.356	124.31
282.588	114.31
282.819	109.31
283.051	114.31
283.282	122.31
283.513	206.31
283.745	315.31
283.976	553.31
284.207	775.31
284.439	593.31
284.67	258.31
284.901	258.31
285.132	355.31
285.364	372.31
285.595	217.31
285.826	173.31
286.057	246.31
286.288	439.31
286.52	616.31
286.751	490.31
286.982	210.31
287.213	114.31
287.444	104.31
287.675	103.31
287.906	85.31
288.138	91.31
288.369	89.31
288.6	85.31
288.831	87.31
289.062	100.31
289.293	98.31
289.524	89.31
289.755	100.31
289.986	93.31
290.217	79.31
290.448	89.31
290.679	106.31
290.91	118.31
291.141	171.31
291.371	228.31
291.602	270.31
291.833	179.31
292.064	112.31
292.295	103.31
292.526	115.31
292.757	94.31
292.987	90.31
293.218	84.31
293.449	95.31
293.68	93.31
293.91	85.31
294.141	91.31
294.372	98.31
294.603	104.31
294.833	95.31
295.064	97.31
295.295	98.31
295.525	99.31
295.756	111.31
295.987	92.31
296.217	81.31
296.448	106.31
296.679	93.31
296.909	90.31
297.14	95.31
297.37	110.31
297.601	85.31
297.831	106.31
298.062	98.31
298.292	104.31
298.523	102.31
298.753	93.31
298.984	116.31
299.214	115.31
299.445	107.31
299.675	121.31
299.905	110.31
300.136	126.31
300.366	166.31
300.597	282.31
300.827	450.31
301.057	689.31
301.288	615.31
301.518	267.31
301.748	152.31
301.979	135.31
302.209	135.31
302.439	133.31
302.669	169.31
302.9	258.31
303.13	509.31
303.36	906.31
303.59	1248.31
303.82	841.31
304.051	297.31
304.281	161.31
304.511	115.31
304.741	120.31
304.971	111.31
305.201	116.31
305.431	95.31
305.661	117.31
305.891	104.31
306.121	98.31
306.352	118.31
306.582	103.31
306.812	117.31
307.042	102.31
307.272	98.31
307.502	101.31
307.731	102.31
307.961	110.31
308.191	106.31
308.421	102.31
308.651	102.31
308.881	119.31
309.111	129.31
309.341	107.31
309.571	115.31
309.8	105.31
310.03	104.31
310.26	99.31
310.49	99.31
310.72	115.31
310.949	94.31
311.179	113.31
311.409	100.31
311.639	100.31
311.868	110.31
312.098	111.31
312.328	109.31
312.557	112.31
312.787	131.31
313.017	98.31
313.246	111.31
313.476	124.31
313.706	123.31
313.935	152.31
314.165	198.31
314.394	230.31
314.624	182.31
314.853	134.31
315.083	127.31
315.312	130.31
315.542	133.31
315.771	120.31
316.001	138.31
316.23	129.31
316.46	153.31
316.689	173.31
316.919	238.31
317.148	487.31
317.377	955.31
317.607	1519.31
317.836	1414.31
318.065	528.31
318.295	239.31
318.524	154.31
318.753	135.31
318.983	128.31
319.212	123.31
319.441	116.31
319.67	123.31
319.9	111.31
320.129	115.31
320.358	118.31
320.587	115.31
320.816	122.31
321.046	118.31
321.275	119.31
321.504	125.31
321.733	133.31
321.962	153.31
322.191	155.31
322.42	135.31
322.649	118.31
322.878	121.31
323.108	127.31
323.337	115.31
323.566	123.31
323.795	123.31
324.024	118.31
324.253	143.31
324.482	182.31
324.71	208.31
324.939	285.31
325.168	241.31
325.397	199.31
325.626	255.31
325.855	492.31
326.084	957.31
326.313	1615.31
326.542	1597.31
326.77	618.31
326.999	275.31
327.228	217.31
327.457	226.31
327.686	233.31
327.914	161.31
328.143	136.31
328.372	134.31
328.6	128.31
328.829	109.31
329.058	114.31
329.287	116.31
329.515	120.31
329.744	121.31
329.972	122.31
330.201	115.31
330.43	132.31
330.658	110.31
330.887	116.31
331.115	107.31
331.344	129.31
331.572	109.31
331.801	113.31
332.03	127.31
332.258	139.31
332.486	178.31
332.715	282.31
332.943	490.31
333.172	777.31
333.4	657.31
333.629	247.31
333.857	159.31
334.085	127.31
334.314	124.31
334.542	123.31
334.771	129.31
334.999	125.31
335.227	130.31
335.455	127.31
335.684	112.31
335.912	133.31
336.14	118.31
336.369	122.31
336.597	121.31
336.825	112.31
337.053	135.31
337.281	117.31
337.51	111.31
337.738	114.31
337.966	109.31
338.194	112.31
338.422	122.31
338.65	103.31
338.878	123.31
339.106	100.31
339.334	123.31
339.562	130.31
339.79	121.31
340.018	118.31
340.246	110.31
340.474	115.31
340.702	107.31
340.93	113.31
341.158	112.31
341.386	113.31
341.614	116.31
341.842	125.31
342.07	112.31
342.298	117.31
342.526	121.31
342.754	110.31
342.981	117.31
343.209	107.31
343.437	105.31
343.665	112.31
343.893	106.31
344.12	112.31
344.348	111.31
344.576	98.31
344.804	107.31
345.031	104.31
345.259	134.31
345.487	109.31
345.714	106.31
345.942	111.31
346.17	114.31
346.397	103.31
346.625	122.31
346.853	87.31
347.08	102.31
347.308	101.31
347.535	109.31
347.763	100.31
347.99	84.31
348.218	101.31
348.445	109.31
348.673	124.31
348.9	120.31
349.128	139.31
349.355	120.31
349.583	121.31
349.81	119.31
350.037	119.31
350.265	113.31
350.492	117.31
350.72	99.31
350.947	116.31
351.174	116.31
351.402	119.31
351.629	104.31
351.856	110.31
352.083	115.31
352.311	118.31
352.538	122.31
352.765	116.31
352.992	102.31
353.22	92.31
353.447	104.31
353.674	106.31
353.901	103.31
354.128	97.31
354.355	106.31
354.583	109.31
354.81	113.31
355.037	93.31
355.264	104.31
355.491	97.31
355.718	95.31
355.945	108.31
356.172	99.31
356.399	97.31
356.626	118.31
356.853	109.31
357.08	118.31
357.307	118.31
357.534	103.31
357.761	123.31
357.988	117.31
358.215	115.31
358.441	115.31
358.668	110.31
358.895	109.31
359.122	112.31
359.349	119.31
359.576	106.31
359.802	103.31
360.029	113.31
360.256	118.31
360.483	120.31
360.709	114.31
360.936	103.31
361.163	107.31
361.39	122.31
361.616	103.31
361.843	106.31
362.07	115.31
362.296	109.31
362.523	114.31
362.749	117.31
362.976	104.31
363.203	91.31
363.429	113.31
363.656	101.31
363.882	103.31
364.109	112.31
364.335	110.31
364.562	105.31
364.788	103.31
365.015	124.31
365.241	126.31
365.468	168.31
365.694	258.31
365.92	203.31
366.147	94.31
366.373	99.31
366.599	101.31
366.826	106.31
367.052	85.31
367.278	88.31
367.505	90.31
367.731	94.31
367.957	98.31
368.184	112.31
368.41	121.31
368.636	117.31
368.862	113.31
369.089	101.31
369.315	95.31
369.541	119.31
369.767	115.31
369.993	112.31
370.219	99.31
370.445	111.31
370.672	104.31
370.898	110.31
371.124	102.31
371.35	100.31
371.576	109.31
371.802	112.31
372.028	110.31
372.254	95.31
372.48	111.31
372.706	116.31
372.932	110.31
373.158	110.31
373.384	110.31
373.61	102.31
373.835	104.31
374.061	111.31
374.287	119.31
374.513	119.31
374.739	106.31
374.965	105.31
375.191	111.31
375.416	86.31
375.642	117.31
375.868	100.31
376.094	97.31
376.319	101.31
376.545	111.31
376.771	105.31
376.997	111.31
377.222	118.31
377.448	114.31
377.674	103.31
377.899	113.31
378.125	99.31
378.35	111.31
378.576	131.31
378.802	110.31
379.027	130.31
379.253	145.31
379.478	184.31
379.704	309.31
379.929	819.31
380.155	1595.31
380.38	1654.31
380.606	543.31
380.831	208.31
381.057	145.31
381.282	117.31
381.507	99.31
381.733	117.31
381.958	110.31
382.184	112.31
382.409	101.31
382.634	99.31
382.86	98.31
383.085	95.31
383.31	95.31
383.535	104.31
383.761	99.31
383.986	100.31
384.211	98.31
384.436	91.31
384.662	95.31
384.887	104.31
385.112	90.31
385.337	112.31
385.562	93.31
385.787	107.31
386.013	111.31
386.238	113.31
386.463	110.31
386.688	122.31
386.913	113.31
387.138	91.31
387.363	115.31
387.588	101.31
387.813	102.31
388.038	120.31
388.263	117.31
388.488	121.31
388.713	90.31
388.938	111.31
389.163	81.31
389.387	102.31
389.612	105.31
389.837	93.31
390.062	111.31
390.287	116.31
390.512	98.31
390.736	96.31
390.961	116.31
391.186	117.31
391.411	117.31
391.636	101.31
391.86	93.31
392.085	108.31
392.31	94.31
392.534	102.31
392.759	88.31
392.984	97.31
393.208	100.31
393.433	150.31
393.658	129.31
393.882	100.31
394.107	102.31
394.331	87.31
394.556	105.31
394.78	100.31
395.005	103.31
395.229	91.31
395.454	101.31
395.678	98.31
395.903	102.31
396.127	87.31
396.352	106.31
396.576	110.31
396.801	97.31
397.025	119.31
397.249	106.31
397.474	108.31
397.698	94.31
397.922	99.31
398.147	101.31
398.371	90.31
398.595	111.31
398.82	105.31
399.044	88.31
399.268	111.31
399.492	87.31
399.717	98.31
399.941	99.31
400.165	112.31
400.389	93.31
400.613	105.31
400.837	103.31
401.062	98.31
401.286	93.31
401.51	92.31
401.734	94.31
401.958	95.31
402.182	105.31
402.406	90.31
402.63	88.31
402.854	88.31
403.078	91.31
403.302	95.31
403.526	100.31
403.75	90.31
403.974	93.31
404.198	95.31
404.422	100.31
404.645	98.31
404.869	94.31
405.093	88.31
405.317	93.31
405.541	98.31
405.765	130.31
405.988	159.31
406.212	106.31
406.436	89.31
406.66	97.31
406.883	107.31
407.107	97.31
407.331	87.31
407.555	90.31
407.778	96.31
408.002	108.31
408.226	102.31
408.449	105.31
408.673	101.31
408.896	103.31
409.12	106.31
409.344	88.31
409.567	98.31
409.791	100.31
410.014	103.31
410.238	99.31
410.461	102.31
410.685	98.31
410.908	99.31
411.132	88.31
411.355	91.31
411.578	90.31
411.802	110.31
412.025	109.31
412.249	103.31
412.472	92.31
412.695	98.31
412.919	115.31
413.142	79.31
413.365	112.31
413.589	97.31
413.812	100.31
414.035	95.31
414.258	102.31
414.482	115.31
414.705	95.31
414.928	103.31
415.151	90.31
415.374	105.31
415.597	98.31
415.821	97.31
416.044	106.31
416.267	87.31
416.49	102.31
416.713	95.31
416.936	94.31
417.159	91.31
417.382	106.31
417.605	105.31
417.828	107.31
418.051	93.31
418.274	104.31
418.497	102.31
418.72	103.31
418.943	99.31
419.166	112.31
419.389	109.31
419.611	101.31
419.834	94.31
420.057	103.31
420.28	93.31
420.503	105.31
420.726	105.31
420.948	93.31
421.171	84.31
421.394	89.31
421.617	82.31
421.839	90.31
422.062	103.31
422.285	105.31
422.507	117.31
422.73	129.31
422.953	131.31
423.175	107.31
423.398	106.31
423.621	110.31
423.843	92.31
424.066	101.31
424.288	101.31
424.511	95.31
424.733	105.31
424.956	99.31
425.178	92.31
425.401	85.31
425.623	98.31
425.846	75.31
426.068	84.31
426.291	83.31
426.513	96.31
426.735	101.31
426.958	94.31
427.18	86.31
427.402	95.31
427.625	87.31
427.847	87.31
428.069	104.31
428.292	84.31
428.514	86.31
428.736	102.31
428.958	96.31
429.181	95.31
429.403	100.31
429.625	87.31
429.847	95.31
430.069	97.31
430.292	97.31
430.514	96.31
430.736	108.31
430.958	98.31
431.18	95.31
431.402	90.31
431.624	91.31
431.846	92.31
432.068	97.31
432.29	78.31
432.512	106.31
432.734	99.31
432.956	89.31
433.178	103.31
433.4	98.31
433.622	102.31
433.844	93.31
434.066	90.31
434.287	102.31
434.509	93.31
434.731	95.31
434.953	85.31
435.175	91.31
435.397	75.31
435.618	82.31
435.84	102.31
436.062	112.31
436.284	94.31
436.505	95.31
436.727	93.31
436.949	90.31
437.17	91.31
437.392	92.31
437.614	88.31
437.835	81.31
438.057	94.31
438.278	102.31
438.5	101.31
438.721	99.31
438.943	93.31
439.165	96.31
439.386	111.31
439.608	93.31
439.829	99.31
440.05	127.31
440.272	127.31
440.493	105.31
440.715	109.31
440.936	91.31
441.158	97.31
441.379	100.31
441.6	107.31
441.822	125.31
442.043	117.31
442.264	126.31
442.486	122.31
442.707	102.31
442.928	103.31
443.149	102.31
443.371	114.31
443.592	96.31
443.813	92.31
444.034	89.31
444.255	94.31
444.476	85.31
444.698	81.31
444.919	90.31
445.14	174.31
445.361	148.31
445.582	94.31
445.803	85.31
446.024	94.31
446.245	102.31
446.466	91.31
446.687	111.31
446.908	105.31
447.129	85.31
447.35	90.31
447.571	103.31
447.792	79.31
448.013	82.31
448.234	102.31
448.455	106.31
448.675	95.31
448.896	110.31
449.117	109.31
449.338	143.31
449.559	145.31
449.779	120.31
450	110.31
450.221	99.31
450.442	112.31
450.662	124.31
450.883	106.31
451.104	108.31
451.324	130.31
451.545	123.31
451.766	124.31
451.986	131.31
452.207	229.31
452.428	549.31
452.648	1314.31
452.869	737.31
453.089	189.31
453.31	138.31
453.53	121.31
453.751	145.31
453.971	169.31
454.192	163.31
454.412	102.31
454.633	97.31
454.853	94.31
455.073	98.31
455.294	89.31
455.514	95.31
455.734	104.31
455.955	109.31
456.175	86.31
456.395	93.31
456.616	102.31
456.836	98.31
457.056	97.31
457.276	103.31
457.497	103.31
457.717	116.31
457.937	93.31
458.157	108.31
458.377	97.31
458.598	87.31
458.818	96.31
459.038	70.31
459.258	84.31
459.478	107.31
459.698	100.31
459.918	93.31
460.138	89.31
460.358	91.31
460.578	90.31
460.798	92.31
461.018	95.31
461.238	100.31
461.458	95.31
461.678	92.31
461.898	92.31
462.118	94.31
462.338	79.31
462.558	110.31
462.777	109.31
462.997	95.31
463.217	98.31
463.437	126.31
463.657	194.31
463.876	185.31
464.096	119.31
464.316	95.31
464.536	97.31
464.755	100.31
464.975	96.31
465.195	92.31
465.414	103.31
465.634	79.31
465.854	84.31
466.073	94.31
466.293	92.31
466.512	109.31
466.732	109.31
466.951	109.31
467.171	136.31
467.391	152.31
467.61	118.31
467.829	97.31
468.049	98.31
468.268	93.31
468.488	101.31
468.707	86.31
468.927	73.31
469.146	102.31
469.365	107.31
469.585	96.31
469.804	94.31
470.023	94.31
470.243	95.31
470.462	113.31
470.681	106.31
470.901	127.31
471.12	189.31
471.339	211.31
471.558	149.31
471.777	98.31
471.997	97.31
472.216	107.31
472.435	89.31
472.654	103.31
472.873	93.31
473.092	105.31
473.311	101.31
473.53	96.31
473.749	103.31
473.968	94.31
474.187	92.31
474.406	90.31
474.625	94.31
474.844	84.31
475.063	94.31
475.282	103.31
475.501	88.31
475.72	103.31
475.939	82.31
476.158	98.31
476.377	122.31
476.596	111.31
476.814	104.31
477.033	87.31
477.252	105.31
477.471	85.31
477.69	81.31
477.908	91.31
478.127	85.31
478.346	96.31
478.564	99.31
478.783	92.31
479.002	103.31
479.22	103.31
479.439	93.31
479.658	74.31
479.876	103.31
480.095	86.31
480.313	91.31
480.532	104.31
480.751	95.31
480.969	101.31
481.188	93.31
481.406	91.31
481.624	101.31
481.843	121.31
482.061	114.31
482.28	105.31
482.498	103.31
482.717	117.31
482.935	97.31
483.153	93.31
483.372	98.31
483.59	101.31
483.808	103.31
484.027	116.31
484.245	129.31
484.463	180.31
484.681	245.31
484.9	150.31
485.118	113.31
485.336	129.31
485.554	125.31
485.772	117.31
485.99	181.31
486.209	265.31
486.427	175.31
486.645	113.31
486.863	119.31
487.081	104.31
487.299	120.31
487.517	94.31
487.735	96.31
487.953	111.31
488.171	95.31
488.389	99.31
488.607	115.31
488.825	96.31
489.043	104.31
489.261	91.31
489.479	101.31
489.696	94.31
489.914	87.31
490.132	94.31
490.35	101.31
490.568	100.31
490.786	116.31
491.003	99.31
491.221	105.31
491.439	117.31
491.657	110.31
491.874	99.31
492.092	109.31
492.31	112.31
492.527	115.31
492.745	97.31
492.963	113.31
493.18	105.31
493.398	116.31
493.615	106.31
493.833	105.31
494.05	103.31
494.268	86.31
494.485	89.31
494.703	102.31
494.92	92.31
495.138	99.31
495.355	109.31
495.573	95.31
495.79	103.31
496.008	106.31
496.225	91.31
496.442	101.31
496.66	128.31
496.877	159.31
497.094	153.31
497.312	101.31
497.529	101.31
497.746	94.31
497.963	85.31
498.181	85.31
498.398	97.31
498.615	92.31
498.832	89.31
499.049	94.31
499.267	130.31
499.484	159.31
499.701	113.31
499.918	93.31
500.135	95.31
500.352	90.31
500.569	118.31
500.786	97.31
501.003	95.31
501.22	84.31
501.437	111.31
501.654	122.31
501.871	104.31
502.088	91.31
502.305	98.31
502.522	88.31
502.739	77.31
502.956	91.31
503.172	101.31
503.389	104.31
503.606	111.31
503.823	97.31
504.04	89.31
504.256	92.31
504.473	101.31
504.69	97.31
504.907	107.31
505.123	114.31
505.34	95.31
505.557	99.31
505.773	101.31
505.99	100.31
506.207	98.31
506.423	117.31
506.64	93.31
506.856	106.31
507.073	98.31
507.289	93.31
507.506	95.31
507.722	103.31
507.939	98.31
508.155	102.31
508.372	93.31
508.588	89.31
508.805	94.31
