Data from SnStandardFlinnAPT0064_QswitchEnergy10_LIBS07252019.E.O._I.C._HRD10591_15-27-36-973.txt Node
Date: Thu Jul 25 15:27:36 EDT 2019
User: cochatt
Spectrometer: HR+D1059
Trigger mode: 1
Integration Time (sec): 1.000000E-1
Scans to average: 1
Electric dark correction enabled: true
Nonlinearity correction enabled: false
Boxcar width: 0
XAxis mode: Wavelengths
Number of Pixels in Spectrum: 2048
>>>>>Begin Spectral Data<<<<<
223.165	-11.75
223.4	-11.75
223.635	-11.75
223.869	-4.75
224.104	-18.75
224.338	-9.75
224.573	-27.75
224.808	-11.75
225.042	-5.75
225.277	-9.75
225.511	-9.75
225.746	13.25
225.98	-1.75
226.215	9.25
226.449	14.25
226.683	13.25
226.918	30.25
227.152	31.25
227.387	27.25
227.621	33.25
227.856	47.25
228.09	49.25
228.324	45.25
228.559	60.25
228.793	67.25
229.027	64.25
229.262	75.25
229.496	71.25
229.73	57.25
229.964	77.25
230.199	76.25
230.433	92.25
230.667	85.25
230.901	81.25
231.136	76.25
231.37	82.25
231.604	77.25
231.838	97.25
232.072	131.25
232.306	125.25
232.541	88.25
232.775	85.25
233.009	83.25
233.243	96.25
233.477	94.25
233.711	89.25
233.945	109.25
234.179	86.25
234.413	102.25
234.647	84.25
234.881	76.25
235.115	59.25
235.349	101.25
235.583	108.25
235.817	135.25
236.051	135.25
236.285	92.25
236.519	92.25
236.753	85.25
236.987	71.25
237.221	70.25
237.455	85.25
237.689	84.25
237.922	93.25
238.156	85.25
238.39	88.25
238.624	74.25
238.858	81.25
239.091	77.25
239.325	88.25
239.559	65.25
239.793	69.25
240.027	92.25
240.26	77.25
240.494	85.25
240.728	79.25
240.961	81.25
241.195	104.25
241.429	90.25
241.662	88.25
241.896	95.25
242.13	105.25
242.363	121.25
242.597	173.25
242.83	133.25
243.064	132.25
243.298	189.25
243.531	147.25
243.765	95.25
243.998	81.25
244.232	68.25
244.465	70.25
244.699	80.25
244.932	81.25
245.166	78.25
245.399	85.25
245.633	83.25
245.866	72.25
246.099	79.25
246.333	75.25
246.566	71.25
246.8	81.25
247.033	75.25
247.266	78.25
247.5	86.25
247.733	91.25
247.966	83.25
248.2	85.25
248.433	108.25
248.666	133.25
248.899	119.25
249.133	94.25
249.366	104.25
249.599	92.25
249.832	119.25
250.066	137.25
250.299	101.25
250.532	91.25
250.765	85.25
250.998	84.25
251.231	81.25
251.465	93.25
251.698	82.25
251.931	91.25
252.164	81.25
252.397	87.25
252.63	91.25
252.863	89.25
253.096	93.25
253.329	100.25
253.562	96.25
253.795	88.25
254.028	91.25
254.261	86.25
254.494	89.25
254.727	125.25
254.96	145.25
255.193	130.25
255.426	94.25
255.659	90.25
255.892	96.25
256.124	96.25
256.357	92.25
256.59	83.25
256.823	98.25
257.056	107.25
257.289	143.25
257.521	181.25
257.754	121.25
257.987	86.25
258.22	83.25
258.452	92.25
258.685	101.25
258.918	90.25
259.151	93.25
259.383	120.25
259.616	145.25
259.849	135.25
260.081	106.25
260.314	95.25
260.547	72.25
260.779	90.25
261.012	97.25
261.244	78.25
261.477	87.25
261.71	87.25
261.942	96.25
262.175	81.25
262.407	86.25
262.64	89.25
262.872	80.25
263.105	85.25
263.337	77.25
263.57	87.25
263.802	99.25
264.035	78.25
264.267	72.25
264.499	90.25
264.732	105.25
264.964	80.25
265.197	89.25
265.429	80.25
265.661	100.25
265.894	102.25
266.126	128.25
266.358	151.25
266.591	151.25
266.823	97.25
267.055	98.25
267.287	72.25
267.52	85.25
267.752	100.25
267.984	86.25
268.216	74.25
268.448	77.25
268.681	101.25
268.913	98.25
269.145	86.25
269.377	84.25
269.609	83.25
269.841	104.25
270.073	97.25
270.306	127.25
270.538	196.25
270.77	321.25
271.002	389.25
271.234	200.25
271.466	119.25
271.698	85.25
271.93	94.25
272.162	103.25
272.394	84.25
272.626	92.25
272.858	81.25
273.09	88.25
273.322	94.25
273.553	86.25
273.785	95.25
274.017	96.25
274.249	80.25
274.481	81.25
274.713	94.25
274.945	96.25
275.176	89.25
275.408	95.25
275.64	108.25
275.872	85.25
276.104	79.25
276.335	99.25
276.567	111.25
276.799	100.25
277.031	100.25
277.262	96.25
277.494	96.25
277.726	139.25
277.957	172.25
278.189	249.25
278.421	226.25
278.652	185.25
278.884	177.25
279.115	125.25
279.347	91.25
279.579	90.25
279.81	96.25
280.042	107.25
280.273	111.25
280.505	91.25
280.736	102.25
280.968	125.25
281.199	153.25
281.431	235.25
281.662	241.25
281.894	137.25
282.125	116.25
282.356	103.25
282.588	102.25
282.819	115.25
283.051	124.25
283.282	145.25
283.513	196.25
283.745	292.25
283.976	554.25
284.207	815.25
284.439	597.25
284.67	272.25
284.901	236.25
285.132	346.25
285.364	364.25
285.595	227.25
285.826	185.25
286.057	238.25
286.288	407.25
286.52	645.25
286.751	495.25
286.982	197.25
287.213	129.25
287.444	104.25
287.675	101.25
287.906	99.25
288.138	115.25
288.369	106.25
288.6	105.25
288.831	91.25
289.062	96.25
289.293	90.25
289.524	99.25
289.755	89.25
289.986	101.25
290.217	92.25
290.448	90.25
290.679	104.25
290.91	119.25
291.141	164.25
291.371	215.25
291.602	248.25
291.833	168.25
292.064	116.25
292.295	98.25
292.526	88.25
292.757	96.25
292.987	94.25
293.218	93.25
293.449	93.25
293.68	85.25
293.91	100.25
294.141	97.25
294.372	88.25
294.603	94.25
294.833	85.25
295.064	85.25
295.295	97.25
295.525	95.25
295.756	94.25
295.987	88.25
296.217	95.25
296.448	88.25
296.679	96.25
296.909	107.25
297.14	96.25
297.37	108.25
297.601	105.25
297.831	100.25
298.062	101.25
298.292	104.25
298.523	84.25
298.753	115.25
298.984	97.25
299.214	112.25
299.445	119.25
299.675	125.25
299.905	102.25
300.136	120.25
300.366	160.25
300.597	253.25
300.827	451.25
301.057	705.25
301.288	652.25
301.518	267.25
301.748	136.25
301.979	123.25
302.209	125.25
302.439	126.25
302.669	163.25
302.9	243.25
303.13	485.25
303.36	874.25
303.59	1231.25
303.82	855.25
304.051	291.25
304.281	161.25
304.511	131.25
304.741	120.25
304.971	117.25
305.201	118.25
305.431	113.25
305.661	115.25
305.891	105.25
306.121	100.25
306.352	98.25
306.582	115.25
306.812	106.25
307.042	103.25
307.272	92.25
307.502	90.25
307.731	107.25
307.961	107.25
308.191	102.25
308.421	116.25
308.651	109.25
308.881	107.25
309.111	108.25
309.341	100.25
309.571	103.25
309.8	113.25
310.03	107.25
310.26	103.25
310.49	103.25
310.72	111.25
310.949	98.25
311.179	104.25
311.409	106.25
311.639	117.25
311.868	113.25
312.098	116.25
312.328	105.25
312.557	92.25
312.787	97.25
313.017	127.25
313.246	122.25
313.476	111.25
313.706	139.25
313.935	145.25
314.165	167.25
314.394	220.25
314.624	159.25
314.853	123.25
315.083	123.25
315.312	127.25
315.542	118.25
315.771	126.25
316.001	131.25
316.23	129.25
316.46	140.25
316.689	159.25
316.919	262.25
317.148	489.25
317.377	897.25
317.607	1498.25
317.836	1419.25
318.065	521.25
318.295	213.25
318.524	153.25
318.753	147.25
318.983	120.25
319.212	99.25
319.441	117.25
319.67	115.25
319.9	129.25
320.129	112.25
320.358	123.25
320.587	131.25
320.816	119.25
321.046	125.25
321.275	130.25
321.504	125.25
321.733	130.25
321.962	161.25
322.191	145.25
322.42	132.25
322.649	123.25
322.878	127.25
323.108	125.25
323.337	114.25
323.566	127.25
323.795	126.25
324.024	116.25
324.253	145.25
324.482	168.25
324.71	213.25
324.939	253.25
325.168	227.25
325.397	179.25
325.626	226.25
325.855	451.25
326.084	905.25
326.313	1586.25
326.542	1619.25
326.77	614.25
326.999	240.25
327.228	205.25
327.457	211.25
327.686	210.25
327.914	160.25
328.143	135.25
328.372	114.25
328.6	121.25
328.829	119.25
329.058	115.25
329.287	115.25
329.515	117.25
329.744	118.25
329.972	111.25
330.201	118.25
330.43	91.25
330.658	120.25
330.887	111.25
331.115	105.25
331.344	120.25
331.572	119.25
331.801	108.25
332.03	128.25
332.258	139.25
332.486	178.25
332.715	281.25
332.943	500.25
333.172	785.25
333.4	653.25
333.629	240.25
333.857	153.25
334.085	125.25
334.314	124.25
334.542	101.25
334.771	127.25
334.999	122.25
335.227	110.25
335.455	118.25
335.684	104.25
335.912	122.25
336.14	119.25
336.369	113.25
336.597	115.25
336.825	122.25
337.053	116.25
337.281	104.25
337.51	113.25
337.738	111.25
337.966	105.25
338.194	133.25
338.422	127.25
338.65	121.25
338.878	116.25
339.106	120.25
339.334	121.25
339.562	120.25
339.79	114.25
340.018	102.25
340.246	125.25
340.474	118.25
340.702	121.25
340.93	123.25
341.158	120.25
341.386	125.25
341.614	122.25
341.842	116.25
342.07	120.25
342.298	103.25
342.526	119.25
342.754	96.25
342.981	110.25
343.209	124.25
343.437	115.25
343.665	115.25
343.893	105.25
344.12	111.25
344.348	116.25
344.576	124.25
344.804	111.25
345.031	113.25
345.259	101.25
345.487	111.25
345.714	93.25
345.942	104.25
346.17	105.25
346.397	115.25
346.625	107.25
346.853	109.25
347.08	112.25
347.308	100.25
347.535	108.25
347.763	95.25
347.99	105.25
348.218	110.25
348.445	101.25
348.673	113.25
348.9	119.25
349.128	120.25
349.355	117.25
349.583	109.25
349.81	113.25
350.037	118.25
350.265	117.25
350.492	106.25
350.72	116.25
350.947	128.25
351.174	116.25
351.402	122.25
351.629	118.25
351.856	107.25
352.083	121.25
352.311	91.25
352.538	119.25
352.765	109.25
352.992	122.25
353.22	101.25
353.447	94.25
353.674	99.25
353.901	92.25
354.128	105.25
354.355	107.25
354.583	96.25
354.81	104.25
355.037	100.25
355.264	100.25
355.491	92.25
355.718	115.25
355.945	104.25
356.172	103.25
356.399	104.25
356.626	114.25
356.853	92.25
357.08	99.25
357.307	101.25
357.534	101.25
357.761	115.25
357.988	101.25
358.215	123.25
358.441	105.25
358.668	116.25
358.895	117.25
359.122	101.25
359.349	113.25
359.576	115.25
359.802	118.25
360.029	124.25
360.256	112.25
360.483	115.25
360.709	104.25
360.936	117.25
361.163	107.25
361.39	105.25
361.616	113.25
361.843	129.25
362.07	113.25
362.296	108.25
362.523	121.25
362.749	108.25
362.976	100.25
363.203	121.25
363.429	85.25
363.656	120.25
363.882	98.25
364.109	113.25
364.335	104.25
364.562	117.25
364.788	109.25
365.015	111.25
365.241	126.25
365.468	175.25
365.694	233.25
365.92	179.25
366.147	117.25
366.373	82.25
366.599	105.25
366.826	99.25
367.052	104.25
367.278	89.25
367.505	104.25
367.731	94.25
367.957	86.25
368.184	116.25
368.41	116.25
368.636	121.25
368.862	98.25
369.089	104.25
369.315	98.25
369.541	106.25
369.767	100.25
369.993	115.25
370.219	120.25
370.445	94.25
370.672	115.25
370.898	100.25
371.124	109.25
371.35	104.25
371.576	113.25
371.802	110.25
372.028	115.25
372.254	118.25
372.48	114.25
372.706	119.25
372.932	121.25
373.158	111.25
373.384	107.25
373.61	117.25
373.835	111.25
374.061	102.25
374.287	117.25
374.513	115.25
374.739	98.25
374.965	112.25
375.191	104.25
375.416	111.25
375.642	111.25
375.868	99.25
376.094	100.25
376.319	107.25
376.545	100.25
376.771	111.25
376.997	97.25
377.222	101.25
377.448	111.25
377.674	104.25
377.899	106.25
378.125	104.25
378.35	117.25
378.576	122.25
378.802	124.25
379.027	115.25
379.253	133.25
379.478	184.25
379.704	301.25
379.929	753.25
380.155	1548.25
380.38	1613.25
380.606	519.25
380.831	179.25
381.057	125.25
381.282	114.25
381.507	125.25
381.733	107.25
381.958	106.25
382.184	118.25
382.409	114.25
382.634	81.25
382.86	102.25
383.085	99.25
383.31	102.25
383.535	107.25
383.761	116.25
383.986	91.25
384.211	94.25
384.436	112.25
384.662	114.25
384.887	96.25
385.112	103.25
385.337	102.25
385.562	100.25
385.787	108.25
386.013	97.25
386.238	107.25
386.463	110.25
386.688	94.25
386.913	119.25
387.138	115.25
387.363	89.25
387.588	114.25
387.813	105.25
388.038	106.25
388.263	113.25
388.488	98.25
388.713	106.25
388.938	106.25
389.163	92.25
389.387	101.25
389.612	89.25
389.837	104.25
390.062	97.25
390.287	97.25
390.512	99.25
390.736	97.25
390.961	90.25
391.186	94.25
391.411	86.25
391.636	91.25
391.86	102.25
392.085	105.25
392.31	92.25
392.534	105.25
392.759	102.25
392.984	104.25
393.208	107.25
393.433	124.25
393.658	145.25
393.882	113.25
394.107	81.25
394.331	113.25
394.556	110.25
394.78	106.25
395.005	88.25
395.229	95.25
395.454	96.25
395.678	99.25
395.903	87.25
396.127	96.25
396.352	104.25
396.576	104.25
396.801	117.25
397.025	119.25
397.249	111.25
397.474	99.25
397.698	95.25
397.922	104.25
398.147	97.25
398.371	98.25
398.595	98.25
398.82	98.25
399.044	94.25
399.268	77.25
399.492	88.25
399.717	108.25
399.941	116.25
400.165	104.25
400.389	108.25
400.613	93.25
400.837	94.25
401.062	102.25
401.286	101.25
401.51	100.25
401.734	102.25
401.958	99.25
402.182	100.25
402.406	88.25
402.63	91.25
402.854	104.25
403.078	94.25
403.302	94.25
403.526	107.25
403.75	111.25
403.974	99.25
404.198	93.25
404.422	96.25
404.645	79.25
404.869	86.25
405.093	96.25
405.317	99.25
405.541	102.25
405.765	112.25
405.988	137.25
406.212	109.25
406.436	116.25
406.66	104.25
406.883	101.25
407.107	91.25
407.331	84.25
407.555	94.25
407.778	112.25
408.002	106.25
408.226	107.25
408.449	86.25
408.673	102.25
408.896	113.25
409.12	108.25
409.344	81.25
409.567	92.25
409.791	104.25
410.014	100.25
410.238	99.25
410.461	116.25
410.685	92.25
410.908	98.25
411.132	111.25
411.355	104.25
411.578	105.25
411.802	105.25
412.025	98.25
412.249	89.25
412.472	107.25
412.695	99.25
412.919	92.25
413.142	92.25
413.365	96.25
413.589	71.25
413.812	100.25
414.035	108.25
414.258	108.25
414.482	95.25
414.705	101.25
414.928	114.25
415.151	105.25
415.374	104.25
415.597	92.25
415.821	101.25
416.044	86.25
416.267	95.25
416.49	104.25
416.713	99.25
416.936	69.25
417.159	77.25
417.382	98.25
417.605	102.25
417.828	101.25
418.051	90.25
418.274	100.25
418.497	93.25
418.72	107.25
418.943	107.25
419.166	104.25
419.389	116.25
419.611	113.25
419.834	100.25
420.057	89.25
420.28	108.25
420.503	93.25
420.726	107.25
420.948	91.25
421.171	85.25
421.394	99.25
421.617	97.25
421.839	97.25
422.062	85.25
422.285	105.25
422.507	99.25
422.73	127.25
422.953	125.25
423.175	96.25
423.398	90.25
423.621	100.25
423.843	94.25
424.066	90.25
424.288	97.25
424.511	93.25
424.733	97.25
424.956	90.25
425.178	100.25
425.401	93.25
425.623	85.25
425.846	93.25
426.068	94.25
426.291	92.25
426.513	100.25
426.735	98.25
426.958	103.25
427.18	91.25
427.402	80.25
427.625	93.25
427.847	88.25
428.069	100.25
428.292	96.25
428.514	105.25
428.736	110.25
428.958	85.25
429.181	98.25
429.403	102.25
429.625	83.25
429.847	92.25
430.069	97.25
430.292	114.25
430.514	114.25
430.736	100.25
430.958	97.25
431.18	107.25
431.402	90.25
431.624	88.25
431.846	83.25
432.068	92.25
432.29	88.25
432.512	90.25
432.734	101.25
432.956	100.25
433.178	95.25
433.4	98.25
433.622	102.25
433.844	95.25
434.066	87.25
434.287	97.25
434.509	95.25
434.731	106.25
434.953	82.25
435.175	92.25
435.397	96.25
435.618	80.25
435.84	87.25
436.062	105.25
436.284	96.25
436.505	83.25
436.727	85.25
436.949	80.25
437.17	94.25
437.392	103.25
437.614	91.25
437.835	95.25
438.057	97.25
438.278	98.25
438.5	87.25
438.721	99.25
438.943	97.25
439.165	103.25
439.386	108.25
439.608	104.25
439.829	97.25
440.05	121.25
440.272	127.25
440.493	102.25
440.715	105.25
440.936	103.25
441.158	98.25
441.379	102.25
441.6	98.25
441.822	108.25
442.043	119.25
442.264	130.25
442.486	118.25
442.707	95.25
442.928	113.25
443.149	78.25
443.371	91.25
443.592	97.25
443.813	87.25
444.034	83.25
444.255	87.25
444.476	95.25
444.698	81.25
444.919	90.25
445.14	179.25
445.361	129.25
445.582	82.25
445.803	99.25
446.024	84.25
446.245	106.25
446.466	99.25
446.687	116.25
446.908	91.25
447.129	94.25
447.35	104.25
447.571	108.25
447.792	99.25
448.013	109.25
448.234	101.25
448.455	97.25
448.675	83.25
448.896	99.25
449.117	100.25
449.338	127.25
449.559	157.25
449.779	107.25
450	104.25
450.221	108.25
450.442	115.25
450.662	114.25
450.883	109.25
451.104	113.25
451.324	127.25
451.545	99.25
451.766	121.25
451.986	135.25
452.207	194.25
452.428	501.25
452.648	1234.25
452.869	722.25
453.089	173.25
453.31	131.25
453.53	123.25
453.751	133.25
453.971	172.25
454.192	160.25
454.412	122.25
454.633	93.25
454.853	89.25
455.073	102.25
455.294	83.25
455.514	96.25
455.734	83.25
455.955	93.25
456.175	73.25
456.395	97.25
456.616	96.25
456.836	94.25
457.056	88.25
457.276	90.25
457.497	117.25
457.717	116.25
457.937	101.25
458.157	92.25
458.377	95.25
458.598	81.25
458.818	113.25
459.038	99.25
459.258	98.25
459.478	93.25
459.698	85.25
459.918	85.25
460.138	96.25
460.358	93.25
460.578	99.25
460.798	106.25
461.018	92.25
461.238	90.25
461.458	98.25
461.678	93.25
461.898	95.25
462.118	86.25
462.338	81.25
462.558	106.25
462.777	91.25
462.997	95.25
463.217	101.25
463.437	129.25
463.657	179.25
463.876	174.25
464.096	114.25
464.316	98.25
464.536	90.25
464.755	93.25
464.975	85.25
465.195	100.25
465.414	95.25
465.634	105.25
465.854	87.25
466.073	88.25
466.293	97.25
466.512	83.25
466.732	87.25
466.951	115.25
467.171	148.25
467.391	123.25
467.61	96.25
467.829	89.25
468.049	83.25
468.268	98.25
468.488	99.25
468.707	87.25
468.927	86.25
469.146	105.25
469.365	106.25
469.585	111.25
469.804	107.25
470.023	105.25
470.243	95.25
470.462	99.25
470.681	91.25
470.901	123.25
471.12	190.25
471.339	216.25
471.558	136.25
471.777	115.25
471.997	105.25
472.216	94.25
472.435	93.25
472.654	95.25
472.873	95.25
473.092	89.25
473.311	105.25
473.53	97.25
473.749	92.25
473.968	105.25
474.187	86.25
474.406	97.25
474.625	98.25
474.844	102.25
475.063	96.25
475.282	86.25
475.501	96.25
475.72	104.25
475.939	83.25
476.158	101.25
476.377	115.25
476.596	113.25
476.814	91.25
477.033	93.25
477.252	96.25
477.471	90.25
477.69	95.25
477.908	90.25
478.127	100.25
478.346	96.25
478.564	90.25
478.783	97.25
479.002	92.25
479.22	96.25
479.439	96.25
479.658	103.25
479.876	100.25
480.095	87.25
480.313	83.25
480.532	109.25
480.751	108.25
480.969	90.25
481.188	92.25
481.406	105.25
481.624	99.25
481.843	105.25
482.061	93.25
482.28	97.25
482.498	108.25
482.717	88.25
482.935	99.25
483.153	99.25
483.372	92.25
483.59	95.25
483.808	91.25
484.027	89.25
484.245	112.25
484.463	170.25
484.681	239.25
484.9	141.25
485.118	119.25
485.336	107.25
485.554	105.25
485.772	112.25
485.99	189.25
486.209	263.25
486.427	185.25
486.645	120.25
486.863	107.25
487.081	101.25
487.299	91.25
487.517	98.25
487.735	85.25
487.953	106.25
488.171	104.25
488.389	98.25
488.607	95.25
488.825	114.25
489.043	95.25
489.261	102.25
489.479	98.25
489.696	97.25
489.914	97.25
490.132	99.25
490.35	111.25
490.568	98.25
490.786	115.25
491.003	111.25
491.221	107.25
491.439	120.25
491.657	109.25
491.874	107.25
492.092	97.25
492.31	107.25
492.527	92.25
492.745	105.25
492.963	103.25
493.18	119.25
493.398	93.25
493.615	94.25
493.833	97.25
494.05	86.25
494.268	100.25
494.485	101.25
494.703	105.25
494.92	109.25
495.138	114.25
495.355	120.25
495.573	100.25
495.79	110.25
496.008	99.25
496.225	105.25
496.442	103.25
496.66	111.25
496.877	142.25
497.094	149.25
497.312	110.25
497.529	98.25
497.746	107.25
497.963	112.25
498.181	106.25
498.398	98.25
498.615	111.25
498.832	111.25
499.049	101.25
499.267	139.25
499.484	167.25
499.701	112.25
499.918	108.25
500.135	97.25
500.352	103.25
500.569	90.25
500.786	104.25
501.003	97.25
501.22	93.25
501.437	89.25
501.654	96.25
501.871	116.25
502.088	102.25
502.305	109.25
502.522	89.25
502.739	100.25
502.956	93.25
503.172	116.25
503.389	102.25
503.606	81.25
503.823	88.25
504.04	105.25
504.256	101.25
504.473	92.25
504.69	96.25
504.907	114.25
505.123	121.25
505.34	120.25
505.557	108.25
505.773	99.25
505.99	100.25
506.207	97.25
506.423	99.25
506.64	106.25
506.856	101.25
507.073	106.25
507.289	99.25
507.506	103.25
507.722	99.25
507.939	107.25
508.155	85.25
508.372	111.25
508.588	90.25
508.805	115.25
