Data from SnStandardFlinnAPT0064_LampEnergy5.5_LIBS07252019.E.O._I.C._HRD10591_15-17-01-498.txt Node
Date: Thu Jul 25 15:17:01 EDT 2019
User: cochatt
Spectrometer: HR+D1059
Trigger mode: 1
Integration Time (sec): 1.000000E-1
Scans to average: 1
Electric dark correction enabled: true
Nonlinearity correction enabled: false
Boxcar width: 0
XAxis mode: Wavelengths
Number of Pixels in Spectrum: 2048
>>>>>Begin Spectral Data<<<<<
223.165	-18.62
223.4	-18.62
223.635	-18.62
223.869	-15.62
224.104	-27.62
224.338	-10.62
224.573	-1.62
224.808	-9.62
225.042	-10.62
225.277	-7.62
225.511	-8.62
225.746	5.38
225.98	8.38
226.215	10.38
226.449	16.38
226.683	10.38
226.918	18.38
227.152	41.38
227.387	39.38
227.621	38.38
227.856	46.38
228.09	46.38
228.324	58.38
228.559	56.38
228.793	83.38
229.027	166.38
229.262	168.38
229.496	153.38
229.73	157.38
229.964	149.38
230.199	168.38
230.433	156.38
230.667	163.38
230.901	172.38
231.136	155.38
231.37	176.38
231.604	187.38
231.838	206.38
232.072	226.38
232.306	272.38
232.541	241.38
232.775	220.38
233.009	212.38
233.243	199.38
233.477	218.38
233.711	240.38
233.945	287.38
234.179	253.38
234.413	231.38
234.647	229.38
234.881	243.38
235.115	256.38
235.349	282.38
235.583	357.38
235.817	451.38
236.051	446.38
236.285	323.38
236.519	237.38
236.753	221.38
236.987	235.38
237.221	258.38
237.455	253.38
237.689	238.38
237.922	226.38
238.156	232.38
238.39	233.38
238.624	226.38
238.858	242.38
239.091	229.38
239.325	227.38
239.559	235.38
239.793	239.38
240.027	261.38
240.26	249.38
240.494	262.38
240.728	274.38
240.961	280.38
241.195	308.38
241.429	320.38
241.662	296.38
241.896	359.38
242.13	425.38
242.363	523.38
242.597	699.38
242.83	653.38
243.064	625.38
243.298	808.38
243.531	646.38
243.765	432.38
243.998	358.38
244.232	316.38
244.465	306.38
244.699	297.38
244.932	315.38
245.166	306.38
245.399	312.38
245.633	305.38
245.866	305.38
246.099	314.38
246.333	309.38
246.566	300.38
246.8	304.38
247.033	296.38
247.266	310.38
247.5	312.38
247.733	307.38
247.966	321.38
248.2	368.38
248.433	378.38
248.666	428.38
248.899	413.38
249.133	384.38
249.366	392.38
249.599	425.38
249.832	462.38
250.066	438.38
250.299	398.38
250.532	365.38
250.765	329.38
250.998	336.38
251.231	337.38
251.465	340.38
251.698	341.38
251.931	346.38
252.164	338.38
252.397	341.38
252.63	337.38
252.863	353.38
253.096	350.38
253.329	357.38
253.562	339.38
253.795	341.38
254.028	377.38
254.261	354.38
254.494	388.38
254.727	469.38
254.96	526.38
255.193	532.38
255.426	434.38
255.659	392.38
255.892	384.38
256.124	378.38
256.357	388.38
256.59	402.38
256.823	415.38
257.056	481.38
257.289	564.38
257.521	630.38
257.754	487.38
257.987	417.38
258.22	424.38
258.452	410.38
258.685	418.38
258.918	420.38
259.151	442.38
259.383	477.38
259.616	503.38
259.849	518.38
260.081	465.38
260.314	449.38
260.547	421.38
260.779	426.38
261.012	405.38
261.244	430.38
261.477	451.38
261.71	459.38
261.942	461.38
262.175	462.38
262.407	464.38
262.64	489.38
262.872	500.38
263.105	521.38
263.337	537.38
263.57	552.38
263.802	584.38
264.035	590.38
264.267	605.38
264.499	599.38
264.732	613.38
264.964	608.38
265.197	641.38
265.429	648.38
265.661	631.38
265.894	690.38
266.126	770.38
266.358	830.38
266.591	802.38
266.823	686.38
267.055	641.38
267.287	604.38
267.52	562.38
267.752	592.38
267.984	550.38
268.216	583.38
268.448	554.38
268.681	538.38
268.913	535.38
269.145	570.38
269.377	565.38
269.609	556.38
269.841	570.38
270.073	606.38
270.306	675.38
270.538	914.38
270.77	1358.38
271.002	1612.38
271.234	1125.38
271.466	756.38
271.698	650.38
271.93	608.38
272.162	585.38
272.394	571.38
272.626	555.38
272.858	535.38
273.09	540.38
273.322	547.38
273.553	529.38
273.785	520.38
274.017	534.38
274.249	545.38
274.481	540.38
274.713	517.38
274.945	512.38
275.176	532.38
275.408	577.38
275.64	549.38
275.872	559.38
276.104	557.38
276.335	572.38
276.567	565.38
276.799	544.38
277.031	540.38
277.262	562.38
277.494	608.38
277.726	652.38
277.957	750.38
278.189	829.38
278.421	805.38
278.652	734.38
278.884	700.38
279.115	653.38
279.347	617.38
279.579	597.38
279.81	624.38
280.042	615.38
280.273	616.38
280.505	630.38
280.736	646.38
280.968	681.38
281.199	779.38
281.431	847.38
281.662	832.38
281.894	727.38
282.125	696.38
282.356	711.38
282.588	698.38
282.819	694.38
283.051	768.38
283.282	845.38
283.513	1033.38
283.745	1464.38
283.976	2365.38
284.207	3406.38
284.439	3031.38
284.67	1804.38
284.901	1440.38
285.132	1437.38
285.364	1384.38
285.595	1068.38
285.826	949.38
286.057	1164.38
286.288	1614.38
286.52	2128.38
286.751	2001.38
286.982	1215.38
287.213	908.38
287.444	790.38
287.675	775.38
287.906	742.38
288.138	738.38
288.369	688.38
288.6	704.38
288.831	689.38
289.062	699.38
289.293	709.38
289.524	717.38
289.755	720.38
289.986	740.38
290.217	726.38
290.448	734.38
290.679	724.38
290.91	760.38
291.141	787.38
291.371	824.38
291.602	850.38
291.833	781.38
292.064	760.38
292.295	726.38
292.526	717.38
292.757	683.38
292.987	675.38
293.218	707.38
293.449	717.38
293.68	701.38
293.91	690.38
294.141	657.38
294.372	672.38
294.603	684.38
294.833	676.38
295.064	659.38
295.295	660.38
295.525	669.38
295.756	703.38
295.987	679.38
296.217	696.38
296.448	696.38
296.679	692.38
296.909	660.38
297.14	698.38
297.37	729.38
297.601	705.38
297.831	706.38
298.062	698.38
298.292	702.38
298.523	682.38
298.753	755.38
298.984	736.38
299.214	773.38
299.445	743.38
299.675	764.38
299.905	770.38
300.136	823.38
300.366	924.38
300.597	1161.38
300.827	1577.38
301.057	2141.38
301.288	2081.38
301.518	1352.38
301.748	1012.38
301.979	969.38
302.209	926.38
302.439	987.38
302.669	986.38
302.9	1205.38
303.13	1690.38
303.36	2512.38
303.59	3378.38
303.82	2868.38
304.051	1657.38
304.281	1208.38
304.511	1026.38
304.741	921.38
304.971	907.38
305.201	866.38
305.431	826.38
305.661	833.38
305.891	806.38
306.121	808.38
306.352	791.38
306.582	795.38
306.812	768.38
307.042	804.38
307.272	778.38
307.502	796.38
307.731	789.38
307.961	739.38
308.191	803.38
308.421	781.38
308.651	795.38
308.881	781.38
309.111	774.38
309.341	762.38
309.571	785.38
309.8	792.38
310.03	790.38
310.26	794.38
310.49	806.38
310.72	791.38
310.949	820.38
311.179	824.38
311.409	813.38
311.639	823.38
311.868	814.38
312.098	830.38
312.328	812.38
312.557	841.38
312.787	854.38
313.017	842.38
313.246	826.38
313.476	876.38
313.706	872.38
313.935	909.38
314.165	973.38
314.394	1019.38
314.624	979.38
314.853	916.38
315.083	894.38
315.312	925.38
315.542	937.38
315.771	934.38
316.001	960.38
316.23	972.38
316.46	1038.38
316.689	1088.38
316.919	1317.38
317.148	1918.38
317.377	2944.38
317.607	4458.38
317.836	4604.38
318.065	2580.38
318.295	1642.38
318.524	1333.38
318.753	1172.38
318.983	1096.38
319.212	1034.38
319.441	1037.38
319.67	1008.38
319.9	960.38
320.129	989.38
320.358	985.38
320.587	992.38
320.816	983.38
321.046	969.38
321.275	1011.38
321.504	995.38
321.733	1010.38
321.962	1024.38
322.191	1038.38
322.42	1060.38
322.649	1035.38
322.878	1014.38
323.108	1024.38
323.337	1050.38
323.566	1052.38
323.795	1094.38
324.024	1148.38
324.253	1136.38
324.482	1166.38
324.71	1226.38
324.939	1273.38
325.168	1319.38
325.397	1348.38
325.626	1610.38
325.855	2260.38
326.084	3527.38
326.313	5358.38
326.542	5714.38
326.77	3576.38
326.999	2222.38
327.228	1929.38
327.457	1804.38
327.686	1806.38
327.914	1938.38
328.143	2202.38
328.372	2587.38
328.6	2763.38
328.829	2552.38
329.058	2222.38
329.287	1978.38
329.515	1814.38
329.744	1694.38
329.972	1602.38
330.201	1576.38
330.43	1499.38
330.658	1462.38
330.887	1420.38
331.115	1456.38
331.344	1421.38
331.572	1406.38
331.801	1438.38
332.03	1454.38
332.258	1486.38
332.486	1529.38
332.715	1708.38
332.943	2102.38
333.172	2613.38
333.4	2571.38
333.629	1944.38
333.857	1846.38
334.085	1789.38
334.314	1875.38
334.542	2029.38
334.771	2298.38
334.999	2728.38
335.227	3276.38
335.455	3653.38
335.684	3430.38
335.912	2887.38
336.14	2516.38
336.369	2266.38
336.597	2037.38
336.825	1901.38
337.053	1799.38
337.281	1720.38
337.51	1623.38
337.738	1550.38
337.966	1530.38
338.194	1484.38
338.422	1418.38
338.65	1393.38
338.878	1380.38
339.106	1336.38
339.334	1339.38
339.562	1319.38
339.79	1277.38
340.018	1283.38
340.246	1255.38
340.474	1253.38
340.702	1252.38
340.93	1232.38
341.158	1245.38
341.386	1219.38
341.614	1213.38
341.842	1217.38
342.07	1204.38
342.298	1187.38
342.526	1170.38
342.754	1152.38
342.981	1148.38
343.209	1153.38
343.437	1172.38
343.665	1151.38
343.893	1194.38
344.12	1177.38
344.348	1178.38
344.576	1158.38
344.804	1157.38
345.031	1135.38
345.259	1129.38
345.487	1090.38
345.714	1084.38
345.942	1084.38
346.17	1077.38
346.397	1092.38
346.625	1077.38
346.853	1066.38
347.08	1089.38
347.308	1093.38
347.535	1090.38
347.763	1074.38
347.99	1050.38
348.218	1027.38
348.445	1056.38
348.673	1067.38
348.9	1070.38
349.128	1069.38
349.355	1024.38
349.583	1039.38
349.81	1032.38
350.037	1047.38
350.265	1028.38
350.492	1038.38
350.72	1045.38
350.947	1014.38
351.174	1024.38
351.402	1038.38
351.629	1028.38
351.856	1035.38
352.083	1034.38
352.311	1034.38
352.538	1039.38
352.765	1032.38
352.992	1044.38
353.22	1052.38
353.447	1004.38
353.674	1006.38
353.901	1005.38
354.128	1038.38
354.355	1022.38
354.583	1025.38
354.81	1041.38
355.037	1042.38
355.264	1048.38
355.491	1038.38
355.718	1033.38
355.945	1046.38
356.172	1057.38
356.399	1052.38
356.626	1052.38
356.853	1052.38
357.08	1064.38
357.307	1069.38
357.534	1102.38
357.761	1102.38
357.988	1081.38
358.215	1088.38
358.441	1086.38
358.668	1081.38
358.895	1081.38
359.122	1068.38
359.349	1086.38
359.576	1066.38
359.802	1120.38
360.029	1098.38
360.256	1102.38
360.483	1074.38
360.709	1089.38
360.936	1106.38
361.163	1076.38
361.39	1074.38
361.616	1097.38
361.843	1085.38
362.07	1102.38
362.296	1112.38
362.523	1088.38
362.749	1108.38
362.976	1124.38
363.203	1109.38
363.429	1065.38
363.656	1106.38
363.882	1094.38
364.109	1091.38
364.335	1080.38
364.562	1066.38
364.788	1110.38
365.015	1106.38
365.241	1109.38
365.468	1184.38
365.694	1184.38
365.92	1191.38
366.147	1111.38
366.373	1114.38
366.599	1119.38
366.826	1104.38
367.052	1122.38
367.278	1102.38
367.505	1109.38
367.731	1106.38
367.957	1121.38
368.184	1109.38
368.41	1163.38
368.636	1156.38
368.862	1160.38
369.089	1136.38
369.315	1148.38
369.541	1138.38
369.767	1119.38
369.993	1122.38
370.219	1128.38
370.445	1120.38
370.672	1162.38
370.898	1162.38
371.124	1146.38
371.35	1154.38
371.576	1168.38
371.802	1153.38
372.028	1156.38
372.254	1172.38
372.48	1202.38
372.706	1217.38
372.932	1202.38
373.158	1178.38
373.384	1171.38
373.61	1175.38
373.835	1205.38
374.061	1197.38
374.287	1210.38
374.513	1232.38
374.739	1274.38
374.965	1249.38
375.191	1246.38
375.416	1278.38
375.642	1237.38
375.868	1218.38
376.094	1222.38
376.319	1224.38
376.545	1188.38
376.771	1162.38
376.997	1170.38
377.222	1162.38
377.448	1159.38
377.674	1168.38
377.899	1179.38
378.125	1184.38
378.35	1170.38
378.576	1181.38
378.802	1176.38
379.027	1196.38
379.253	1230.38
379.478	1274.38
379.704	1498.38
379.929	2118.38
380.155	3188.38
380.38	3406.38
380.606	2101.38
380.831	1513.38
381.057	1293.38
381.282	1234.38
381.507	1222.38
381.733	1156.38
381.958	1165.38
382.184	1185.38
382.409	1164.38
382.634	1134.38
382.86	1144.38
383.085	1166.38
383.31	1154.38
383.535	1173.38
383.761	1183.38
383.986	1170.38
384.211	1213.38
384.436	1193.38
384.662	1200.38
384.887	1204.38
385.112	1204.38
385.337	1199.38
385.562	1218.38
385.787	1221.38
386.013	1230.38
386.238	1217.38
386.463	1198.38
386.688	1208.38
386.913	1249.38
387.138	1213.38
387.363	1251.38
387.588	1227.38
387.813	1204.38
388.038	1206.38
388.263	1185.38
388.488	1186.38
388.713	1213.38
388.938	1204.38
389.163	1206.38
389.387	1194.38
389.612	1189.38
389.837	1210.38
390.062	1204.38
390.287	1216.38
390.512	1234.38
390.736	1249.38
390.961	1284.38
391.186	1232.38
391.411	1241.38
391.636	1221.38
391.86	1260.38
392.085	1261.38
392.31	1254.38
392.534	1253.38
392.759	1249.38
392.984	1224.38
393.208	1224.38
393.433	1228.38
393.658	1261.38
393.882	1237.38
394.107	1223.38
394.331	1193.38
394.556	1212.38
394.78	1210.38
395.005	1230.38
395.229	1189.38
395.454	1230.38
395.678	1244.38
395.903	1243.38
396.127	1254.38
396.352	1234.38
396.576	1246.38
396.801	1265.38
397.025	1268.38
397.249	1268.38
397.474	1247.38
397.698	1258.38
397.922	1306.38
398.147	1271.38
398.371	1290.38
398.595	1285.38
398.82	1339.38
399.044	1401.38
399.268	1441.38
399.492	1524.38
399.717	1592.38
399.941	1618.38
400.165	1558.38
400.389	1454.38
400.613	1418.38
400.837	1397.38
401.062	1388.38
401.286	1377.38
401.51	1358.38
401.734	1303.38
401.958	1374.38
402.182	1346.38
402.406	1314.38
402.63	1333.38
402.854	1363.38
403.078	1373.38
403.302	1382.38
403.526	1377.38
403.75	1385.38
403.974	1404.38
404.198	1385.38
404.422	1426.38
404.645	1384.38
404.869	1369.38
405.093	1385.38
405.317	1344.38
405.541	1398.38
405.765	1401.38
405.988	1419.38
406.212	1430.38
406.436	1426.38
406.66	1433.38
406.883	1401.38
407.107	1486.38
407.331	1493.38
407.555	1504.38
407.778	1522.38
408.002	1480.38
408.226	1458.38
408.449	1455.38
408.673	1412.38
408.896	1425.38
409.12	1422.38
409.344	1400.38
409.567	1364.38
409.791	1406.38
410.014	1378.38
410.238	1374.38
410.461	1387.38
410.685	1385.38
410.908	1350.38
411.132	1376.38
411.355	1336.38
411.578	1338.38
411.802	1314.38
412.025	1350.38
412.249	1345.38
412.472	1357.38
412.695	1317.38
412.919	1339.38
413.142	1301.38
413.365	1302.38
413.589	1321.38
413.812	1316.38
414.035	1304.38
414.258	1334.38
414.482	1330.38
414.705	1314.38
414.928	1294.38
415.151	1322.38
415.374	1318.38
415.597	1302.38
415.821	1280.38
416.044	1240.38
416.267	1281.38
416.49	1256.38
416.713	1269.38
416.936	1268.38
417.159	1249.38
417.382	1225.38
417.605	1225.38
417.828	1227.38
418.051	1244.38
418.274	1238.38
418.497	1290.38
418.72	1317.38
418.943	1267.38
419.166	1308.38
419.389	1374.38
419.611	1382.38
419.834	1347.38
420.057	1333.38
420.28	1281.38
420.503	1282.38
420.726	1255.38
420.948	1230.38
421.171	1239.38
421.394	1279.38
421.617	1268.38
421.839	1298.38
422.062	1274.38
422.285	1242.38
422.507	1278.38
422.73	1330.38
422.953	1329.38
423.175	1309.38
423.398	1309.38
423.621	1282.38
423.843	1284.38
424.066	1319.38
424.288	1283.38
424.511	1281.38
424.733	1261.38
424.956	1229.38
425.178	1241.38
425.401	1245.38
425.623	1259.38
425.846	1221.38
426.068	1218.38
426.291	1205.38
426.513	1219.38
426.735	1205.38
426.958	1196.38
427.18	1204.38
427.402	1196.38
427.625	1201.38
427.847	1200.38
428.069	1160.38
428.292	1170.38
428.514	1180.38
428.736	1170.38
428.958	1192.38
429.181	1130.38
429.403	1107.38
429.625	1140.38
429.847	1158.38
430.069	1184.38
430.292	1176.38
430.514	1237.38
430.736	1247.38
430.958	1175.38
431.18	1142.38
431.402	1154.38
431.624	1161.38
431.846	1143.38
432.068	1127.38
432.29	1161.38
432.512	1157.38
432.734	1166.38
432.956	1164.38
433.178	1184.38
433.4	1182.38
433.622	1170.38
433.844	1186.38
434.066	1159.38
434.287	1175.38
434.509	1145.38
434.731	1166.38
434.953	1237.38
435.175	1242.38
435.397	1233.38
435.618	1189.38
435.84	1181.38
436.062	1148.38
436.284	1156.38
436.505	1166.38
436.727	1170.38
436.949	1154.38
437.17	1150.38
437.392	1155.38
437.614	1126.38
437.835	1134.38
438.057	1108.38
438.278	1114.38
438.5	1136.38
438.721	1140.38
438.943	1157.38
439.165	1162.38
439.386	1214.38
439.608	1236.38
439.829	1194.38
440.05	1236.38
440.272	1264.38
440.493	1196.38
440.715	1216.38
440.936	1220.38
441.158	1227.38
441.379	1199.38
441.6	1285.38
441.822	1288.38
442.043	1340.38
442.264	1384.38
442.486	1316.38
442.707	1288.38
442.928	1277.38
443.149	1251.38
443.371	1238.38
443.592	1249.38
443.813	1236.38
444.034	1257.38
444.255	1293.38
444.476	1315.38
444.698	1332.38
444.919	1348.38
445.14	1436.38
445.361	1349.38
445.582	1294.38
445.803	1254.38
446.024	1243.38
446.245	1225.38
446.466	1262.38
446.687	1218.38
446.908	1230.38
447.129	1169.38
447.35	1185.38
447.571	1189.38
447.792	1138.38
448.013	1162.38
448.234	1146.38
448.455	1123.38
448.675	1191.38
448.896	1191.38
449.117	1239.38
449.338	1324.38
449.559	1380.38
449.779	1248.38
450	1177.38
450.221	1096.38
450.442	1141.38
450.662	1134.38
450.883	1116.38
451.104	1119.38
451.324	1102.38
451.545	1091.38
451.766	1123.38
451.986	1167.38
452.207	1230.38
452.428	1510.38
452.648	2124.38
452.869	1794.38
453.089	1314.38
453.31	1240.38
453.53	1253.38
453.751	1308.38
453.971	1336.38
454.192	1332.38
454.412	1146.38
454.633	1115.38
454.853	1099.38
455.073	1076.38
455.294	1074.38
455.514	1056.38
455.734	1069.38
455.955	1042.38
456.175	1038.38
456.395	1064.38
456.616	1097.38
456.836	1088.38
457.056	1091.38
457.276	1068.38
457.497	1113.38
457.717	1159.38
457.937	1129.38
458.157	1117.38
458.377	1118.38
458.598	1109.38
458.818	1166.38
459.038	1108.38
459.258	1141.38
459.478	1140.38
459.698	1156.38
459.918	1174.38
460.138	1218.38
460.358	1216.38
460.578	1245.38
460.798	1266.38
461.018	1273.38
461.238	1247.38
461.458	1287.38
461.678	1270.38
461.898	1292.38
462.118	1272.38
462.338	1316.38
462.558	1333.38
462.777	1340.38
462.997	1432.38
463.217	1406.38
463.437	1526.38
463.657	1504.38
463.876	1556.38
464.096	1442.38
464.316	1380.38
464.536	1369.38
464.755	1347.38
464.975	1333.38
465.195	1276.38
465.414	1214.38
465.634	1217.38
465.854	1173.38
466.073	1184.38
466.293	1160.38
466.512	1171.38
466.732	1175.38
466.951	1212.38
467.171	1296.38
467.391	1256.38
467.61	1184.38
467.829	1173.38
468.049	1152.38
468.268	1146.38
468.488	1138.38
468.707	1129.38
468.927	1125.38
469.146	1130.38
469.365	1161.38
469.585	1173.38
469.804	1173.38
470.023	1210.38
470.243	1191.38
470.462	1259.38
470.681	1329.38
470.901	1410.38
471.12	1594.38
471.339	1616.38
471.558	1377.38
471.777	1267.38
471.997	1198.38
472.216	1218.38
472.435	1187.38
472.654	1144.38
472.873	1133.38
473.092	1109.38
473.311	1126.38
473.53	1176.38
473.749	1144.38
473.968	1206.38
474.187	1146.38
474.406	1181.38
474.625	1143.38
474.844	1163.38
475.063	1176.38
475.282	1173.38
475.501	1131.38
475.72	1156.38
475.939	1160.38
476.158	1212.38
476.377	1210.38
476.596	1167.38
476.814	1216.38
477.033	1188.38
477.252	1216.38
477.471	1255.38
477.69	1274.38
477.908	1307.38
478.127	1296.38
478.346	1289.38
478.564	1318.38
478.783	1321.38
479.002	1352.38
479.22	1336.38
479.439	1319.38
479.658	1356.38
479.876	1381.38
480.095	1355.38
480.313	1414.38
480.532	1413.38
480.751	1373.38
480.969	1336.38
481.188	1345.38
481.406	1319.38
481.624	1338.38
481.843	1376.38
482.061	1372.38
482.28	1374.38
482.498	1342.38
482.717	1302.38
482.935	1389.38
483.153	1421.38
483.372	1419.38
483.59	1408.38
483.808	1425.38
484.027	1462.38
484.245	1543.38
484.463	1730.38
484.681	1952.38
484.9	1742.38
485.118	1630.38
485.336	1608.38
485.554	1603.38
485.772	1689.38
485.99	1920.38
486.209	2093.38
486.427	1761.38
486.645	1546.38
486.863	1499.38
487.081	1515.38
487.299	1445.38
487.517	1446.38
487.735	1455.38
487.953	1517.38
488.171	1493.38
488.389	1440.38
488.607	1418.38
488.825	1422.38
489.043	1362.38
489.261	1377.38
489.479	1402.38
489.696	1402.38
489.914	1420.38
490.132	1429.38
490.35	1441.38
490.568	1447.38
490.786	1435.38
