Data from SnStandardFlinnAPT0064_QswitchEnergy10_LIBS07252019.E.O._I.C._HRD10591_15-26-39-973.txt Node
Date: Thu Jul 25 15:26:39 EDT 2019
User: cochatt
Spectrometer: HR+D1059
Trigger mode: 1
Integration Time (sec): 1.000000E-1
Scans to average: 1
Electric dark correction enabled: true
Nonlinearity correction enabled: false
Boxcar width: 0
XAxis mode: Wavelengths
Number of Pixels in Spectrum: 2048
>>>>>Begin Spectral Data<<<<<
223.165	-14.75
223.4	-14.75
223.635	-14.75
223.869	-3.75
224.104	-5.75
224.338	-9.75
224.573	-22.75
224.808	-12.75
225.042	-6.75
225.277	-1.75
225.511	3.25
225.746	-7.75
225.98	12.25
226.215	16.25
226.449	4.25
226.683	10.25
226.918	22.25
227.152	17.25
227.387	29.25
227.621	54.25
227.856	37.25
228.09	34.25
228.324	55.25
228.559	60.25
228.793	50.25
229.027	66.25
229.262	65.25
229.496	63.25
229.73	69.25
229.964	75.25
230.199	75.25
230.433	72.25
230.667	72.25
230.901	74.25
231.136	94.25
231.37	95.25
231.604	92.25
231.838	111.25
232.072	103.25
232.306	107.25
232.541	84.25
232.775	83.25
233.009	79.25
233.243	89.25
233.477	77.25
233.711	92.25
233.945	90.25
234.179	94.25
234.413	88.25
234.647	89.25
234.881	82.25
235.115	81.25
235.349	86.25
235.583	102.25
235.817	124.25
236.051	119.25
236.285	79.25
236.519	73.25
236.753	78.25
236.987	83.25
237.221	82.25
237.455	76.25
237.689	79.25
237.922	77.25
238.156	72.25
238.39	86.25
238.624	92.25
238.858	89.25
239.091	79.25
239.325	86.25
239.559	67.25
239.793	83.25
240.027	96.25
240.26	89.25
240.494	75.25
240.728	69.25
240.961	71.25
241.195	77.25
241.429	99.25
241.662	87.25
241.896	90.25
242.13	84.25
242.363	122.25
242.597	158.25
242.83	122.25
243.064	118.25
243.298	151.25
243.531	126.25
243.765	90.25
243.998	82.25
244.232	73.25
244.465	60.25
244.699	85.25
244.932	88.25
245.166	90.25
245.399	80.25
245.633	82.25
245.866	81.25
246.099	79.25
246.333	82.25
246.566	74.25
246.8	79.25
247.033	83.25
247.266	75.25
247.5	80.25
247.733	81.25
247.966	68.25
248.2	88.25
248.433	104.25
248.666	125.25
248.899	122.25
249.133	98.25
249.366	94.25
249.599	108.25
249.832	128.25
250.066	127.25
250.299	83.25
250.532	91.25
250.765	86.25
250.998	89.25
251.231	83.25
251.465	78.25
251.698	82.25
251.931	84.25
252.164	84.25
252.397	89.25
252.63	91.25
252.863	102.25
253.096	87.25
253.329	86.25
253.562	79.25
253.795	97.25
254.028	104.25
254.261	89.25
254.494	93.25
254.727	102.25
254.96	130.25
255.193	121.25
255.426	96.25
255.659	84.25
255.892	84.25
256.124	95.25
256.357	84.25
256.59	97.25
256.823	102.25
257.056	101.25
257.289	134.25
257.521	148.25
257.754	120.25
257.987	83.25
258.22	88.25
258.452	93.25
258.685	85.25
258.918	74.25
259.151	88.25
259.383	105.25
259.616	125.25
259.849	144.25
260.081	100.25
260.314	85.25
260.547	79.25
260.779	79.25
261.012	72.25
261.244	67.25
261.477	78.25
261.71	83.25
261.942	67.25
262.175	88.25
262.407	81.25
262.64	79.25
262.872	81.25
263.105	87.25
263.337	90.25
263.57	81.25
263.802	85.25
264.035	91.25
264.267	86.25
264.499	82.25
264.732	81.25
264.964	81.25
265.197	86.25
265.429	80.25
265.661	82.25
265.894	105.25
266.126	110.25
266.358	151.25
266.591	134.25
266.823	101.25
267.055	106.25
267.287	93.25
267.52	75.25
267.752	100.25
267.984	78.25
268.216	94.25
268.448	90.25
268.681	80.25
268.913	84.25
269.145	91.25
269.377	89.25
269.609	84.25
269.841	100.25
270.073	112.25
270.306	105.25
270.538	163.25
270.77	283.25
271.002	332.25
271.234	186.25
271.466	110.25
271.698	96.25
271.93	86.25
272.162	82.25
272.394	94.25
272.626	86.25
272.858	97.25
273.09	89.25
273.322	85.25
273.553	83.25
273.785	87.25
274.017	86.25
274.249	84.25
274.481	96.25
274.713	87.25
274.945	94.25
275.176	105.25
275.408	88.25
275.64	84.25
275.872	97.25
276.104	83.25
276.335	98.25
276.567	101.25
276.799	104.25
277.031	101.25
277.262	100.25
277.494	90.25
277.726	102.25
277.957	169.25
278.189	222.25
278.421	207.25
278.652	168.25
278.884	186.25
279.115	131.25
279.347	112.25
279.579	92.25
279.81	90.25
280.042	97.25
280.273	106.25
280.505	106.25
280.736	101.25
280.968	123.25
281.199	162.25
281.431	202.25
281.662	243.25
281.894	148.25
282.125	117.25
282.356	104.25
282.588	106.25
282.819	107.25
283.051	110.25
283.282	147.25
283.513	172.25
283.745	270.25
283.976	503.25
284.207	707.25
284.439	529.25
284.67	248.25
284.901	217.25
285.132	326.25
285.364	336.25
285.595	202.25
285.826	167.25
286.057	241.25
286.288	377.25
286.52	522.25
286.751	430.25
286.982	182.25
287.213	108.25
287.444	116.25
287.675	86.25
287.906	94.25
288.138	96.25
288.369	90.25
288.6	92.25
288.831	80.25
289.062	92.25
289.293	96.25
289.524	94.25
289.755	77.25
289.986	92.25
290.217	87.25
290.448	105.25
290.679	109.25
290.91	127.25
291.141	144.25
291.371	203.25
291.602	250.25
291.833	185.25
292.064	101.25
292.295	87.25
292.526	107.25
292.757	87.25
292.987	86.25
293.218	84.25
293.449	91.25
293.68	82.25
293.91	93.25
294.141	93.25
294.372	85.25
294.603	88.25
294.833	85.25
295.064	84.25
295.295	116.25
295.525	103.25
295.756	94.25
295.987	95.25
296.217	77.25
296.448	103.25
296.679	85.25
296.909	97.25
297.14	81.25
297.37	100.25
297.601	104.25
297.831	91.25
298.062	107.25
298.292	93.25
298.523	94.25
298.753	98.25
298.984	101.25
299.214	107.25
299.445	107.25
299.675	104.25
299.905	103.25
300.136	131.25
300.366	144.25
300.597	232.25
300.827	407.25
301.057	593.25
301.288	528.25
301.518	236.25
301.748	154.25
301.979	122.25
302.209	115.25
302.439	135.25
302.669	165.25
302.9	256.25
303.13	428.25
303.36	766.25
303.59	1083.25
303.82	735.25
304.051	243.25
304.281	144.25
304.511	121.25
304.741	115.25
304.971	119.25
305.201	106.25
305.431	96.25
305.661	103.25
305.891	109.25
306.121	105.25
306.352	110.25
306.582	104.25
306.812	114.25
307.042	116.25
307.272	111.25
307.502	112.25
307.731	116.25
307.961	100.25
308.191	93.25
308.421	105.25
308.651	102.25
308.881	81.25
309.111	100.25
309.341	108.25
309.571	97.25
309.8	101.25
310.03	106.25
310.26	91.25
310.49	105.25
310.72	111.25
310.949	104.25
311.179	107.25
311.409	106.25
311.639	98.25
311.868	113.25
312.098	101.25
312.328	106.25
312.557	122.25
312.787	100.25
313.017	104.25
313.246	117.25
313.476	112.25
313.706	123.25
313.935	144.25
314.165	172.25
314.394	216.25
314.624	164.25
314.853	126.25
315.083	104.25
315.312	110.25
315.542	125.25
315.771	130.25
316.001	132.25
316.23	143.25
316.46	138.25
316.689	166.25
316.919	251.25
317.148	416.25
317.377	829.25
317.607	1271.25
317.836	1186.25
318.065	455.25
318.295	200.25
318.524	155.25
318.753	126.25
318.983	128.25
319.212	102.25
319.441	107.25
319.67	99.25
319.9	113.25
320.129	123.25
320.358	124.25
320.587	119.25
320.816	124.25
321.046	128.25
321.275	119.25
321.504	123.25
321.733	132.25
321.962	151.25
322.191	151.25
322.42	130.25
322.649	111.25
322.878	122.25
323.108	114.25
323.337	114.25
323.566	112.25
323.795	129.25
324.024	122.25
324.253	149.25
324.482	176.25
324.71	196.25
324.939	223.25
325.168	206.25
325.397	171.25
325.626	229.25
325.855	440.25
326.084	832.25
326.313	1406.25
326.542	1355.25
326.77	553.25
326.999	227.25
327.228	183.25
327.457	200.25
327.686	199.25
327.914	135.25
328.143	110.25
328.372	130.25
328.6	121.25
328.829	112.25
329.058	112.25
329.287	116.25
329.515	119.25
329.744	117.25
329.972	117.25
330.201	117.25
330.43	117.25
330.658	105.25
330.887	108.25
331.115	97.25
331.344	101.25
331.572	121.25
331.801	107.25
332.03	119.25
332.258	122.25
332.486	169.25
332.715	266.25
332.943	443.25
333.172	662.25
333.4	567.25
333.629	243.25
333.857	148.25
334.085	116.25
334.314	123.25
334.542	106.25
334.771	114.25
334.999	115.25
335.227	113.25
335.455	96.25
335.684	108.25
335.912	116.25
336.14	114.25
336.369	120.25
336.597	102.25
336.825	103.25
337.053	102.25
337.281	104.25
337.51	92.25
337.738	107.25
337.966	114.25
338.194	120.25
338.422	102.25
338.65	118.25
338.878	112.25
339.106	114.25
339.334	113.25
339.562	115.25
339.79	116.25
340.018	97.25
340.246	104.25
340.474	99.25
340.702	122.25
340.93	110.25
341.158	107.25
341.386	108.25
341.614	112.25
341.842	123.25
342.07	107.25
342.298	119.25
342.526	108.25
342.754	104.25
342.981	113.25
343.209	105.25
343.437	111.25
343.665	105.25
343.893	104.25
344.12	111.25
344.348	104.25
344.576	108.25
344.804	104.25
345.031	107.25
345.259	104.25
345.487	102.25
345.714	107.25
345.942	101.25
346.17	116.25
346.397	90.25
346.625	108.25
346.853	97.25
347.08	103.25
347.308	112.25
347.535	98.25
347.763	108.25
347.99	105.25
348.218	95.25
348.445	86.25
348.673	101.25
348.9	117.25
349.128	112.25
349.355	111.25
349.583	108.25
349.81	98.25
350.037	120.25
350.265	117.25
350.492	103.25
350.72	101.25
350.947	101.25
351.174	106.25
351.402	103.25
351.629	104.25
351.856	100.25
352.083	104.25
352.311	95.25
352.538	96.25
352.765	109.25
352.992	102.25
353.22	107.25
353.447	99.25
353.674	95.25
353.901	99.25
354.128	86.25
354.355	95.25
354.583	105.25
354.81	92.25
355.037	105.25
355.264	95.25
355.491	98.25
355.718	87.25
355.945	91.25
356.172	102.25
356.399	88.25
356.626	78.25
356.853	96.25
357.08	111.25
357.307	104.25
357.534	99.25
357.761	103.25
357.988	118.25
358.215	106.25
358.441	104.25
358.668	94.25
358.895	104.25
359.122	110.25
359.349	111.25
359.576	108.25
359.802	100.25
360.029	93.25
360.256	106.25
360.483	106.25
360.709	98.25
360.936	118.25
361.163	103.25
361.39	118.25
361.616	98.25
361.843	108.25
362.07	88.25
362.296	91.25
362.523	102.25
362.749	114.25
362.976	106.25
363.203	116.25
363.429	115.25
363.656	107.25
363.882	105.25
364.109	107.25
364.335	104.25
364.562	111.25
364.788	100.25
365.015	106.25
365.241	116.25
365.468	180.25
365.694	204.25
365.92	197.25
366.147	121.25
366.373	110.25
366.599	103.25
366.826	107.25
367.052	98.25
367.278	99.25
367.505	101.25
367.731	90.25
367.957	97.25
368.184	106.25
368.41	113.25
368.636	112.25
368.862	102.25
369.089	116.25
369.315	105.25
369.541	95.25
369.767	113.25
369.993	120.25
370.219	105.25
370.445	94.25
370.672	111.25
370.898	101.25
371.124	98.25
371.35	108.25
371.576	84.25
371.802	83.25
372.028	91.25
372.254	104.25
372.48	102.25
372.706	110.25
372.932	108.25
373.158	109.25
373.384	113.25
373.61	105.25
373.835	115.25
374.061	101.25
374.287	100.25
374.513	110.25
374.739	106.25
374.965	101.25
375.191	110.25
375.416	96.25
375.642	87.25
375.868	114.25
376.094	105.25
376.319	118.25
376.545	118.25
376.771	109.25
376.997	100.25
377.222	108.25
377.448	122.25
377.674	103.25
377.899	94.25
378.125	116.25
378.35	114.25
378.576	113.25
378.802	120.25
379.027	115.25
379.253	132.25
379.478	165.25
379.704	283.25
379.929	663.25
380.155	1370.25
380.38	1416.25
380.606	459.25
380.831	171.25
381.057	138.25
381.282	108.25
381.507	112.25
381.733	118.25
381.958	120.25
382.184	98.25
382.409	97.25
382.634	100.25
382.86	103.25
383.085	91.25
383.31	98.25
383.535	108.25
383.761	91.25
383.986	104.25
384.211	106.25
384.436	114.25
384.662	89.25
384.887	100.25
385.112	101.25
385.337	107.25
385.562	101.25
385.787	94.25
386.013	100.25
386.238	98.25
386.463	100.25
386.688	99.25
386.913	100.25
387.138	99.25
387.363	87.25
387.588	107.25
387.813	96.25
388.038	105.25
388.263	97.25
388.488	119.25
388.713	107.25
388.938	102.25
389.163	92.25
389.387	95.25
389.612	93.25
389.837	91.25
390.062	106.25
390.287	95.25
390.512	104.25
390.736	95.25
390.961	107.25
391.186	83.25
391.411	92.25
391.636	98.25
391.86	99.25
392.085	103.25
392.31	97.25
392.534	100.25
392.759	112.25
392.984	100.25
393.208	126.25
393.433	150.25
393.658	128.25
393.882	101.25
394.107	102.25
394.331	85.25
394.556	88.25
394.78	91.25
395.005	93.25
395.229	87.25
395.454	96.25
395.678	95.25
395.903	100.25
396.127	100.25
396.352	94.25
396.576	104.25
396.801	99.25
397.025	130.25
397.249	102.25
397.474	80.25
397.698	107.25
397.922	99.25
398.147	99.25
398.371	99.25
398.595	87.25
398.82	96.25
399.044	103.25
399.268	95.25
399.492	90.25
399.717	100.25
399.941	96.25
400.165	96.25
400.389	95.25
400.613	93.25
400.837	99.25
401.062	85.25
401.286	96.25
401.51	84.25
401.734	97.25
401.958	98.25
402.182	95.25
402.406	92.25
402.63	99.25
402.854	94.25
403.078	74.25
403.302	86.25
403.526	103.25
403.75	105.25
403.974	97.25
404.198	102.25
404.422	91.25
404.645	102.25
404.869	89.25
405.093	94.25
405.317	100.25
405.541	98.25
405.765	121.25
405.988	146.25
406.212	102.25
406.436	104.25
406.66	94.25
406.883	79.25
407.107	84.25
407.331	94.25
407.555	92.25
407.778	84.25
408.002	94.25
408.226	103.25
408.449	100.25
408.673	104.25
408.896	98.25
409.12	96.25
409.344	90.25
409.567	91.25
409.791	108.25
410.014	97.25
410.238	77.25
410.461	106.25
410.685	104.25
410.908	116.25
411.132	92.25
411.355	93.25
411.578	91.25
411.802	89.25
412.025	94.25
412.249	103.25
412.472	85.25
412.695	87.25
412.919	104.25
413.142	88.25
413.365	80.25
413.589	86.25
413.812	99.25
414.035	103.25
414.258	113.25
414.482	99.25
414.705	108.25
414.928	98.25
415.151	90.25
415.374	97.25
415.597	103.25
415.821	104.25
416.044	102.25
416.267	74.25
416.49	104.25
416.713	92.25
416.936	93.25
417.159	91.25
417.382	86.25
417.605	102.25
417.828	97.25
418.051	94.25
418.274	95.25
418.497	92.25
418.72	87.25
418.943	99.25
419.166	80.25
419.389	95.25
419.611	105.25
419.834	93.25
420.057	117.25
420.28	98.25
420.503	91.25
420.726	83.25
420.948	92.25
421.171	94.25
421.394	95.25
421.617	94.25
421.839	102.25
422.062	89.25
422.285	93.25
422.507	110.25
422.73	139.25
422.953	123.25
423.175	96.25
423.398	89.25
423.621	94.25
423.843	93.25
424.066	113.25
424.288	91.25
424.511	80.25
424.733	97.25
424.956	97.25
425.178	96.25
425.401	88.25
425.623	98.25
425.846	94.25
426.068	102.25
426.291	87.25
426.513	88.25
426.735	86.25
426.958	93.25
427.18	91.25
427.402	91.25
427.625	89.25
427.847	89.25
428.069	102.25
428.292	99.25
428.514	100.25
428.736	85.25
428.958	82.25
429.181	101.25
429.403	100.25
429.625	78.25
429.847	94.25
430.069	116.25
430.292	101.25
430.514	108.25
430.736	96.25
430.958	90.25
431.18	84.25
431.402	99.25
431.624	92.25
431.846	91.25
432.068	108.25
432.29	92.25
432.512	89.25
432.734	82.25
432.956	90.25
433.178	81.25
433.4	97.25
433.622	83.25
433.844	95.25
434.066	91.25
434.287	89.25
434.509	93.25
434.731	84.25
434.953	94.25
435.175	71.25
435.397	79.25
435.618	86.25
435.84	88.25
436.062	91.25
436.284	90.25
436.505	94.25
436.727	95.25
436.949	99.25
437.17	107.25
437.392	105.25
437.614	104.25
437.835	87.25
438.057	88.25
438.278	84.25
438.5	81.25
438.721	90.25
438.943	92.25
439.165	114.25
439.386	106.25
439.608	84.25
439.829	99.25
440.05	119.25
440.272	115.25
440.493	85.25
440.715	85.25
440.936	89.25
441.158	70.25
441.379	88.25
441.6	84.25
441.822	96.25
442.043	121.25
442.264	134.25
442.486	122.25
442.707	107.25
442.928	90.25
443.149	88.25
443.371	88.25
443.592	95.25
443.813	103.25
444.034	114.25
444.255	118.25
444.476	86.25
444.698	87.25
444.919	93.25
445.14	220.25
445.361	166.25
445.582	101.25
445.803	81.25
446.024	96.25
446.245	107.25
446.466	99.25
446.687	116.25
446.908	93.25
447.129	99.25
447.35	81.25
447.571	89.25
447.792	92.25
448.013	98.25
448.234	100.25
448.455	90.25
448.675	104.25
448.896	99.25
449.117	95.25
449.338	118.25
449.559	130.25
449.779	107.25
450	78.25
450.221	117.25
450.442	99.25
450.662	122.25
450.883	107.25
451.104	106.25
451.324	117.25
451.545	118.25
451.766	121.25
451.986	129.25
452.207	194.25
452.428	478.25
452.648	1178.25
452.869	653.25
453.089	193.25
453.31	112.25
453.53	106.25
453.751	134.25
453.971	138.25
454.192	146.25
454.412	96.25
454.633	96.25
454.853	95.25
455.073	83.25
455.294	81.25
455.514	98.25
455.734	95.25
455.955	91.25
456.175	89.25
456.395	88.25
456.616	89.25
456.836	99.25
457.056	105.25
457.276	99.25
457.497	110.25
457.717	117.25
457.937	107.25
458.157	104.25
458.377	84.25
458.598	84.25
458.818	96.25
459.038	104.25
459.258	85.25
459.478	88.25
459.698	87.25
459.918	78.25
460.138	99.25
460.358	96.25
460.578	90.25
460.798	87.25
461.018	87.25
461.238	92.25
461.458	100.25
461.678	87.25
461.898	97.25
462.118	99.25
462.338	90.25
462.558	97.25
462.777	103.25
462.997	105.25
463.217	90.25
463.437	140.25
463.657	171.25
463.876	162.25
464.096	107.25
464.316	102.25
464.536	106.25
464.755	87.25
464.975	77.25
465.195	94.25
465.414	86.25
465.634	70.25
465.854	85.25
466.073	94.25
466.293	90.25
466.512	98.25
466.732	103.25
466.951	91.25
467.171	138.25
467.391	134.25
467.61	108.25
467.829	100.25
468.049	90.25
468.268	94.25
468.488	80.25
468.707	96.25
468.927	101.25
469.146	100.25
469.365	85.25
469.585	102.25
469.804	98.25
470.023	89.25
470.243	107.25
470.462	107.25
470.681	107.25
470.901	117.25
471.12	168.25
471.339	191.25
471.558	142.25
471.777	113.25
471.997	96.25
472.216	93.25
472.435	92.25
472.654	91.25
472.873	85.25
473.092	93.25
473.311	95.25
473.53	96.25
473.749	92.25
473.968	97.25
474.187	100.25
474.406	85.25
474.625	96.25
474.844	102.25
475.063	95.25
475.282	91.25
475.501	88.25
475.72	100.25
475.939	93.25
476.158	98.25
476.377	105.25
476.596	113.25
476.814	80.25
477.033	100.25
477.252	90.25
477.471	98.25
477.69	101.25
477.908	88.25
478.127	89.25
478.346	95.25
478.564	96.25
478.783	90.25
479.002	116.25
479.22	95.25
479.439	114.25
479.658	93.25
479.876	80.25
480.095	89.25
480.313	90.25
480.532	84.25
480.751	92.25
480.969	114.25
481.188	84.25
481.406	118.25
481.624	99.25
481.843	120.25
482.061	112.25
482.28	84.25
482.498	80.25
482.717	78.25
482.935	97.25
483.153	96.25
483.372	108.25
483.59	113.25
483.808	98.25
484.027	103.25
484.245	111.25
484.463	163.25
484.681	212.25
484.9	133.25
485.118	96.25
485.336	105.25
485.554	96.25
485.772	115.25
485.99	167.25
486.209	227.25
486.427	164.25
486.645	124.25
486.863	100.25
487.081	91.25
487.299	92.25
487.517	96.25
487.735	101.25
487.953	104.25
488.171	117.25
488.389	92.25
488.607	95.25
488.825	83.25
489.043	100.25
489.261	91.25
489.479	91.25
489.696	87.25
489.914	95.25
490.132	94.25
490.35	99.25
490.568	103.25
490.786	96.25
491.003	102.25
491.221	92.25
491.439	110.25
491.657	101.25
491.874	103.25
492.092	106.25
492.31	106.25
492.527	85.25
492.745	111.25
492.963	106.25
493.18	102.25
493.398	114.25
493.615	102.25
493.833	94.25
494.05	83.25
494.268	102.25
494.485	90.25
494.703	123.25
494.92	102.25
495.138	101.25
495.355	92.25
495.573	108.25
495.79	110.25
496.008	111.25
496.225	100.25
496.442	96.25
496.66	116.25
496.877	160.25
497.094	139.25
497.312	114.25
497.529	86.25
497.746	102.25
497.963	103.25
498.181	94.25
498.398	105.25
498.615	97.25
498.832	98.25
499.049	94.25
499.267	128.25
499.484	147.25
499.701	99.25
499.918	99.25
500.135	103.25
500.352	99.25
500.569	108.25
500.786	100.25
501.003	104.25
501.22	94.25
501.437	95.25
501.654	91.25
501.871	94.25
502.088	106.25
502.305	100.25
502.522	100.25
502.739	91.25
502.956	97.25
503.172	78.25
503.389	96.25
503.606	88.25
503.823	107.25
504.04	95.25
504.256	84.25
504.473	90.25
504.69	105.25
504.907	114.25
505.123	112.25
505.34	94.25
505.557	99.25
505.773	97.25
505.99	97.25
506.207	100.25
506.423	103.25
506.64	102.25
506.856	90.25
507.073	88.25
507.289	98.25
507.506	108.25
507.722	84.25
507.939	98.25
508.155	99.25
508.372	90.25
508.588	95.25
508.805	99.25
509.021	99.25
509.238	101.25
509.454	126.25
509.67	146.25
509.887	94.25
