Data from SnStandardFlinnAPT0064_LampEnergy5.5_LIBS07252019.E.O._I.C._HRD10591_15-14-54-491.txt Node
Date: Thu Jul 25 15:14:54 EDT 2019
User: cochatt
Spectrometer: HR+D1059
Trigger mode: 1
Integration Time (sec): 1.000000E-1
Scans to average: 1
Electric dark correction enabled: true
Nonlinearity correction enabled: false
Boxcar width: 0
XAxis mode: Wavelengths
Number of Pixels in Spectrum: 2048
>>>>>Begin Spectral Data<<<<<
223.165	-28.69
223.4	-28.69
223.635	-28.69
223.869	-15.69
224.104	-2.69
224.338	-17.69
224.573	-5.69
224.808	-17.69
225.042	-18.69
225.277	-12.69
225.511	9.31
225.746	-8.69
225.98	4.31
226.215	0.31
226.449	14.31
226.683	23.31
226.918	32.31
227.152	44.31
227.387	20.31
227.621	24.31
227.856	40.31
228.09	41.31
228.324	46.31
228.559	45.31
228.793	70.31
229.027	147.31
229.262	127.31
229.496	135.31
229.73	136.31
229.964	139.31
230.199	144.31
230.433	147.31
230.667	164.31
230.901	149.31
231.136	163.31
231.37	185.31
231.604	167.31
231.838	195.31
232.072	207.31
232.306	218.31
232.541	220.31
232.775	184.31
233.009	187.31
233.243	186.31
233.477	202.31
233.711	229.31
233.945	260.31
234.179	226.31
234.413	202.31
234.647	196.31
234.881	200.31
235.115	226.31
235.349	245.31
235.583	296.31
235.817	376.31
236.051	358.31
236.285	265.31
236.519	221.31
236.753	203.31
236.987	223.31
237.221	227.31
237.455	208.31
237.689	194.31
237.922	207.31
238.156	206.31
238.39	207.31
238.624	207.31
238.858	211.31
239.091	209.31
239.325	218.31
239.559	214.31
239.793	225.31
240.027	224.31
240.26	218.31
240.494	229.31
240.728	258.31
240.961	259.31
241.195	256.31
241.429	288.31
241.662	284.31
241.896	314.31
242.13	335.31
242.363	437.31
242.597	523.31
242.83	519.31
243.064	560.31
243.298	621.31
243.531	533.31
243.765	374.31
243.998	305.31
244.232	285.31
244.465	296.31
244.699	268.31
244.932	289.31
245.166	277.31
245.399	271.31
245.633	282.31
245.866	290.31
246.099	280.31
246.333	272.31
246.566	282.31
246.8	275.31
247.033	261.31
247.266	280.31
247.5	277.31
247.733	288.31
247.966	303.31
248.2	312.31
248.433	329.31
248.666	379.31
248.899	368.31
249.133	336.31
249.366	337.31
249.599	360.31
249.832	377.31
250.066	377.31
250.299	351.31
250.532	321.31
250.765	314.31
250.998	309.31
251.231	297.31
251.465	315.31
251.698	296.31
251.931	327.31
252.164	304.31
252.397	306.31
252.63	315.31
252.863	315.31
253.096	317.31
253.329	317.31
253.562	316.31
253.795	312.31
254.028	330.31
254.261	333.31
254.494	358.31
254.727	394.31
254.96	441.31
255.193	433.31
255.426	370.31
255.659	359.31
255.892	359.31
256.124	358.31
256.357	355.31
256.59	378.31
256.823	377.31
257.056	425.31
257.289	481.31
257.521	504.31
257.754	433.31
257.987	372.31
258.22	359.31
258.452	370.31
258.685	373.31
258.918	368.31
259.151	389.31
259.383	400.31
259.616	448.31
259.849	442.31
260.081	420.31
260.314	399.31
260.547	410.31
260.779	392.31
261.012	395.31
261.244	411.31
261.477	401.31
261.71	403.31
261.942	423.31
262.175	431.31
262.407	424.31
262.64	416.31
262.872	475.31
263.105	480.31
263.337	503.31
263.57	513.31
263.802	544.31
264.035	528.31
264.267	532.31
264.499	583.31
264.732	605.31
264.964	599.31
265.197	618.31
265.429	579.31
265.661	582.31
265.894	615.31
266.126	684.31
266.358	775.31
266.591	719.31
266.823	641.31
267.055	584.31
267.287	570.31
267.52	538.31
267.752	518.31
267.984	508.31
268.216	520.31
268.448	529.31
268.681	516.31
268.913	526.31
269.145	514.31
269.377	495.31
269.609	486.31
269.841	513.31
270.073	511.31
270.306	626.31
270.538	776.31
270.77	1077.31
271.002	1265.31
271.234	915.31
271.466	686.31
271.698	586.31
271.93	534.31
272.162	534.31
272.394	519.31
272.626	481.31
272.858	500.31
273.09	502.31
273.322	494.31
273.553	501.31
273.785	477.31
274.017	479.31
274.249	475.31
274.481	491.31
274.713	483.31
274.945	494.31
275.176	479.31
275.408	470.31
275.64	497.31
275.872	490.31
276.104	523.31
276.335	509.31
276.567	514.31
276.799	511.31
277.031	494.31
277.262	511.31
277.494	542.31
277.726	574.31
277.957	621.31
278.189	709.31
278.421	655.31
278.652	610.31
278.884	594.31
279.115	540.31
279.347	546.31
279.579	540.31
279.81	537.31
280.042	551.31
280.273	545.31
280.505	537.31
280.736	546.31
280.968	598.31
281.199	624.31
281.431	710.31
281.662	710.31
281.894	646.31
282.125	609.31
282.356	622.31
282.588	617.31
282.819	641.31
283.051	662.31
283.282	719.31
283.513	868.31
283.745	1212.31
283.976	1858.31
284.207	2570.31
284.439	2305.31
284.67	1474.31
284.901	1169.31
285.132	1159.31
285.364	1129.31
285.595	897.31
285.826	858.31
286.057	966.31
286.288	1237.31
286.52	1643.31
286.751	1519.31
286.982	1025.31
287.213	823.31
287.444	736.31
287.675	689.31
287.906	670.31
288.138	679.31
288.369	658.31
288.6	669.31
288.831	652.31
289.062	646.31
289.293	670.31
289.524	691.31
289.755	663.31
289.986	671.31
290.217	653.31
290.448	651.31
290.679	656.31
290.91	687.31
291.141	687.31
291.371	712.31
291.602	754.31
291.833	695.31
292.064	677.31
292.295	659.31
292.526	648.31
292.757	623.31
292.987	644.31
293.218	611.31
293.449	621.31
293.68	629.31
293.91	657.31
294.141	631.31
294.372	599.31
294.603	600.31
294.833	606.31
295.064	605.31
295.295	615.31
295.525	608.31
295.756	607.31
295.987	633.31
296.217	602.31
296.448	626.31
296.679	628.31
296.909	616.31
297.14	630.31
297.37	635.31
297.601	634.31
297.831	614.31
298.062	618.31
298.292	626.31
298.523	630.31
298.753	629.31
298.984	634.31
299.214	657.31
299.445	663.31
299.675	680.31
299.905	695.31
300.136	738.31
300.366	795.31
300.597	937.31
300.827	1259.31
301.057	1631.31
301.288	1589.31
301.518	1102.31
301.748	918.31
301.979	833.31
302.209	844.31
302.439	813.31
302.669	887.31
302.9	1002.31
303.13	1328.31
303.36	1921.31
303.59	2429.31
303.82	2153.31
304.051	1367.31
304.281	1010.31
304.511	889.31
304.741	835.31
304.971	798.31
305.201	768.31
305.431	718.31
305.661	731.31
305.891	719.31
306.121	726.31
306.352	715.31
306.582	714.31
306.812	720.31
307.042	702.31
307.272	721.31
307.502	719.31
307.731	723.31
307.961	719.31
308.191	705.31
308.421	716.31
308.651	696.31
308.881	677.31
309.111	708.31
309.341	706.31
309.571	726.31
309.8	725.31
310.03	714.31
310.26	711.31
310.49	706.31
310.72	690.31
310.949	724.31
311.179	754.31
311.409	749.31
311.639	745.31
311.868	756.31
312.098	738.31
312.328	742.31
312.557	750.31
312.787	775.31
313.017	804.31
313.246	791.31
313.476	772.31
313.706	784.31
313.935	829.31
314.165	840.31
314.394	879.31
314.624	842.31
314.853	803.31
315.083	778.31
315.312	818.31
315.542	817.31
315.771	837.31
316.001	848.31
316.23	883.31
316.46	858.31
316.689	925.31
316.919	1105.31
317.148	1519.31
317.377	2219.31
317.607	3191.31
317.836	3368.31
318.065	2055.31
318.295	1424.31
318.524	1186.31
318.753	1034.31
318.983	990.31
319.212	945.31
319.441	926.31
319.67	913.31
319.9	903.31
320.129	899.31
320.358	887.31
320.587	888.31
320.816	885.31
321.046	887.31
321.275	907.31
321.504	901.31
321.733	949.31
321.962	936.31
322.191	947.31
322.42	936.31
322.649	923.31
322.878	956.31
323.108	951.31
323.337	993.31
323.566	955.31
323.795	967.31
324.024	995.31
324.253	1026.31
324.482	1039.31
324.71	1077.31
324.939	1143.31
325.168	1170.31
325.397	1163.31
325.626	1355.31
325.855	1849.31
326.084	2749.31
326.313	3913.31
326.542	4234.31
326.77	2822.31
326.999	1964.31
327.228	1687.31
327.457	1641.31
327.686	1645.31
327.914	1732.31
328.143	1949.31
328.372	2256.31
328.6	2422.31
328.829	2281.31
329.058	1992.31
329.287	1822.31
329.515	1674.31
329.744	1522.31
329.972	1507.31
330.201	1434.31
330.43	1384.31
330.658	1324.31
330.887	1333.31
331.115	1292.31
331.344	1299.31
331.572	1307.31
331.801	1332.31
332.03	1309.31
332.258	1305.31
332.486	1376.31
332.715	1492.31
332.943	1809.31
333.172	2088.31
333.4	2077.31
333.629	1705.31
333.857	1568.31
334.085	1621.31
334.314	1693.31
334.542	1832.31
334.771	2097.31
334.999	2407.31
335.227	2849.31
335.455	3183.31
335.684	3053.31
335.912	2673.31
336.14	2306.31
336.369	2041.31
336.597	1903.31
336.825	1829.31
337.053	1646.31
337.281	1551.31
337.51	1502.31
337.738	1433.31
337.966	1383.31
338.194	1345.31
338.422	1296.31
338.65	1286.31
338.878	1253.31
339.106	1218.31
339.334	1223.31
339.562	1165.31
339.79	1169.31
340.018	1152.31
340.246	1163.31
340.474	1153.31
340.702	1151.31
340.93	1185.31
341.158	1135.31
341.386	1141.31
341.614	1148.31
341.842	1107.31
342.07	1093.31
342.298	1081.31
342.526	1096.31
342.754	1059.31
342.981	1041.31
343.209	1063.31
343.437	1058.31
343.665	1071.31
343.893	1113.31
344.12	1085.31
344.348	1085.31
344.576	1042.31
344.804	1034.31
345.031	1026.31
345.259	1014.31
345.487	1002.31
345.714	974.31
345.942	984.31
346.17	1009.31
346.397	990.31
346.625	980.31
346.853	980.31
347.08	948.31
347.308	943.31
347.535	1006.31
347.763	927.31
347.99	965.31
348.218	976.31
348.445	946.31
348.673	960.31
348.9	957.31
349.128	968.31
349.355	962.31
349.583	945.31
349.81	930.31
350.037	969.31
350.265	915.31
350.492	937.31
350.72	946.31
350.947	965.31
351.174	934.31
351.402	938.31
351.629	923.31
351.856	918.31
352.083	933.31
352.311	953.31
352.538	956.31
352.765	943.31
352.992	939.31
353.22	925.31
353.447	926.31
353.674	911.31
353.901	924.31
354.128	932.31
354.355	943.31
354.583	954.31
354.81	945.31
355.037	958.31
355.264	967.31
355.491	918.31
355.718	954.31
355.945	952.31
356.172	943.31
356.399	955.31
356.626	948.31
356.853	979.31
357.08	1003.31
357.307	974.31
357.534	1010.31
357.761	978.31
357.988	980.31
358.215	1002.31
358.441	976.31
358.668	989.31
358.895	1015.31
359.122	982.31
359.349	994.31
359.576	977.31
359.802	980.31
360.029	1002.31
360.256	1013.31
360.483	1000.31
360.709	1002.31
360.936	1001.31
361.163	991.31
361.39	1003.31
361.616	1015.31
361.843	997.31
362.07	1017.31
362.296	992.31
362.523	996.31
362.749	965.31
362.976	984.31
363.203	1008.31
363.429	971.31
363.656	997.31
363.882	994.31
364.109	992.31
364.335	977.31
364.562	998.31
364.788	1000.31
365.015	1032.31
365.241	1018.31
365.468	1054.31
365.694	1078.31
365.92	1045.31
366.147	1022.31
366.373	1032.31
366.599	998.31
366.826	1025.31
367.052	1020.31
367.278	997.31
367.505	1032.31
367.731	1013.31
367.957	1021.31
368.184	1019.31
368.41	1031.31
368.636	1042.31
368.862	1045.31
369.089	1027.31
369.315	1033.31
369.541	1019.31
369.767	1070.31
369.993	1011.31
370.219	1041.31
370.445	1053.31
370.672	1059.31
370.898	1054.31
371.124	1043.31
371.35	1106.31
371.576	1066.31
371.802	1103.31
372.028	1091.31
372.254	1080.31
372.48	1095.31
372.706	1118.31
372.932	1114.31
373.158	1064.31
373.384	1107.31
373.61	1105.31
373.835	1109.31
374.061	1093.31
374.287	1114.31
374.513	1093.31
374.739	1128.31
374.965	1135.31
375.191	1134.31
375.416	1103.31
375.642	1105.31
375.868	1081.31
376.094	1112.31
376.319	1082.31
376.545	1103.31
376.771	1057.31
376.997	1077.31
377.222	1111.31
377.448	1065.31
377.674	1051.31
377.899	1049.31
378.125	1081.31
378.35	1074.31
378.576	1080.31
378.802	1064.31
379.027	1084.31
379.253	1117.31
379.478	1173.31
379.704	1298.31
379.929	1682.31
380.155	2395.31
380.38	2575.31
380.606	1717.31
380.831	1315.31
381.057	1213.31
381.282	1122.31
381.507	1073.31
381.733	1102.31
381.958	1081.31
382.184	1093.31
382.409	1087.31
382.634	1044.31
382.86	1056.31
383.085	1076.31
383.31	1061.31
383.535	1057.31
383.761	1065.31
383.986	1079.31
384.211	1104.31
384.436	1087.31
384.662	1087.31
384.887	1106.31
385.112	1098.31
385.337	1075.31
385.562	1086.31
385.787	1087.31
386.013	1090.31
386.238	1098.31
386.463	1102.31
386.688	1071.31
386.913	1100.31
387.138	1120.31
387.363	1104.31
387.588	1112.31
387.813	1092.31
388.038	1084.31
388.263	1099.31
388.488	1093.31
388.713	1088.31
388.938	1090.31
389.163	1114.31
389.387	1113.31
389.612	1092.31
389.837	1097.31
390.062	1080.31
390.287	1107.31
390.512	1103.31
390.736	1110.31
390.961	1150.31
391.186	1119.31
391.411	1159.31
391.636	1171.31
391.86	1191.31
392.085	1160.31
392.31	1163.31
392.534	1153.31
392.759	1154.31
392.984	1129.31
393.208	1149.31
393.433	1107.31
393.658	1113.31
393.882	1104.31
394.107	1101.31
394.331	1142.31
394.556	1098.31
394.78	1153.31
395.005	1123.31
395.229	1121.31
395.454	1152.31
395.678	1161.31
395.903	1138.31
396.127	1158.31
396.352	1117.31
396.576	1143.31
396.801	1131.31
397.025	1145.31
397.249	1151.31
397.474	1169.31
397.698	1163.31
397.922	1151.31
398.147	1174.31
398.371	1220.31
398.595	1191.31
398.82	1217.31
399.044	1283.31
399.268	1341.31
399.492	1410.31
399.717	1449.31
399.941	1436.31
400.165	1403.31
400.389	1336.31
400.613	1292.31
400.837	1285.31
401.062	1286.31
401.286	1205.31
401.51	1214.31
401.734	1212.31
401.958	1244.31
402.182	1210.31
402.406	1262.31
402.63	1233.31
402.854	1218.31
403.078	1264.31
403.302	1256.31
403.526	1242.31
403.75	1252.31
403.974	1263.31
404.198	1242.31
404.422	1269.31
404.645	1253.31
404.869	1295.31
405.093	1274.31
405.317	1264.31
405.541	1261.31
405.765	1319.31
405.988	1296.31
406.212	1321.31
406.436	1279.31
406.66	1307.31
406.883	1347.31
407.107	1319.31
407.331	1372.31
407.555	1373.31
407.778	1352.31
408.002	1343.31
408.226	1345.31
408.449	1346.31
408.673	1280.31
408.896	1283.31
409.12	1264.31
409.344	1282.31
409.567	1284.31
409.791	1289.31
410.014	1279.31
410.238	1251.31
410.461	1249.31
410.685	1270.31
410.908	1242.31
411.132	1238.31
411.355	1208.31
411.578	1221.31
411.802	1222.31
412.025	1234.31
412.249	1213.31
412.472	1224.31
412.695	1210.31
412.919	1213.31
413.142	1199.31
413.365	1189.31
413.589	1204.31
413.812	1197.31
414.035	1182.31
414.258	1198.31
414.482	1202.31
414.705	1189.31
414.928	1209.31
415.151	1196.31
415.374	1224.31
415.597	1138.31
415.821	1178.31
416.044	1133.31
416.267	1133.31
416.49	1156.31
416.713	1169.31
416.936	1184.31
417.159	1149.31
417.382	1185.31
417.605	1170.31
417.828	1149.31
418.051	1159.31
418.274	1154.31
418.497	1161.31
418.72	1189.31
418.943	1151.31
419.166	1189.31
419.389	1241.31
419.611	1264.31
419.834	1213.31
420.057	1174.31
420.28	1174.31
420.503	1154.31
420.726	1145.31
420.948	1139.31
421.171	1128.31
421.394	1173.31
421.617	1149.31
421.839	1155.31
422.062	1134.31
422.285	1169.31
422.507	1181.31
422.73	1189.31
422.953	1189.31
423.175	1182.31
423.398	1159.31
423.621	1157.31
423.843	1184.31
424.066	1191.31
424.288	1167.31
424.511	1161.31
424.733	1176.31
424.956	1154.31
425.178	1138.31
425.401	1143.31
425.623	1177.31
425.846	1112.31
426.068	1135.31
426.291	1116.31
426.513	1117.31
426.735	1118.31
426.958	1092.31
427.18	1070.31
427.402	1079.31
427.625	1093.31
427.847	1058.31
428.069	1076.31
428.292	1093.31
428.514	1065.31
428.736	1077.31
428.958	1085.31
429.181	1049.31
429.403	1061.31
429.625	1082.31
429.847	1083.31
430.069	1084.31
430.292	1117.31
430.514	1139.31
430.736	1121.31
430.958	1096.31
431.18	1053.31
431.402	1069.31
431.624	1057.31
431.846	1029.31
432.068	1041.31
432.29	1067.31
432.512	1048.31
432.734	1033.31
432.956	1061.31
433.178	1057.31
433.4	1087.31
433.622	1075.31
433.844	1096.31
434.066	1056.31
434.287	1084.31
434.509	1060.31
434.731	1108.31
434.953	1089.31
435.175	1091.31
435.397	1129.31
435.618	1102.31
435.84	1088.31
436.062	1049.31
436.284	1089.31
436.505	1060.31
436.727	1057.31
436.949	1065.31
437.17	1027.31
437.392	1039.31
437.614	1036.31
437.835	993.31
438.057	1023.31
438.278	1025.31
438.5	1048.31
438.721	1055.31
438.943	1079.31
439.165	1065.31
439.386	1103.31
439.608	1104.31
439.829	1117.31
440.05	1121.31
440.272	1146.31
440.493	1095.31
440.715	1088.31
440.936	1137.31
441.158	1109.31
441.379	1113.31
441.6	1137.31
441.822	1187.31
442.043	1198.31
442.264	1226.31
442.486	1177.31
442.707	1157.31
442.928	1135.31
443.149	1153.31
443.371	1142.31
443.592	1138.31
443.813	1144.31
444.034	1201.31
444.255	1174.31
444.476	1216.31
444.698	1233.31
444.919	1263.31
445.14	1273.31
445.361	1274.31
445.582	1189.31
445.803	1160.31
446.024	1130.31
446.245	1131.31
446.466	1134.31
446.687	1135.31
446.908	1120.31
447.129	1113.31
447.35	1081.31
447.571	1092.31
447.792	1062.31
448.013	1048.31
448.234	1061.31
448.455	1070.31
448.675	1074.31
448.896	1098.31
449.117	1112.31
449.338	1176.31
449.559	1193.31
449.779	1120.31
450	1037.31
450.221	1033.31
450.442	1048.31
450.662	1039.31
450.883	1049.31
451.104	1018.31
451.324	1017.31
451.545	1033.31
451.766	1057.31
451.986	1053.31
452.207	1088.31
452.428	1266.31
452.648	1668.31
452.869	1449.31
453.089	1141.31
453.31	1095.31
453.53	1102.31
453.751	1157.31
453.971	1167.31
454.192	1145.31
454.412	1048.31
454.633	984.31
454.853	1009.31
455.073	979.31
455.294	972.31
455.514	966.31
455.734	969.31
455.955	968.31
456.175	995.31
456.395	964.31
456.616	971.31
456.836	987.31
457.056	985.31
457.276	1017.31
457.497	1039.31
457.717	1026.31
457.937	1008.31
458.157	1020.31
458.377	1023.31
458.598	1028.31
458.818	1043.31
459.038	1064.31
459.258	1063.31
459.478	1070.31
459.698	1082.31
459.918	1111.31
460.138	1107.31
460.358	1140.31
460.578	1123.31
460.798	1149.31
461.018	1158.31
461.238	1175.31
461.458	1151.31
461.678	1171.31
461.898	1202.31
462.118	1199.31
462.338	1200.31
462.558	1209.31
462.777	1266.31
462.997	1301.31
463.217	1316.31
463.437	1345.31
463.657	1359.31
463.876	1342.31
464.096	1315.31
464.316	1229.31
464.536	1269.31
464.755	1238.31
464.975	1215.31
465.195	1201.31
465.414	1122.31
465.634	1115.31
465.854	1102.31
466.073	1105.31
466.293	1081.31
466.512	1049.31
466.732	1045.31
466.951	1122.31
467.171	1167.31
467.391	1177.31
467.61	1105.31
467.829	1044.31
468.049	1059.31
468.268	1050.31
468.488	1060.31
468.707	1050.31
468.927	1059.31
469.146	1051.31
469.365	1069.31
469.585	1063.31
469.804	1081.31
470.023	1099.31
470.243	1080.31
470.462	1135.31
470.681	1148.31
470.901	1255.31
471.12	1434.31
471.339	1365.31
471.558	1217.31
471.777	1159.31
471.997	1111.31
472.216	1105.31
472.435	1055.31
472.654	1055.31
472.873	1036.31
473.092	1046.31
473.311	1051.31
473.53	1083.31
473.749	1066.31
473.968	1116.31
474.187	1062.31
474.406	1043.31
474.625	1041.31
474.844	1082.31
475.063	1039.31
475.282	1047.31
475.501	1060.31
475.72	1079.31
475.939	1097.31
476.158	1092.31
476.377	1120.31
476.596	1070.31
476.814	1073.31
477.033	1104.31
477.252	1112.31
477.471	1107.31
477.69	1161.31
477.908	1167.31
478.127	1201.31
478.346	1175.31
478.564	1201.31
478.783	1200.31
479.002	1246.31
479.22	1262.31
479.439	1281.31
479.658	1231.31
479.876	1211.31
480.095	1233.31
480.313	1300.31
480.532	1282.31
480.751	1298.31
480.969	1261.31
481.188	1231.31
481.406	1241.31
481.624	1250.31
481.843	1248.31
482.061	1241.31
482.28	1252.31
482.498	1254.31
482.717	1210.31
482.935	1250.31
483.153	1293.31
483.372	1334.31
483.59	1316.31
483.808	1349.31
484.027	1327.31
484.245	1376.31
484.463	1511.31
484.681	1673.31
484.9	1555.31
485.118	1441.31
485.336	1435.31
485.554	1438.31
485.772	1508.31
485.99	1674.31
486.209	1797.31
486.427	1541.31
486.645	1412.31
486.863	1357.31
487.081	1351.31
487.299	1358.31
487.517	1344.31
487.735	1366.31
487.953	1346.31
488.171	1367.31
488.389	1343.31
488.607	1356.31
488.825	1287.31
489.043	1284.31
489.261	1281.31
489.479	1269.31
489.696	1287.31
489.914	1286.31
490.132	1298.31
490.35	1327.31
490.568	1334.31
490.786	1362.31
491.003	1386.31
491.221	1402.31
491.439	1399.31
491.657	1381.31
491.874	1427.31
492.092	1448.31
492.31	1465.31
