Data from SnStandardFlinnAPT0064_QswitchEnergy10_LIBS07252019.E.O._I.C._HRD10591_15-26-28-974.txt Node
Date: Thu Jul 25 15:26:28 EDT 2019
User: cochatt
Spectrometer: HR+D1059
Trigger mode: 1
Integration Time (sec): 1.000000E-1
Scans to average: 1
Electric dark correction enabled: true
Nonlinearity correction enabled: false
Boxcar width: 0
XAxis mode: Wavelengths
Number of Pixels in Spectrum: 2048
>>>>>Begin Spectral Data<<<<<
223.165	-21.06
223.4	-21.06
223.635	-21.06
223.869	-19.06
224.104	-28.06
224.338	-15.06
224.573	-18.06
224.808	-12.06
225.042	-7.06
225.277	-14.06
225.511	-15.06
225.746	-0.06
225.98	20.94
226.215	24.94
226.449	18.94
226.683	10.94
226.918	31.94
227.152	41.94
227.387	24.94
227.621	33.94
227.856	30.94
228.09	42.94
228.324	43.94
228.559	49.94
228.793	55.94
229.027	71.94
229.262	58.94
229.496	78.94
229.73	80.94
229.964	73.94
230.199	83.94
230.433	82.94
230.667	68.94
230.901	87.94
231.136	73.94
231.37	83.94
231.604	72.94
231.838	104.94
232.072	102.94
232.306	115.94
232.541	109.94
232.775	92.94
233.009	77.94
233.243	85.94
233.477	88.94
233.711	86.94
233.945	100.94
234.179	78.94
234.413	83.94
234.647	83.94
234.881	102.94
235.115	87.94
235.349	101.94
235.583	101.94
235.817	115.94
236.051	117.94
236.285	90.94
236.519	83.94
236.753	82.94
236.987	79.94
237.221	69.94
237.455	80.94
237.689	78.94
237.922	78.94
238.156	73.94
238.39	78.94
238.624	74.94
238.858	80.94
239.091	80.94
239.325	72.94
239.559	62.94
239.793	84.94
240.027	88.94
240.26	64.94
240.494	83.94
240.728	83.94
240.961	80.94
241.195	83.94
241.429	95.94
241.662	96.94
241.896	80.94
242.13	100.94
242.363	116.94
242.597	155.94
242.83	121.94
243.064	117.94
243.298	145.94
243.531	128.94
243.765	81.94
243.998	96.94
244.232	89.94
244.465	73.94
244.699	84.94
244.932	93.94
245.166	82.94
245.399	69.94
245.633	92.94
245.866	77.94
246.099	81.94
246.333	79.94
246.566	67.94
246.8	79.94
247.033	86.94
247.266	79.94
247.5	90.94
247.733	64.94
247.966	75.94
248.2	92.94
248.433	97.94
248.666	113.94
248.899	98.94
249.133	80.94
249.366	92.94
249.599	98.94
249.832	108.94
250.066	111.94
250.299	77.94
250.532	85.94
250.765	85.94
250.998	95.94
251.231	80.94
251.465	92.94
251.698	74.94
251.931	70.94
252.164	84.94
252.397	77.94
252.63	88.94
252.863	86.94
253.096	83.94
253.329	93.94
253.562	102.94
253.795	79.94
254.028	95.94
254.261	80.94
254.494	92.94
254.727	115.94
254.96	121.94
255.193	121.94
255.426	104.94
255.659	83.94
255.892	95.94
256.124	96.94
256.357	94.94
256.59	95.94
256.823	83.94
257.056	103.94
257.289	137.94
257.521	149.94
257.754	110.94
257.987	82.94
258.22	89.94
258.452	95.94
258.685	97.94
258.918	100.94
259.151	88.94
259.383	120.94
259.616	97.94
259.849	135.94
260.081	91.94
260.314	85.94
260.547	87.94
260.779	80.94
261.012	75.94
261.244	82.94
261.477	88.94
261.71	81.94
261.942	83.94
262.175	84.94
262.407	76.94
262.64	77.94
262.872	101.94
263.105	81.94
263.337	79.94
263.57	100.94
263.802	95.94
264.035	82.94
264.267	91.94
264.499	86.94
264.732	71.94
264.964	87.94
265.197	87.94
265.429	82.94
265.661	91.94
265.894	89.94
266.126	114.94
266.358	148.94
266.591	121.94
266.823	81.94
267.055	84.94
267.287	76.94
267.52	76.94
267.752	83.94
267.984	97.94
268.216	94.94
268.448	109.94
268.681	101.94
268.913	79.94
269.145	88.94
269.377	89.94
269.609	92.94
269.841	91.94
270.073	107.94
270.306	117.94
270.538	155.94
270.77	287.94
271.002	321.94
271.234	169.94
271.466	102.94
271.698	95.94
271.93	89.94
272.162	94.94
272.394	86.94
272.626	89.94
272.858	101.94
273.09	72.94
273.322	81.94
273.553	87.94
273.785	81.94
274.017	72.94
274.249	84.94
274.481	108.94
274.713	87.94
274.945	102.94
275.176	85.94
275.408	86.94
275.64	84.94
275.872	94.94
276.104	96.94
276.335	108.94
276.567	89.94
276.799	86.94
277.031	94.94
277.262	88.94
277.494	104.94
277.726	120.94
277.957	171.94
278.189	204.94
278.421	194.94
278.652	171.94
278.884	164.94
279.115	131.94
279.347	94.94
279.579	90.94
279.81	95.94
280.042	91.94
280.273	103.94
280.505	101.94
280.736	116.94
280.968	116.94
281.199	157.94
281.431	205.94
281.662	232.94
281.894	148.94
282.125	96.94
282.356	97.94
282.588	99.94
282.819	108.94
283.051	103.94
283.282	129.94
283.513	170.94
283.745	270.94
283.976	446.94
284.207	621.94
284.439	470.94
284.67	223.94
284.901	197.94
285.132	271.94
285.364	304.94
285.595	187.94
285.826	149.94
286.057	207.94
286.288	336.94
286.52	480.94
286.751	377.94
286.982	174.94
287.213	110.94
287.444	101.94
287.675	85.94
287.906	91.94
288.138	100.94
288.369	100.94
288.6	91.94
288.831	88.94
289.062	79.94
289.293	98.94
289.524	91.94
289.755	88.94
289.986	83.94
290.217	88.94
290.448	100.94
290.679	96.94
290.91	110.94
291.141	155.94
291.371	207.94
291.602	258.94
291.833	171.94
292.064	102.94
292.295	102.94
292.526	93.94
292.757	96.94
292.987	91.94
293.218	87.94
293.449	85.94
293.68	88.94
293.91	93.94
294.141	83.94
294.372	99.94
294.603	83.94
294.833	92.94
295.064	104.94
295.295	102.94
295.525	90.94
295.756	95.94
295.987	88.94
296.217	92.94
296.448	87.94
296.679	91.94
296.909	87.94
297.14	82.94
297.37	95.94
297.601	88.94
297.831	88.94
298.062	92.94
298.292	97.94
298.523	92.94
298.753	89.94
298.984	76.94
299.214	84.94
299.445	98.94
299.675	96.94
299.905	116.94
300.136	122.94
300.366	141.94
300.597	233.94
300.827	371.94
301.057	536.94
301.288	484.94
301.518	216.94
301.748	121.94
301.979	133.94
302.209	136.94
302.439	131.94
302.669	147.94
302.9	226.94
303.13	413.94
303.36	709.94
303.59	935.94
303.82	664.94
304.051	245.94
304.281	151.94
304.511	131.94
304.741	96.94
304.971	108.94
305.201	112.94
305.431	99.94
305.661	110.94
305.891	88.94
306.121	100.94
306.352	101.94
306.582	101.94
306.812	101.94
307.042	112.94
307.272	94.94
307.502	90.94
307.731	106.94
307.961	97.94
308.191	114.94
308.421	87.94
308.651	94.94
308.881	97.94
309.111	114.94
309.341	107.94
309.571	101.94
309.8	112.94
310.03	100.94
310.26	97.94
310.49	97.94
310.72	102.94
310.949	94.94
311.179	112.94
311.409	91.94
311.639	89.94
311.868	100.94
312.098	107.94
312.328	113.94
312.557	101.94
312.787	110.94
313.017	112.94
313.246	123.94
313.476	108.94
313.706	126.94
313.935	134.94
314.165	165.94
314.394	194.94
314.624	161.94
314.853	116.94
315.083	107.94
315.312	112.94
315.542	118.94
315.771	123.94
316.001	126.94
316.23	117.94
316.46	143.94
316.689	143.94
316.919	233.94
317.148	385.94
317.377	699.94
317.607	1156.94
317.836	1060.94
318.065	398.94
318.295	179.94
318.524	146.94
318.753	101.94
318.983	115.94
319.212	113.94
319.441	111.94
319.67	116.94
319.9	107.94
320.129	101.94
320.358	115.94
320.587	105.94
320.816	111.94
321.046	102.94
321.275	111.94
321.504	111.94
321.733	115.94
321.962	134.94
322.191	151.94
322.42	117.94
322.649	98.94
322.878	120.94
323.108	109.94
323.337	121.94
323.566	128.94
323.795	104.94
324.024	126.94
324.253	123.94
324.482	146.94
324.71	207.94
324.939	264.94
325.168	214.94
325.397	160.94
325.626	224.94
325.855	390.94
326.084	750.94
326.313	1246.94
326.542	1231.94
326.77	499.94
326.999	221.94
327.228	185.94
327.457	200.94
327.686	208.94
327.914	147.94
328.143	120.94
328.372	116.94
328.6	122.94
328.829	113.94
329.058	107.94
329.287	98.94
329.515	109.94
329.744	108.94
329.972	100.94
330.201	113.94
330.43	111.94
330.658	107.94
330.887	105.94
331.115	116.94
331.344	100.94
331.572	100.94
331.801	126.94
332.03	113.94
332.258	119.94
332.486	156.94
332.715	235.94
332.943	409.94
333.172	616.94
333.4	533.94
333.629	220.94
333.857	111.94
334.085	102.94
334.314	119.94
334.542	99.94
334.771	109.94
334.999	117.94
335.227	104.94
335.455	101.94
335.684	105.94
335.912	124.94
336.14	117.94
336.369	114.94
336.597	102.94
336.825	97.94
337.053	111.94
337.281	115.94
337.51	108.94
337.738	103.94
337.966	105.94
338.194	97.94
338.422	100.94
338.65	84.94
338.878	108.94
339.106	102.94
339.334	107.94
339.562	117.94
339.79	114.94
340.018	112.94
340.246	100.94
340.474	92.94
340.702	116.94
340.93	118.94
341.158	120.94
341.386	114.94
341.614	102.94
341.842	121.94
342.07	108.94
342.298	97.94
342.526	103.94
342.754	110.94
342.981	111.94
343.209	105.94
343.437	105.94
343.665	103.94
343.893	97.94
344.12	101.94
344.348	94.94
344.576	110.94
344.804	107.94
345.031	96.94
345.259	98.94
345.487	107.94
345.714	107.94
345.942	103.94
346.17	102.94
346.397	105.94
346.625	95.94
346.853	95.94
347.08	89.94
347.308	102.94
347.535	95.94
347.763	109.94
347.99	99.94
348.218	97.94
348.445	95.94
348.673	79.94
348.9	99.94
349.128	104.94
349.355	111.94
349.583	114.94
349.81	112.94
350.037	101.94
350.265	95.94
350.492	96.94
350.72	99.94
350.947	96.94
351.174	117.94
351.402	107.94
351.629	109.94
351.856	103.94
352.083	97.94
352.311	100.94
352.538	102.94
352.765	100.94
352.992	87.94
353.22	94.94
353.447	93.94
353.674	107.94
353.901	91.94
354.128	111.94
354.355	98.94
354.583	99.94
354.81	110.94
355.037	90.94
355.264	95.94
355.491	87.94
355.718	81.94
355.945	112.94
356.172	105.94
356.399	109.94
356.626	104.94
356.853	99.94
357.08	99.94
357.307	90.94
357.534	92.94
357.761	91.94
357.988	93.94
358.215	102.94
358.441	103.94
358.668	99.94
358.895	107.94
359.122	107.94
359.349	113.94
359.576	108.94
359.802	107.94
360.029	112.94
360.256	90.94
360.483	83.94
360.709	115.94
360.936	96.94
361.163	95.94
361.39	111.94
361.616	108.94
361.843	110.94
362.07	106.94
362.296	120.94
362.523	93.94
362.749	94.94
362.976	108.94
363.203	117.94
363.429	91.94
363.656	94.94
363.882	110.94
364.109	117.94
364.335	107.94
364.562	81.94
364.788	103.94
365.015	98.94
365.241	124.94
365.468	174.94
365.694	226.94
365.92	186.94
366.147	124.94
366.373	92.94
366.599	89.94
366.826	104.94
367.052	102.94
367.278	87.94
367.505	89.94
367.731	109.94
367.957	107.94
368.184	94.94
368.41	98.94
368.636	104.94
368.862	101.94
369.089	89.94
369.315	96.94
369.541	103.94
369.767	86.94
369.993	110.94
370.219	98.94
370.445	115.94
370.672	96.94
370.898	107.94
371.124	95.94
371.35	123.94
371.576	108.94
371.802	99.94
372.028	92.94
372.254	98.94
372.48	121.94
372.706	91.94
372.932	99.94
373.158	102.94
373.384	112.94
373.61	104.94
373.835	110.94
374.061	95.94
374.287	110.94
374.513	104.94
374.739	100.94
374.965	96.94
375.191	90.94
375.416	107.94
375.642	105.94
375.868	116.94
376.094	102.94
376.319	97.94
376.545	98.94
376.771	103.94
376.997	99.94
377.222	93.94
377.448	97.94
377.674	99.94
377.899	97.94
378.125	103.94
378.35	92.94
378.576	98.94
378.802	110.94
379.027	112.94
379.253	127.94
379.478	147.94
379.704	255.94
379.929	601.94
380.155	1254.94
380.38	1270.94
380.606	429.94
380.831	156.94
381.057	109.94
381.282	109.94
381.507	105.94
381.733	119.94
381.958	113.94
382.184	124.94
382.409	96.94
382.634	108.94
382.86	102.94
383.085	101.94
383.31	96.94
383.535	90.94
383.761	87.94
383.986	93.94
384.211	102.94
384.436	91.94
384.662	100.94
384.887	96.94
385.112	91.94
385.337	97.94
385.562	99.94
385.787	108.94
386.013	109.94
386.238	99.94
386.463	84.94
386.688	89.94
386.913	100.94
387.138	91.94
387.363	87.94
387.588	100.94
387.813	97.94
388.038	87.94
388.263	102.94
388.488	96.94
388.713	83.94
388.938	94.94
389.163	93.94
389.387	89.94
389.612	90.94
389.837	92.94
390.062	92.94
390.287	94.94
390.512	99.94
390.736	99.94
390.961	91.94
391.186	87.94
391.411	98.94
391.636	100.94
391.86	97.94
392.085	101.94
392.31	102.94
392.534	75.94
392.759	91.94
392.984	96.94
393.208	112.94
393.433	137.94
393.658	122.94
393.882	97.94
394.107	104.94
394.331	89.94
394.556	68.94
394.78	91.94
395.005	92.94
395.229	92.94
395.454	86.94
395.678	86.94
395.903	94.94
396.127	96.94
396.352	102.94
396.576	94.94
396.801	96.94
397.025	120.94
397.249	104.94
397.474	109.94
397.698	95.94
397.922	100.94
398.147	88.94
398.371	93.94
398.595	80.94
398.82	91.94
399.044	85.94
399.268	94.94
399.492	77.94
399.717	99.94
399.941	82.94
400.165	92.94
400.389	81.94
400.613	67.94
400.837	84.94
401.062	94.94
401.286	93.94
401.51	98.94
401.734	99.94
401.958	94.94
402.182	97.94
402.406	109.94
402.63	92.94
402.854	98.94
403.078	95.94
403.302	79.94
403.526	91.94
403.75	92.94
403.974	103.94
404.198	91.94
404.422	92.94
404.645	90.94
404.869	108.94
405.093	109.94
405.317	106.94
405.541	107.94
405.765	108.94
405.988	121.94
406.212	108.94
406.436	88.94
406.66	103.94
406.883	102.94
407.107	91.94
407.331	93.94
407.555	93.94
407.778	90.94
408.002	96.94
408.226	97.94
408.449	88.94
408.673	71.94
408.896	81.94
409.12	101.94
409.344	92.94
409.567	99.94
409.791	97.94
410.014	105.94
410.238	97.94
410.461	82.94
410.685	83.94
410.908	90.94
411.132	104.94
411.355	81.94
411.578	87.94
411.802	92.94
412.025	87.94
412.249	94.94
412.472	96.94
412.695	100.94
412.919	92.94
413.142	95.94
413.365	87.94
413.589	92.94
413.812	92.94
414.035	97.94
414.258	100.94
414.482	76.94
414.705	88.94
414.928	93.94
415.151	93.94
415.374	99.94
415.597	95.94
415.821	101.94
416.044	96.94
416.267	79.94
416.49	108.94
416.713	95.94
416.936	89.94
417.159	93.94
417.382	90.94
417.605	98.94
417.828	108.94
418.051	85.94
418.274	96.94
418.497	100.94
418.72	73.94
418.943	92.94
419.166	102.94
419.389	102.94
419.611	84.94
419.834	95.94
420.057	100.94
420.28	89.94
420.503	97.94
420.726	99.94
420.948	81.94
421.171	97.94
421.394	103.94
421.617	92.94
421.839	85.94
422.062	93.94
422.285	84.94
422.507	88.94
422.73	115.94
422.953	123.94
423.175	100.94
423.398	82.94
423.621	80.94
423.843	103.94
424.066	98.94
424.288	93.94
424.511	99.94
424.733	100.94
424.956	91.94
425.178	95.94
425.401	86.94
425.623	82.94
425.846	89.94
426.068	101.94
426.291	85.94
426.513	84.94
426.735	96.94
426.958	96.94
427.18	93.94
427.402	100.94
427.625	96.94
427.847	99.94
428.069	93.94
428.292	86.94
428.514	96.94
428.736	118.94
428.958	99.94
429.181	90.94
429.403	79.94
429.625	101.94
429.847	95.94
430.069	97.94
430.292	88.94
430.514	107.94
430.736	108.94
430.958	113.94
431.18	90.94
431.402	90.94
431.624	97.94
431.846	106.94
432.068	80.94
432.29	93.94
432.512	94.94
432.734	84.94
432.956	89.94
433.178	83.94
433.4	89.94
433.622	92.94
433.844	97.94
434.066	89.94
434.287	89.94
434.509	83.94
434.731	83.94
434.953	84.94
435.175	74.94
435.397	96.94
435.618	92.94
435.84	86.94
436.062	76.94
436.284	81.94
436.505	96.94
436.727	92.94
436.949	85.94
437.17	104.94
437.392	107.94
437.614	86.94
437.835	89.94
438.057	87.94
438.278	87.94
438.5	81.94
438.721	93.94
438.943	102.94
439.165	111.94
439.386	115.94
439.608	94.94
439.829	94.94
440.05	95.94
440.272	104.94
440.493	87.94
440.715	90.94
440.936	99.94
441.158	83.94
441.379	96.94
441.6	91.94
441.822	93.94
442.043	112.94
442.264	115.94
442.486	88.94
442.707	88.94
442.928	99.94
443.149	107.94
443.371	109.94
443.592	84.94
443.813	91.94
444.034	104.94
444.255	85.94
444.476	92.94
444.698	95.94
444.919	81.94
445.14	207.94
445.361	137.94
445.582	91.94
445.803	107.94
446.024	86.94
446.245	102.94
446.466	105.94
446.687	99.94
446.908	116.94
447.129	102.94
447.35	94.94
447.571	90.94
447.792	85.94
448.013	97.94
448.234	83.94
448.455	97.94
448.675	96.94
448.896	98.94
449.117	99.94
449.338	108.94
449.559	127.94
449.779	101.94
450	95.94
450.221	93.94
450.442	109.94
450.662	113.94
450.883	106.94
451.104	97.94
451.324	100.94
451.545	104.94
451.766	108.94
451.986	119.94
452.207	204.94
452.428	455.94
452.648	1069.94
452.869	631.94
453.089	180.94
453.31	109.94
453.53	118.94
453.751	139.94
453.971	141.94
454.192	123.94
454.412	93.94
454.633	94.94
454.853	73.94
455.073	101.94
455.294	102.94
455.514	95.94
455.734	89.94
455.955	83.94
456.175	80.94
456.395	89.94
456.616	95.94
456.836	87.94
457.056	88.94
457.276	88.94
457.497	99.94
457.717	121.94
457.937	106.94
458.157	99.94
458.377	83.94
458.598	74.94
458.818	102.94
459.038	77.94
459.258	94.94
459.478	79.94
459.698	88.94
459.918	87.94
460.138	82.94
460.358	76.94
460.578	80.94
460.798	95.94
461.018	88.94
461.238	81.94
461.458	88.94
461.678	80.94
461.898	87.94
462.118	99.94
462.338	86.94
462.558	81.94
462.777	92.94
462.997	104.94
463.217	107.94
463.437	124.94
463.657	153.94
463.876	160.94
464.096	113.94
464.316	91.94
464.536	84.94
464.755	94.94
464.975	88.94
465.195	92.94
465.414	95.94
465.634	94.94
465.854	87.94
466.073	100.94
466.293	86.94
466.512	103.94
466.732	107.94
466.951	115.94
467.171	110.94
467.391	117.94
467.61	94.94
467.829	99.94
468.049	89.94
468.268	94.94
468.488	83.94
468.707	86.94
468.927	93.94
469.146	95.94
469.365	90.94
469.585	79.94
469.804	89.94
470.023	93.94
470.243	84.94
470.462	104.94
470.681	112.94
470.901	125.94
471.12	159.94
471.339	187.94
471.558	120.94
471.777	109.94
471.997	104.94
472.216	89.94
472.435	84.94
472.654	95.94
472.873	91.94
473.092	96.94
473.311	83.94
473.53	88.94
473.749	93.94
473.968	110.94
474.187	90.94
474.406	88.94
474.625	87.94
474.844	99.94
475.063	82.94
475.282	99.94
475.501	92.94
475.72	99.94
475.939	93.94
476.158	89.94
476.377	109.94
476.596	88.94
476.814	112.94
477.033	97.94
477.252	114.94
477.471	79.94
477.69	90.94
477.908	97.94
478.127	90.94
478.346	86.94
478.564	101.94
478.783	95.94
479.002	97.94
479.22	96.94
479.439	85.94
479.658	88.94
479.876	101.94
480.095	103.94
480.313	80.94
480.532	87.94
480.751	101.94
480.969	88.94
481.188	85.94
481.406	97.94
481.624	94.94
481.843	108.94
482.061	119.94
482.28	98.94
482.498	92.94
482.717	92.94
482.935	85.94
483.153	94.94
483.372	100.94
483.59	96.94
483.808	94.94
484.027	118.94
484.245	107.94
484.463	155.94
484.681	186.94
484.9	126.94
485.118	107.94
485.336	96.94
485.554	104.94
485.772	111.94
485.99	163.94
486.209	199.94
486.427	151.94
486.645	99.94
486.863	94.94
487.081	94.94
487.299	88.94
487.517	104.94
487.735	101.94
487.953	96.94
488.171	99.94
488.389	89.94
488.607	97.94
488.825	90.94
489.043	98.94
489.261	83.94
489.479	77.94
489.696	98.94
489.914	94.94
490.132	83.94
490.35	100.94
490.568	100.94
490.786	100.94
491.003	96.94
491.221	99.94
491.439	104.94
491.657	93.94
491.874	104.94
492.092	104.94
492.31	110.94
492.527	101.94
492.745	102.94
492.963	88.94
493.18	108.94
493.398	90.94
493.615	115.94
493.833	102.94
494.05	77.94
494.268	86.94
494.485	92.94
494.703	90.94
494.92	92.94
495.138	92.94
495.355	95.94
495.573	97.94
495.79	108.94
496.008	117.94
496.225	90.94
496.442	97.94
496.66	110.94
496.877	131.94
497.094	132.94
497.312	107.94
497.529	104.94
497.746	102.94
497.963	98.94
498.181	99.94
498.398	110.94
498.615	111.94
498.832	107.94
499.049	104.94
499.267	121.94
499.484	135.94
499.701	120.94
499.918	81.94
500.135	87.94
500.352	112.94
500.569	84.94
500.786	91.94
501.003	99.94
501.22	91.94
501.437	109.94
501.654	90.94
501.871	92.94
502.088	91.94
502.305	91.94
502.522	84.94
502.739	96.94
502.956	106.94
503.172	102.94
503.389	93.94
503.606	100.94
503.823	108.94
504.04	106.94
504.256	97.94
504.473	94.94
504.69	82.94
504.907	109.94
505.123	103.94
505.34	97.94
505.557	100.94
505.773	95.94
505.99	91.94
506.207	102.94
506.423	100.94
506.64	102.94
506.856	104.94
507.073	93.94
507.289	93.94
507.506	100.94
507.722	77.94
507.939	93.94
508.155	90.94
508.372	96.94
508.588	103.94
508.805	98.94
509.021	85.94
509.238	98.94
509.454	125.94
509.67	150.94
509.887	104.94
510.103	101.94
510.319	99.94
510.536	86.94
510.752	118.94
510.968	96.94
511.184	95.94
