Data from SnStandardFlinnAPT0064_QswitchEnergy10_LIBS07252019.E.O._I.C._HRD10591_15-27-14-973.txt Node
Date: Thu Jul 25 15:27:14 EDT 2019
User: cochatt
Spectrometer: HR+D1059
Trigger mode: 1
Integration Time (sec): 1.000000E-1
Scans to average: 1
Electric dark correction enabled: true
Nonlinearity correction enabled: false
Boxcar width: 0
XAxis mode: Wavelengths
Number of Pixels in Spectrum: 2048
>>>>>Begin Spectral Data<<<<<
223.165	-12.25
223.4	-12.25
223.635	-12.25
223.869	-17.25
224.104	-11.25
224.338	-15.25
224.573	-21.25
224.808	-18.25
225.042	-7.25
225.277	-20.25
225.511	-13.25
225.746	16.75
225.98	12.75
226.215	15.75
226.449	12.75
226.683	21.75
226.918	23.75
227.152	32.75
227.387	31.75
227.621	29.75
227.856	42.75
228.09	24.75
228.324	40.75
228.559	78.75
228.793	59.75
229.027	67.75
229.262	80.75
229.496	58.75
229.73	70.75
229.964	82.75
230.199	82.75
230.433	73.75
230.667	83.75
230.901	84.75
231.136	77.75
231.37	82.75
231.604	83.75
231.838	104.75
232.072	104.75
232.306	125.75
232.541	98.75
232.775	89.75
233.009	96.75
233.243	79.75
233.477	110.75
233.711	97.75
233.945	107.75
234.179	103.75
234.413	94.75
234.647	97.75
234.881	93.75
235.115	84.75
235.349	95.75
235.583	107.75
235.817	137.75
236.051	123.75
236.285	95.75
236.519	97.75
236.753	88.75
236.987	83.75
237.221	76.75
237.455	90.75
237.689	80.75
237.922	86.75
238.156	69.75
238.39	88.75
238.624	82.75
238.858	84.75
239.091	84.75
239.325	70.75
239.559	83.75
239.793	74.75
240.027	108.75
240.26	74.75
240.494	84.75
240.728	90.75
240.961	83.75
241.195	100.75
241.429	94.75
241.662	76.75
241.896	84.75
242.13	98.75
242.363	123.75
242.597	152.75
242.83	131.75
243.064	139.75
243.298	180.75
243.531	143.75
243.765	96.75
243.998	91.75
244.232	85.75
244.465	72.75
244.699	88.75
244.932	83.75
245.166	69.75
245.399	75.75
245.633	85.75
245.866	99.75
246.099	86.75
246.333	77.75
246.566	76.75
246.8	72.75
247.033	76.75
247.266	87.75
247.5	90.75
247.733	84.75
247.966	88.75
248.2	85.75
248.433	106.75
248.666	131.75
248.899	112.75
249.133	102.75
249.366	90.75
249.599	103.75
249.832	123.75
250.066	123.75
250.299	85.75
250.532	93.75
250.765	82.75
250.998	83.75
251.231	88.75
251.465	76.75
251.698	75.75
251.931	86.75
252.164	97.75
252.397	85.75
252.63	106.75
252.863	92.75
253.096	82.75
253.329	104.75
253.562	90.75
253.795	90.75
254.028	81.75
254.261	86.75
254.494	88.75
254.727	113.75
254.96	137.75
255.193	122.75
255.426	92.75
255.659	86.75
255.892	110.75
256.124	85.75
256.357	81.75
256.59	85.75
256.823	103.75
257.056	113.75
257.289	152.75
257.521	162.75
257.754	125.75
257.987	96.75
258.22	91.75
258.452	97.75
258.685	96.75
258.918	89.75
259.151	106.75
259.383	106.75
259.616	136.75
259.849	125.75
260.081	112.75
260.314	85.75
260.547	78.75
260.779	90.75
261.012	83.75
261.244	81.75
261.477	99.75
261.71	90.75
261.942	89.75
262.175	82.75
262.407	83.75
262.64	96.75
262.872	98.75
263.105	89.75
263.337	90.75
263.57	83.75
263.802	84.75
264.035	91.75
264.267	78.75
264.499	89.75
264.732	90.75
264.964	82.75
265.197	74.75
265.429	85.75
265.661	82.75
265.894	102.75
266.126	127.75
266.358	134.75
266.591	153.75
266.823	94.75
267.055	79.75
267.287	97.75
267.52	85.75
267.752	81.75
267.984	92.75
268.216	82.75
268.448	93.75
268.681	85.75
268.913	83.75
269.145	88.75
269.377	96.75
269.609	85.75
269.841	90.75
270.073	91.75
270.306	132.75
270.538	180.75
270.77	316.75
271.002	329.75
271.234	188.75
271.466	109.75
271.698	96.75
271.93	97.75
272.162	100.75
272.394	86.75
272.626	77.75
272.858	74.75
273.09	84.75
273.322	102.75
273.553	85.75
273.785	86.75
274.017	86.75
274.249	101.75
274.481	89.75
274.713	74.75
274.945	85.75
275.176	84.75
275.408	89.75
275.64	91.75
275.872	89.75
276.104	100.75
276.335	92.75
276.567	105.75
276.799	94.75
277.031	94.75
277.262	97.75
277.494	108.75
277.726	114.75
277.957	172.75
278.189	245.75
278.421	220.75
278.652	163.75
278.884	168.75
279.115	128.75
279.347	107.75
279.579	94.75
279.81	96.75
280.042	91.75
280.273	99.75
280.505	111.75
280.736	111.75
280.968	120.75
281.199	161.75
281.431	215.75
281.662	235.75
281.894	135.75
282.125	125.75
282.356	99.75
282.588	93.75
282.819	99.75
283.051	118.75
283.282	134.75
283.513	183.75
283.745	282.75
283.976	484.75
284.207	709.75
284.439	531.75
284.67	245.75
284.901	235.75
285.132	288.75
285.364	354.75
285.595	218.75
285.826	166.75
286.057	224.75
286.288	376.75
286.52	549.75
286.751	453.75
286.982	174.75
287.213	107.75
287.444	104.75
287.675	118.75
287.906	110.75
288.138	88.75
288.369	92.75
288.6	92.75
288.831	94.75
289.062	87.75
289.293	104.75
289.524	98.75
289.755	98.75
289.986	97.75
290.217	105.75
290.448	96.75
290.679	96.75
290.91	122.75
291.141	142.75
291.371	203.75
291.602	262.75
291.833	190.75
292.064	117.75
292.295	90.75
292.526	88.75
292.757	84.75
292.987	116.75
293.218	94.75
293.449	98.75
293.68	85.75
293.91	99.75
294.141	83.75
294.372	86.75
294.603	103.75
294.833	104.75
295.064	95.75
295.295	92.75
295.525	86.75
295.756	96.75
295.987	98.75
296.217	101.75
296.448	90.75
296.679	85.75
296.909	101.75
297.14	104.75
297.37	109.75
297.601	91.75
297.831	101.75
298.062	97.75
298.292	95.75
298.523	99.75
298.753	78.75
298.984	107.75
299.214	107.75
299.445	107.75
299.675	117.75
299.905	124.75
300.136	136.75
300.366	164.75
300.597	240.75
300.827	411.75
301.057	621.75
301.288	570.75
301.518	239.75
301.748	150.75
301.979	124.75
302.209	128.75
302.439	142.75
302.669	140.75
302.9	244.75
303.13	438.75
303.36	795.75
303.59	1072.75
303.82	754.75
304.051	276.75
304.281	150.75
304.511	121.75
304.741	99.75
304.971	98.75
305.201	109.75
305.431	116.75
305.661	96.75
305.891	120.75
306.121	108.75
306.352	112.75
306.582	118.75
306.812	115.75
307.042	122.75
307.272	110.75
307.502	111.75
307.731	96.75
307.961	100.75
308.191	94.75
308.421	110.75
308.651	98.75
308.881	128.75
309.111	107.75
309.341	111.75
309.571	106.75
309.8	116.75
310.03	116.75
310.26	102.75
310.49	104.75
310.72	105.75
310.949	106.75
311.179	121.75
311.409	105.75
311.639	100.75
311.868	97.75
312.098	120.75
312.328	102.75
312.557	109.75
312.787	112.75
313.017	105.75
313.246	124.75
313.476	120.75
313.706	134.75
313.935	153.75
314.165	188.75
314.394	195.75
314.624	180.75
314.853	120.75
315.083	124.75
315.312	136.75
315.542	136.75
315.771	108.75
316.001	130.75
316.23	140.75
316.46	146.75
316.689	173.75
316.919	222.75
317.148	460.75
317.377	811.75
317.607	1328.75
317.836	1238.75
318.065	500.75
318.295	206.75
318.524	146.75
318.753	136.75
318.983	122.75
319.212	130.75
319.441	120.75
319.67	129.75
319.9	137.75
320.129	118.75
320.358	116.75
320.587	113.75
320.816	109.75
321.046	115.75
321.275	123.75
321.504	126.75
321.733	142.75
321.962	154.75
322.191	132.75
322.42	137.75
322.649	115.75
322.878	124.75
323.108	132.75
323.337	118.75
323.566	116.75
323.795	123.75
324.024	129.75
324.253	134.75
324.482	161.75
324.71	203.75
324.939	256.75
325.168	222.75
325.397	175.75
325.626	245.75
325.855	454.75
326.084	858.75
326.313	1424.75
326.542	1379.75
326.77	556.75
326.999	246.75
327.228	191.75
327.457	225.75
327.686	206.75
327.914	162.75
328.143	142.75
328.372	120.75
328.6	124.75
328.829	108.75
329.058	122.75
329.287	99.75
329.515	102.75
329.744	105.75
329.972	116.75
330.201	112.75
330.43	109.75
330.658	110.75
330.887	101.75
331.115	110.75
331.344	113.75
331.572	100.75
331.801	101.75
332.03	138.75
332.258	138.75
332.486	168.75
332.715	260.75
332.943	449.75
333.172	698.75
333.4	616.75
333.629	237.75
333.857	132.75
334.085	126.75
334.314	120.75
334.542	124.75
334.771	131.75
334.999	122.75
335.227	112.75
335.455	122.75
335.684	132.75
335.912	106.75
336.14	109.75
336.369	113.75
336.597	112.75
336.825	97.75
337.053	112.75
337.281	113.75
337.51	97.75
337.738	112.75
337.966	100.75
338.194	103.75
338.422	107.75
338.65	109.75
338.878	113.75
339.106	126.75
339.334	117.75
339.562	120.75
339.79	112.75
340.018	124.75
340.246	117.75
340.474	119.75
340.702	107.75
340.93	121.75
341.158	121.75
341.386	114.75
341.614	105.75
341.842	124.75
342.07	115.75
342.298	108.75
342.526	119.75
342.754	112.75
342.981	112.75
343.209	123.75
343.437	102.75
343.665	105.75
343.893	117.75
344.12	108.75
344.348	110.75
344.576	108.75
344.804	99.75
345.031	93.75
345.259	104.75
345.487	106.75
345.714	98.75
345.942	103.75
346.17	94.75
346.397	103.75
346.625	102.75
346.853	96.75
347.08	107.75
347.308	103.75
347.535	116.75
347.763	104.75
347.99	101.75
348.218	102.75
348.445	107.75
348.673	120.75
348.9	130.75
349.128	125.75
349.355	118.75
349.583	104.75
349.81	106.75
350.037	128.75
350.265	126.75
350.492	108.75
350.72	108.75
350.947	119.75
351.174	118.75
351.402	92.75
351.629	117.75
351.856	108.75
352.083	100.75
352.311	121.75
352.538	102.75
352.765	110.75
352.992	112.75
353.22	92.75
353.447	100.75
353.674	105.75
353.901	91.75
354.128	113.75
354.355	108.75
354.583	92.75
354.81	96.75
355.037	105.75
355.264	106.75
355.491	107.75
355.718	105.75
355.945	92.75
356.172	100.75
356.399	91.75
356.626	94.75
356.853	102.75
357.08	102.75
357.307	116.75
357.534	115.75
357.761	109.75
357.988	103.75
358.215	109.75
358.441	113.75
358.668	113.75
358.895	129.75
359.122	98.75
359.349	118.75
359.576	116.75
359.802	109.75
360.029	118.75
360.256	124.75
360.483	103.75
360.709	108.75
360.936	116.75
361.163	107.75
361.39	95.75
361.616	109.75
361.843	102.75
362.07	112.75
362.296	103.75
362.523	106.75
362.749	109.75
362.976	107.75
363.203	120.75
363.429	101.75
363.656	115.75
363.882	113.75
364.109	118.75
364.335	134.75
364.562	106.75
364.788	89.75
365.015	103.75
365.241	124.75
365.468	153.75
365.694	219.75
365.92	194.75
366.147	110.75
366.373	99.75
366.599	97.75
366.826	114.75
367.052	104.75
367.278	86.75
367.505	94.75
367.731	110.75
367.957	108.75
368.184	116.75
368.41	108.75
368.636	109.75
368.862	99.75
369.089	109.75
369.315	103.75
369.541	119.75
369.767	101.75
369.993	98.75
370.219	100.75
370.445	92.75
370.672	114.75
370.898	117.75
371.124	123.75
371.35	108.75
371.576	101.75
371.802	112.75
372.028	106.75
372.254	105.75
372.48	110.75
372.706	112.75
372.932	108.75
373.158	117.75
373.384	108.75
373.61	116.75
373.835	120.75
374.061	114.75
374.287	103.75
374.513	122.75
374.739	104.75
374.965	113.75
375.191	110.75
375.416	102.75
375.642	102.75
375.868	98.75
376.094	113.75
376.319	103.75
376.545	117.75
376.771	102.75
376.997	118.75
377.222	106.75
377.448	95.75
377.674	103.75
377.899	116.75
378.125	104.75
378.35	115.75
378.576	118.75
378.802	125.75
379.027	132.75
379.253	149.75
379.478	170.75
379.704	298.75
379.929	683.75
380.155	1418.75
380.38	1422.75
380.606	467.75
380.831	194.75
381.057	117.75
381.282	109.75
381.507	106.75
381.733	91.75
381.958	103.75
382.184	115.75
382.409	113.75
382.634	99.75
382.86	106.75
383.085	106.75
383.31	107.75
383.535	118.75
383.761	104.75
383.986	98.75
384.211	119.75
384.436	103.75
384.662	108.75
384.887	99.75
385.112	99.75
385.337	106.75
385.562	119.75
385.787	112.75
386.013	106.75
386.238	99.75
386.463	116.75
386.688	91.75
386.913	120.75
387.138	105.75
387.363	100.75
387.588	90.75
387.813	105.75
388.038	97.75
388.263	83.75
388.488	104.75
388.713	104.75
388.938	104.75
389.163	91.75
389.387	93.75
389.612	96.75
389.837	104.75
390.062	98.75
390.287	114.75
390.512	98.75
390.736	99.75
390.961	111.75
391.186	85.75
391.411	106.75
391.636	110.75
391.86	96.75
392.085	104.75
392.31	105.75
392.534	105.75
392.759	122.75
392.984	99.75
393.208	110.75
393.433	118.75
393.658	119.75
393.882	89.75
394.107	101.75
394.331	103.75
394.556	93.75
394.78	80.75
395.005	96.75
395.229	110.75
395.454	98.75
395.678	96.75
395.903	106.75
396.127	110.75
396.352	112.75
396.576	95.75
396.801	109.75
397.025	111.75
397.249	112.75
397.474	109.75
397.698	102.75
397.922	102.75
398.147	99.75
398.371	113.75
398.595	112.75
398.82	108.75
399.044	108.75
399.268	93.75
399.492	101.75
399.717	98.75
399.941	102.75
400.165	98.75
400.389	99.75
400.613	98.75
400.837	98.75
401.062	113.75
401.286	99.75
401.51	89.75
401.734	82.75
401.958	87.75
402.182	88.75
402.406	96.75
402.63	106.75
402.854	94.75
403.078	98.75
403.302	86.75
403.526	103.75
403.75	115.75
403.974	98.75
404.198	87.75
404.422	105.75
404.645	94.75
404.869	89.75
405.093	95.75
405.317	104.75
405.541	103.75
405.765	138.75
405.988	144.75
406.212	109.75
406.436	102.75
406.66	98.75
406.883	109.75
407.107	102.75
407.331	86.75
407.555	103.75
407.778	92.75
408.002	96.75
408.226	97.75
408.449	91.75
408.673	98.75
408.896	104.75
409.12	106.75
409.344	95.75
409.567	90.75
409.791	98.75
410.014	97.75
410.238	99.75
410.461	111.75
410.685	111.75
410.908	85.75
411.132	101.75
411.355	95.75
411.578	101.75
411.802	94.75
412.025	101.75
412.249	101.75
412.472	110.75
412.695	100.75
412.919	101.75
413.142	97.75
413.365	92.75
413.589	96.75
413.812	102.75
414.035	124.75
414.258	114.75
414.482	95.75
414.705	103.75
414.928	99.75
415.151	96.75
415.374	96.75
415.597	97.75
415.821	98.75
416.044	99.75
416.267	96.75
416.49	97.75
416.713	89.75
416.936	95.75
417.159	94.75
417.382	89.75
417.605	98.75
417.828	86.75
418.051	97.75
418.274	98.75
418.497	93.75
418.72	102.75
418.943	114.75
419.166	101.75
419.389	96.75
419.611	94.75
419.834	107.75
420.057	92.75
420.28	89.75
420.503	111.75
420.726	109.75
420.948	87.75
421.171	79.75
421.394	97.75
421.617	90.75
421.839	92.75
422.062	110.75
422.285	103.75
422.507	90.75
422.73	120.75
422.953	116.75
423.175	85.75
423.398	92.75
423.621	98.75
423.843	101.75
424.066	96.75
424.288	96.75
424.511	97.75
424.733	100.75
424.956	100.75
425.178	100.75
425.401	89.75
425.623	90.75
425.846	94.75
426.068	100.75
426.291	89.75
426.513	100.75
426.735	99.75
426.958	88.75
427.18	96.75
427.402	108.75
427.625	85.75
427.847	99.75
428.069	95.75
428.292	102.75
428.514	106.75
428.736	95.75
428.958	83.75
429.181	93.75
429.403	87.75
429.625	104.75
429.847	99.75
430.069	98.75
430.292	103.75
430.514	104.75
430.736	104.75
430.958	87.75
431.18	99.75
431.402	112.75
431.624	97.75
431.846	82.75
432.068	109.75
432.29	86.75
432.512	92.75
432.734	78.75
432.956	102.75
433.178	92.75
433.4	107.75
433.622	98.75
433.844	98.75
434.066	90.75
434.287	89.75
434.509	90.75
434.731	91.75
434.953	99.75
435.175	87.75
435.397	94.75
435.618	103.75
435.84	91.75
436.062	89.75
436.284	94.75
436.505	96.75
436.727	96.75
436.949	89.75
437.17	104.75
437.392	105.75
437.614	92.75
437.835	87.75
438.057	101.75
438.278	93.75
438.5	109.75
438.721	126.75
438.943	104.75
439.165	112.75
439.386	113.75
439.608	106.75
439.829	97.75
440.05	117.75
440.272	128.75
440.493	108.75
440.715	98.75
440.936	101.75
441.158	101.75
441.379	96.75
441.6	97.75
441.822	101.75
442.043	123.75
442.264	133.75
442.486	112.75
442.707	104.75
442.928	95.75
443.149	83.75
443.371	82.75
443.592	102.75
443.813	97.75
444.034	95.75
444.255	94.75
444.476	102.75
444.698	93.75
444.919	96.75
445.14	235.75
445.361	163.75
445.582	103.75
445.803	96.75
446.024	82.75
446.245	117.75
446.466	104.75
446.687	97.75
446.908	106.75
447.129	97.75
447.35	97.75
447.571	97.75
447.792	109.75
448.013	91.75
448.234	93.75
448.455	93.75
448.675	100.75
448.896	89.75
449.117	105.75
449.338	126.75
449.559	148.75
449.779	102.75
450	96.75
450.221	124.75
450.442	110.75
450.662	103.75
450.883	110.75
451.104	103.75
451.324	130.75
451.545	124.75
451.766	118.75
451.986	130.75
452.207	197.75
452.428	489.75
452.648	1154.75
452.869	681.75
453.089	196.75
453.31	126.75
453.53	119.75
453.751	134.75
453.971	150.75
454.192	154.75
454.412	106.75
454.633	98.75
454.853	85.75
455.073	106.75
455.294	80.75
455.514	87.75
455.734	88.75
455.955	83.75
456.175	93.75
456.395	86.75
456.616	104.75
456.836	105.75
457.056	105.75
457.276	101.75
457.497	106.75
457.717	117.75
457.937	97.75
458.157	100.75
458.377	103.75
458.598	93.75
458.818	82.75
459.038	86.75
459.258	90.75
459.478	93.75
459.698	94.75
459.918	98.75
460.138	101.75
460.358	95.75
460.578	93.75
460.798	96.75
461.018	102.75
461.238	78.75
461.458	98.75
461.678	80.75
461.898	88.75
462.118	84.75
462.338	90.75
462.558	98.75
462.777	108.75
462.997	96.75
463.217	98.75
463.437	120.75
463.657	170.75
463.876	166.75
464.096	108.75
464.316	93.75
464.536	92.75
464.755	99.75
464.975	99.75
465.195	92.75
465.414	92.75
465.634	97.75
465.854	94.75
466.073	91.75
466.293	102.75
466.512	85.75
466.732	106.75
466.951	112.75
467.171	146.75
467.391	137.75
467.61	102.75
467.829	92.75
468.049	85.75
468.268	106.75
468.488	93.75
468.707	94.75
468.927	95.75
469.146	96.75
469.365	93.75
469.585	99.75
469.804	109.75
470.023	99.75
470.243	97.75
470.462	107.75
470.681	116.75
470.901	122.75
471.12	182.75
471.339	194.75
471.558	124.75
471.777	102.75
471.997	102.75
472.216	102.75
472.435	90.75
472.654	88.75
472.873	112.75
473.092	87.75
473.311	94.75
473.53	90.75
473.749	90.75
473.968	98.75
474.187	104.75
474.406	102.75
474.625	93.75
474.844	94.75
475.063	97.75
475.282	99.75
475.501	105.75
475.72	86.75
475.939	99.75
476.158	105.75
476.377	116.75
476.596	118.75
476.814	95.75
477.033	82.75
477.252	87.75
477.471	97.75
477.69	100.75
477.908	87.75
478.127	104.75
478.346	110.75
478.564	98.75
478.783	103.75
479.002	87.75
479.22	85.75
479.439	99.75
479.658	85.75
479.876	75.75
480.095	86.75
480.313	95.75
480.532	96.75
480.751	101.75
480.969	91.75
481.188	101.75
481.406	91.75
481.624	94.75
481.843	113.75
482.061	94.75
482.28	114.75
482.498	94.75
482.717	103.75
482.935	109.75
483.153	108.75
483.372	94.75
483.59	96.75
483.808	84.75
484.027	101.75
484.245	111.75
484.463	173.75
484.681	213.75
484.9	141.75
485.118	125.75
485.336	115.75
485.554	113.75
485.772	123.75
485.99	173.75
486.209	218.75
486.427	166.75
486.645	128.75
486.863	131.75
487.081	106.75
487.299	104.75
487.517	97.75
487.735	91.75
487.953	92.75
488.171	99.75
488.389	102.75
488.607	110.75
488.825	105.75
489.043	106.75
489.261	97.75
489.479	95.75
489.696	90.75
489.914	100.75
490.132	92.75
490.35	102.75
490.568	90.75
490.786	103.75
491.003	109.75
491.221	110.75
491.439	124.75
491.657	96.75
491.874	92.75
492.092	102.75
492.31	105.75
492.527	94.75
492.745	101.75
492.963	114.75
493.18	114.75
493.398	96.75
493.615	89.75
493.833	89.75
494.05	102.75
494.268	94.75
494.485	102.75
494.703	101.75
494.92	103.75
495.138	93.75
495.355	101.75
495.573	112.75
495.79	112.75
496.008	98.75
496.225	102.75
496.442	110.75
496.66	134.75
496.877	140.75
497.094	141.75
497.312	97.75
497.529	99.75
497.746	103.75
497.963	116.75
498.181	110.75
498.398	101.75
498.615	113.75
498.832	108.75
499.049	104.75
499.267	126.75
499.484	142.75
499.701	102.75
499.918	118.75
500.135	97.75
500.352	105.75
500.569	105.75
500.786	108.75
501.003	95.75
501.22	102.75
501.437	96.75
501.654	89.75
501.871	102.75
502.088	113.75
502.305	92.75
502.522	106.75
502.739	108.75
502.956	98.75
503.172	109.75
503.389	100.75
503.606	86.75
503.823	104.75
504.04	107.75
504.256	95.75
504.473	99.75
504.69	81.75
504.907	105.75
505.123	110.75
505.34	109.75
505.557	104.75
505.773	96.75
505.99	95.75
506.207	105.75
506.423	100.75
506.64	101.75
506.856	109.75
507.073	116.75
507.289	113.75
507.506	111.75
507.722	96.75
507.939	105.75
508.155	100.75
508.372	86.75
508.588	96.75
