Data from SnStandardFlinnAPT0064_LampEnergy10_LIBS07252019.E.O._I.C._HRD10591_15-20-33-493.txt Node
Date: Thu Jul 25 15:20:33 EDT 2019
User: cochatt
Spectrometer: HR+D1059
Trigger mode: 1
Integration Time (sec): 1.000000E-1
Scans to average: 1
Electric dark correction enabled: true
Nonlinearity correction enabled: false
Boxcar width: 0
XAxis mode: Wavelengths
Number of Pixels in Spectrum: 2048
>>>>>Begin Spectral Data<<<<<
223.165	-15.81
223.4	-15.81
223.635	-15.81
223.869	-20.81
224.104	-26.81
224.338	-12.81
224.573	-8.81
224.808	-8.81
225.042	-18.81
225.277	5.19
225.511	-2.81
225.746	1.19
225.98	17.19
226.215	14.19
226.449	10.19
226.683	25.19
226.918	11.19
227.152	31.19
227.387	43.19
227.621	37.19
227.856	34.19
228.09	49.19
228.324	51.19
228.559	56.19
228.793	126.19
229.027	304.19
229.262	326.19
229.496	307.19
229.73	298.19
229.964	304.19
230.199	304.19
230.433	318.19
230.667	322.19
230.901	322.19
231.136	328.19
231.37	334.19
231.604	398.19
231.838	422.19
232.072	499.19
232.306	583.19
232.541	452.19
232.775	394.19
233.009	400.19
233.243	431.19
233.477	435.19
233.711	527.19
233.945	600.19
234.179	512.19
234.413	441.19
234.647	458.19
234.881	459.19
235.115	538.19
235.349	617.19
235.583	769.19
235.817	996.19
236.051	989.19
236.285	668.19
236.519	518.19
236.753	487.19
236.987	494.19
237.221	539.19
237.455	509.19
237.689	470.19
237.922	483.19
238.156	485.19
238.39	488.19
238.624	478.19
238.858	485.19
239.091	479.19
239.325	480.19
239.559	490.19
239.793	514.19
240.027	519.19
240.26	547.19
240.494	548.19
240.728	576.19
240.961	582.19
241.195	628.19
241.429	690.19
241.662	692.19
241.896	755.19
242.13	951.19
242.363	1242.19
242.597	1605.19
242.83	1563.19
243.064	1580.19
243.298	1839.19
243.531	1547.19
243.765	952.19
243.998	772.19
244.232	677.19
244.465	685.19
244.699	634.19
244.932	638.19
245.166	655.19
245.399	686.19
245.633	675.19
245.866	693.19
246.099	669.19
246.333	631.19
246.566	647.19
246.8	634.19
247.033	630.19
247.266	628.19
247.5	650.19
247.733	657.19
247.966	704.19
248.2	762.19
248.433	866.19
248.666	998.19
248.899	963.19
249.133	861.19
249.366	877.19
249.599	953.19
249.832	1081.19
250.066	1082.19
250.299	866.19
250.532	755.19
250.765	743.19
250.998	744.19
251.231	730.19
251.465	726.19
251.698	729.19
251.931	734.19
252.164	707.19
252.397	746.19
252.63	772.19
252.863	805.19
253.096	791.19
253.329	799.19
253.562	786.19
253.795	783.19
254.028	799.19
254.261	826.19
254.494	883.19
254.727	976.19
254.96	1233.19
255.193	1200.19
255.426	958.19
255.659	861.19
255.892	861.19
256.124	854.19
256.357	885.19
256.59	897.19
256.823	972.19
257.056	1122.19
257.289	1335.19
257.521	1491.19
257.754	1201.19
257.987	917.19
258.22	902.19
258.452	860.19
258.685	913.19
258.918	941.19
259.151	985.19
259.383	1106.19
259.616	1211.19
259.849	1272.19
260.081	1096.19
260.314	1001.19
260.547	950.19
260.779	941.19
261.012	938.19
261.244	949.19
261.477	965.19
261.71	978.19
261.942	993.19
262.175	977.19
262.407	1025.19
262.64	1049.19
262.872	1091.19
263.105	1114.19
263.337	1179.19
263.57	1239.19
263.802	1269.19
264.035	1311.19
264.267	1342.19
264.499	1359.19
264.732	1398.19
264.964	1409.19
265.197	1399.19
265.429	1431.19
265.661	1445.19
265.894	1542.19
266.126	1703.19
266.358	1921.19
266.591	1867.19
266.823	1583.19
267.055	1444.19
267.287	1369.19
267.52	1283.19
267.752	1278.19
267.984	1223.19
268.216	1237.19
268.448	1225.19
268.681	1205.19
268.913	1188.19
269.145	1203.19
269.377	1207.19
269.609	1222.19
269.841	1251.19
270.073	1363.19
270.306	1602.19
270.538	2168.19
270.77	3237.19
271.002	3973.19
271.234	2811.19
271.466	1832.19
271.698	1487.19
271.93	1361.19
272.162	1301.19
272.394	1286.19
272.626	1257.19
272.858	1213.19
273.09	1235.19
273.322	1208.19
273.553	1188.19
273.785	1191.19
274.017	1209.19
274.249	1170.19
274.481	1190.19
274.713	1210.19
274.945	1218.19
275.176	1192.19
275.408	1194.19
275.64	1202.19
275.872	1206.19
276.104	1246.19
276.335	1252.19
276.567	1282.19
276.799	1248.19
277.031	1298.19
277.262	1316.19
277.494	1401.19
277.726	1538.19
277.957	1816.19
278.189	2100.19
278.421	1985.19
278.652	1731.19
278.884	1658.19
279.115	1504.19
279.347	1429.19
279.579	1423.19
279.81	1368.19
280.042	1382.19
280.273	1376.19
280.505	1465.19
280.736	1484.19
280.968	1574.19
281.199	1750.19
281.431	2006.19
281.662	2068.19
281.894	1732.19
282.125	1569.19
282.356	1607.19
282.588	1649.19
282.819	1695.19
283.051	1780.19
283.282	1988.19
283.513	2464.19
283.745	3526.19
283.976	5677.19
284.207	8114.19
284.439	7375.19
284.67	4488.19
284.901	3729.19
285.132	3747.19
285.364	3567.19
285.595	2682.19
285.826	2415.19
286.057	2819.19
286.288	3867.19
286.52	5194.19
286.751	4814.19
286.982	3084.19
287.213	2256.19
287.444	1970.19
287.675	1814.19
287.906	1780.19
288.138	1686.19
288.369	1678.19
288.6	1680.19
288.831	1635.19
289.062	1645.19
289.293	1639.19
289.524	1679.19
289.755	1675.19
289.986	1690.19
290.217	1686.19
290.448	1733.19
290.679	1721.19
290.91	1724.19
291.141	1875.19
291.371	1996.19
291.602	2075.19
291.833	1915.19
292.064	1711.19
292.295	1663.19
292.526	1649.19
292.757	1640.19
292.987	1575.19
293.218	1514.19
293.449	1557.19
293.68	1535.19
293.91	1582.19
294.141	1566.19
294.372	1555.19
294.603	1552.19
294.833	1546.19
295.064	1532.19
295.295	1536.19
295.525	1566.19
295.756	1547.19
295.987	1536.19
296.217	1550.19
296.448	1584.19
296.679	1553.19
296.909	1547.19
297.14	1555.19
297.37	1615.19
297.601	1608.19
297.831	1601.19
298.062	1599.19
298.292	1629.19
298.523	1647.19
298.753	1654.19
298.984	1669.19
299.214	1714.19
299.445	1712.19
299.675	1728.19
299.905	1774.19
300.136	1905.19
300.366	2072.19
300.597	2713.19
300.827	3783.19
301.057	5192.19
301.288	5282.19
301.518	3345.19
301.748	2589.19
301.979	2350.19
302.209	2218.19
302.439	2341.19
302.669	2443.19
302.9	2882.19
303.13	4137.19
303.36	6175.19
303.59	8249.19
303.82	7155.19
304.051	4234.19
304.281	2974.19
304.511	2518.19
304.741	2318.19
304.971	2194.19
305.201	2053.19
305.431	1999.19
305.661	1953.19
305.891	1891.19
306.121	1830.19
306.352	1887.19
306.582	1858.19
306.812	1812.19
307.042	1841.19
307.272	1826.19
307.502	1812.19
307.731	1826.19
307.961	1799.19
308.191	1748.19
308.421	1780.19
308.651	1816.19
308.881	1779.19
309.111	1754.19
309.341	1793.19
309.571	1850.19
309.8	1831.19
310.03	1811.19
310.26	1851.19
310.49	1866.19
310.72	1893.19
310.949	1880.19
311.179	1855.19
311.409	1894.19
311.639	1903.19
311.868	1951.19
312.098	1921.19
312.328	1900.19
312.557	1935.19
312.787	1933.19
313.017	1942.19
313.246	1997.19
313.476	1958.19
313.706	2072.19
313.935	2162.19
314.165	2319.19
314.394	2468.19
314.624	2311.19
314.853	2145.19
315.083	2127.19
315.312	2154.19
315.542	2213.19
315.771	2161.19
316.001	2224.19
316.23	2272.19
316.46	2382.19
316.689	2647.19
316.919	3183.19
317.148	4578.19
317.377	7089.19
317.607	10401.19
317.836	10925.19
318.065	6632.19
318.295	4261.19
318.524	3327.19
318.753	2978.19
318.983	2728.19
319.212	2555.19
319.441	2472.19
319.67	2429.19
319.9	2362.19
320.129	2362.19
320.358	2344.19
320.587	2289.19
320.816	2298.19
321.046	2265.19
321.275	2292.19
321.504	2325.19
321.733	2423.19
321.962	2505.19
322.191	2506.19
322.42	2503.19
322.649	2493.19
322.878	2488.19
323.108	2450.19
323.337	2496.19
323.566	2509.19
323.795	2598.19
324.024	2615.19
324.253	2645.19
324.482	2825.19
324.71	2975.19
324.939	3226.19
325.168	3259.19
325.397	3400.19
325.626	3945.19
325.855	5569.19
326.084	8701.19
326.313	12688.19
326.542	13503.19
326.77	9069.19
326.999	5922.19
327.228	4979.19
327.457	4725.19
327.686	4765.19
327.914	5182.19
328.143	6079.19
328.372	7350.19
328.6	8048.19
328.829	7055.19
329.058	5889.19
329.287	5089.19
329.515	4591.19
329.744	4273.19
329.972	4057.19
330.201	3893.19
330.43	3705.19
330.658	3608.19
330.887	3481.19
331.115	3464.19
331.344	3431.19
331.572	3450.19
331.801	3430.19
332.03	3494.19
332.258	3535.19
332.486	3694.19
332.715	4218.19
332.943	5222.19
333.172	6557.19
333.4	6560.19
333.629	4932.19
333.857	4448.19
334.085	4497.19
334.314	4696.19
334.542	5180.19
334.771	6105.19
334.999	7531.19
335.227	9581.19
335.455	10679.19
335.684	9551.19
335.912	7760.19
336.14	6583.19
336.369	5737.19
336.597	5177.19
336.825	4745.19
337.053	4506.19
337.281	4241.19
337.51	4010.19
337.738	3858.19
337.966	3702.19
338.194	3561.19
338.422	3415.19
338.65	3373.19
338.878	3295.19
339.106	3189.19
339.334	3170.19
339.562	3097.19
339.79	3033.19
340.018	3066.19
340.246	2961.19
340.474	3023.19
340.702	3026.19
340.93	2953.19
341.158	3002.19
341.386	2942.19
341.614	2959.19
341.842	2894.19
342.07	2823.19
342.298	2766.19
342.526	2772.19
342.754	2744.19
342.981	2638.19
343.209	2684.19
343.437	2719.19
343.665	2740.19
343.893	2756.19
344.12	2771.19
344.348	2756.19
344.576	2701.19
344.804	2637.19
345.031	2601.19
345.259	2593.19
345.487	2562.19
345.714	2536.19
345.942	2504.19
346.17	2506.19
346.397	2510.19
346.625	2495.19
346.853	2465.19
347.08	2493.19
347.308	2474.19
347.535	2517.19
347.763	2498.19
347.99	2488.19
348.218	2449.19
348.445	2448.19
348.673	2405.19
348.9	2419.19
349.128	2453.19
349.355	2392.19
349.583	2421.19
349.81	2417.19
350.037	2357.19
350.265	2364.19
350.492	2314.19
350.72	2395.19
350.947	2346.19
351.174	2315.19
351.402	2403.19
351.629	2337.19
351.856	2370.19
352.083	2363.19
352.311	2336.19
352.538	2319.19
352.765	2370.19
352.992	2343.19
353.22	2330.19
353.447	2334.19
353.674	2359.19
353.901	2398.19
354.128	2423.19
354.355	2344.19
354.583	2407.19
354.81	2347.19
355.037	2403.19
355.264	2428.19
355.491	2418.19
355.718	2419.19
355.945	2438.19
356.172	2395.19
356.399	2435.19
356.626	2502.19
356.853	2417.19
357.08	2410.19
357.307	2507.19
357.534	2570.19
357.761	2535.19
357.988	2559.19
358.215	2517.19
358.441	2543.19
358.668	2538.19
358.895	2470.19
359.122	2477.19
359.349	2468.19
359.576	2449.19
359.802	2492.19
360.029	2524.19
360.256	2497.19
360.483	2498.19
360.709	2511.19
360.936	2477.19
361.163	2527.19
361.39	2521.19
361.616	2528.19
361.843	2495.19
362.07	2576.19
362.296	2557.19
362.523	2492.19
362.749	2489.19
362.976	2474.19
363.203	2487.19
363.429	2453.19
363.656	2525.19
363.882	2504.19
364.109	2464.19
364.335	2505.19
364.562	2492.19
364.788	2524.19
365.015	2611.19
365.241	2616.19
365.468	2776.19
365.694	2925.19
365.92	2762.19
366.147	2612.19
366.373	2571.19
366.599	2593.19
366.826	2589.19
367.052	2578.19
367.278	2609.19
367.505	2547.19
367.731	2537.19
367.957	2545.19
368.184	2572.19
368.41	2619.19
368.636	2634.19
368.862	2637.19
369.089	2648.19
369.315	2612.19
369.541	2599.19
369.767	2642.19
369.993	2555.19
370.219	2550.19
370.445	2591.19
370.672	2627.19
370.898	2612.19
371.124	2642.19
371.35	2673.19
371.576	2658.19
371.802	2661.19
372.028	2710.19
372.254	2682.19
372.48	2689.19
372.706	2760.19
372.932	2725.19
373.158	2785.19
373.384	2721.19
373.61	2730.19
373.835	2800.19
374.061	2741.19
374.287	2792.19
374.513	2757.19
374.739	2870.19
374.965	2878.19
375.191	2805.19
375.416	2890.19
375.642	2823.19
375.868	2758.19
376.094	2773.19
376.319	2745.19
376.545	2712.19
376.771	2741.19
376.997	2683.19
377.222	2679.19
377.448	2696.19
377.674	2692.19
377.899	2657.19
378.125	2669.19
378.35	2693.19
378.576	2675.19
378.802	2721.19
379.027	2753.19
379.253	2800.19
379.478	3003.19
379.704	3506.19
379.929	5049.19
380.155	7812.19
380.38	8484.19
380.606	5130.19
380.831	3658.19
381.057	3164.19
381.282	2901.19
381.507	2847.19
381.733	2810.19
381.958	2705.19
382.184	2689.19
382.409	2664.19
382.634	2669.19
382.86	2669.19
383.085	2662.19
383.31	2715.19
383.535	2632.19
383.761	2632.19
383.986	2660.19
384.211	2717.19
384.436	2757.19
384.662	2718.19
384.887	2744.19
385.112	2733.19
385.337	2729.19
385.562	2723.19
385.787	2730.19
386.013	2736.19
386.238	2693.19
386.463	2720.19
386.688	2736.19
386.913	2692.19
387.138	2726.19
387.363	2753.19
387.588	2721.19
387.813	2752.19
388.038	2720.19
388.263	2723.19
388.488	2675.19
388.713	2687.19
388.938	2709.19
389.163	2689.19
389.387	2740.19
389.612	2726.19
389.837	2749.19
390.062	2750.19
390.287	2763.19
390.512	2765.19
390.736	2749.19
390.961	2807.19
391.186	2810.19
391.411	2808.19
391.636	2862.19
391.86	2879.19
392.085	2876.19
392.31	2873.19
392.534	2775.19
392.759	2826.19
392.984	2765.19
393.208	2797.19
393.433	2845.19
393.658	2850.19
393.882	2793.19
394.107	2771.19
394.331	2777.19
394.556	2738.19
394.78	2806.19
395.005	2811.19
395.229	2800.19
395.454	2832.19
395.678	2808.19
395.903	2875.19
396.127	2889.19
396.352	2803.19
396.576	2825.19
396.801	2840.19
397.025	2822.19
397.249	2874.19
397.474	2877.19
397.698	2842.19
397.922	2882.19
398.147	2902.19
398.371	2894.19
398.595	2949.19
398.82	3121.19
399.044	3122.19
399.268	3253.19
399.492	3510.19
399.717	3629.19
399.941	3546.19
400.165	3457.19
400.389	3305.19
400.613	3170.19
400.837	3117.19
401.062	3053.19
401.286	3026.19
401.51	2996.19
401.734	3001.19
401.958	3023.19
402.182	2977.19
402.406	3002.19
402.63	3049.19
402.854	3074.19
403.078	3077.19
403.302	3119.19
403.526	3094.19
403.75	3095.19
403.974	3125.19
404.198	3110.19
404.422	3167.19
404.645	3133.19
404.869	3090.19
405.093	3134.19
405.317	3088.19
405.541	3151.19
405.765	3169.19
405.988	3253.19
406.212	3215.19
406.436	3199.19
406.66	3224.19
406.883	3222.19
407.107	3330.19
407.331	3389.19
407.555	3429.19
407.778	3350.19
408.002	3356.19
408.226	3319.19
408.449	3329.19
408.673	3271.19
408.896	3193.19
409.12	3178.19
409.344	3189.19
409.567	3087.19
409.791	3126.19
410.014	3160.19
410.238	3143.19
410.461	3079.19
410.685	3085.19
410.908	3114.19
411.132	3056.19
411.355	2946.19
411.578	3041.19
411.802	3024.19
412.025	2963.19
412.249	3049.19
412.472	3003.19
412.695	2959.19
412.919	2923.19
413.142	2930.19
413.365	2903.19
413.589	2945.19
413.812	2913.19
414.035	2927.19
414.258	2918.19
414.482	2930.19
414.705	2931.19
414.928	2931.19
415.151	2985.19
415.374	2911.19
415.597	2900.19
415.821	2829.19
416.044	2807.19
416.267	2822.19
416.49	2823.19
416.713	2811.19
416.936	2830.19
417.159	2782.19
417.382	2780.19
417.605	2742.19
417.828	2807.19
418.051	2866.19
418.274	2852.19
418.497	2834.19
418.72	2904.19
418.943	2905.19
419.166	2991.19
419.389	3125.19
419.611	3084.19
419.834	3041.19
420.057	2941.19
420.28	2885.19
420.503	2809.19
420.726	2817.19
420.948	2840.19
421.171	2799.19
421.394	2853.19
421.617	2793.19
421.839	2879.19
422.062	2882.19
422.285	2822.19
422.507	2844.19
422.73	2875.19
422.953	2919.19
423.175	2972.19
423.398	2882.19
423.621	2854.19
423.843	2875.19
424.066	2884.19
424.288	2858.19
424.511	2809.19
424.733	2799.19
424.956	2841.19
425.178	2789.19
425.401	2748.19
425.623	2770.19
425.846	2728.19
426.068	2735.19
426.291	2722.19
426.513	2723.19
426.735	2669.19
426.958	2694.19
427.18	2641.19
427.402	2668.19
427.625	2660.19
427.847	2634.19
428.069	2590.19
428.292	2652.19
428.514	2633.19
428.736	2609.19
428.958	2654.19
429.181	2576.19
429.403	2600.19
429.625	2589.19
429.847	2621.19
430.069	2664.19
430.292	2741.19
430.514	2819.19
430.736	2832.19
430.958	2671.19
431.18	2592.19
431.402	2597.19
431.624	2564.19
431.846	2572.19
432.068	2516.19
432.29	2605.19
432.512	2587.19
432.734	2595.19
432.956	2627.19
433.178	2621.19
433.4	2587.19
433.622	2641.19
433.844	2640.19
434.066	2639.19
434.287	2608.19
434.509	2609.19
434.731	2676.19
434.953	2694.19
435.175	2726.19
435.397	2727.19
435.618	2669.19
435.84	2621.19
436.062	2555.19
436.284	2605.19
436.505	2517.19
436.727	2563.19
436.949	2562.19
437.17	2590.19
437.392	2559.19
437.614	2547.19
437.835	2514.19
438.057	2532.19
438.278	2438.19
438.5	2524.19
438.721	2582.19
438.943	2620.19
439.165	2681.19
439.386	2677.19
439.608	2698.19
439.829	2704.19
440.05	2785.19
440.272	2826.19
440.493	2710.19
440.715	2697.19
440.936	2684.19
441.158	2695.19
441.379	2758.19
441.6	2800.19
441.822	2892.19
442.043	3022.19
442.264	3136.19
442.486	2920.19
442.707	2802.19
442.928	2784.19
443.149	2798.19
443.371	2786.19
443.592	2788.19
443.813	2755.19
444.034	2793.19
444.255	2854.19
444.476	2863.19
444.698	2901.19
444.919	3057.19
445.14	3025.19
445.361	2907.19
445.582	2878.19
445.803	2794.19
446.024	2740.19
446.245	2813.19
446.466	2708.19
446.687	2694.19
446.908	2671.19
447.129	2650.19
447.35	2623.19
447.571	2615.19
447.792	2567.19
448.013	2555.19
448.234	2532.19
448.455	2552.19
448.675	2609.19
448.896	2641.19
449.117	2730.19
449.338	2958.19
449.559	3117.19
449.779	2772.19
450	2603.19
450.221	2561.19
450.442	2582.19
450.662	2469.19
450.883	2506.19
451.104	2516.19
451.324	2521.19
451.545	2483.19
451.766	2502.19
451.986	2577.19
452.207	2743.19
452.428	3574.19
452.648	5359.19
452.869	4505.19
453.089	3168.19
453.31	2923.19
453.53	2919.19
453.751	3046.19
453.971	3168.19
454.192	3099.19
454.412	2649.19
454.633	2479.19
454.853	2456.19
455.073	2419.19
455.294	2424.19
455.514	2381.19
455.734	2350.19
455.955	2349.19
456.175	2363.19
456.395	2395.19
456.616	2429.19
456.836	2399.19
457.056	2426.19
457.276	2461.19
457.497	2602.19
457.717	2601.19
457.937	2559.19
458.157	2485.19
458.377	2557.19
458.598	2589.19
458.818	2602.19
459.038	2553.19
459.258	2551.19
459.478	2609.19
459.698	2616.19
459.918	2667.19
460.138	2670.19
460.358	2729.19
460.578	2773.19
460.798	2817.19
461.018	2821.19
461.238	2798.19
461.458	2863.19
461.678	2859.19
461.898	2955.19
462.118	2975.19
462.338	3010.19
462.558	3013.19
462.777	3053.19
462.997	3221.19
463.217	3332.19
463.437	3485.19
463.657	3581.19
463.876	3477.19
464.096	3281.19
464.316	3195.19
464.536	3117.19
464.755	3050.19
464.975	2967.19
465.195	2879.19
465.414	2794.19
465.634	2689.19
465.854	2666.19
466.073	2636.19
466.293	2598.19
466.512	2640.19
466.732	2668.19
466.951	2741.19
467.171	2953.19
467.391	2936.19
467.61	2678.19
467.829	2562.19
468.049	2557.19
468.268	2542.19
468.488	2501.19
468.707	2537.19
468.927	2498.19
469.146	2511.19
469.365	2582.19
469.585	2598.19
469.804	2635.19
470.023	2721.19
470.243	2755.19
470.462	2836.19
470.681	2927.19
470.901	3331.19
471.12	3778.19
471.339	3783.19
471.558	3082.19
471.777	2891.19
471.997	2733.19
472.216	2663.19
472.435	2583.19
472.654	2583.19
472.873	2602.19
473.092	2586.19
473.311	2515.19
473.53	2590.19
473.749	2652.19
473.968	2764.19
474.187	2597.19
474.406	2529.19
474.625	2571.19
474.844	2579.19
475.063	2585.19
475.282	2582.19
475.501	2601.19
475.72	2565.19
475.939	2633.19
476.158	2679.19
476.377	2717.19
476.596	2685.19
476.814	2733.19
477.033	2718.19
477.252	2738.19
477.471	2785.19
477.69	2886.19
477.908	2857.19
478.127	2941.19
478.346	2937.19
478.564	2951.19
478.783	2928.19
479.002	3005.19
479.22	3010.19
479.439	3017.19
479.658	3058.19
479.876	3066.19
480.095	3087.19
480.313	3182.19
480.532	3224.19
480.751	3153.19
480.969	3133.19
481.188	3065.19
481.406	3123.19
481.624	3114.19
481.843	3160.19
482.061	3165.19
482.28	3097.19
482.498	3132.19
482.717	3116.19
482.935	3166.19
483.153	3177.19
483.372	3222.19
483.59	3295.19
483.808	3325.19
484.027	3404.19
484.245	3553.19
484.463	4081.19
484.681	4509.19
484.9	4063.19
485.118	3727.19
485.336	3677.19
485.554	3757.19
485.772	3956.19
485.99	4546.19
486.209	4892.19
486.427	4166.19
486.645	3640.19
486.863	3533.19
487.081	3373.19
487.299	3315.19
487.517	3341.19
487.735	3328.19
