Data from SnStandardFlinnAPT0064_QswitchEnergy10_LIBS07252019.E.O._I.C._HRD10591_15-27-49-973.txt Node
Date: Thu Jul 25 15:27:49 EDT 2019
User: cochatt
Spectrometer: HR+D1059
Trigger mode: 1
Integration Time (sec): 1.000000E-1
Scans to average: 1
Electric dark correction enabled: true
Nonlinearity correction enabled: false
Boxcar width: 0
XAxis mode: Wavelengths
Number of Pixels in Spectrum: 2048
>>>>>Begin Spectral Data<<<<<
223.165	-7.94
223.4	-7.94
223.635	-7.94
223.869	-26.94
224.104	-41.94
224.338	-11.94
224.573	-12.94
224.808	-3.94
225.042	-11.94
225.277	-11.94
225.511	8.06
225.746	5.06
225.98	12.06
226.215	11.06
226.449	7.06
226.683	20.06
226.918	23.06
227.152	43.06
227.387	32.06
227.621	48.06
227.856	57.06
228.09	43.06
228.324	43.06
228.559	58.06
228.793	70.06
229.027	76.06
229.262	76.06
229.496	82.06
229.73	73.06
229.964	63.06
230.199	81.06
230.433	64.06
230.667	79.06
230.901	75.06
231.136	88.06
231.37	85.06
231.604	91.06
231.838	105.06
232.072	124.06
232.306	112.06
232.541	100.06
232.775	92.06
233.009	90.06
233.243	85.06
233.477	105.06
233.711	99.06
233.945	102.06
234.179	109.06
234.413	88.06
234.647	95.06
234.881	93.06
235.115	80.06
235.349	95.06
235.583	110.06
235.817	129.06
236.051	133.06
236.285	87.06
236.519	82.06
236.753	79.06
236.987	86.06
237.221	73.06
237.455	69.06
237.689	75.06
237.922	72.06
238.156	88.06
238.39	76.06
238.624	75.06
238.858	74.06
239.091	86.06
239.325	84.06
239.559	82.06
239.793	81.06
240.027	81.06
240.26	72.06
240.494	84.06
240.728	84.06
240.961	75.06
241.195	79.06
241.429	100.06
241.662	87.06
241.896	102.06
242.13	95.06
242.363	132.06
242.597	150.06
242.83	121.06
243.064	130.06
243.298	165.06
243.531	148.06
243.765	110.06
243.998	85.06
244.232	76.06
244.465	72.06
244.699	73.06
244.932	76.06
245.166	91.06
245.399	86.06
245.633	99.06
245.866	93.06
246.099	91.06
246.333	83.06
246.566	85.06
246.8	85.06
247.033	81.06
247.266	70.06
247.5	72.06
247.733	90.06
247.966	86.06
248.2	98.06
248.433	114.06
248.666	124.06
248.899	123.06
249.133	107.06
249.366	113.06
249.599	95.06
249.832	140.06
250.066	123.06
250.299	87.06
250.532	68.06
250.765	67.06
250.998	84.06
251.231	76.06
251.465	67.06
251.698	73.06
251.931	81.06
252.164	78.06
252.397	98.06
252.63	103.06
252.863	86.06
253.096	103.06
253.329	107.06
253.562	104.06
253.795	94.06
254.028	75.06
254.261	91.06
254.494	90.06
254.727	137.06
254.96	138.06
255.193	131.06
255.426	89.06
255.659	92.06
255.892	101.06
256.124	91.06
256.357	89.06
256.59	91.06
256.823	104.06
257.056	116.06
257.289	135.06
257.521	171.06
257.754	133.06
257.987	95.06
258.22	95.06
258.452	97.06
258.685	80.06
258.918	92.06
259.151	97.06
259.383	120.06
259.616	134.06
259.849	137.06
260.081	103.06
260.314	71.06
260.547	80.06
260.779	93.06
261.012	96.06
261.244	92.06
261.477	98.06
261.71	86.06
261.942	91.06
262.175	86.06
262.407	78.06
262.64	68.06
262.872	75.06
263.105	82.06
263.337	96.06
263.57	94.06
263.802	92.06
264.035	80.06
264.267	74.06
264.499	79.06
264.732	80.06
264.964	87.06
265.197	82.06
265.429	85.06
265.661	92.06
265.894	95.06
266.126	104.06
266.358	156.06
266.591	147.06
266.823	105.06
267.055	100.06
267.287	105.06
267.52	77.06
267.752	83.06
267.984	84.06
268.216	90.06
268.448	89.06
268.681	93.06
268.913	90.06
269.145	97.06
269.377	86.06
269.609	94.06
269.841	84.06
270.073	111.06
270.306	111.06
270.538	182.06
270.77	313.06
271.002	357.06
271.234	198.06
271.466	111.06
271.698	100.06
271.93	97.06
272.162	84.06
272.394	85.06
272.626	90.06
272.858	96.06
273.09	79.06
273.322	80.06
273.553	94.06
273.785	92.06
274.017	79.06
274.249	95.06
274.481	89.06
274.713	84.06
274.945	98.06
275.176	96.06
275.408	85.06
275.64	93.06
275.872	95.06
276.104	97.06
276.335	93.06
276.567	112.06
276.799	85.06
277.031	92.06
277.262	90.06
277.494	107.06
277.726	137.06
277.957	164.06
278.189	217.06
278.421	224.06
278.652	192.06
278.884	188.06
279.115	129.06
279.347	115.06
279.579	102.06
279.81	85.06
280.042	101.06
280.273	106.06
280.505	97.06
280.736	117.06
280.968	115.06
281.199	168.06
281.431	236.06
281.662	271.06
281.894	153.06
282.125	115.06
282.356	108.06
282.588	104.06
282.819	100.06
283.051	119.06
283.282	134.06
283.513	183.06
283.745	303.06
283.976	535.06
284.207	748.06
284.439	561.06
284.67	267.06
284.901	251.06
285.132	339.06
285.364	379.06
285.595	217.06
285.826	172.06
286.057	230.06
286.288	406.06
286.52	591.06
286.751	488.06
286.982	197.06
287.213	111.06
287.444	104.06
287.675	106.06
287.906	107.06
288.138	87.06
288.369	89.06
288.6	90.06
288.831	104.06
289.062	117.06
289.293	99.06
289.524	97.06
289.755	99.06
289.986	103.06
290.217	101.06
290.448	108.06
290.679	114.06
290.91	120.06
291.141	156.06
291.371	229.06
291.602	272.06
291.833	195.06
292.064	114.06
292.295	88.06
292.526	105.06
292.757	89.06
292.987	92.06
293.218	103.06
293.449	98.06
293.68	93.06
293.91	102.06
294.141	99.06
294.372	95.06
294.603	100.06
294.833	88.06
295.064	91.06
295.295	92.06
295.525	92.06
295.756	82.06
295.987	102.06
296.217	97.06
296.448	93.06
296.679	99.06
296.909	90.06
297.14	91.06
297.37	103.06
297.601	104.06
297.831	86.06
298.062	88.06
298.292	112.06
298.523	111.06
298.753	111.06
298.984	114.06
299.214	102.06
299.445	120.06
299.675	115.06
299.905	122.06
300.136	128.06
300.366	164.06
300.597	274.06
300.827	433.06
301.057	667.06
301.288	599.06
301.518	255.06
301.748	137.06
301.979	122.06
302.209	135.06
302.439	141.06
302.669	166.06
302.9	279.06
303.13	465.06
303.36	841.06
303.59	1186.06
303.82	815.06
304.051	286.06
304.281	162.06
304.511	119.06
304.741	125.06
304.971	116.06
305.201	113.06
305.431	102.06
305.661	100.06
305.891	105.06
306.121	111.06
306.352	112.06
306.582	107.06
306.812	91.06
307.042	119.06
307.272	103.06
307.502	104.06
307.731	101.06
307.961	103.06
308.191	115.06
308.421	115.06
308.651	95.06
308.881	90.06
309.111	117.06
309.341	121.06
309.571	107.06
309.8	114.06
310.03	108.06
310.26	98.06
310.49	105.06
310.72	102.06
310.949	105.06
311.179	98.06
311.409	97.06
311.639	108.06
311.868	110.06
312.098	123.06
312.328	114.06
312.557	113.06
312.787	114.06
313.017	116.06
313.246	101.06
313.476	104.06
313.706	129.06
313.935	166.06
314.165	191.06
314.394	201.06
314.624	172.06
314.853	132.06
315.083	131.06
315.312	130.06
315.542	134.06
315.771	132.06
316.001	122.06
316.23	141.06
316.46	148.06
316.689	177.06
316.919	258.06
317.148	477.06
317.377	881.06
317.607	1431.06
317.836	1356.06
318.065	500.06
318.295	217.06
318.524	167.06
318.753	137.06
318.983	127.06
319.212	141.06
319.441	123.06
319.67	130.06
319.9	111.06
320.129	101.06
320.358	111.06
320.587	115.06
320.816	119.06
321.046	123.06
321.275	122.06
321.504	125.06
321.733	131.06
321.962	147.06
322.191	156.06
322.42	148.06
322.649	128.06
322.878	128.06
323.108	132.06
323.337	116.06
323.566	120.06
323.795	135.06
324.024	134.06
324.253	139.06
324.482	173.06
324.71	227.06
324.939	286.06
325.168	248.06
325.397	186.06
325.626	247.06
325.855	470.06
326.084	915.06
326.313	1557.06
326.542	1463.06
326.77	577.06
326.999	261.06
327.228	197.06
327.457	227.06
327.686	217.06
327.914	177.06
328.143	124.06
328.372	133.06
328.6	122.06
328.829	109.06
329.058	107.06
329.287	123.06
329.515	111.06
329.744	119.06
329.972	121.06
330.201	121.06
330.43	113.06
330.658	114.06
330.887	120.06
331.115	110.06
331.344	108.06
331.572	119.06
331.801	122.06
332.03	124.06
332.258	141.06
332.486	175.06
332.715	283.06
332.943	501.06
333.172	776.06
333.4	645.06
333.629	241.06
333.857	153.06
334.085	148.06
334.314	124.06
334.542	113.06
334.771	108.06
334.999	117.06
335.227	126.06
335.455	117.06
335.684	114.06
335.912	116.06
336.14	116.06
336.369	113.06
336.597	116.06
336.825	102.06
337.053	100.06
337.281	116.06
337.51	105.06
337.738	109.06
337.966	104.06
338.194	115.06
338.422	113.06
338.65	119.06
338.878	115.06
339.106	124.06
339.334	117.06
339.562	117.06
339.79	103.06
340.018	109.06
340.246	103.06
340.474	111.06
340.702	112.06
340.93	120.06
341.158	123.06
341.386	118.06
341.614	115.06
341.842	119.06
342.07	113.06
342.298	123.06
342.526	125.06
342.754	127.06
342.981	117.06
343.209	119.06
343.437	111.06
343.665	118.06
343.893	101.06
344.12	117.06
344.348	118.06
344.576	108.06
344.804	111.06
345.031	115.06
345.259	101.06
345.487	111.06
345.714	111.06
345.942	131.06
346.17	108.06
346.397	96.06
346.625	101.06
346.853	105.06
347.08	100.06
347.308	113.06
347.535	102.06
347.763	111.06
347.99	103.06
348.218	107.06
348.445	112.06
348.673	119.06
348.9	98.06
349.128	120.06
349.355	130.06
349.583	111.06
349.81	123.06
350.037	123.06
350.265	122.06
350.492	118.06
350.72	101.06
350.947	108.06
351.174	121.06
351.402	95.06
351.629	111.06
351.856	124.06
352.083	102.06
352.311	104.06
352.538	114.06
352.765	117.06
352.992	128.06
353.22	96.06
353.447	103.06
353.674	112.06
353.901	100.06
354.128	99.06
354.355	105.06
354.583	95.06
354.81	112.06
355.037	114.06
355.264	104.06
355.491	89.06
355.718	108.06
355.945	127.06
356.172	108.06
356.399	103.06
356.626	115.06
356.853	126.06
357.08	111.06
357.307	110.06
357.534	102.06
357.761	113.06
357.988	113.06
358.215	119.06
358.441	107.06
358.668	108.06
358.895	115.06
359.122	122.06
359.349	104.06
359.576	115.06
359.802	111.06
360.029	111.06
360.256	98.06
360.483	117.06
360.709	113.06
360.936	122.06
361.163	104.06
361.39	107.06
361.616	110.06
361.843	108.06
362.07	119.06
362.296	107.06
362.523	103.06
362.749	98.06
362.976	109.06
363.203	99.06
363.429	106.06
363.656	93.06
363.882	119.06
364.109	117.06
364.335	119.06
364.562	108.06
364.788	101.06
365.015	120.06
365.241	133.06
365.468	164.06
365.694	250.06
365.92	204.06
366.147	119.06
366.373	102.06
366.599	103.06
366.826	97.06
367.052	98.06
367.278	94.06
367.505	97.06
367.731	96.06
367.957	103.06
368.184	105.06
368.41	134.06
368.636	123.06
368.862	107.06
369.089	89.06
369.315	104.06
369.541	95.06
369.767	97.06
369.993	111.06
370.219	105.06
370.445	108.06
370.672	109.06
370.898	108.06
371.124	101.06
371.35	98.06
371.576	113.06
371.802	119.06
372.028	98.06
372.254	96.06
372.48	101.06
372.706	123.06
372.932	103.06
373.158	122.06
373.384	120.06
373.61	116.06
373.835	124.06
374.061	101.06
374.287	112.06
374.513	113.06
374.739	118.06
374.965	113.06
375.191	111.06
375.416	103.06
375.642	113.06
375.868	103.06
376.094	108.06
376.319	103.06
376.545	115.06
376.771	119.06
376.997	96.06
377.222	104.06
377.448	120.06
377.674	108.06
377.899	117.06
378.125	116.06
378.35	115.06
378.576	120.06
378.802	125.06
379.027	132.06
379.253	150.06
379.478	173.06
379.704	309.06
379.929	779.06
380.155	1542.06
380.38	1563.06
380.606	500.06
380.831	186.06
381.057	147.06
381.282	115.06
381.507	117.06
381.733	112.06
381.958	104.06
382.184	101.06
382.409	92.06
382.634	111.06
382.86	97.06
383.085	101.06
383.31	95.06
383.535	98.06
383.761	104.06
383.986	106.06
384.211	103.06
384.436	112.06
384.662	90.06
384.887	111.06
385.112	99.06
385.337	99.06
385.562	114.06
385.787	100.06
386.013	105.06
386.238	95.06
386.463	114.06
386.688	101.06
386.913	127.06
387.138	101.06
387.363	102.06
387.588	100.06
387.813	119.06
388.038	106.06
388.263	107.06
388.488	101.06
388.713	112.06
388.938	113.06
389.163	100.06
389.387	97.06
389.612	107.06
389.837	99.06
390.062	78.06
390.287	108.06
390.512	97.06
390.736	111.06
390.961	105.06
391.186	101.06
391.411	91.06
391.636	90.06
391.86	95.06
392.085	95.06
392.31	112.06
392.534	107.06
392.759	107.06
392.984	108.06
393.208	124.06
393.433	133.06
393.658	139.06
393.882	114.06
394.107	100.06
394.331	111.06
394.556	105.06
394.78	103.06
395.005	113.06
395.229	95.06
395.454	99.06
395.678	110.06
395.903	100.06
396.127	100.06
396.352	114.06
396.576	114.06
396.801	119.06
397.025	125.06
397.249	113.06
397.474	113.06
397.698	104.06
397.922	106.06
398.147	102.06
398.371	89.06
398.595	92.06
398.82	101.06
399.044	101.06
399.268	96.06
399.492	71.06
399.717	99.06
399.941	88.06
400.165	113.06
400.389	91.06
400.613	93.06
400.837	96.06
401.062	92.06
401.286	89.06
401.51	102.06
401.734	108.06
401.958	104.06
402.182	89.06
402.406	77.06
402.63	96.06
402.854	83.06
403.078	91.06
403.302	101.06
403.526	102.06
403.75	94.06
403.974	95.06
404.198	87.06
404.422	97.06
404.645	98.06
404.869	91.06
405.093	100.06
405.317	93.06
405.541	113.06
405.765	127.06
405.988	133.06
406.212	119.06
406.436	93.06
406.66	111.06
406.883	115.06
407.107	103.06
407.331	92.06
407.555	89.06
407.778	106.06
408.002	112.06
408.226	108.06
408.449	97.06
408.673	104.06
408.896	92.06
409.12	115.06
409.344	87.06
409.567	91.06
409.791	91.06
410.014	105.06
410.238	108.06
410.461	104.06
410.685	103.06
410.908	104.06
411.132	96.06
411.355	97.06
411.578	97.06
411.802	80.06
412.025	98.06
412.249	77.06
412.472	93.06
412.695	98.06
412.919	105.06
413.142	83.06
413.365	108.06
413.589	106.06
413.812	112.06
414.035	107.06
414.258	101.06
414.482	101.06
414.705	100.06
414.928	107.06
415.151	104.06
415.374	101.06
415.597	109.06
415.821	99.06
416.044	102.06
416.267	96.06
416.49	93.06
416.713	114.06
416.936	94.06
417.159	83.06
417.382	83.06
417.605	89.06
417.828	97.06
418.051	78.06
418.274	88.06
418.497	96.06
418.72	114.06
418.943	99.06
419.166	122.06
419.389	103.06
419.611	105.06
419.834	111.06
420.057	98.06
420.28	101.06
420.503	95.06
420.726	98.06
420.948	104.06
421.171	93.06
421.394	89.06
421.617	93.06
421.839	108.06
422.062	100.06
422.285	102.06
422.507	107.06
422.73	129.06
422.953	132.06
423.175	112.06
423.398	101.06
423.621	111.06
423.843	95.06
424.066	101.06
424.288	81.06
424.511	101.06
424.733	96.06
424.956	97.06
425.178	97.06
425.401	97.06
425.623	95.06
425.846	99.06
426.068	97.06
426.291	90.06
426.513	100.06
426.735	121.06
426.958	99.06
427.18	107.06
427.402	97.06
427.625	89.06
427.847	92.06
428.069	84.06
428.292	98.06
428.514	89.06
428.736	88.06
428.958	107.06
429.181	93.06
429.403	84.06
429.625	104.06
429.847	96.06
430.069	100.06
430.292	113.06
430.514	115.06
430.736	101.06
430.958	91.06
431.18	88.06
431.402	94.06
431.624	88.06
431.846	98.06
432.068	104.06
432.29	93.06
432.512	99.06
432.734	86.06
432.956	105.06
433.178	86.06
433.4	92.06
433.622	104.06
433.844	100.06
434.066	108.06
434.287	96.06
434.509	92.06
434.731	107.06
434.953	97.06
435.175	79.06
435.397	95.06
435.618	89.06
435.84	93.06
436.062	103.06
436.284	111.06
436.505	105.06
436.727	90.06
436.949	82.06
437.17	91.06
437.392	88.06
437.614	107.06
437.835	90.06
438.057	103.06
438.278	94.06
438.5	104.06
438.721	94.06
438.943	96.06
439.165	108.06
439.386	123.06
439.608	106.06
439.829	112.06
440.05	108.06
440.272	123.06
440.493	100.06
440.715	100.06
440.936	104.06
441.158	100.06
441.379	108.06
441.6	96.06
441.822	97.06
442.043	121.06
442.264	120.06
442.486	102.06
442.707	116.06
442.928	99.06
443.149	99.06
443.371	95.06
443.592	95.06
443.813	103.06
444.034	101.06
444.255	98.06
444.476	90.06
444.698	87.06
444.919	100.06
445.14	192.06
445.361	147.06
445.582	102.06
445.803	96.06
446.024	89.06
446.245	112.06
446.466	94.06
446.687	103.06
446.908	105.06
447.129	90.06
447.35	96.06
447.571	92.06
447.792	104.06
448.013	117.06
448.234	89.06
448.455	111.06
448.675	102.06
448.896	98.06
449.117	102.06
449.338	135.06
449.559	149.06
449.779	121.06
450	102.06
450.221	106.06
450.442	114.06
450.662	105.06
450.883	107.06
451.104	103.06
451.324	120.06
451.545	121.06
451.766	124.06
451.986	140.06
452.207	201.06
452.428	534.06
452.648	1291.06
452.869	731.06
453.089	205.06
453.31	126.06
453.53	112.06
453.751	136.06
453.971	152.06
454.192	160.06
454.412	116.06
454.633	84.06
454.853	98.06
455.073	84.06
455.294	94.06
455.514	103.06
455.734	83.06
455.955	95.06
456.175	89.06
456.395	96.06
456.616	76.06
456.836	96.06
457.056	94.06
457.276	92.06
457.497	116.06
457.717	111.06
457.937	89.06
458.157	80.06
458.377	92.06
458.598	97.06
458.818	95.06
459.038	99.06
459.258	90.06
459.478	96.06
459.698	97.06
459.918	95.06
460.138	76.06
460.358	91.06
460.578	97.06
460.798	90.06
461.018	87.06
461.238	99.06
461.458	83.06
461.678	107.06
461.898	98.06
462.118	84.06
462.338	101.06
462.558	95.06
462.777	105.06
462.997	97.06
463.217	114.06
463.437	128.06
463.657	178.06
463.876	188.06
464.096	114.06
464.316	108.06
464.536	88.06
464.755	89.06
464.975	105.06
465.195	91.06
465.414	85.06
465.634	95.06
465.854	97.06
466.073	96.06
466.293	97.06
466.512	95.06
466.732	96.06
466.951	111.06
467.171	135.06
467.391	135.06
467.61	103.06
467.829	99.06
468.049	85.06
468.268	85.06
468.488	108.06
468.707	111.06
468.927	106.06
469.146	104.06
469.365	99.06
469.585	94.06
469.804	104.06
470.023	99.06
470.243	105.06
470.462	93.06
470.681	110.06
470.901	131.06
471.12	193.06
471.339	210.06
471.558	142.06
471.777	118.06
471.997	107.06
472.216	92.06
472.435	86.06
472.654	93.06
472.873	108.06
473.092	100.06
473.311	87.06
473.53	105.06
473.749	88.06
473.968	108.06
474.187	101.06
474.406	104.06
474.625	83.06
474.844	108.06
475.063	105.06
475.282	105.06
475.501	98.06
475.72	101.06
475.939	92.06
476.158	97.06
476.377	105.06
476.596	107.06
476.814	105.06
477.033	98.06
477.252	102.06
477.471	104.06
477.69	110.06
477.908	100.06
478.127	109.06
478.346	101.06
478.564	87.06
478.783	103.06
479.002	112.06
479.22	93.06
479.439	107.06
479.658	96.06
479.876	92.06
480.095	99.06
480.313	87.06
480.532	101.06
480.751	97.06
480.969	77.06
481.188	86.06
481.406	91.06
481.624	102.06
481.843	109.06
482.061	112.06
482.28	104.06
482.498	97.06
482.717	87.06
482.935	102.06
483.153	116.06
483.372	111.06
483.59	101.06
483.808	116.06
484.027	103.06
484.245	117.06
484.463	184.06
484.681	247.06
484.9	155.06
485.118	115.06
485.336	104.06
485.554	111.06
485.772	132.06
485.99	200.06
486.209	257.06
486.427	177.06
486.645	123.06
486.863	120.06
487.081	115.06
487.299	103.06
487.517	99.06
487.735	98.06
487.953	97.06
488.171	100.06
488.389	111.06
488.607	95.06
488.825	85.06
489.043	116.06
489.261	95.06
489.479	93.06
489.696	86.06
489.914	92.06
490.132	102.06
490.35	94.06
490.568	87.06
490.786	112.06
491.003	107.06
491.221	116.06
491.439	119.06
491.657	99.06
491.874	120.06
492.092	131.06
492.31	122.06
492.527	95.06
492.745	109.06
492.963	122.06
493.18	99.06
493.398	115.06
493.615	96.06
493.833	99.06
494.05	104.06
494.268	109.06
494.485	93.06
494.703	102.06
494.92	93.06
495.138	106.06
495.355	100.06
495.573	111.06
495.79	118.06
496.008	98.06
496.225	97.06
496.442	103.06
496.66	129.06
496.877	141.06
497.094	157.06
497.312	117.06
497.529	103.06
497.746	106.06
497.963	105.06
498.181	101.06
498.398	106.06
498.615	108.06
498.832	99.06
499.049	110.06
499.267	133.06
499.484	155.06
499.701	117.06
499.918	118.06
500.135	96.06
500.352	118.06
500.569	96.06
500.786	90.06
501.003	105.06
501.22	94.06
501.437	97.06
501.654	103.06
501.871	117.06
502.088	98.06
502.305	108.06
502.522	99.06
502.739	103.06
502.956	93.06
503.172	92.06
503.389	103.06
503.606	100.06
503.823	96.06
504.04	110.06
504.256	91.06
504.473	95.06
504.69	97.06
504.907	124.06
505.123	123.06
505.34	99.06
505.557	108.06
505.773	113.06
505.99	93.06
506.207	85.06
506.423	100.06
506.64	115.06
506.856	93.06
507.073	86.06
507.289	99.06
507.506	101.06
507.722	89.06
507.939	102.06
