Data from SnStandardFlinnAPT0064_QswitchEnergy10_LIBS07252019.E.O._I.C._HRD10591_15-28-18-974.txt Node
Date: Thu Jul 25 15:28:18 EDT 2019
User: cochatt
Spectrometer: HR+D1059
Trigger mode: 1
Integration Time (sec): 1.000000E-1
Scans to average: 1
Electric dark correction enabled: true
Nonlinearity correction enabled: false
Boxcar width: 0
XAxis mode: Wavelengths
Number of Pixels in Spectrum: 2048
>>>>>Begin Spectral Data<<<<<
223.165	-17.75
223.4	-17.75
223.635	-17.75
223.869	-15.75
224.104	-19.75
224.338	-7.75
224.573	-9.75
224.808	-15.75
225.042	-7.75
225.277	-24.75
225.511	-5.75
225.746	13.25
225.98	13.25
226.215	15.25
226.449	20.25
226.683	12.25
226.918	18.25
227.152	32.25
227.387	49.25
227.621	58.25
227.856	56.25
228.09	40.25
228.324	43.25
228.559	47.25
228.793	59.25
229.027	68.25
229.262	82.25
229.496	69.25
229.73	75.25
229.964	70.25
230.199	79.25
230.433	80.25
230.667	82.25
230.901	76.25
231.136	96.25
231.37	104.25
231.604	91.25
231.838	119.25
232.072	134.25
232.306	129.25
232.541	108.25
232.775	88.25
233.009	83.25
233.243	105.25
233.477	100.25
233.711	103.25
233.945	103.25
234.179	120.25
234.413	86.25
234.647	91.25
234.881	95.25
235.115	87.25
235.349	105.25
235.583	121.25
235.817	139.25
236.051	141.25
236.285	105.25
236.519	106.25
236.753	72.25
236.987	68.25
237.221	91.25
237.455	80.25
237.689	88.25
237.922	75.25
238.156	88.25
238.39	97.25
238.624	90.25
238.858	76.25
239.091	89.25
239.325	91.25
239.559	98.25
239.793	91.25
240.027	89.25
240.26	85.25
240.494	97.25
240.728	86.25
240.961	89.25
241.195	104.25
241.429	92.25
241.662	82.25
241.896	94.25
242.13	91.25
242.363	131.25
242.597	180.25
242.83	167.25
243.064	135.25
243.298	204.25
243.531	171.25
243.765	89.25
243.998	89.25
244.232	86.25
244.465	85.25
244.699	78.25
244.932	90.25
245.166	86.25
245.399	77.25
245.633	90.25
245.866	89.25
246.099	91.25
246.333	80.25
246.566	88.25
246.8	79.25
247.033	76.25
247.266	85.25
247.5	82.25
247.733	88.25
247.966	106.25
248.2	104.25
248.433	121.25
248.666	127.25
248.899	125.25
249.133	114.25
249.366	108.25
249.599	114.25
249.832	139.25
250.066	137.25
250.299	107.25
250.532	92.25
250.765	88.25
250.998	75.25
251.231	76.25
251.465	90.25
251.698	91.25
251.931	97.25
252.164	101.25
252.397	96.25
252.63	104.25
252.863	108.25
253.096	99.25
253.329	102.25
253.562	107.25
253.795	87.25
254.028	99.25
254.261	86.25
254.494	115.25
254.727	131.25
254.96	153.25
255.193	146.25
255.426	106.25
255.659	102.25
255.892	101.25
256.124	91.25
256.357	102.25
256.59	96.25
256.823	104.25
257.056	127.25
257.289	166.25
257.521	193.25
257.754	142.25
257.987	100.25
258.22	87.25
258.452	95.25
258.685	95.25
258.918	100.25
259.151	108.25
259.383	122.25
259.616	161.25
259.849	164.25
260.081	113.25
260.314	87.25
260.547	90.25
260.779	80.25
261.012	95.25
261.244	83.25
261.477	104.25
261.71	110.25
261.942	96.25
262.175	91.25
262.407	91.25
262.64	111.25
262.872	87.25
263.105	83.25
263.337	81.25
263.57	96.25
263.802	83.25
264.035	96.25
264.267	97.25
264.499	100.25
264.732	97.25
264.964	92.25
265.197	101.25
265.429	97.25
265.661	99.25
265.894	112.25
266.126	125.25
266.358	182.25
266.591	185.25
266.823	104.25
267.055	96.25
267.287	100.25
267.52	81.25
267.752	100.25
267.984	100.25
268.216	93.25
268.448	93.25
268.681	86.25
268.913	85.25
269.145	99.25
269.377	88.25
269.609	95.25
269.841	104.25
270.073	101.25
270.306	139.25
270.538	229.25
270.77	380.25
271.002	439.25
271.234	222.25
271.466	118.25
271.698	102.25
271.93	86.25
272.162	88.25
272.394	86.25
272.626	108.25
272.858	86.25
273.09	89.25
273.322	85.25
273.553	100.25
273.785	107.25
274.017	87.25
274.249	110.25
274.481	100.25
274.713	112.25
274.945	80.25
275.176	82.25
275.408	88.25
275.64	123.25
275.872	85.25
276.104	89.25
276.335	119.25
276.567	116.25
276.799	104.25
277.031	115.25
277.262	99.25
277.494	105.25
277.726	141.25
277.957	193.25
278.189	311.25
278.421	263.25
278.652	239.25
278.884	207.25
279.115	159.25
279.347	116.25
279.579	107.25
279.81	113.25
280.042	96.25
280.273	99.25
280.505	107.25
280.736	105.25
280.968	143.25
281.199	190.25
281.431	288.25
281.662	299.25
281.894	156.25
282.125	131.25
282.356	115.25
282.588	120.25
282.819	123.25
283.051	132.25
283.282	151.25
283.513	208.25
283.745	354.25
283.976	619.25
284.207	919.25
284.439	692.25
284.67	315.25
284.901	301.25
285.132	411.25
285.364	455.25
285.595	279.25
285.826	206.25
286.057	282.25
286.288	499.25
286.52	715.25
286.751	574.25
286.982	210.25
287.213	124.25
287.444	125.25
287.675	111.25
287.906	90.25
288.138	108.25
288.369	101.25
288.6	99.25
288.831	108.25
289.062	109.25
289.293	104.25
289.524	111.25
289.755	110.25
289.986	89.25
290.217	102.25
290.448	107.25
290.679	109.25
290.91	145.25
291.141	200.25
291.371	285.25
291.602	325.25
291.833	209.25
292.064	127.25
292.295	107.25
292.526	104.25
292.757	118.25
292.987	109.25
293.218	106.25
293.449	108.25
293.68	95.25
293.91	100.25
294.141	94.25
294.372	111.25
294.603	85.25
294.833	104.25
295.064	104.25
295.295	91.25
295.525	93.25
295.756	110.25
295.987	103.25
296.217	108.25
296.448	108.25
296.679	100.25
296.909	101.25
297.14	90.25
297.37	111.25
297.601	112.25
297.831	104.25
298.062	113.25
298.292	108.25
298.523	113.25
298.753	103.25
298.984	118.25
299.214	108.25
299.445	119.25
299.675	111.25
299.905	126.25
300.136	137.25
300.366	179.25
300.597	316.25
300.827	527.25
301.057	814.25
301.288	731.25
301.518	315.25
301.748	171.25
301.979	149.25
302.209	143.25
302.439	175.25
302.669	197.25
302.9	313.25
303.13	584.25
303.36	1027.25
303.59	1432.25
303.82	972.25
304.051	341.25
304.281	183.25
304.511	147.25
304.741	121.25
304.971	132.25
305.201	131.25
305.431	122.25
305.661	106.25
305.891	128.25
306.121	132.25
306.352	107.25
306.582	120.25
306.812	123.25
307.042	127.25
307.272	119.25
307.502	120.25
307.731	104.25
307.961	121.25
308.191	111.25
308.421	117.25
308.651	106.25
308.881	112.25
309.111	120.25
309.341	124.25
309.571	119.25
309.8	128.25
310.03	119.25
310.26	112.25
310.49	116.25
310.72	117.25
310.949	106.25
311.179	108.25
311.409	107.25
311.639	122.25
311.868	105.25
312.098	125.25
312.328	119.25
312.557	116.25
312.787	113.25
313.017	115.25
313.246	125.25
313.476	134.25
313.706	147.25
313.935	166.25
314.165	221.25
314.394	260.25
314.624	212.25
314.853	149.25
315.083	126.25
315.312	135.25
315.542	126.25
315.771	144.25
316.001	150.25
316.23	152.25
316.46	182.25
316.689	185.25
316.919	311.25
317.148	588.25
317.377	1087.25
317.607	1760.25
317.836	1616.25
318.065	624.25
318.295	283.25
318.524	192.25
318.753	142.25
318.983	144.25
319.212	126.25
319.441	135.25
319.67	129.25
319.9	118.25
320.129	121.25
320.358	126.25
320.587	144.25
320.816	133.25
321.046	147.25
321.275	135.25
321.504	140.25
321.733	163.25
321.962	184.25
322.191	175.25
322.42	145.25
322.649	135.25
322.878	148.25
323.108	135.25
323.337	145.25
323.566	149.25
323.795	163.25
324.024	133.25
324.253	167.25
324.482	200.25
324.71	258.25
324.939	335.25
325.168	263.25
325.397	203.25
325.626	312.25
325.855	571.25
326.084	1115.25
326.313	1863.25
326.542	1844.25
326.77	733.25
326.999	317.25
327.228	245.25
327.457	266.25
327.686	251.25
327.914	175.25
328.143	144.25
328.372	151.25
328.6	143.25
328.829	132.25
329.058	112.25
329.287	131.25
329.515	133.25
329.744	133.25
329.972	126.25
330.201	128.25
330.43	117.25
330.658	128.25
330.887	134.25
331.115	131.25
331.344	118.25
331.572	125.25
331.801	126.25
332.03	131.25
332.258	139.25
332.486	203.25
332.715	339.25
332.943	577.25
333.172	894.25
333.4	752.25
333.629	283.25
333.857	169.25
334.085	141.25
334.314	134.25
334.542	126.25
334.771	124.25
334.999	135.25
335.227	127.25
335.455	139.25
335.684	135.25
335.912	123.25
336.14	123.25
336.369	123.25
336.597	135.25
336.825	115.25
337.053	139.25
337.281	126.25
337.51	115.25
337.738	130.25
337.966	120.25
338.194	129.25
338.422	135.25
338.65	117.25
338.878	128.25
339.106	126.25
339.334	132.25
339.562	120.25
339.79	127.25
340.018	131.25
340.246	124.25
340.474	129.25
340.702	133.25
340.93	121.25
341.158	131.25
341.386	127.25
341.614	125.25
341.842	130.25
342.07	141.25
342.298	126.25
342.526	127.25
342.754	122.25
342.981	117.25
343.209	124.25
343.437	121.25
343.665	120.25
343.893	112.25
344.12	125.25
344.348	123.25
344.576	109.25
344.804	123.25
345.031	110.25
345.259	126.25
345.487	129.25
345.714	127.25
345.942	112.25
346.17	103.25
346.397	121.25
346.625	99.25
346.853	101.25
347.08	109.25
347.308	117.25
347.535	99.25
347.763	112.25
347.99	117.25
348.218	124.25
348.445	114.25
348.673	122.25
348.9	134.25
349.128	136.25
349.355	147.25
349.583	117.25
349.81	120.25
350.037	116.25
350.265	124.25
350.492	128.25
350.72	133.25
350.947	132.25
351.174	115.25
351.402	110.25
351.629	120.25
351.856	122.25
352.083	99.25
352.311	117.25
352.538	96.25
352.765	119.25
352.992	107.25
353.22	118.25
353.447	110.25
353.674	115.25
353.901	121.25
354.128	107.25
354.355	117.25
354.583	121.25
354.81	117.25
355.037	109.25
355.264	103.25
355.491	112.25
355.718	117.25
355.945	107.25
356.172	105.25
356.399	108.25
356.626	114.25
356.853	124.25
357.08	105.25
357.307	117.25
357.534	121.25
357.761	130.25
357.988	135.25
358.215	124.25
358.441	125.25
358.668	134.25
358.895	133.25
359.122	123.25
359.349	121.25
359.576	120.25
359.802	126.25
360.029	126.25
360.256	133.25
360.483	128.25
360.709	119.25
360.936	111.25
361.163	123.25
361.39	110.25
361.616	105.25
361.843	119.25
362.07	128.25
362.296	122.25
362.523	108.25
362.749	127.25
362.976	110.25
363.203	118.25
363.429	119.25
363.656	123.25
363.882	123.25
364.109	152.25
364.335	126.25
364.562	118.25
364.788	107.25
365.015	123.25
365.241	155.25
365.468	215.25
365.694	302.25
365.92	233.25
366.147	144.25
366.373	99.25
366.599	114.25
366.826	129.25
367.052	110.25
367.278	110.25
367.505	120.25
367.731	114.25
367.957	116.25
368.184	128.25
368.41	143.25
368.636	131.25
368.862	107.25
369.089	115.25
369.315	119.25
369.541	124.25
369.767	119.25
369.993	115.25
370.219	123.25
370.445	107.25
370.672	127.25
370.898	118.25
371.124	103.25
371.35	117.25
371.576	106.25
371.802	116.25
372.028	117.25
372.254	128.25
372.48	132.25
372.706	121.25
372.932	104.25
373.158	130.25
373.384	121.25
373.61	125.25
373.835	134.25
374.061	123.25
374.287	104.25
374.513	107.25
374.739	119.25
374.965	127.25
375.191	109.25
375.416	127.25
375.642	122.25
375.868	116.25
376.094	111.25
376.319	106.25
376.545	111.25
376.771	115.25
376.997	120.25
377.222	101.25
377.448	133.25
377.674	128.25
377.899	116.25
378.125	108.25
378.35	124.25
378.576	124.25
378.802	127.25
379.027	127.25
379.253	140.25
379.478	201.25
379.704	360.25
379.929	909.25
380.155	1878.25
380.38	1897.25
380.606	623.25
380.831	228.25
381.057	149.25
381.282	127.25
381.507	121.25
381.733	111.25
381.958	111.25
382.184	117.25
382.409	123.25
382.634	103.25
382.86	107.25
383.085	113.25
383.31	119.25
383.535	117.25
383.761	127.25
383.986	115.25
384.211	109.25
384.436	129.25
384.662	133.25
384.887	128.25
385.112	116.25
385.337	108.25
385.562	104.25
385.787	112.25
386.013	120.25
386.238	133.25
386.463	98.25
386.688	127.25
386.913	117.25
387.138	119.25
387.363	111.25
387.588	117.25
387.813	103.25
388.038	107.25
388.263	117.25
388.488	109.25
388.713	94.25
388.938	108.25
389.163	128.25
389.387	105.25
389.612	112.25
389.837	104.25
390.062	113.25
390.287	95.25
390.512	118.25
390.736	103.25
390.961	113.25
391.186	105.25
391.411	105.25
391.636	111.25
391.86	117.25
392.085	107.25
392.31	105.25
392.534	107.25
392.759	111.25
392.984	131.25
393.208	138.25
393.433	140.25
393.658	153.25
393.882	124.25
394.107	103.25
394.331	105.25
394.556	102.25
394.78	108.25
395.005	107.25
395.229	102.25
395.454	104.25
395.678	97.25
395.903	109.25
396.127	98.25
396.352	103.25
396.576	113.25
396.801	132.25
397.025	145.25
397.249	119.25
397.474	103.25
397.698	107.25
397.922	133.25
398.147	100.25
398.371	102.25
398.595	108.25
398.82	110.25
399.044	104.25
399.268	112.25
399.492	104.25
399.717	98.25
399.941	115.25
400.165	107.25
400.389	108.25
400.613	103.25
400.837	106.25
401.062	107.25
401.286	104.25
401.51	89.25
401.734	94.25
401.958	97.25
402.182	104.25
402.406	104.25
402.63	113.25
402.854	102.25
403.078	96.25
403.302	109.25
403.526	115.25
403.75	105.25
403.974	104.25
404.198	94.25
404.422	108.25
404.645	91.25
404.869	104.25
405.093	101.25
405.317	97.25
405.541	108.25
405.765	144.25
405.988	192.25
406.212	131.25
406.436	126.25
406.66	116.25
406.883	105.25
407.107	104.25
407.331	110.25
407.555	104.25
407.778	110.25
408.002	105.25
408.226	109.25
408.449	106.25
408.673	111.25
408.896	96.25
409.12	105.25
409.344	102.25
409.567	101.25
409.791	111.25
410.014	117.25
410.238	125.25
410.461	127.25
410.685	124.25
410.908	105.25
411.132	97.25
411.355	115.25
411.578	107.25
411.802	119.25
412.025	115.25
412.249	100.25
412.472	119.25
412.695	115.25
412.919	109.25
413.142	108.25
413.365	121.25
413.589	116.25
413.812	111.25
414.035	112.25
414.258	125.25
414.482	114.25
414.705	109.25
414.928	112.25
415.151	104.25
415.374	119.25
415.597	115.25
415.821	111.25
416.044	110.25
416.267	110.25
416.49	117.25
416.713	97.25
416.936	105.25
417.159	104.25
417.382	99.25
417.605	112.25
417.828	108.25
418.051	90.25
418.274	112.25
418.497	100.25
418.72	98.25
418.943	103.25
419.166	114.25
419.389	124.25
419.611	120.25
419.834	116.25
420.057	112.25
420.28	113.25
420.503	107.25
420.726	115.25
420.948	107.25
421.171	105.25
421.394	120.25
421.617	97.25
421.839	100.25
422.062	103.25
422.285	101.25
422.507	109.25
422.73	134.25
422.953	145.25
423.175	118.25
423.398	111.25
423.621	100.25
423.843	109.25
424.066	97.25
424.288	104.25
424.511	94.25
424.733	108.25
424.956	106.25
425.178	109.25
425.401	97.25
425.623	105.25
425.846	112.25
426.068	111.25
426.291	102.25
426.513	94.25
426.735	108.25
426.958	104.25
427.18	105.25
427.402	102.25
427.625	90.25
427.847	97.25
428.069	100.25
428.292	103.25
428.514	124.25
428.736	104.25
428.958	93.25
429.181	93.25
429.403	101.25
429.625	110.25
429.847	107.25
430.069	106.25
430.292	126.25
430.514	104.25
430.736	113.25
430.958	106.25
431.18	101.25
431.402	97.25
431.624	111.25
431.846	111.25
432.068	101.25
432.29	107.25
432.512	92.25
432.734	105.25
432.956	104.25
433.178	104.25
433.4	97.25
433.622	103.25
433.844	95.25
434.066	108.25
434.287	92.25
434.509	113.25
434.731	108.25
434.953	92.25
435.175	105.25
435.397	110.25
435.618	96.25
435.84	111.25
436.062	105.25
436.284	96.25
436.505	105.25
436.727	96.25
436.949	106.25
437.17	102.25
437.392	107.25
437.614	108.25
437.835	88.25
438.057	91.25
438.278	89.25
438.5	96.25
438.721	110.25
438.943	117.25
439.165	145.25
439.386	116.25
439.608	107.25
439.829	117.25
440.05	134.25
440.272	129.25
440.493	111.25
440.715	107.25
440.936	111.25
441.158	105.25
441.379	96.25
441.6	109.25
441.822	108.25
442.043	126.25
442.264	146.25
442.486	133.25
442.707	120.25
442.928	108.25
443.149	98.25
443.371	96.25
443.592	109.25
443.813	106.25
444.034	107.25
444.255	103.25
444.476	105.25
444.698	100.25
444.919	104.25
445.14	206.25
445.361	141.25
445.582	88.25
445.803	117.25
446.024	106.25
446.245	107.25
446.466	103.25
446.687	117.25
446.908	106.25
447.129	110.25
447.35	105.25
447.571	92.25
447.792	107.25
448.013	104.25
448.234	93.25
448.455	117.25
448.675	98.25
448.896	116.25
449.117	121.25
449.338	140.25
449.559	173.25
449.779	146.25
450	114.25
450.221	126.25
450.442	125.25
450.662	122.25
450.883	115.25
451.104	121.25
451.324	116.25
451.545	113.25
451.766	127.25
451.986	149.25
452.207	255.25
452.428	628.25
452.648	1581.25
452.869	861.25
453.089	240.25
453.31	143.25
453.53	137.25
453.751	147.25
453.971	190.25
454.192	172.25
454.412	135.25
454.633	113.25
454.853	106.25
455.073	103.25
455.294	103.25
455.514	86.25
455.734	110.25
455.955	108.25
456.175	104.25
456.395	103.25
456.616	110.25
456.836	116.25
457.056	107.25
457.276	118.25
457.497	129.25
457.717	142.25
457.937	115.25
458.157	91.25
458.377	95.25
458.598	92.25
458.818	109.25
459.038	95.25
459.258	90.25
459.478	96.25
459.698	112.25
459.918	104.25
460.138	102.25
460.358	96.25
460.578	101.25
460.798	101.25
461.018	90.25
461.238	96.25
461.458	118.25
461.678	113.25
461.898	110.25
462.118	104.25
462.338	101.25
462.558	96.25
462.777	83.25
462.997	125.25
463.217	119.25
463.437	143.25
463.657	218.25
463.876	215.25
464.096	141.25
464.316	103.25
464.536	96.25
464.755	112.25
464.975	108.25
465.195	91.25
465.414	103.25
465.634	107.25
465.854	88.25
466.073	93.25
466.293	106.25
466.512	102.25
466.732	103.25
466.951	124.25
467.171	170.25
467.391	140.25
467.61	108.25
467.829	106.25
468.049	100.25
468.268	112.25
468.488	99.25
468.707	99.25
468.927	106.25
469.146	112.25
469.365	114.25
469.585	103.25
469.804	101.25
470.023	86.25
470.243	105.25
470.462	122.25
470.681	112.25
470.901	133.25
471.12	213.25
471.339	220.25
471.558	146.25
471.777	115.25
471.997	112.25
472.216	103.25
472.435	89.25
472.654	105.25
472.873	99.25
473.092	122.25
473.311	102.25
473.53	95.25
473.749	117.25
473.968	108.25
474.187	95.25
474.406	105.25
474.625	98.25
474.844	87.25
475.063	87.25
475.282	99.25
475.501	99.25
475.72	105.25
475.939	94.25
476.158	101.25
476.377	135.25
476.596	113.25
476.814	110.25
477.033	112.25
477.252	119.25
477.471	98.25
477.69	115.25
477.908	99.25
478.127	102.25
478.346	100.25
478.564	101.25
478.783	107.25
479.002	116.25
479.22	95.25
479.439	96.25
479.658	106.25
479.876	94.25
480.095	111.25
480.313	103.25
480.532	112.25
480.751	96.25
480.969	97.25
481.188	107.25
481.406	103.25
481.624	124.25
481.843	127.25
482.061	124.25
482.28	97.25
482.498	109.25
482.717	104.25
482.935	108.25
483.153	110.25
483.372	101.25
483.59	107.25
483.808	105.25
484.027	113.25
484.245	136.25
484.463	190.25
484.681	273.25
484.9	172.25
485.118	130.25
485.336	107.25
485.554	115.25
485.772	149.25
485.99	218.25
486.209	298.25
486.427	199.25
486.645	131.25
486.863	131.25
487.081	98.25
487.299	95.25
487.517	97.25
487.735	106.25
487.953	111.25
488.171	108.25
488.389	95.25
488.607	106.25
488.825	99.25
489.043	94.25
489.261	101.25
489.479	109.25
489.696	93.25
489.914	111.25
490.132	111.25
490.35	104.25
490.568	115.25
490.786	124.25
491.003	116.25
491.221	109.25
491.439	131.25
491.657	103.25
491.874	121.25
492.092	107.25
492.31	102.25
492.527	124.25
492.745	123.25
492.963	115.25
493.18	105.25
493.398	98.25
493.615	111.25
493.833	101.25
494.05	102.25
494.268	102.25
494.485	116.25
494.703	104.25
494.92	102.25
495.138	118.25
495.355	121.25
495.573	113.25
495.79	119.25
496.008	109.25
496.225	116.25
496.442	107.25
496.66	129.25
496.877	151.25
497.094	161.25
497.312	119.25
497.529	100.25
497.746	106.25
497.963	115.25
498.181	123.25
498.398	120.25
498.615	118.25
498.832	119.25
499.049	116.25
499.267	140.25
499.484	179.25
499.701	129.25
499.918	104.25
500.135	101.25
500.352	109.25
500.569	104.25
500.786	98.25
501.003	100.25
501.22	121.25
501.437	106.25
501.654	108.25
501.871	99.25
502.088	122.25
502.305	124.25
502.522	104.25
502.739	101.25
502.956	102.25
503.172	102.25
503.389	117.25
503.606	111.25
503.823	115.25
504.04	106.25
504.256	99.25
504.473	113.25
504.69	110.25
