Data from SnStandardFlinnAPT0064_LampEnergy5.5_LIBS07252019.E.O._I.C._HRD10591_15-14-27-491.txt Node
Date: Thu Jul 25 15:14:27 EDT 2019
User: cochatt
Spectrometer: HR+D1059
Trigger mode: 1
Integration Time (sec): 1.000000E-1
Scans to average: 1
Electric dark correction enabled: true
Nonlinearity correction enabled: false
Boxcar width: 0
XAxis mode: Wavelengths
Number of Pixels in Spectrum: 2048
>>>>>Begin Spectral Data<<<<<
223.165	-10.88
223.4	-10.88
223.635	-10.88
223.869	-17.88
224.104	-10.88
224.338	-13.88
224.573	-21.88
224.808	-6.88
225.042	-9.88
225.277	-11.88
225.511	-4.88
225.746	-0.88
225.98	5.12
226.215	9.12
226.449	13.12
226.683	16.12
226.918	40.12
227.152	26.12
227.387	30.12
227.621	31.12
227.856	41.12
228.09	57.12
228.324	50.12
228.559	53.12
228.793	64.12
229.027	128.12
229.262	158.12
229.496	171.12
229.73	136.12
229.964	152.12
230.199	153.12
230.433	152.12
230.667	168.12
230.901	155.12
231.136	171.12
231.37	166.12
231.604	192.12
231.838	193.12
232.072	215.12
232.306	221.12
232.541	210.12
232.775	203.12
233.009	193.12
233.243	213.12
233.477	210.12
233.711	239.12
233.945	242.12
234.179	210.12
234.413	212.12
234.647	189.12
234.881	214.12
235.115	236.12
235.349	251.12
235.583	318.12
235.817	394.12
236.051	380.12
236.285	267.12
236.519	237.12
236.753	222.12
236.987	208.12
237.221	215.12
237.455	217.12
237.689	214.12
237.922	211.12
238.156	202.12
238.39	215.12
238.624	216.12
238.858	227.12
239.091	238.12
239.325	216.12
239.559	218.12
239.793	218.12
240.027	233.12
240.26	238.12
240.494	234.12
240.728	259.12
240.961	268.12
241.195	282.12
241.429	279.12
241.662	296.12
241.896	314.12
242.13	355.12
242.363	438.12
242.597	570.12
242.83	547.12
243.064	563.12
243.298	614.12
243.531	546.12
243.765	383.12
243.998	321.12
244.232	320.12
244.465	307.12
244.699	279.12
244.932	290.12
245.166	300.12
245.399	303.12
245.633	280.12
245.866	298.12
246.099	276.12
246.333	285.12
246.566	304.12
246.8	287.12
247.033	275.12
247.266	274.12
247.5	291.12
247.733	294.12
247.966	308.12
248.2	339.12
248.433	340.12
248.666	372.12
248.899	361.12
249.133	343.12
249.366	350.12
249.599	361.12
249.832	411.12
250.066	406.12
250.299	346.12
250.532	340.12
250.765	331.12
250.998	353.12
251.231	320.12
251.465	319.12
251.698	327.12
251.931	309.12
252.164	334.12
252.397	335.12
252.63	324.12
252.863	352.12
253.096	344.12
253.329	342.12
253.562	335.12
253.795	339.12
254.028	340.12
254.261	351.12
254.494	350.12
254.727	397.12
254.96	449.12
255.193	474.12
255.426	383.12
255.659	356.12
255.892	367.12
256.124	369.12
256.357	363.12
256.59	376.12
256.823	388.12
257.056	446.12
257.289	499.12
257.521	512.12
257.754	478.12
257.987	400.12
258.22	388.12
258.452	387.12
258.685	395.12
258.918	383.12
259.151	413.12
259.383	422.12
259.616	459.12
259.849	486.12
260.081	438.12
260.314	402.12
260.547	403.12
260.779	400.12
261.012	401.12
261.244	411.12
261.477	422.12
261.71	446.12
261.942	444.12
262.175	438.12
262.407	436.12
262.64	460.12
262.872	483.12
263.105	479.12
263.337	518.12
263.57	546.12
263.802	577.12
264.035	552.12
264.267	562.12
264.499	570.12
264.732	603.12
264.964	598.12
265.197	605.12
265.429	607.12
265.661	618.12
265.894	657.12
266.126	712.12
266.358	778.12
266.591	759.12
266.823	666.12
267.055	602.12
267.287	570.12
267.52	568.12
267.752	564.12
267.984	530.12
268.216	530.12
268.448	542.12
268.681	535.12
268.913	502.12
269.145	515.12
269.377	564.12
269.609	504.12
269.841	531.12
270.073	559.12
270.306	636.12
270.538	813.12
270.77	1116.12
271.002	1326.12
271.234	991.12
271.466	716.12
271.698	618.12
271.93	562.12
272.162	550.12
272.394	514.12
272.626	514.12
272.858	516.12
273.09	495.12
273.322	502.12
273.553	495.12
273.785	491.12
274.017	489.12
274.249	497.12
274.481	524.12
274.713	538.12
274.945	497.12
275.176	499.12
275.408	497.12
275.64	491.12
275.872	516.12
276.104	535.12
276.335	531.12
276.567	531.12
276.799	534.12
277.031	554.12
277.262	546.12
277.494	558.12
277.726	602.12
277.957	654.12
278.189	732.12
278.421	692.12
278.652	663.12
278.884	617.12
279.115	587.12
279.347	558.12
279.579	551.12
279.81	583.12
280.042	570.12
280.273	581.12
280.505	597.12
280.736	575.12
280.968	602.12
281.199	651.12
281.431	704.12
281.662	713.12
281.894	688.12
282.125	641.12
282.356	634.12
282.588	638.12
282.819	667.12
283.051	704.12
283.282	746.12
283.513	922.12
283.745	1235.12
283.976	1905.12
284.207	2632.12
284.439	2433.12
284.67	1519.12
284.901	1244.12
285.132	1209.12
285.364	1163.12
285.595	945.12
285.826	889.12
286.057	998.12
286.288	1326.12
286.52	1707.12
286.751	1600.12
286.982	1066.12
287.213	859.12
287.444	771.12
287.675	714.12
287.906	706.12
288.138	697.12
288.369	682.12
288.6	668.12
288.831	673.12
289.062	662.12
289.293	653.12
289.524	682.12
289.755	662.12
289.986	691.12
290.217	657.12
290.448	683.12
290.679	696.12
290.91	698.12
291.141	702.12
291.371	723.12
291.602	774.12
291.833	734.12
292.064	674.12
292.295	662.12
292.526	659.12
292.757	656.12
292.987	643.12
293.218	640.12
293.449	663.12
293.68	671.12
293.91	625.12
294.141	637.12
294.372	618.12
294.603	628.12
294.833	645.12
295.064	640.12
295.295	653.12
295.525	634.12
295.756	647.12
295.987	626.12
296.217	628.12
296.448	636.12
296.679	636.12
296.909	649.12
297.14	650.12
297.37	652.12
297.601	661.12
297.831	648.12
298.062	640.12
298.292	666.12
298.523	664.12
298.753	692.12
298.984	686.12
299.214	682.12
299.445	701.12
299.675	704.12
299.905	727.12
300.136	730.12
300.366	826.12
300.597	1031.12
300.827	1301.12
301.057	1673.12
301.288	1695.12
301.518	1157.12
301.748	936.12
301.979	863.12
302.209	871.12
302.439	874.12
302.669	891.12
302.9	1040.12
303.13	1428.12
303.36	2011.12
303.59	2556.12
303.82	2263.12
304.051	1416.12
304.281	1083.12
304.511	922.12
304.741	881.12
304.971	824.12
305.201	807.12
305.431	802.12
305.661	771.12
305.891	767.12
306.121	760.12
306.352	750.12
306.582	751.12
306.812	735.12
307.042	747.12
307.272	728.12
307.502	724.12
307.731	714.12
307.961	735.12
308.191	751.12
308.421	753.12
308.651	748.12
308.881	736.12
309.111	741.12
309.341	756.12
309.571	740.12
309.8	769.12
310.03	779.12
310.26	751.12
310.49	742.12
310.72	772.12
310.949	760.12
311.179	770.12
311.409	775.12
311.639	773.12
311.868	795.12
312.098	814.12
312.328	801.12
312.557	787.12
312.787	783.12
313.017	775.12
313.246	802.12
313.476	793.12
313.706	822.12
313.935	849.12
314.165	874.12
314.394	910.12
314.624	872.12
314.853	846.12
315.083	840.12
315.312	834.12
315.542	858.12
315.771	856.12
316.001	882.12
316.23	905.12
316.46	917.12
316.689	996.12
316.919	1139.12
317.148	1605.12
317.377	2344.12
317.607	3365.12
317.836	3466.12
318.065	2164.12
318.295	1504.12
318.524	1211.12
318.753	1083.12
318.983	1048.12
319.212	984.12
319.441	982.12
319.67	928.12
319.9	930.12
320.129	933.12
320.358	920.12
320.587	926.12
320.816	930.12
321.046	932.12
321.275	935.12
321.504	940.12
321.733	959.12
321.962	980.12
322.191	963.12
322.42	984.12
322.649	982.12
322.878	967.12
323.108	969.12
323.337	1004.12
323.566	1020.12
323.795	1000.12
324.024	1025.12
324.253	1040.12
324.482	1074.12
324.71	1094.12
324.939	1169.12
325.168	1182.12
325.397	1244.12
325.626	1442.12
325.855	1940.12
326.084	2820.12
326.313	4121.12
326.542	4422.12
326.77	2979.12
326.999	2053.12
327.228	1755.12
327.457	1658.12
327.686	1690.12
327.914	1807.12
328.143	2021.12
328.372	2390.12
328.6	2523.12
328.829	2391.12
329.058	2110.12
329.287	1912.12
329.515	1750.12
329.744	1625.12
329.972	1551.12
330.201	1478.12
330.43	1417.12
330.658	1416.12
330.887	1364.12
331.115	1332.12
331.344	1378.12
331.572	1333.12
331.801	1328.12
332.03	1371.12
332.258	1321.12
332.486	1410.12
332.715	1566.12
332.943	1796.12
333.172	2184.12
333.4	2188.12
333.629	1778.12
333.857	1658.12
334.085	1717.12
334.314	1768.12
334.542	1875.12
334.771	2174.12
334.999	2573.12
335.227	2990.12
335.455	3381.12
335.684	3174.12
335.912	2741.12
336.14	2386.12
336.369	2171.12
336.597	2007.12
336.825	1814.12
337.053	1765.12
337.281	1615.12
337.51	1546.12
337.738	1497.12
337.966	1432.12
338.194	1425.12
338.422	1350.12
338.65	1326.12
338.878	1314.12
339.106	1249.12
339.334	1279.12
339.562	1240.12
339.79	1204.12
340.018	1212.12
340.246	1210.12
340.474	1189.12
340.702	1188.12
340.93	1187.12
341.158	1208.12
341.386	1188.12
341.614	1175.12
341.842	1138.12
342.07	1134.12
342.298	1146.12
342.526	1100.12
342.754	1085.12
342.981	1102.12
343.209	1078.12
343.437	1101.12
343.665	1072.12
343.893	1139.12
344.12	1134.12
344.348	1132.12
344.576	1089.12
344.804	1105.12
345.031	1020.12
345.259	1056.12
345.487	1030.12
345.714	1042.12
345.942	1024.12
346.17	1036.12
346.397	1032.12
346.625	1017.12
346.853	1011.12
347.08	1000.12
347.308	1031.12
347.535	998.12
347.763	1026.12
347.99	1011.12
348.218	1015.12
348.445	994.12
348.673	984.12
348.9	1006.12
349.128	972.12
349.355	990.12
349.583	1031.12
349.81	972.12
350.037	979.12
350.265	975.12
350.492	947.12
350.72	972.12
350.947	1000.12
351.174	971.12
351.402	959.12
351.629	978.12
351.856	963.12
352.083	988.12
352.311	984.12
352.538	969.12
352.765	960.12
352.992	961.12
353.22	953.12
353.447	991.12
353.674	978.12
353.901	956.12
354.128	953.12
354.355	991.12
354.583	970.12
354.81	972.12
355.037	1012.12
355.264	996.12
355.491	984.12
355.718	967.12
355.945	999.12
356.172	998.12
356.399	986.12
356.626	1000.12
356.853	997.12
357.08	1013.12
357.307	1007.12
357.534	1015.12
357.761	999.12
357.988	1033.12
358.215	1031.12
358.441	1044.12
358.668	1038.12
358.895	1046.12
359.122	1018.12
359.349	1036.12
359.576	1043.12
359.802	1005.12
360.029	1014.12
360.256	1026.12
360.483	1015.12
360.709	1026.12
360.936	1010.12
361.163	1039.12
361.39	1037.12
361.616	1025.12
361.843	1055.12
362.07	1041.12
362.296	1055.12
362.523	1044.12
362.749	1042.12
362.976	1023.12
363.203	1040.12
363.429	1032.12
363.656	1007.12
363.882	1021.12
364.109	1032.12
364.335	1019.12
364.562	1029.12
364.788	1024.12
365.015	1034.12
365.241	1058.12
365.468	1088.12
365.694	1130.12
365.92	1088.12
366.147	1060.12
366.373	1066.12
366.599	1034.12
366.826	1061.12
367.052	1037.12
367.278	1054.12
367.505	1077.12
367.731	1051.12
367.957	1051.12
368.184	1049.12
368.41	1047.12
368.636	1075.12
368.862	1106.12
369.089	1056.12
369.315	1067.12
369.541	1086.12
369.767	1084.12
369.993	1078.12
370.219	1054.12
370.445	1100.12
370.672	1101.12
370.898	1080.12
371.124	1074.12
371.35	1060.12
371.576	1101.12
371.802	1112.12
372.028	1103.12
372.254	1100.12
372.48	1118.12
372.706	1130.12
372.932	1152.12
373.158	1110.12
373.384	1132.12
373.61	1138.12
373.835	1145.12
374.061	1121.12
374.287	1162.12
374.513	1169.12
374.739	1142.12
374.965	1150.12
375.191	1174.12
375.416	1193.12
375.642	1132.12
375.868	1149.12
376.094	1130.12
376.319	1135.12
376.545	1156.12
376.771	1142.12
376.997	1100.12
377.222	1098.12
377.448	1081.12
377.674	1105.12
377.899	1109.12
378.125	1103.12
378.35	1098.12
378.576	1093.12
378.802	1115.12
379.027	1132.12
379.253	1160.12
379.478	1178.12
379.704	1321.12
379.929	1803.12
380.155	2550.12
380.38	2720.12
380.606	1761.12
380.831	1339.12
381.057	1261.12
381.282	1185.12
381.507	1130.12
381.733	1148.12
381.958	1113.12
382.184	1120.12
382.409	1088.12
382.634	1102.12
382.86	1114.12
383.085	1112.12
383.31	1080.12
383.535	1140.12
383.761	1134.12
383.986	1092.12
384.211	1135.12
384.436	1131.12
384.662	1094.12
384.887	1144.12
385.112	1119.12
385.337	1115.12
385.562	1139.12
385.787	1140.12
386.013	1154.12
386.238	1148.12
386.463	1120.12
386.688	1108.12
386.913	1121.12
387.138	1135.12
387.363	1134.12
387.588	1154.12
387.813	1145.12
388.038	1124.12
388.263	1105.12
388.488	1140.12
388.713	1121.12
388.938	1111.12
389.163	1138.12
389.387	1138.12
389.612	1112.12
389.837	1151.12
390.062	1172.12
390.287	1147.12
390.512	1129.12
390.736	1140.12
390.961	1156.12
391.186	1175.12
391.411	1184.12
391.636	1182.12
391.86	1193.12
392.085	1199.12
392.31	1175.12
392.534	1159.12
392.759	1187.12
392.984	1146.12
393.208	1158.12
393.433	1134.12
393.658	1153.12
393.882	1144.12
394.107	1130.12
394.331	1140.12
394.556	1117.12
394.78	1162.12
395.005	1174.12
395.229	1152.12
395.454	1158.12
395.678	1195.12
395.903	1191.12
396.127	1191.12
396.352	1189.12
396.576	1153.12
396.801	1155.12
397.025	1196.12
397.249	1206.12
397.474	1227.12
397.698	1219.12
397.922	1215.12
398.147	1188.12
398.371	1220.12
398.595	1228.12
398.82	1264.12
399.044	1286.12
399.268	1394.12
399.492	1448.12
399.717	1524.12
399.941	1511.12
400.165	1441.12
400.389	1392.12
400.613	1347.12
400.837	1306.12
401.062	1322.12
401.286	1282.12
401.51	1273.12
401.734	1225.12
401.958	1287.12
402.182	1256.12
402.406	1284.12
402.63	1299.12
402.854	1289.12
403.078	1275.12
403.302	1312.12
403.526	1302.12
403.75	1290.12
403.974	1337.12
404.198	1336.12
404.422	1306.12
404.645	1310.12
404.869	1314.12
405.093	1295.12
405.317	1278.12
405.541	1311.12
405.765	1328.12
405.988	1341.12
406.212	1314.12
406.436	1304.12
406.66	1338.12
406.883	1304.12
407.107	1357.12
407.331	1410.12
407.555	1442.12
407.778	1396.12
408.002	1395.12
408.226	1382.12
408.449	1400.12
408.673	1370.12
408.896	1334.12
409.12	1330.12
409.344	1314.12
409.567	1278.12
409.791	1310.12
410.014	1292.12
410.238	1260.12
410.461	1308.12
410.685	1281.12
410.908	1257.12
411.132	1308.12
411.355	1264.12
411.578	1272.12
411.802	1241.12
412.025	1268.12
412.249	1238.12
412.472	1284.12
412.695	1280.12
412.919	1256.12
413.142	1219.12
413.365	1242.12
413.589	1221.12
413.812	1221.12
414.035	1237.12
414.258	1215.12
414.482	1247.12
414.705	1260.12
414.928	1253.12
415.151	1226.12
415.374	1222.12
415.597	1230.12
415.821	1200.12
416.044	1223.12
416.267	1192.12
416.49	1213.12
416.713	1187.12
416.936	1198.12
417.159	1176.12
417.382	1168.12
417.605	1198.12
417.828	1179.12
418.051	1202.12
418.274	1205.12
418.497	1189.12
418.72	1239.12
418.943	1205.12
419.166	1253.12
419.389	1327.12
419.611	1288.12
419.834	1239.12
420.057	1274.12
420.28	1212.12
420.503	1196.12
420.726	1163.12
420.948	1184.12
421.171	1200.12
421.394	1221.12
421.617	1201.12
421.839	1212.12
422.062	1202.12
422.285	1174.12
422.507	1207.12
422.73	1216.12
422.953	1219.12
423.175	1240.12
423.398	1226.12
423.621	1207.12
423.843	1212.12
424.066	1194.12
424.288	1202.12
424.511	1182.12
424.733	1216.12
424.956	1167.12
425.178	1167.12
425.401	1173.12
425.623	1200.12
425.846	1161.12
426.068	1159.12
426.291	1151.12
426.513	1141.12
426.735	1136.12
426.958	1178.12
427.18	1138.12
427.402	1108.12
427.625	1121.12
427.847	1091.12
428.069	1100.12
428.292	1146.12
428.514	1126.12
428.736	1095.12
428.958	1155.12
429.181	1115.12
429.403	1100.12
429.625	1124.12
429.847	1101.12
430.069	1090.12
430.292	1168.12
430.514	1158.12
430.736	1134.12
430.958	1124.12
431.18	1101.12
431.402	1074.12
431.624	1076.12
431.846	1081.12
432.068	1056.12
432.29	1067.12
432.512	1073.12
432.734	1103.12
432.956	1099.12
433.178	1120.12
433.4	1133.12
433.622	1103.12
433.844	1089.12
434.066	1123.12
434.287	1107.12
434.509	1096.12
434.731	1149.12
434.953	1113.12
435.175	1154.12
435.397	1144.12
435.618	1113.12
435.84	1100.12
436.062	1085.12
436.284	1082.12
436.505	1079.12
436.727	1100.12
436.949	1100.12
437.17	1080.12
437.392	1079.12
437.614	1043.12
437.835	1063.12
438.057	1051.12
438.278	1027.12
438.5	1089.12
438.721	1082.12
438.943	1130.12
439.165	1136.12
439.386	1101.12
439.608	1149.12
439.829	1144.12
440.05	1146.12
440.272	1178.12
440.493	1116.12
440.715	1161.12
440.936	1145.12
441.158	1170.12
441.379	1160.12
441.6	1176.12
441.822	1219.12
442.043	1253.12
442.264	1291.12
442.486	1210.12
442.707	1195.12
442.928	1184.12
443.149	1189.12
443.371	1210.12
443.592	1205.12
443.813	1167.12
444.034	1187.12
444.255	1235.12
444.476	1223.12
444.698	1258.12
444.919	1290.12
445.14	1363.12
445.361	1266.12
445.582	1214.12
445.803	1187.12
446.024	1174.12
446.245	1175.12
446.466	1174.12
446.687	1151.12
446.908	1163.12
447.129	1151.12
447.35	1131.12
447.571	1083.12
447.792	1106.12
448.013	1081.12
448.234	1102.12
448.455	1071.12
448.675	1116.12
448.896	1097.12
449.117	1121.12
449.338	1206.12
449.559	1202.12
449.779	1139.12
450	1067.12
450.221	1065.12
450.442	1090.12
450.662	1061.12
450.883	1043.12
451.104	1062.12
451.324	1046.12
451.545	1042.12
451.766	1074.12
451.986	1073.12
452.207	1126.12
452.428	1326.12
452.648	1779.12
452.869	1534.12
453.089	1187.12
453.31	1155.12
453.53	1139.12
453.751	1146.12
453.971	1203.12
454.192	1211.12
454.412	1045.12
454.633	1027.12
454.853	1036.12
455.073	1025.12
455.294	1009.12
455.514	1032.12
455.734	1034.12
455.955	1024.12
456.175	1003.12
456.395	1008.12
456.616	1009.12
456.836	1037.12
457.056	1045.12
457.276	1000.12
457.497	1069.12
457.717	1076.12
457.937	1046.12
458.157	1056.12
458.377	1071.12
458.598	1107.12
458.818	1122.12
459.038	1090.12
459.258	1100.12
459.478	1103.12
459.698	1093.12
459.918	1115.12
460.138	1121.12
460.358	1190.12
460.578	1226.12
460.798	1195.12
461.018	1198.12
461.238	1196.12
461.458	1175.12
461.678	1176.12
461.898	1234.12
462.118	1226.12
462.338	1250.12
462.558	1263.12
462.777	1257.12
462.997	1344.12
463.217	1379.12
463.437	1395.12
463.657	1421.12
463.876	1403.12
464.096	1356.12
464.316	1311.12
464.536	1281.12
464.755	1258.12
464.975	1253.12
465.195	1221.12
465.414	1202.12
465.634	1152.12
465.854	1146.12
466.073	1114.12
466.293	1108.12
466.512	1116.12
466.732	1120.12
466.951	1139.12
467.171	1210.12
467.391	1206.12
467.61	1136.12
467.829	1102.12
468.049	1113.12
468.268	1091.12
468.488	1073.12
468.707	1106.12
468.927	1111.12
469.146	1065.12
469.365	1061.12
469.585	1072.12
469.804	1087.12
470.023	1128.12
470.243	1142.12
470.462	1197.12
470.681	1207.12
470.901	1316.12
471.12	1485.12
471.339	1439.12
471.558	1255.12
471.777	1147.12
471.997	1165.12
472.216	1134.12
472.435	1095.12
472.654	1082.12
472.873	1087.12
473.092	1063.12
473.311	1096.12
473.53	1088.12
473.749	1111.12
473.968	1143.12
474.187	1081.12
474.406	1119.12
474.625	1108.12
474.844	1098.12
475.063	1107.12
475.282	1089.12
475.501	1116.12
475.72	1084.12
475.939	1096.12
476.158	1116.12
476.377	1150.12
476.596	1149.12
476.814	1149.12
477.033	1128.12
477.252	1154.12
477.471	1149.12
477.69	1201.12
477.908	1211.12
478.127	1239.12
478.346	1261.12
478.564	1262.12
478.783	1274.12
479.002	1312.12
479.22	1301.12
479.439	1278.12
479.658	1262.12
479.876	1260.12
480.095	1289.12
480.313	1328.12
480.532	1314.12
480.751	1350.12
480.969	1311.12
481.188	1288.12
481.406	1312.12
481.624	1302.12
481.843	1320.12
482.061	1284.12
482.28	1299.12
482.498	1275.12
482.717	1271.12
482.935	1314.12
483.153	1299.12
483.372	1352.12
483.59	1374.12
483.808	1368.12
484.027	1390.12
484.245	1474.12
484.463	1558.12
484.681	1706.12
484.9	1559.12
485.118	1510.12
485.336	1485.12
485.554	1486.12
485.772	1576.12
485.99	1725.12
486.209	1833.12
486.427	1587.12
486.645	1484.12
486.863	1416.12
487.081	1391.12
487.299	1392.12
487.517	1400.12
487.735	1411.12
487.953	1428.12
488.171	1380.12
488.389	1378.12
488.607	1365.12
488.825	1352.12
489.043	1320.12
489.261	1324.12
489.479	1376.12
489.696	1335.12
489.914	1352.12
490.132	1343.12
490.35	1374.12
490.568	1401.12
490.786	1404.12
491.003	1434.12
491.221	1427.12
491.439	1426.12
