Data from SnStandardFlinnAPT0064_LampEnergy5.5_LIBS07252019.E.O._I.C._HRD10591_15-17-29-492.txt Node
Date: Thu Jul 25 15:17:29 EDT 2019
User: cochatt
Spectrometer: HR+D1059
Trigger mode: 1
Integration Time (sec): 1.000000E-1
Scans to average: 1
Electric dark correction enabled: true
Nonlinearity correction enabled: false
Boxcar width: 0
XAxis mode: Wavelengths
Number of Pixels in Spectrum: 2048
>>>>>Begin Spectral Data<<<<<
223.165	-4.94
223.4	-4.94
223.635	-4.94
223.869	-11.94
224.104	-12.94
224.338	-11.94
224.573	-14.94
224.808	-24.94
225.042	-8.94
225.277	6.06
225.511	-9.94
225.746	7.06
225.98	-5.94
226.215	5.06
226.449	21.06
226.683	13.06
226.918	17.06
227.152	37.06
227.387	35.06
227.621	32.06
227.856	46.06
228.09	45.06
228.324	56.06
228.559	62.06
228.793	76.06
229.027	148.06
229.262	178.06
229.496	160.06
229.73	167.06
229.964	170.06
230.199	174.06
230.433	167.06
230.667	172.06
230.901	188.06
231.136	179.06
231.37	194.06
231.604	182.06
231.838	210.06
232.072	260.06
232.306	271.06
232.541	239.06
232.775	231.06
233.009	213.06
233.243	213.06
233.477	240.06
233.711	240.06
233.945	295.06
234.179	265.06
234.413	224.06
234.647	234.06
234.881	251.06
235.115	247.06
235.349	299.06
235.583	372.06
235.817	488.06
236.051	472.06
236.285	317.06
236.519	258.06
236.753	245.06
236.987	261.06
237.221	273.06
237.455	240.06
237.689	224.06
237.922	235.06
238.156	232.06
238.39	233.06
238.624	237.06
238.858	245.06
239.091	246.06
239.325	240.06
239.559	235.06
239.793	252.06
240.027	253.06
240.26	258.06
240.494	252.06
240.728	267.06
240.961	288.06
241.195	308.06
241.429	322.06
241.662	347.06
241.896	358.06
242.13	440.06
242.363	562.06
242.597	731.06
242.83	678.06
243.064	666.06
243.298	826.06
243.531	688.06
243.765	434.06
243.998	360.06
244.232	324.06
244.465	300.06
244.699	322.06
244.932	331.06
245.166	315.06
245.399	316.06
245.633	324.06
245.866	325.06
246.099	321.06
246.333	325.06
246.566	310.06
246.8	320.06
247.033	318.06
247.266	300.06
247.5	312.06
247.733	317.06
247.966	341.06
248.2	357.06
248.433	406.06
248.666	440.06
248.899	423.06
249.133	388.06
249.366	390.06
249.599	429.06
249.832	489.06
250.066	471.06
250.299	388.06
250.532	365.06
250.765	348.06
250.998	355.06
251.231	376.06
251.465	348.06
251.698	356.06
251.931	340.06
252.164	352.06
252.397	362.06
252.63	365.06
252.863	357.06
253.096	387.06
253.329	377.06
253.562	357.06
253.795	364.06
254.028	371.06
254.261	356.06
254.494	396.06
254.727	472.06
254.96	558.06
255.193	540.06
255.426	459.06
255.659	387.06
255.892	394.06
256.124	394.06
256.357	398.06
256.59	413.06
256.823	450.06
257.056	512.06
257.289	587.06
257.521	652.06
257.754	512.06
257.987	446.06
258.22	434.06
258.452	420.06
258.685	421.06
258.918	447.06
259.151	470.06
259.383	488.06
259.616	552.06
259.849	555.06
260.081	492.06
260.314	464.06
260.547	430.06
260.779	447.06
261.012	463.06
261.244	437.06
261.477	475.06
261.71	456.06
261.942	471.06
262.175	467.06
262.407	487.06
262.64	492.06
262.872	532.06
263.105	520.06
263.337	558.06
263.57	584.06
263.802	610.06
264.035	580.06
264.267	616.06
264.499	624.06
264.732	637.06
264.964	660.06
265.197	664.06
265.429	678.06
265.661	692.06
265.894	686.06
266.126	798.06
266.358	883.06
266.591	848.06
266.823	741.06
267.055	692.06
267.287	652.06
267.52	618.06
267.752	622.06
267.984	581.06
268.216	597.06
268.448	586.06
268.681	565.06
268.913	586.06
269.145	570.06
269.377	573.06
269.609	576.06
269.841	587.06
270.073	635.06
270.306	723.06
270.538	969.06
270.77	1418.06
271.002	1730.06
271.234	1164.06
271.466	796.06
271.698	654.06
271.93	603.06
272.162	614.06
272.394	570.06
272.626	552.06
272.858	564.06
273.09	561.06
273.322	541.06
273.553	542.06
273.785	552.06
274.017	570.06
274.249	561.06
274.481	544.06
274.713	531.06
274.945	533.06
275.176	566.06
275.408	562.06
275.64	576.06
275.872	573.06
276.104	584.06
276.335	554.06
276.567	592.06
276.799	598.06
277.031	606.06
277.262	615.06
277.494	639.06
277.726	715.06
277.957	776.06
278.189	882.06
278.421	865.06
278.652	742.06
278.884	732.06
279.115	662.06
279.347	636.06
279.579	619.06
279.81	639.06
280.042	639.06
280.273	652.06
280.505	633.06
280.736	664.06
280.968	706.06
281.199	774.06
281.431	894.06
281.662	877.06
281.894	773.06
282.125	722.06
282.356	703.06
282.588	732.06
282.819	744.06
283.051	808.06
283.282	877.06
283.513	1072.06
283.745	1566.06
283.976	2511.06
284.207	3621.06
284.439	3186.06
284.67	1897.06
284.901	1527.06
285.132	1519.06
285.364	1458.06
285.595	1150.06
285.826	1042.06
286.057	1256.06
286.288	1724.06
286.52	2326.06
286.751	2128.06
286.982	1283.06
287.213	981.06
287.444	862.06
287.675	798.06
287.906	790.06
288.138	771.06
288.369	733.06
288.6	734.06
288.831	720.06
289.062	745.06
289.293	740.06
289.524	730.06
289.755	743.06
289.986	751.06
290.217	780.06
290.448	780.06
290.679	784.06
290.91	757.06
291.141	794.06
291.371	863.06
291.602	882.06
291.833	779.06
292.064	760.06
292.295	740.06
292.526	719.06
292.757	727.06
292.987	712.06
293.218	733.06
293.449	708.06
293.68	705.06
293.91	694.06
294.141	700.06
294.372	704.06
294.603	715.06
294.833	703.06
295.064	680.06
295.295	711.06
295.525	698.06
295.756	688.06
295.987	710.06
296.217	690.06
296.448	714.06
296.679	700.06
296.909	724.06
297.14	709.06
297.37	726.06
297.601	723.06
297.831	719.06
298.062	754.06
298.292	726.06
298.523	747.06
298.753	771.06
298.984	750.06
299.214	771.06
299.445	778.06
299.675	760.06
299.905	807.06
300.136	854.06
300.366	925.06
300.597	1188.06
300.827	1647.06
301.057	2270.06
301.288	2256.06
301.518	1415.06
301.748	1070.06
301.979	967.06
302.209	966.06
302.439	931.06
302.669	1005.06
302.9	1268.06
303.13	1739.06
303.36	2690.06
303.59	3543.06
303.82	3044.06
304.051	1746.06
304.281	1204.06
304.511	1046.06
304.741	958.06
304.971	927.06
305.201	888.06
305.431	860.06
305.661	855.06
305.891	839.06
306.121	834.06
306.352	858.06
306.582	819.06
306.812	816.06
307.042	817.06
307.272	842.06
307.502	816.06
307.731	812.06
307.961	805.06
308.191	814.06
308.421	820.06
308.651	801.06
308.881	797.06
309.111	822.06
309.341	826.06
309.571	842.06
309.8	842.06
310.03	820.06
310.26	839.06
310.49	834.06
310.72	859.06
310.949	836.06
311.179	836.06
311.409	856.06
311.639	861.06
311.868	886.06
312.098	864.06
312.328	895.06
312.557	878.06
312.787	867.06
313.017	886.06
313.246	873.06
313.476	877.06
313.706	925.06
313.935	927.06
314.165	984.06
314.394	1035.06
314.624	1014.06
314.853	971.06
315.083	939.06
315.312	992.06
315.542	961.06
315.771	971.06
316.001	990.06
316.23	1004.06
316.46	1031.06
316.689	1117.06
316.919	1378.06
317.148	1998.06
317.377	3122.06
317.607	4776.06
317.836	4834.06
318.065	2694.06
318.295	1719.06
318.524	1399.06
318.753	1227.06
318.983	1159.06
319.212	1086.06
319.441	1015.06
319.67	1045.06
319.9	1003.06
320.129	1022.06
320.358	1016.06
320.587	981.06
320.816	1021.06
321.046	1044.06
321.275	1021.06
321.504	1055.06
321.733	1078.06
321.962	1104.06
322.191	1098.06
322.42	1075.06
322.649	1101.06
322.878	1055.06
323.108	1081.06
323.337	1134.06
323.566	1130.06
323.795	1140.06
324.024	1134.06
324.253	1163.06
324.482	1205.06
324.71	1261.06
324.939	1335.06
325.168	1347.06
325.397	1446.06
325.626	1676.06
325.855	2383.06
326.084	3844.06
326.313	5762.06
326.542	6119.06
326.77	3774.06
326.999	2383.06
327.228	2008.06
327.457	1881.06
327.686	1896.06
327.914	1964.06
328.143	2340.06
328.372	2706.06
328.6	2980.06
328.829	2658.06
329.058	2358.06
329.287	2054.06
329.515	1920.06
329.744	1765.06
329.972	1705.06
330.201	1610.06
330.43	1550.06
330.658	1536.06
330.887	1492.06
331.115	1482.06
331.344	1497.06
331.572	1461.06
331.801	1495.06
332.03	1485.06
332.258	1544.06
332.486	1586.06
332.715	1788.06
332.943	2236.06
333.172	2749.06
333.4	2738.06
333.629	2041.06
333.857	1876.06
334.085	1862.06
334.314	1955.06
334.542	2086.06
334.771	2372.06
334.999	2876.06
335.227	3544.06
335.455	3890.06
335.684	3662.06
335.912	3017.06
336.14	2600.06
336.369	2341.06
336.597	2144.06
336.825	2002.06
337.053	1873.06
337.281	1794.06
337.51	1714.06
337.738	1625.06
337.966	1553.06
338.194	1508.06
338.422	1487.06
338.65	1436.06
338.878	1450.06
339.106	1399.06
339.334	1388.06
339.562	1334.06
339.79	1319.06
340.018	1326.06
340.246	1314.06
340.474	1312.06
340.702	1306.06
340.93	1336.06
341.158	1312.06
341.386	1270.06
341.614	1287.06
341.842	1284.06
342.07	1238.06
342.298	1213.06
342.526	1212.06
342.754	1222.06
342.981	1188.06
343.209	1195.06
343.437	1241.06
343.665	1216.06
343.893	1238.06
344.12	1210.06
344.348	1218.06
344.576	1198.06
344.804	1194.06
345.031	1169.06
345.259	1144.06
345.487	1131.06
345.714	1118.06
345.942	1131.06
346.17	1097.06
346.397	1118.06
346.625	1120.06
346.853	1109.06
347.08	1086.06
347.308	1137.06
347.535	1090.06
347.763	1132.06
347.99	1080.06
348.218	1103.06
348.445	1097.06
348.673	1074.06
348.9	1104.06
349.128	1119.06
349.355	1088.06
349.583	1080.06
349.81	1070.06
350.037	1060.06
350.265	1078.06
350.492	1051.06
350.72	1082.06
350.947	1077.06
351.174	1067.06
351.402	1043.06
351.629	1076.06
351.856	1063.06
352.083	1060.06
352.311	1065.06
352.538	1041.06
352.765	1081.06
352.992	1054.06
353.22	1052.06
353.447	1055.06
353.674	1048.06
353.901	1084.06
354.128	1090.06
354.355	1065.06
354.583	1067.06
354.81	1054.06
355.037	1043.06
355.264	1113.06
355.491	1089.06
355.718	1109.06
355.945	1103.06
356.172	1091.06
356.399	1111.06
356.626	1124.06
356.853	1078.06
357.08	1084.06
357.307	1107.06
357.534	1123.06
357.761	1146.06
357.988	1160.06
358.215	1124.06
358.441	1141.06
358.668	1098.06
358.895	1104.06
359.122	1108.06
359.349	1103.06
359.576	1129.06
359.802	1116.06
360.029	1106.06
360.256	1152.06
360.483	1110.06
360.709	1136.06
360.936	1147.06
361.163	1118.06
361.39	1148.06
361.616	1127.06
361.843	1141.06
362.07	1127.06
362.296	1116.06
362.523	1121.06
362.749	1128.06
362.976	1106.06
363.203	1128.06
363.429	1094.06
363.656	1122.06
363.882	1140.06
364.109	1108.06
364.335	1120.06
364.562	1109.06
364.788	1131.06
365.015	1129.06
365.241	1192.06
365.468	1193.06
365.694	1264.06
365.92	1207.06
366.147	1159.06
366.373	1170.06
366.599	1183.06
366.826	1135.06
367.052	1119.06
367.278	1170.06
367.505	1158.06
367.731	1171.06
367.957	1152.06
368.184	1163.06
368.41	1186.06
368.636	1198.06
368.862	1165.06
369.089	1172.06
369.315	1160.06
369.541	1153.06
369.767	1148.06
369.993	1144.06
370.219	1134.06
370.445	1158.06
370.672	1199.06
370.898	1190.06
371.124	1196.06
371.35	1194.06
371.576	1186.06
371.802	1184.06
372.028	1186.06
372.254	1229.06
372.48	1236.06
372.706	1238.06
372.932	1254.06
373.158	1227.06
373.384	1231.06
373.61	1272.06
373.835	1217.06
374.061	1227.06
374.287	1282.06
374.513	1253.06
374.739	1275.06
374.965	1270.06
375.191	1292.06
375.416	1259.06
375.642	1274.06
375.868	1257.06
376.094	1247.06
376.319	1244.06
376.545	1220.06
376.771	1207.06
376.997	1231.06
377.222	1229.06
377.448	1224.06
377.674	1214.06
377.899	1194.06
378.125	1205.06
378.35	1221.06
378.576	1221.06
378.802	1214.06
379.027	1211.06
379.253	1277.06
379.478	1315.06
379.704	1566.06
379.929	2255.06
380.155	3432.06
380.38	3652.06
380.606	2175.06
380.831	1567.06
381.057	1373.06
381.282	1270.06
381.507	1249.06
381.733	1234.06
381.958	1235.06
382.184	1238.06
382.409	1221.06
382.634	1218.06
382.86	1196.06
383.085	1202.06
383.31	1154.06
383.535	1195.06
383.761	1202.06
383.986	1202.06
384.211	1227.06
384.436	1246.06
384.662	1243.06
384.887	1263.06
385.112	1230.06
385.337	1220.06
385.562	1231.06
385.787	1242.06
386.013	1233.06
386.238	1226.06
386.463	1243.06
386.688	1246.06
386.913	1221.06
387.138	1213.06
387.363	1237.06
387.588	1217.06
387.813	1255.06
388.038	1224.06
388.263	1181.06
388.488	1218.06
388.713	1235.06
388.938	1238.06
389.163	1234.06
389.387	1240.06
389.612	1227.06
389.837	1227.06
390.062	1229.06
390.287	1247.06
390.512	1236.06
390.736	1259.06
390.961	1256.06
391.186	1275.06
391.411	1272.06
391.636	1305.06
391.86	1336.06
392.085	1287.06
392.31	1302.06
392.534	1282.06
392.759	1250.06
392.984	1242.06
393.208	1272.06
393.433	1316.06
393.658	1307.06
393.882	1283.06
394.107	1267.06
394.331	1243.06
394.556	1279.06
394.78	1219.06
395.005	1272.06
395.229	1270.06
395.454	1296.06
395.678	1314.06
395.903	1272.06
396.127	1303.06
396.352	1277.06
396.576	1266.06
396.801	1266.06
397.025	1324.06
397.249	1331.06
397.474	1293.06
397.698	1288.06
397.922	1294.06
398.147	1332.06
398.371	1353.06
398.595	1385.06
398.82	1370.06
399.044	1440.06
399.268	1480.06
399.492	1613.06
399.717	1650.06
399.941	1662.06
400.165	1581.06
400.389	1527.06
400.613	1467.06
400.837	1431.06
401.062	1416.06
401.286	1403.06
401.51	1382.06
401.734	1336.06
401.958	1397.06
402.182	1378.06
402.406	1402.06
402.63	1383.06
402.854	1402.06
403.078	1388.06
403.302	1407.06
403.526	1418.06
403.75	1407.06
403.974	1410.06
404.198	1398.06
404.422	1434.06
404.645	1448.06
404.869	1387.06
405.093	1431.06
405.317	1440.06
405.541	1431.06
405.765	1440.06
405.988	1451.06
406.212	1443.06
406.436	1471.06
406.66	1458.06
406.883	1458.06
407.107	1515.06
407.331	1520.06
407.555	1530.06
407.778	1534.06
408.002	1498.06
408.226	1532.06
408.449	1496.06
408.673	1466.06
408.896	1462.06
409.12	1461.06
409.344	1440.06
409.567	1420.06
409.791	1398.06
410.014	1401.06
410.238	1387.06
410.461	1387.06
410.685	1387.06
410.908	1386.06
411.132	1376.06
411.355	1372.06
411.578	1402.06
411.802	1318.06
412.025	1370.06
412.249	1387.06
412.472	1361.06
412.695	1346.06
412.919	1304.06
413.142	1333.06
413.365	1332.06
413.589	1359.06
413.812	1344.06
414.035	1326.06
414.258	1343.06
414.482	1330.06
414.705	1303.06
414.928	1322.06
415.151	1312.06
415.374	1334.06
415.597	1348.06
415.821	1286.06
416.044	1269.06
416.267	1289.06
416.49	1306.06
416.713	1287.06
416.936	1272.06
417.159	1275.06
417.382	1278.06
417.605	1273.06
417.828	1270.06
418.051	1307.06
418.274	1304.06
418.497	1307.06
418.72	1361.06
418.943	1332.06
419.166	1385.06
419.389	1407.06
419.611	1408.06
419.834	1381.06
420.057	1368.06
420.28	1326.06
420.503	1301.06
420.726	1319.06
420.948	1280.06
421.171	1257.06
421.394	1322.06
421.617	1293.06
421.839	1332.06
422.062	1303.06
422.285	1283.06
422.507	1348.06
422.73	1336.06
422.953	1334.06
423.175	1349.06
423.398	1340.06
423.621	1304.06
423.843	1301.06
424.066	1295.06
424.288	1332.06
424.511	1314.06
424.733	1314.06
424.956	1298.06
425.178	1285.06
425.401	1318.06
425.623	1295.06
425.846	1263.06
426.068	1282.06
426.291	1238.06
426.513	1228.06
426.735	1251.06
426.958	1218.06
427.18	1210.06
427.402	1252.06
427.625	1231.06
427.847	1194.06
428.069	1203.06
428.292	1232.06
428.514	1204.06
428.736	1186.06
428.958	1195.06
429.181	1208.06
429.403	1178.06
429.625	1182.06
429.847	1187.06
430.069	1224.06
430.292	1229.06
430.514	1273.06
430.736	1299.06
430.958	1260.06
431.18	1189.06
431.402	1196.06
431.624	1216.06
431.846	1182.06
432.068	1172.06
432.29	1176.06
432.512	1157.06
432.734	1214.06
432.956	1178.06
433.178	1221.06
433.4	1210.06
433.622	1196.06
433.844	1215.06
434.066	1215.06
434.287	1188.06
434.509	1214.06
434.731	1214.06
434.953	1237.06
435.175	1256.06
435.397	1235.06
435.618	1205.06
435.84	1178.06
436.062	1162.06
436.284	1220.06
436.505	1182.06
436.727	1191.06
436.949	1180.06
437.17	1189.06
437.392	1178.06
437.614	1181.06
437.835	1127.06
438.057	1144.06
438.278	1130.06
438.5	1174.06
438.721	1181.06
438.943	1215.06
439.165	1248.06
439.386	1281.06
439.608	1208.06
439.829	1226.06
440.05	1266.06
440.272	1304.06
440.493	1275.06
440.715	1244.06
440.936	1223.06
441.158	1215.06
441.379	1255.06
441.6	1316.06
441.822	1350.06
442.043	1403.06
442.264	1420.06
442.486	1337.06
442.707	1294.06
442.928	1269.06
443.149	1276.06
443.371	1288.06
443.592	1300.06
443.813	1285.06
444.034	1272.06
444.255	1327.06
444.476	1316.06
444.698	1359.06
444.919	1357.06
445.14	1432.06
445.361	1378.06
445.582	1335.06
445.803	1306.06
446.024	1268.06
446.245	1346.06
446.466	1311.06
446.687	1273.06
446.908	1251.06
447.129	1242.06
447.35	1215.06
447.571	1211.06
447.792	1179.06
448.013	1211.06
448.234	1190.06
448.455	1159.06
448.675	1177.06
448.896	1259.06
449.117	1239.06
449.338	1341.06
449.559	1431.06
449.779	1261.06
450	1189.06
450.221	1139.06
450.442	1167.06
450.662	1154.06
450.883	1154.06
451.104	1169.06
451.324	1154.06
451.545	1150.06
451.766	1155.06
451.986	1178.06
452.207	1216.06
452.428	1513.06
452.648	2199.06
452.869	1890.06
453.089	1325.06
453.31	1279.06
453.53	1295.06
453.751	1293.06
453.971	1403.06
454.192	1402.06
454.412	1202.06
454.633	1147.06
454.853	1124.06
455.073	1092.06
455.294	1114.06
455.514	1087.06
455.734	1090.06
455.955	1086.06
456.175	1079.06
456.395	1102.06
456.616	1074.06
456.836	1120.06
457.056	1129.06
457.276	1109.06
457.497	1158.06
457.717	1170.06
457.937	1161.06
458.157	1156.06
458.377	1158.06
458.598	1152.06
458.818	1151.06
459.038	1171.06
459.258	1144.06
459.478	1195.06
459.698	1141.06
459.918	1199.06
460.138	1252.06
460.358	1231.06
460.578	1275.06
460.798	1298.06
461.018	1247.06
461.238	1309.06
461.458	1287.06
461.678	1327.06
461.898	1341.06
462.118	1349.06
462.338	1380.06
462.558	1386.06
462.777	1403.06
462.997	1479.06
463.217	1513.06
463.437	1547.06
463.657	1599.06
463.876	1540.06
464.096	1504.06
464.316	1399.06
464.536	1399.06
464.755	1403.06
464.975	1316.06
465.195	1302.06
465.414	1251.06
465.634	1233.06
465.854	1233.06
466.073	1211.06
466.293	1230.06
466.512	1176.06
466.732	1211.06
466.951	1279.06
467.171	1354.06
467.391	1335.06
467.61	1233.06
467.829	1201.06
468.049	1188.06
468.268	1165.06
468.488	1154.06
468.707	1149.06
468.927	1176.06
469.146	1162.06
469.365	1194.06
469.585	1195.06
469.804	1222.06
470.023	1243.06
470.243	1242.06
470.462	1271.06
470.681	1339.06
470.901	1475.06
471.12	1725.06
471.339	1770.06
471.558	1417.06
471.777	1298.06
471.997	1252.06
472.216	1199.06
472.435	1181.06
472.654	1159.06
472.873	1179.06
473.092	1177.06
473.311	1187.06
473.53	1205.06
473.749	1202.06
473.968	1238.06
474.187	1197.06
474.406	1148.06
474.625	1180.06
474.844	1204.06
475.063	1172.06
475.282	1185.06
475.501	1196.06
475.72	1184.06
475.939	1188.06
476.158	1230.06
476.377	1232.06
476.596	1250.06
476.814	1226.06
477.033	1228.06
477.252	1237.06
477.471	1271.06
477.69	1293.06
477.908	1293.06
478.127	1345.06
478.346	1313.06
478.564	1370.06
478.783	1381.06
479.002	1387.06
479.22	1355.06
479.439	1360.06
479.658	1370.06
479.876	1389.06
480.095	1382.06
480.313	1434.06
480.532	1454.06
480.751	1402.06
480.969	1409.06
481.188	1327.06
481.406	1397.06
481.624	1378.06
481.843	1376.06
482.061	1402.06
482.28	1410.06
482.498	1409.06
482.717	1375.06
482.935	1405.06
483.153	1452.06
483.372	1468.06
483.59	1463.06
483.808	1493.06
484.027	1523.06
484.245	1594.06
484.463	1786.06
484.681	2052.06
484.9	1798.06
485.118	1638.06
485.336	1638.06
485.554	1659.06
485.772	1757.06
485.99	2004.06
486.209	2207.06
486.427	1826.06
486.645	1635.06
486.863	1576.06
487.081	1528.06
487.299	1498.06
487.517	1506.06
487.735	1545.06
487.953	1531.06
488.171	1532.06
488.389	1539.06
488.607	1488.06
488.825	1443.06
489.043	1430.06
489.261	1428.06
489.479	1457.06
489.696	1434.06
489.914	1453.06
490.132	1455.06
490.35	1485.06
490.568	1514.06
490.786	1492.06
