Data from SnStandardFlinnAPT0064_LampEnergy10_LIBS07252019.E.O._I.C._HRD10591_15-22-33-494.txt Node
Date: Thu Jul 25 15:22:33 EDT 2019
User: cochatt
Spectrometer: HR+D1059
Trigger mode: 1
Integration Time (sec): 1.000000E-1
Scans to average: 1
Electric dark correction enabled: true
Nonlinearity correction enabled: false
Boxcar width: 0
XAxis mode: Wavelengths
Number of Pixels in Spectrum: 2048
>>>>>Begin Spectral Data<<<<<
223.165	-10.81
223.4	-10.81
223.635	-10.81
223.869	-12.81
224.104	-13.81
224.338	-13.81
224.573	-7.81
224.808	-21.81
225.042	-5.81
225.277	-11.81
225.511	0.19
225.746	7.19
225.98	8.19
226.215	3.19
226.449	16.19
226.683	24.19
226.918	10.19
227.152	29.19
227.387	37.19
227.621	42.19
227.856	44.19
228.09	37.19
228.324	39.19
228.559	68.19
228.793	120.19
229.027	322.19
229.262	324.19
229.496	311.19
229.73	314.19
229.964	314.19
230.199	329.19
230.433	332.19
230.667	314.19
230.901	337.19
231.136	341.19
231.37	335.19
231.604	371.19
231.838	434.19
232.072	532.19
232.306	551.19
232.541	457.19
232.775	421.19
233.009	429.19
233.243	408.19
233.477	462.19
233.711	518.19
233.945	554.19
234.179	525.19
234.413	438.19
234.647	422.19
234.881	453.19
235.115	515.19
235.349	615.19
235.583	765.19
235.817	1000.19
236.051	958.19
236.285	642.19
236.519	521.19
236.753	524.19
236.987	488.19
237.221	544.19
237.455	497.19
237.689	451.19
237.922	458.19
238.156	479.19
238.39	492.19
238.624	490.19
238.858	496.19
239.091	474.19
239.325	490.19
239.559	519.19
239.793	516.19
240.027	517.19
240.26	524.19
240.494	562.19
240.728	579.19
240.961	594.19
241.195	646.19
241.429	662.19
241.662	675.19
241.896	780.19
242.13	932.19
242.363	1200.19
242.597	1556.19
242.83	1535.19
243.064	1512.19
243.298	1772.19
243.531	1455.19
243.765	924.19
243.998	741.19
244.232	660.19
244.465	650.19
244.699	641.19
244.932	640.19
245.166	653.19
245.399	677.19
245.633	673.19
245.866	685.19
246.099	669.19
246.333	647.19
246.566	641.19
246.8	652.19
247.033	633.19
247.266	668.19
247.5	672.19
247.733	669.19
247.966	717.19
248.2	759.19
248.433	875.19
248.666	999.19
248.899	937.19
249.133	856.19
249.366	868.19
249.599	944.19
249.832	1081.19
250.066	1076.19
250.299	875.19
250.532	762.19
250.765	736.19
250.998	752.19
251.231	768.19
251.465	731.19
251.698	722.19
251.931	737.19
252.164	728.19
252.397	755.19
252.63	803.19
252.863	802.19
253.096	783.19
253.329	787.19
253.562	781.19
253.795	788.19
254.028	804.19
254.261	809.19
254.494	882.19
254.727	1032.19
254.96	1224.19
255.193	1215.19
255.426	956.19
255.659	883.19
255.892	844.19
256.124	894.19
256.357	882.19
256.59	919.19
256.823	980.19
257.056	1091.19
257.289	1326.19
257.521	1482.19
257.754	1184.19
257.987	1001.19
258.22	918.19
258.452	914.19
258.685	945.19
258.918	952.19
259.151	1017.19
259.383	1091.19
259.616	1221.19
259.849	1267.19
260.081	1091.19
260.314	980.19
260.547	928.19
260.779	928.19
261.012	932.19
261.244	936.19
261.477	945.19
261.71	996.19
261.942	978.19
262.175	1031.19
262.407	1040.19
262.64	1094.19
262.872	1117.19
263.105	1144.19
263.337	1216.19
263.57	1266.19
263.802	1300.19
264.035	1304.19
264.267	1349.19
264.499	1380.19
264.732	1428.19
264.964	1458.19
265.197	1450.19
265.429	1424.19
265.661	1516.19
265.894	1612.19
266.126	1754.19
266.358	1952.19
266.591	1912.19
266.823	1632.19
267.055	1449.19
267.287	1386.19
267.52	1317.19
267.752	1301.19
267.984	1294.19
268.216	1271.19
268.448	1221.19
268.681	1240.19
268.913	1227.19
269.145	1239.19
269.377	1224.19
269.609	1254.19
269.841	1289.19
270.073	1347.19
270.306	1586.19
270.538	2117.19
270.77	3126.19
271.002	3852.19
271.234	2696.19
271.466	1856.19
271.698	1536.19
271.93	1380.19
272.162	1330.19
272.394	1270.19
272.626	1240.19
272.858	1238.19
273.09	1212.19
273.322	1190.19
273.553	1212.19
273.785	1209.19
274.017	1219.19
274.249	1191.19
274.481	1189.19
274.713	1210.19
274.945	1210.19
275.176	1219.19
275.408	1212.19
275.64	1217.19
275.872	1228.19
276.104	1240.19
276.335	1265.19
276.567	1292.19
276.799	1265.19
277.031	1292.19
277.262	1351.19
277.494	1366.19
277.726	1559.19
277.957	1822.19
278.189	2093.19
278.421	1985.19
278.652	1746.19
278.884	1702.19
279.115	1496.19
279.347	1445.19
279.579	1369.19
279.81	1368.19
280.042	1408.19
280.273	1421.19
280.505	1439.19
280.736	1474.19
280.968	1579.19
281.199	1807.19
281.431	2026.19
281.662	2121.19
281.894	1804.19
282.125	1635.19
282.356	1629.19
282.588	1646.19
282.819	1665.19
283.051	1821.19
283.282	2011.19
283.513	2478.19
283.745	3521.19
283.976	5526.19
284.207	7936.19
284.439	7114.19
284.67	4449.19
284.901	3683.19
285.132	3732.19
285.364	3525.19
285.595	2696.19
285.826	2444.19
286.057	2804.19
286.288	3848.19
286.52	5174.19
286.751	4808.19
286.982	2944.19
287.213	2240.19
287.444	2010.19
287.675	1846.19
287.906	1769.19
288.138	1721.19
288.369	1692.19
288.6	1684.19
288.831	1693.19
289.062	1695.19
289.293	1688.19
289.524	1720.19
289.755	1695.19
289.986	1685.19
290.217	1691.19
290.448	1716.19
290.679	1726.19
290.91	1784.19
291.141	1872.19
291.371	2036.19
291.602	2154.19
291.833	1932.19
292.064	1778.19
292.295	1677.19
292.526	1626.19
292.757	1621.19
292.987	1600.19
293.218	1540.19
293.449	1620.19
293.68	1588.19
293.91	1561.19
294.141	1561.19
294.372	1564.19
294.603	1580.19
294.833	1579.19
295.064	1565.19
295.295	1527.19
295.525	1550.19
295.756	1588.19
295.987	1522.19
296.217	1582.19
296.448	1582.19
296.679	1577.19
296.909	1570.19
297.14	1595.19
297.37	1615.19
297.601	1629.19
297.831	1630.19
298.062	1623.19
298.292	1671.19
298.523	1686.19
298.753	1733.19
298.984	1683.19
299.214	1726.19
299.445	1774.19
299.675	1768.19
299.905	1864.19
300.136	1900.19
300.366	2149.19
300.597	2730.19
300.827	3754.19
301.057	5201.19
301.288	5149.19
301.518	3321.19
301.748	2579.19
301.979	2275.19
302.209	2248.19
302.439	2259.19
302.669	2402.19
302.9	2904.19
303.13	4140.19
303.36	6089.19
303.59	8121.19
303.82	7062.19
304.051	4212.19
304.281	2986.19
304.511	2495.19
304.741	2320.19
304.971	2168.19
305.201	2059.19
305.431	1984.19
305.661	2001.19
305.891	1901.19
306.121	1906.19
306.352	1885.19
306.582	1868.19
306.812	1816.19
307.042	1829.19
307.272	1806.19
307.502	1789.19
307.731	1832.19
307.961	1835.19
308.191	1800.19
308.421	1812.19
308.651	1802.19
308.881	1796.19
309.111	1851.19
309.341	1847.19
309.571	1825.19
309.8	1848.19
310.03	1881.19
310.26	1872.19
310.49	1845.19
310.72	1853.19
310.949	1892.19
311.179	1885.19
311.409	1889.19
311.639	1934.19
311.868	1960.19
312.098	1949.19
312.328	1964.19
312.557	1954.19
312.787	1965.19
313.017	1962.19
313.246	1993.19
313.476	2042.19
313.706	2100.19
313.935	2195.19
314.165	2364.19
314.394	2490.19
314.624	2356.19
314.853	2172.19
315.083	2147.19
315.312	2182.19
315.542	2194.19
315.771	2184.19
316.001	2267.19
316.23	2266.19
316.46	2412.19
316.689	2728.19
316.919	3203.19
317.148	4611.19
317.377	7010.19
317.607	10216.19
317.836	10649.19
318.065	6542.19
318.295	4268.19
318.524	3348.19
318.753	2954.19
318.983	2692.19
319.212	2551.19
319.441	2521.19
319.67	2449.19
319.9	2393.19
320.129	2374.19
320.358	2330.19
320.587	2343.19
320.816	2359.19
321.046	2344.19
321.275	2358.19
321.504	2368.19
321.733	2470.19
321.962	2514.19
322.191	2539.19
322.42	2565.19
322.649	2546.19
322.878	2461.19
323.108	2477.19
323.337	2545.19
323.566	2580.19
323.795	2643.19
324.024	2684.19
324.253	2681.19
324.482	2853.19
324.71	3004.19
324.939	3223.19
325.168	3289.19
325.397	3279.19
325.626	3959.19
325.855	5630.19
326.084	8664.19
326.313	12498.19
326.542	13310.19
326.77	8890.19
326.999	5840.19
327.228	4908.19
327.457	4684.19
327.686	4703.19
327.914	5104.19
328.143	5917.19
328.372	6995.19
328.6	7538.19
328.829	6833.19
329.058	5734.19
329.287	5050.19
329.515	4651.19
329.744	4219.19
329.972	3973.19
330.201	3891.19
330.43	3697.19
330.658	3627.19
330.887	3633.19
331.115	3486.19
331.344	3500.19
331.572	3413.19
331.801	3498.19
332.03	3544.19
332.258	3491.19
332.486	3773.19
332.715	4315.19
332.943	5326.19
333.172	6616.19
333.4	6550.19
333.629	4995.19
333.857	4478.19
334.085	4481.19
334.314	4695.19
334.542	5030.19
334.771	5957.19
334.999	7340.19
335.227	9084.19
335.455	10183.19
335.684	9185.19
335.912	7517.19
336.14	6374.19
336.369	5616.19
336.597	5173.19
336.825	4790.19
337.053	4436.19
337.281	4233.19
337.51	4069.19
337.738	3896.19
337.966	3680.19
338.194	3602.19
338.422	3457.19
338.65	3384.19
338.878	3339.19
339.106	3307.19
339.334	3214.19
339.562	3148.19
339.79	3152.19
340.018	3122.19
340.246	3068.19
340.474	3020.19
340.702	3076.19
340.93	3001.19
341.158	3053.19
341.386	3054.19
341.614	2986.19
341.842	2955.19
342.07	2880.19
342.298	2851.19
342.526	2807.19
342.754	2779.19
342.981	2709.19
343.209	2764.19
343.437	2817.19
343.665	2848.19
343.893	2850.19
344.12	2855.19
344.348	2806.19
344.576	2769.19
344.804	2746.19
345.031	2636.19
345.259	2639.19
345.487	2627.19
345.714	2558.19
345.942	2550.19
346.17	2555.19
346.397	2566.19
346.625	2587.19
346.853	2560.19
347.08	2536.19
347.308	2541.19
347.535	2545.19
347.763	2588.19
347.99	2560.19
348.218	2472.19
348.445	2500.19
348.673	2469.19
348.9	2482.19
349.128	2470.19
349.355	2441.19
349.583	2466.19
349.81	2450.19
350.037	2446.19
350.265	2436.19
350.492	2442.19
350.72	2430.19
350.947	2464.19
351.174	2408.19
351.402	2410.19
351.629	2431.19
351.856	2448.19
352.083	2454.19
352.311	2373.19
352.538	2426.19
352.765	2382.19
352.992	2352.19
353.22	2389.19
353.447	2370.19
353.674	2373.19
353.901	2445.19
354.128	2449.19
354.355	2434.19
354.583	2406.19
354.81	2476.19
355.037	2521.19
355.264	2497.19
355.491	2469.19
355.718	2485.19
355.945	2469.19
356.172	2488.19
356.399	2479.19
356.626	2518.19
356.853	2526.19
357.08	2547.19
357.307	2552.19
357.534	2572.19
357.761	2583.19
357.988	2613.19
358.215	2573.19
358.441	2605.19
358.668	2574.19
358.895	2611.19
359.122	2537.19
359.349	2568.19
359.576	2523.19
359.802	2580.19
360.029	2484.19
360.256	2557.19
360.483	2595.19
360.709	2609.19
360.936	2562.19
361.163	2606.19
361.39	2583.19
361.616	2588.19
361.843	2602.19
362.07	2544.19
362.296	2613.19
362.523	2560.19
362.749	2565.19
362.976	2570.19
363.203	2521.19
363.429	2553.19
363.656	2581.19
363.882	2574.19
364.109	2531.19
364.335	2514.19
364.562	2540.19
364.788	2532.19
365.015	2586.19
365.241	2659.19
365.468	2802.19
365.694	2962.19
365.92	2897.19
366.147	2665.19
366.373	2644.19
366.599	2610.19
366.826	2613.19
367.052	2574.19
367.278	2621.19
367.505	2609.19
367.731	2653.19
367.957	2637.19
368.184	2692.19
368.41	2696.19
368.636	2679.19
368.862	2680.19
369.089	2682.19
369.315	2674.19
369.541	2674.19
369.767	2644.19
369.993	2653.19
370.219	2611.19
370.445	2680.19
370.672	2703.19
370.898	2711.19
371.124	2710.19
371.35	2717.19
371.576	2772.19
371.802	2734.19
372.028	2765.19
372.254	2772.19
372.48	2780.19
372.706	2816.19
372.932	2846.19
373.158	2832.19
373.384	2805.19
373.61	2824.19
373.835	2842.19
374.061	2853.19
374.287	2857.19
374.513	2853.19
374.739	2945.19
374.965	2976.19
375.191	2935.19
375.416	2948.19
375.642	2934.19
375.868	2858.19
376.094	2885.19
376.319	2868.19
376.545	2830.19
376.771	2762.19
376.997	2791.19
377.222	2748.19
377.448	2744.19
377.674	2748.19
377.899	2796.19
378.125	2789.19
378.35	2793.19
378.576	2734.19
378.802	2793.19
379.027	2881.19
379.253	2930.19
379.478	3101.19
379.704	3592.19
379.929	5158.19
380.155	7962.19
380.38	8706.19
380.606	5247.19
380.831	3714.19
381.057	3242.19
381.282	3014.19
381.507	2896.19
381.733	2865.19
381.958	2746.19
382.184	2732.19
382.409	2727.19
382.634	2682.19
382.86	2740.19
383.085	2730.19
383.31	2702.19
383.535	2752.19
383.761	2734.19
383.986	2755.19
384.211	2756.19
384.436	2781.19
384.662	2719.19
384.887	2819.19
385.112	2773.19
385.337	2819.19
385.562	2762.19
385.787	2789.19
386.013	2810.19
386.238	2829.19
386.463	2819.19
386.688	2808.19
386.913	2807.19
387.138	2784.19
387.363	2786.19
387.588	2767.19
387.813	2810.19
388.038	2826.19
388.263	2766.19
388.488	2789.19
388.713	2779.19
388.938	2779.19
389.163	2801.19
389.387	2806.19
389.612	2802.19
389.837	2778.19
390.062	2790.19
390.287	2865.19
390.512	2789.19
390.736	2876.19
390.961	2939.19
391.186	2888.19
391.411	2971.19
391.636	2894.19
391.86	2984.19
392.085	2954.19
392.31	2922.19
392.534	2882.19
392.759	2885.19
392.984	2873.19
393.208	2956.19
393.433	2893.19
393.658	2879.19
393.882	2828.19
394.107	2840.19
394.331	2856.19
394.556	2865.19
394.78	2887.19
395.005	2864.19
395.229	2810.19
395.454	2889.19
395.678	2940.19
395.903	2870.19
396.127	2940.19
396.352	2926.19
396.576	2860.19
396.801	2983.19
397.025	2977.19
397.249	2945.19
397.474	2980.19
397.698	2976.19
397.922	3006.19
398.147	2950.19
398.371	2970.19
398.595	3030.19
398.82	3124.19
399.044	3213.19
399.268	3416.19
399.492	3584.19
399.717	3680.19
399.941	3717.19
400.165	3586.19
400.389	3415.19
400.613	3289.19
400.837	3208.19
401.062	3105.19
401.286	3096.19
401.51	3085.19
401.734	3080.19
401.958	3104.19
402.182	3060.19
402.406	3110.19
402.63	3087.19
402.854	3112.19
403.078	3133.19
403.302	3124.19
403.526	3203.19
403.75	3172.19
403.974	3188.19
404.198	3168.19
404.422	3190.19
404.645	3181.19
404.869	3189.19
405.093	3216.19
405.317	3217.19
405.541	3300.19
405.765	3283.19
405.988	3349.19
406.212	3293.19
406.436	3301.19
406.66	3321.19
406.883	3331.19
407.107	3411.19
407.331	3464.19
407.555	3512.19
407.778	3495.19
408.002	3464.19
408.226	3460.19
408.449	3456.19
408.673	3371.19
408.896	3289.19
409.12	3265.19
409.344	3287.19
409.567	3253.19
409.791	3284.19
410.014	3205.19
410.238	3151.19
410.461	3198.19
410.685	3190.19
410.908	3122.19
411.132	3105.19
411.355	3077.19
411.578	3123.19
411.802	3088.19
412.025	3072.19
412.249	3060.19
412.472	3093.19
412.695	3003.19
412.919	3004.19
413.142	3017.19
413.365	3001.19
413.589	3073.19
413.812	3016.19
414.035	3021.19
414.258	3075.19
414.482	3025.19
414.705	3041.19
414.928	3019.19
415.151	2995.19
415.374	2997.19
415.597	2944.19
415.821	2886.19
416.044	2886.19
416.267	2914.19
416.49	2898.19
416.713	2885.19
416.936	2900.19
417.159	2874.19
417.382	2825.19
417.605	2876.19
417.828	2828.19
418.051	2908.19
418.274	2868.19
418.497	2940.19
418.72	2960.19
418.943	2930.19
419.166	3041.19
419.389	3262.19
419.611	3206.19
419.834	3035.19
420.057	3000.19
420.28	2987.19
420.503	2934.19
420.726	2908.19
420.948	2862.19
421.171	2856.19
421.394	2917.19
421.617	2904.19
421.839	2927.19
422.062	2900.19
422.285	2914.19
422.507	2950.19
422.73	2996.19
422.953	2985.19
423.175	3021.19
423.398	3001.19
423.621	2925.19
423.843	2931.19
424.066	2928.19
424.288	2897.19
424.511	2884.19
424.733	2883.19
424.956	2848.19
425.178	2876.19
425.401	2823.19
425.623	2902.19
425.846	2821.19
426.068	2889.19
426.291	2774.19
426.513	2778.19
426.735	2795.19
426.958	2721.19
427.18	2690.19
427.402	2741.19
427.625	2720.19
427.847	2712.19
428.069	2673.19
428.292	2716.19
428.514	2676.19
428.736	2725.19
428.958	2686.19
429.181	2665.19
429.403	2669.19
429.625	2674.19
429.847	2642.19
430.069	2750.19
430.292	2809.19
430.514	2857.19
430.736	2866.19
430.958	2694.19
431.18	2665.19
431.402	2638.19
431.624	2574.19
431.846	2600.19
432.068	2622.19
432.29	2720.19
432.512	2646.19
432.734	2669.19
432.956	2639.19
433.178	2649.19
433.4	2638.19
433.622	2696.19
433.844	2679.19
434.066	2643.19
434.287	2659.19
434.509	2682.19
434.731	2739.19
434.953	2815.19
435.175	2776.19
435.397	2757.19
435.618	2733.19
435.84	2612.19
436.062	2649.19
436.284	2676.19
436.505	2658.19
436.727	2606.19
436.949	2660.19
437.17	2616.19
437.392	2584.19
437.614	2574.19
437.835	2519.19
438.057	2545.19
438.278	2592.19
438.5	2592.19
438.721	2609.19
438.943	2674.19
439.165	2719.19
439.386	2797.19
439.608	2750.19
439.829	2700.19
440.05	2880.19
440.272	2852.19
440.493	2732.19
440.715	2699.19
440.936	2762.19
441.158	2715.19
441.379	2778.19
441.6	2826.19
441.822	2950.19
442.043	3130.19
442.264	3130.19
442.486	2986.19
442.707	2938.19
442.928	2840.19
443.149	2846.19
443.371	2787.19
443.592	2861.19
443.813	2827.19
444.034	2890.19
444.255	2905.19
444.476	2953.19
444.698	2989.19
444.919	3057.19
445.14	3183.19
445.361	3002.19
445.582	2917.19
445.803	2843.19
446.024	2800.19
446.245	2855.19
446.466	2791.19
446.687	2786.19
446.908	2793.19
447.129	2694.19
447.35	2665.19
447.571	2642.19
447.792	2615.19
448.013	2611.19
448.234	2646.19
448.455	2606.19
448.675	2623.19
448.896	2712.19
449.117	2777.19
449.338	2999.19
449.559	3070.19
449.779	2807.19
450	2649.19
450.221	2542.19
450.442	2595.19
450.662	2568.19
450.883	2547.19
451.104	2520.19
451.324	2550.19
451.545	2578.19
451.766	2615.19
451.986	2631.19
452.207	2783.19
452.428	3679.19
452.648	5552.19
452.869	4576.19
453.089	3153.19
453.31	2918.19
453.53	3002.19
453.751	3036.19
453.971	3169.19
454.192	3137.19
454.412	2717.19
454.633	2612.19
454.853	2507.19
455.073	2470.19
455.294	2443.19
455.514	2418.19
455.734	2418.19
455.955	2405.19
456.175	2396.19
456.395	2396.19
456.616	2447.19
456.836	2477.19
457.056	2480.19
457.276	2493.19
457.497	2647.19
457.717	2653.19
457.937	2604.19
458.157	2567.19
458.377	2604.19
458.598	2636.19
458.818	2649.19
459.038	2614.19
459.258	2646.19
459.478	2703.19
459.698	2716.19
459.918	2697.19
460.138	2740.19
460.358	2836.19
460.578	2829.19
460.798	2852.19
461.018	2889.19
461.238	2926.19
461.458	2913.19
461.678	2946.19
461.898	3010.19
462.118	3042.19
462.338	3104.19
462.558	3141.19
462.777	3177.19
462.997	3264.19
463.217	3423.19
463.437	3506.19
463.657	3636.19
463.876	3564.19
464.096	3396.19
464.316	3206.19
464.536	3194.19
464.755	3091.19
464.975	3032.19
465.195	2926.19
465.414	2906.19
465.634	2744.19
465.854	2759.19
466.073	2705.19
466.293	2686.19
466.512	2647.19
466.732	2685.19
466.951	2856.19
467.171	2994.19
467.391	2928.19
467.61	2704.19
467.829	2650.19
468.049	2620.19
468.268	2591.19
468.488	2568.19
468.707	2550.19
468.927	2618.19
469.146	2623.19
469.365	2612.19
469.585	2682.19
469.804	2692.19
470.023	2727.19
470.243	2746.19
470.462	2864.19
470.681	2998.19
470.901	3291.19
471.12	3715.19
471.339	3776.19
471.558	3145.19
471.777	2884.19
471.997	2812.19
472.216	2754.19
472.435	2632.19
472.654	2633.19
472.873	2607.19
473.092	2629.19
473.311	2637.19
473.53	2618.19
473.749	2663.19
473.968	2803.19
474.187	2689.19
474.406	2568.19
474.625	2590.19
474.844	2621.19
475.063	2702.19
475.282	2637.19
475.501	2643.19
475.72	2702.19
475.939	2694.19
476.158	2747.19
476.377	2838.19
476.596	2774.19
476.814	2803.19
477.033	2772.19
477.252	2834.19
477.471	2848.19
477.69	2886.19
477.908	2976.19
478.127	2940.19
478.346	2963.19
478.564	3023.19
478.783	3049.19
479.002	3110.19
479.22	3105.19
479.439	3195.19
479.658	3181.19
479.876	3174.19
480.095	3169.19
480.313	3196.19
480.532	3240.19
480.751	3195.19
480.969	3191.19
481.188	3167.19
481.406	3100.19
481.624	3171.19
481.843	3224.19
482.061	3188.19
482.28	3207.19
482.498	3113.19
482.717	3138.19
482.935	3229.19
483.153	3196.19
483.372	3263.19
483.59	3289.19
483.808	3352.19
484.027	3415.19
484.245	3707.19
484.463	4042.19
484.681	4488.19
484.9	4114.19
485.118	3842.19
485.336	3778.19
485.554	3775.19
485.772	3989.19
485.99	4520.19
486.209	4887.19
486.427	4110.19
486.645	3675.19
486.863	3528.19
487.081	3448.19
487.299	3401.19
487.517	3393.19
487.735	3391.19
