Data from SnStandardFlinnAPT0064_LampEnergy5.5_LIBS07252019.E.O._I.C._HRD10591_15-16-55-492.txt Node
Date: Thu Jul 25 15:16:55 EDT 2019
User: cochatt
Spectrometer: HR+D1059
Trigger mode: 1
Integration Time (sec): 1.000000E-1
Scans to average: 1
Electric dark correction enabled: true
Nonlinearity correction enabled: false
Boxcar width: 0
XAxis mode: Wavelengths
Number of Pixels in Spectrum: 2048
>>>>>Begin Spectral Data<<<<<
223.165	-12.38
223.4	-12.38
223.635	-12.38
223.869	-13.38
224.104	-9.38
224.338	-24.38
224.573	-20.38
224.808	-2.38
225.042	2.62
225.277	-11.38
225.511	-16.38
225.746	-3.38
225.98	3.62
226.215	8.62
226.449	11.62
226.683	31.62
226.918	19.62
227.152	35.62
227.387	31.62
227.621	31.62
227.856	35.62
228.09	44.62
228.324	52.62
228.559	48.62
228.793	78.62
229.027	155.62
229.262	170.62
229.496	145.62
229.73	157.62
229.964	161.62
230.199	160.62
230.433	156.62
230.667	163.62
230.901	179.62
231.136	178.62
231.37	187.62
231.604	198.62
231.838	204.62
232.072	226.62
232.306	256.62
232.541	198.62
232.775	204.62
233.009	200.62
233.243	208.62
233.477	223.62
233.711	234.62
233.945	261.62
234.179	248.62
234.413	207.62
234.647	223.62
234.881	232.62
235.115	249.62
235.349	296.62
235.583	342.62
235.817	470.62
236.051	467.62
236.285	319.62
236.519	262.62
236.753	232.62
236.987	232.62
237.221	233.62
237.455	243.62
237.689	228.62
237.922	210.62
238.156	240.62
238.39	231.62
238.624	236.62
238.858	231.62
239.091	212.62
239.325	235.62
239.559	239.62
239.793	236.62
240.027	264.62
240.26	250.62
240.494	246.62
240.728	281.62
240.961	293.62
241.195	289.62
241.429	286.62
241.662	308.62
241.896	338.62
242.13	405.62
242.363	532.62
242.597	697.62
242.83	647.62
243.064	664.62
243.298	771.62
243.531	651.62
243.765	400.62
243.998	354.62
244.232	317.62
244.465	310.62
244.699	283.62
244.932	307.62
245.166	304.62
245.399	294.62
245.633	305.62
245.866	321.62
246.099	297.62
246.333	305.62
246.566	309.62
246.8	304.62
247.033	301.62
247.266	289.62
247.5	302.62
247.733	312.62
247.966	328.62
248.2	357.62
248.433	366.62
248.666	412.62
248.899	397.62
249.133	369.62
249.366	389.62
249.599	423.62
249.832	447.62
250.066	464.62
250.299	375.62
250.532	336.62
250.765	358.62
250.998	332.62
251.231	340.62
251.465	326.62
251.698	333.62
251.931	325.62
252.164	341.62
252.397	342.62
252.63	347.62
252.863	367.62
253.096	361.62
253.329	349.62
253.562	360.62
253.795	369.62
254.028	349.62
254.261	352.62
254.494	396.62
254.727	462.62
254.96	519.62
255.193	515.62
255.426	416.62
255.659	373.62
255.892	393.62
256.124	398.62
256.357	409.62
256.59	376.62
256.823	413.62
257.056	465.62
257.289	557.62
257.521	604.62
257.754	496.62
257.987	436.62
258.22	414.62
258.452	409.62
258.685	427.62
258.918	432.62
259.151	429.62
259.383	455.62
259.616	511.62
259.849	547.62
260.081	492.62
260.314	432.62
260.547	408.62
260.779	436.62
261.012	422.62
261.244	420.62
261.477	432.62
261.71	432.62
261.942	456.62
262.175	454.62
262.407	465.62
262.64	466.62
262.872	491.62
263.105	504.62
263.337	531.62
263.57	562.62
263.802	565.62
264.035	586.62
264.267	582.62
264.499	612.62
264.732	610.62
264.964	646.62
265.197	664.62
265.429	645.62
265.661	651.62
265.894	699.62
266.126	765.62
266.358	849.62
266.591	823.62
266.823	687.62
267.055	643.62
267.287	628.62
267.52	583.62
267.752	580.62
267.984	564.62
268.216	571.62
268.448	569.62
268.681	563.62
268.913	571.62
269.145	541.62
269.377	559.62
269.609	563.62
269.841	571.62
270.073	622.62
270.306	703.62
270.538	920.62
270.77	1317.62
271.002	1616.62
271.234	1151.62
271.466	778.62
271.698	631.62
271.93	594.62
272.162	576.62
272.394	566.62
272.626	559.62
272.858	548.62
273.09	535.62
273.322	545.62
273.553	536.62
273.785	537.62
274.017	530.62
274.249	531.62
274.481	548.62
274.713	556.62
274.945	559.62
275.176	538.62
275.408	548.62
275.64	549.62
275.872	545.62
276.104	545.62
276.335	556.62
276.567	546.62
276.799	565.62
277.031	579.62
277.262	582.62
277.494	619.62
277.726	653.62
277.957	741.62
278.189	855.62
278.421	808.62
278.652	742.62
278.884	683.62
279.115	627.62
279.347	621.62
279.579	612.62
279.81	582.62
280.042	604.62
280.273	611.62
280.505	622.62
280.736	627.62
280.968	663.62
281.199	712.62
281.431	821.62
281.662	832.62
281.894	731.62
282.125	693.62
282.356	707.62
282.588	708.62
282.819	718.62
283.051	774.62
283.282	867.62
283.513	1033.62
283.745	1499.62
283.976	2384.62
284.207	3411.62
284.439	2985.62
284.67	1797.62
284.901	1427.62
285.132	1473.62
285.364	1378.62
285.595	1096.62
285.826	964.62
286.057	1182.62
286.288	1604.62
286.52	2197.62
286.751	2010.62
286.982	1231.62
287.213	936.62
287.444	798.62
287.675	799.62
287.906	742.62
288.138	710.62
288.369	723.62
288.6	713.62
288.831	727.62
289.062	723.62
289.293	733.62
289.524	734.62
289.755	738.62
289.986	723.62
290.217	723.62
290.448	718.62
290.679	731.62
290.91	747.62
291.141	769.62
291.371	795.62
291.602	845.62
291.833	775.62
292.064	718.62
292.295	714.62
292.526	722.62
292.757	709.62
292.987	695.62
293.218	661.62
293.449	684.62
293.68	682.62
293.91	706.62
294.141	667.62
294.372	680.62
294.603	690.62
294.833	676.62
295.064	668.62
295.295	681.62
295.525	672.62
295.756	651.62
295.987	680.62
296.217	695.62
296.448	677.62
296.679	685.62
296.909	680.62
297.14	688.62
297.37	699.62
297.601	718.62
297.831	689.62
298.062	717.62
298.292	717.62
298.523	714.62
298.753	729.62
298.984	737.62
299.214	756.62
299.445	737.62
299.675	760.62
299.905	783.62
300.136	808.62
300.366	890.62
300.597	1161.62
300.827	1606.62
301.057	2140.62
301.288	2093.62
301.518	1367.62
301.748	1031.62
301.979	955.62
302.209	969.62
302.439	946.62
302.669	1009.62
302.9	1183.62
303.13	1700.62
303.36	2477.62
303.59	3322.62
303.82	2916.62
304.051	1662.62
304.281	1215.62
304.511	1005.62
304.741	962.62
304.971	875.62
305.201	878.62
305.431	878.62
305.661	853.62
305.891	838.62
306.121	787.62
306.352	789.62
306.582	791.62
306.812	773.62
307.042	809.62
307.272	813.62
307.502	807.62
307.731	813.62
307.961	784.62
308.191	798.62
308.421	790.62
308.651	780.62
308.881	761.62
309.111	779.62
309.341	777.62
309.571	817.62
309.8	815.62
310.03	790.62
310.26	779.62
310.49	799.62
310.72	791.62
310.949	825.62
311.179	798.62
311.409	823.62
311.639	804.62
311.868	816.62
312.098	839.62
312.328	865.62
312.557	821.62
312.787	853.62
313.017	877.62
313.246	875.62
313.476	864.62
313.706	897.62
313.935	929.62
314.165	973.62
314.394	1023.62
314.624	956.62
314.853	899.62
315.083	930.62
315.312	914.62
315.542	929.62
315.771	955.62
316.001	950.62
316.23	969.62
316.46	1032.62
316.689	1114.62
316.919	1313.62
317.148	1946.62
317.377	3022.62
317.607	4418.62
317.836	4455.62
318.065	2582.62
318.295	1615.62
318.524	1327.62
318.753	1193.62
318.983	1117.62
319.212	1081.62
319.441	1039.62
319.67	1046.62
319.9	977.62
320.129	1015.62
320.358	949.62
320.587	997.62
320.816	988.62
321.046	969.62
321.275	1007.62
321.504	990.62
321.733	1006.62
321.962	1038.62
322.191	1053.62
322.42	1039.62
322.649	1052.62
322.878	1049.62
323.108	1069.62
323.337	1054.62
323.566	1059.62
323.795	1089.62
324.024	1107.62
324.253	1131.62
324.482	1175.62
324.71	1220.62
324.939	1289.62
325.168	1321.62
325.397	1377.62
325.626	1650.62
325.855	2285.62
326.084	3599.62
326.313	5388.62
326.542	5728.62
326.77	3554.62
326.999	2263.62
327.228	1907.62
327.457	1839.62
327.686	1876.62
327.914	1992.62
328.143	2269.62
328.372	2605.62
328.6	2862.62
328.829	2650.62
329.058	2270.62
329.287	2026.62
329.515	1864.62
329.744	1741.62
329.972	1656.62
330.201	1561.62
330.43	1528.62
330.658	1513.62
330.887	1483.62
331.115	1447.62
331.344	1392.62
331.572	1422.62
331.801	1451.62
332.03	1475.62
332.258	1467.62
332.486	1549.62
332.715	1735.62
332.943	2116.62
333.172	2579.62
333.4	2584.62
333.629	1957.62
333.857	1821.62
334.085	1766.62
334.314	1885.62
334.542	2019.62
334.771	2305.62
334.999	2813.62
335.227	3415.62
335.455	3753.62
335.684	3494.62
335.912	2995.62
336.14	2528.62
336.369	2301.62
336.597	2136.62
336.825	1917.62
337.053	1842.62
337.281	1762.62
337.51	1669.62
337.738	1634.62
337.966	1583.62
338.194	1477.62
338.422	1439.62
338.65	1394.62
338.878	1390.62
339.106	1333.62
339.334	1340.62
339.562	1294.62
339.79	1297.62
340.018	1283.62
340.246	1261.62
340.474	1264.62
340.702	1279.62
340.93	1267.62
341.158	1283.62
341.386	1263.62
341.614	1277.62
341.842	1233.62
342.07	1203.62
342.298	1207.62
342.526	1179.62
342.754	1179.62
342.981	1178.62
343.209	1158.62
343.437	1177.62
343.665	1198.62
343.893	1224.62
344.12	1199.62
344.348	1193.62
344.576	1165.62
344.804	1157.62
345.031	1141.62
345.259	1116.62
345.487	1118.62
345.714	1073.62
345.942	1084.62
346.17	1113.62
346.397	1077.62
346.625	1061.62
346.853	1093.62
347.08	1065.62
347.308	1058.62
347.535	1089.62
347.763	1087.62
347.99	1052.62
348.218	1075.62
348.445	1052.62
348.673	1034.62
348.9	1085.62
349.128	1030.62
349.355	1057.62
349.583	1060.62
349.81	1061.62
350.037	1043.62
350.265	1038.62
350.492	1041.62
350.72	1045.62
350.947	1050.62
351.174	1037.62
351.402	997.62
351.629	1040.62
351.856	1068.62
352.083	1048.62
352.311	1035.62
352.538	1031.62
352.765	1032.62
352.992	1035.62
353.22	1023.62
353.447	1012.62
353.674	1035.62
353.901	1039.62
354.128	1040.62
354.355	1081.62
354.583	1008.62
354.81	1040.62
355.037	1023.62
355.264	1056.62
355.491	1037.62
355.718	1061.62
355.945	1060.62
356.172	1055.62
356.399	1078.62
356.626	1046.62
356.853	1072.62
357.08	1056.62
357.307	1083.62
357.534	1086.62
357.761	1126.62
357.988	1108.62
358.215	1075.62
358.441	1083.62
358.668	1093.62
358.895	1083.62
359.122	1062.62
359.349	1085.62
359.576	1071.62
359.802	1076.62
360.029	1102.62
360.256	1086.62
360.483	1086.62
360.709	1086.62
360.936	1081.62
361.163	1102.62
361.39	1103.62
361.616	1097.62
361.843	1091.62
362.07	1084.62
362.296	1113.62
362.523	1108.62
362.749	1113.62
362.976	1112.62
363.203	1114.62
363.429	1084.62
363.656	1079.62
363.882	1069.62
364.109	1089.62
364.335	1100.62
364.562	1096.62
364.788	1097.62
365.015	1111.62
365.241	1102.62
365.468	1172.62
365.694	1232.62
365.92	1210.62
366.147	1140.62
366.373	1121.62
366.599	1135.62
366.826	1112.62
367.052	1109.62
367.278	1121.62
367.505	1141.62
367.731	1120.62
367.957	1137.62
368.184	1153.62
368.41	1141.62
368.636	1132.62
368.862	1166.62
369.089	1144.62
369.315	1115.62
369.541	1135.62
369.767	1171.62
369.993	1153.62
370.219	1123.62
370.445	1133.62
370.672	1147.62
370.898	1150.62
371.124	1142.62
371.35	1160.62
371.576	1178.62
371.802	1159.62
372.028	1215.62
372.254	1205.62
372.48	1186.62
372.706	1191.62
372.932	1177.62
373.158	1220.62
373.384	1215.62
373.61	1190.62
373.835	1213.62
374.061	1178.62
374.287	1200.62
374.513	1197.62
374.739	1239.62
374.965	1273.62
375.191	1248.62
375.416	1233.62
375.642	1236.62
375.868	1215.62
376.094	1209.62
376.319	1205.62
376.545	1176.62
376.771	1216.62
376.997	1161.62
377.222	1157.62
377.448	1172.62
377.674	1167.62
377.899	1174.62
378.125	1161.62
378.35	1213.62
378.576	1183.62
378.802	1221.62
379.027	1230.62
379.253	1270.62
379.478	1301.62
379.704	1517.62
379.929	2148.62
380.155	3197.62
380.38	3413.62
380.606	2130.62
380.831	1483.62
381.057	1356.62
381.282	1270.62
381.507	1230.62
381.733	1212.62
381.958	1193.62
382.184	1199.62
382.409	1160.62
382.634	1172.62
382.86	1154.62
383.085	1181.62
383.31	1192.62
383.535	1156.62
383.761	1180.62
383.986	1160.62
384.211	1201.62
384.436	1232.62
384.662	1203.62
384.887	1213.62
385.112	1200.62
385.337	1211.62
385.562	1190.62
385.787	1204.62
386.013	1252.62
386.238	1242.62
386.463	1197.62
386.688	1223.62
386.913	1191.62
387.138	1187.62
387.363	1205.62
387.588	1219.62
387.813	1233.62
388.038	1169.62
388.263	1207.62
388.488	1230.62
388.713	1217.62
388.938	1201.62
389.163	1195.62
389.387	1213.62
389.612	1168.62
389.837	1218.62
390.062	1203.62
390.287	1257.62
390.512	1229.62
390.736	1219.62
390.961	1247.62
391.186	1244.62
391.411	1239.62
391.636	1255.62
391.86	1276.62
392.085	1281.62
392.31	1264.62
392.534	1277.62
392.759	1251.62
392.984	1230.62
393.208	1228.62
393.433	1263.62
393.658	1242.62
393.882	1237.62
394.107	1211.62
394.331	1226.62
394.556	1240.62
394.78	1246.62
395.005	1236.62
395.229	1229.62
395.454	1232.62
395.678	1254.62
395.903	1310.62
396.127	1264.62
396.352	1275.62
396.576	1248.62
396.801	1280.62
397.025	1280.62
397.249	1269.62
397.474	1249.62
397.698	1274.62
397.922	1299.62
398.147	1299.62
398.371	1282.62
398.595	1328.62
398.82	1377.62
399.044	1407.62
399.268	1471.62
399.492	1558.62
399.717	1598.62
399.941	1621.62
400.165	1535.62
400.389	1461.62
400.613	1438.62
400.837	1364.62
401.062	1369.62
401.286	1381.62
401.51	1319.62
401.734	1323.62
401.958	1358.62
402.182	1352.62
402.406	1332.62
402.63	1363.62
402.854	1359.62
403.078	1351.62
403.302	1406.62
403.526	1379.62
403.75	1391.62
403.974	1385.62
404.198	1374.62
404.422	1416.62
404.645	1419.62
404.869	1398.62
405.093	1384.62
405.317	1371.62
405.541	1420.62
405.765	1413.62
405.988	1421.62
406.212	1423.62
406.436	1376.62
406.66	1457.62
406.883	1415.62
407.107	1465.62
407.331	1476.62
407.555	1519.62
407.778	1493.62
408.002	1477.62
408.226	1461.62
408.449	1457.62
408.673	1397.62
408.896	1413.62
409.12	1420.62
409.344	1439.62
409.567	1394.62
409.791	1391.62
410.014	1381.62
410.238	1393.62
410.461	1362.62
410.685	1342.62
410.908	1368.62
411.132	1373.62
411.355	1309.62
411.578	1344.62
411.802	1339.62
412.025	1295.62
412.249	1342.62
412.472	1345.62
412.695	1313.62
412.919	1303.62
413.142	1325.62
413.365	1299.62
413.589	1334.62
413.812	1318.62
414.035	1298.62
414.258	1316.62
414.482	1302.62
414.705	1301.62
414.928	1329.62
415.151	1350.62
415.374	1295.62
415.597	1251.62
415.821	1264.62
416.044	1279.62
416.267	1270.62
416.49	1250.62
416.713	1287.62
416.936	1259.62
417.159	1244.62
417.382	1240.62
417.605	1220.62
417.828	1270.62
418.051	1264.62
418.274	1263.62
418.497	1261.62
418.72	1267.62
418.943	1263.62
419.166	1342.62
419.389	1416.62
419.611	1393.62
419.834	1345.62
420.057	1319.62
420.28	1298.62
420.503	1303.62
420.726	1246.62
420.948	1250.62
421.171	1280.62
421.394	1274.62
421.617	1276.62
421.839	1273.62
422.062	1257.62
422.285	1251.62
422.507	1275.62
422.73	1303.62
422.953	1305.62
423.175	1299.62
423.398	1304.62
423.621	1284.62
423.843	1276.62
424.066	1299.62
424.288	1264.62
424.511	1273.62
424.733	1277.62
424.956	1262.62
425.178	1291.62
425.401	1277.62
425.623	1267.62
425.846	1219.62
426.068	1231.62
426.291	1253.62
426.513	1217.62
426.735	1186.62
426.958	1225.62
427.18	1232.62
427.402	1197.62
427.625	1199.62
427.847	1169.62
428.069	1189.62
428.292	1184.62
428.514	1193.62
428.736	1190.62
428.958	1171.62
429.181	1176.62
429.403	1175.62
429.625	1173.62
429.847	1173.62
430.069	1187.62
430.292	1209.62
430.514	1252.62
430.736	1229.62
430.958	1192.62
431.18	1159.62
431.402	1187.62
431.624	1180.62
431.846	1159.62
432.068	1159.62
432.29	1166.62
432.512	1156.62
432.734	1173.62
432.956	1161.62
433.178	1171.62
433.4	1179.62
433.622	1184.62
433.844	1184.62
434.066	1165.62
434.287	1189.62
434.509	1144.62
434.731	1196.62
434.953	1208.62
435.175	1229.62
435.397	1236.62
435.618	1174.62
435.84	1150.62
436.062	1143.62
436.284	1120.62
436.505	1141.62
436.727	1196.62
436.949	1198.62
437.17	1173.62
437.392	1154.62
437.614	1145.62
437.835	1127.62
438.057	1171.62
438.278	1101.62
438.5	1127.62
438.721	1164.62
438.943	1191.62
439.165	1192.62
439.386	1220.62
439.608	1250.62
439.829	1203.62
440.05	1240.62
440.272	1260.62
440.493	1215.62
440.715	1188.62
440.936	1206.62
441.158	1243.62
441.379	1238.62
441.6	1278.62
441.822	1344.62
442.043	1392.62
442.264	1403.62
442.486	1295.62
442.707	1275.62
442.928	1284.62
443.149	1250.62
443.371	1264.62
443.592	1252.62
443.813	1223.62
444.034	1254.62
444.255	1280.62
444.476	1343.62
444.698	1355.62
444.919	1389.62
445.14	1421.62
445.361	1343.62
445.582	1299.62
445.803	1248.62
446.024	1227.62
446.245	1223.62
446.466	1217.62
446.687	1218.62
446.908	1232.62
447.129	1193.62
447.35	1176.62
447.571	1180.62
447.792	1176.62
448.013	1184.62
448.234	1160.62
448.455	1167.62
448.675	1188.62
448.896	1166.62
449.117	1229.62
449.338	1317.62
449.559	1394.62
449.779	1268.62
450	1175.62
450.221	1139.62
450.442	1150.62
450.662	1106.62
450.883	1117.62
451.104	1106.62
451.324	1130.62
451.545	1140.62
451.766	1125.62
451.986	1136.62
452.207	1216.62
452.428	1505.62
452.648	2145.62
452.869	1825.62
453.089	1320.62
453.31	1245.62
453.53	1232.62
453.751	1296.62
453.971	1365.62
454.192	1355.62
454.412	1150.62
454.633	1113.62
454.853	1110.62
455.073	1074.62
455.294	1067.62
455.514	1050.62
455.734	1091.62
455.955	1043.62
456.175	1051.62
456.395	1071.62
456.616	1057.62
456.836	1101.62
457.056	1081.62
457.276	1077.62
457.497	1142.62
457.717	1147.62
457.937	1143.62
458.157	1120.62
458.377	1091.62
458.598	1155.62
458.818	1145.62
459.038	1126.62
459.258	1149.62
459.478	1162.62
459.698	1176.62
459.918	1174.62
460.138	1234.62
460.358	1236.62
460.578	1240.62
460.798	1243.62
461.018	1245.62
461.238	1261.62
461.458	1247.62
461.678	1255.62
461.898	1325.62
462.118	1329.62
462.338	1333.62
462.558	1341.62
462.777	1367.62
462.997	1441.62
463.217	1459.62
463.437	1491.62
463.657	1557.62
463.876	1496.62
464.096	1444.62
464.316	1376.62
464.536	1378.62
464.755	1365.62
464.975	1334.62
465.195	1252.62
465.414	1217.62
465.634	1197.62
465.854	1183.62
466.073	1157.62
466.293	1184.62
466.512	1161.62
466.732	1187.62
466.951	1260.62
467.171	1313.62
467.391	1256.62
467.61	1199.62
467.829	1187.62
468.049	1153.62
468.268	1140.62
468.488	1118.62
468.707	1139.62
468.927	1137.62
469.146	1132.62
469.365	1146.62
469.585	1144.62
469.804	1194.62
470.023	1174.62
470.243	1229.62
470.462	1269.62
470.681	1289.62
470.901	1424.62
471.12	1639.62
471.339	1679.62
471.558	1384.62
471.777	1262.62
471.997	1208.62
472.216	1166.62
472.435	1167.62
472.654	1110.62
472.873	1119.62
473.092	1155.62
473.311	1124.62
473.53	1183.62
473.749	1184.62
473.968	1252.62
474.187	1171.62
474.406	1120.62
474.625	1155.62
474.844	1160.62
475.063	1154.62
475.282	1151.62
475.501	1147.62
475.72	1147.62
475.939	1177.62
476.158	1222.62
476.377	1199.62
476.596	1203.62
476.814	1211.62
477.033	1195.62
477.252	1200.62
477.471	1252.62
477.69	1254.62
477.908	1303.62
478.127	1327.62
478.346	1338.62
478.564	1314.62
478.783	1339.62
479.002	1358.62
479.22	1328.62
479.439	1387.62
479.658	1334.62
479.876	1403.62
480.095	1360.62
480.313	1411.62
480.532	1409.62
480.751	1403.62
480.969	1403.62
481.188	1375.62
481.406	1345.62
481.624	1347.62
481.843	1382.62
482.061	1360.62
482.28	1375.62
482.498	1374.62
482.717	1335.62
482.935	1405.62
483.153	1382.62
483.372	1423.62
483.59	1413.62
483.808	1424.62
484.027	1483.62
484.245	1527.62
484.463	1735.62
484.681	1908.62
484.9	1730.62
485.118	1603.62
485.336	1588.62
485.554	1601.62
485.772	1717.62
485.99	1925.62
486.209	2142.62
486.427	1755.62
486.645	1563.62
486.863	1546.62
487.081	1499.62
487.299	1463.62
487.517	1500.62
487.735	1507.62
487.953	1475.62
488.171	1534.62
488.389	1484.62
488.607	1451.62
488.825	1423.62
489.043	1412.62
489.261	1391.62
489.479	1384.62
489.696	1435.62
489.914	1429.62
490.132	1453.62
490.35	1453.62
490.568	1457.62
490.786	1491.62
