Data from SnStandardFlinnAPT0064_LampEnergy5.5_LIBS07252019.E.O._I.C._HRD10591_15-16-39-492.txt Node
Date: Thu Jul 25 15:16:39 EDT 2019
User: cochatt
Spectrometer: HR+D1059
Trigger mode: 1
Integration Time (sec): 1.000000E-1
Scans to average: 1
Electric dark correction enabled: true
Nonlinearity correction enabled: false
Boxcar width: 0
XAxis mode: Wavelengths
Number of Pixels in Spectrum: 2048
>>>>>Begin Spectral Data<<<<<
223.165	-24.19
223.4	-24.19
223.635	-24.19
223.869	-14.19
224.104	-18.19
224.338	-16.19
224.573	-15.19
224.808	-2.19
225.042	-2.19
225.277	-0.19
225.511	-7.19
225.746	1.81
225.98	-0.19
226.215	13.81
226.449	9.81
226.683	14.81
226.918	19.81
227.152	39.81
227.387	31.81
227.621	30.81
227.856	40.81
228.09	45.81
228.324	59.81
228.559	49.81
228.793	80.81
229.027	156.81
229.262	169.81
229.496	144.81
229.73	139.81
229.964	159.81
230.199	156.81
230.433	149.81
230.667	166.81
230.901	162.81
231.136	170.81
231.37	167.81
231.604	179.81
231.838	218.81
232.072	246.81
232.306	267.81
232.541	205.81
232.775	196.81
233.009	199.81
233.243	213.81
233.477	205.81
233.711	223.81
233.945	290.81
234.179	245.81
234.413	216.81
234.647	210.81
234.881	233.81
235.115	240.81
235.349	291.81
235.583	338.81
235.817	430.81
236.051	421.81
236.285	289.81
236.519	234.81
236.753	230.81
236.987	246.81
237.221	249.81
237.455	228.81
237.689	218.81
237.922	209.81
238.156	215.81
238.39	234.81
238.624	237.81
238.858	227.81
239.091	228.81
239.325	235.81
239.559	225.81
239.793	242.81
240.027	253.81
240.26	235.81
240.494	259.81
240.728	259.81
240.961	261.81
241.195	290.81
241.429	265.81
241.662	311.81
241.896	360.81
242.13	408.81
242.363	518.81
242.597	657.81
242.83	632.81
243.064	621.81
243.298	756.81
243.531	632.81
243.765	390.81
243.998	337.81
244.232	301.81
244.465	303.81
244.699	297.81
244.932	293.81
245.166	294.81
245.399	310.81
245.633	313.81
245.866	318.81
246.099	329.81
246.333	297.81
246.566	288.81
246.8	305.81
247.033	311.81
247.266	300.81
247.5	293.81
247.733	293.81
247.966	311.81
248.2	331.81
248.433	383.81
248.666	410.81
248.899	377.81
249.133	349.81
249.366	349.81
249.599	387.81
249.832	445.81
250.066	448.81
250.299	361.81
250.532	341.81
250.765	332.81
250.998	338.81
251.231	324.81
251.465	313.81
251.698	321.81
251.931	318.81
252.164	328.81
252.397	342.81
252.63	349.81
252.863	354.81
253.096	342.81
253.329	342.81
253.562	340.81
253.795	349.81
254.028	346.81
254.261	368.81
254.494	385.81
254.727	424.81
254.96	535.81
255.193	521.81
255.426	419.81
255.659	393.81
255.892	378.81
256.124	365.81
256.357	399.81
256.59	410.81
256.823	409.81
257.056	459.81
257.289	554.81
257.521	603.81
257.754	490.81
257.987	423.81
258.22	399.81
258.452	411.81
258.685	403.81
258.918	425.81
259.151	439.81
259.383	457.81
259.616	495.81
259.849	519.81
260.081	451.81
260.314	446.81
260.547	403.81
260.779	410.81
261.012	425.81
261.244	419.81
261.477	423.81
261.71	433.81
261.942	444.81
262.175	453.81
262.407	463.81
262.64	454.81
262.872	494.81
263.105	494.81
263.337	498.81
263.57	565.81
263.802	573.81
264.035	569.81
264.267	592.81
264.499	593.81
264.732	637.81
264.964	624.81
265.197	639.81
265.429	611.81
265.661	650.81
265.894	676.81
266.126	728.81
266.358	801.81
266.591	787.81
266.823	679.81
267.055	637.81
267.287	570.81
267.52	589.81
267.752	560.81
267.984	571.81
268.216	564.81
268.448	563.81
268.681	549.81
268.913	537.81
269.145	530.81
269.377	543.81
269.609	531.81
269.841	583.81
270.073	583.81
270.306	687.81
270.538	882.81
270.77	1264.81
271.002	1571.81
271.234	1055.81
271.466	746.81
271.698	639.81
271.93	571.81
272.162	570.81
272.394	552.81
272.626	555.81
272.858	530.81
273.09	536.81
273.322	528.81
273.553	513.81
273.785	546.81
274.017	523.81
274.249	533.81
274.481	515.81
274.713	534.81
274.945	527.81
275.176	522.81
275.408	531.81
275.64	541.81
275.872	523.81
276.104	541.81
276.335	567.81
276.567	557.81
276.799	543.81
277.031	553.81
277.262	565.81
277.494	605.81
277.726	638.81
277.957	735.81
278.189	820.81
278.421	738.81
278.652	681.81
278.884	678.81
279.115	606.81
279.347	607.81
279.579	587.81
279.81	614.81
280.042	626.81
280.273	594.81
280.505	609.81
280.736	604.81
280.968	657.81
281.199	698.81
281.431	765.81
281.662	823.81
281.894	711.81
282.125	649.81
282.356	690.81
282.588	666.81
282.819	713.81
283.051	713.81
283.282	809.81
283.513	1007.81
283.745	1429.81
283.976	2228.81
284.207	3152.81
284.439	2800.81
284.67	1669.81
284.901	1341.81
285.132	1380.81
285.364	1297.81
285.595	1038.81
285.826	961.81
286.057	1103.81
286.288	1519.81
286.52	2049.81
286.751	1907.81
286.982	1154.81
287.213	906.81
287.444	800.81
287.675	735.81
287.906	735.81
288.138	736.81
288.369	712.81
288.6	699.81
288.831	683.81
289.062	691.81
289.293	683.81
289.524	701.81
289.755	699.81
289.986	713.81
290.217	710.81
290.448	693.81
290.679	699.81
290.91	718.81
291.141	742.81
291.371	787.81
291.602	829.81
291.833	789.81
292.064	696.81
292.295	688.81
292.526	697.81
292.757	692.81
292.987	663.81
293.218	683.81
293.449	701.81
293.68	670.81
293.91	669.81
294.141	664.81
294.372	668.81
294.603	673.81
294.833	682.81
295.064	665.81
295.295	673.81
295.525	629.81
295.756	682.81
295.987	655.81
296.217	665.81
296.448	663.81
296.679	697.81
296.909	675.81
297.14	670.81
297.37	664.81
297.601	686.81
297.831	691.81
298.062	697.81
298.292	695.81
298.523	692.81
298.753	702.81
298.984	704.81
299.214	726.81
299.445	730.81
299.675	724.81
299.905	758.81
300.136	785.81
300.366	850.81
300.597	1084.81
300.827	1520.81
301.057	2014.81
301.288	1970.81
301.518	1293.81
301.748	1005.81
301.979	919.81
302.209	904.81
302.439	917.81
302.669	977.81
302.9	1161.81
303.13	1595.81
303.36	2339.81
303.59	3114.81
303.82	2723.81
304.051	1576.81
304.281	1161.81
304.511	981.81
304.741	901.81
304.971	876.81
305.201	847.81
305.431	815.81
305.661	797.81
305.891	760.81
306.121	801.81
306.352	789.81
306.582	755.81
306.812	772.81
307.042	754.81
307.272	765.81
307.502	742.81
307.731	785.81
307.961	772.81
308.191	750.81
308.421	791.81
308.651	765.81
308.881	755.81
309.111	756.81
309.341	762.81
309.571	767.81
309.8	769.81
310.03	754.81
310.26	786.81
310.49	762.81
310.72	777.81
310.949	801.81
311.179	788.81
311.409	834.81
311.639	810.81
311.868	803.81
312.098	818.81
312.328	809.81
312.557	815.81
312.787	817.81
313.017	815.81
313.246	826.81
313.476	839.81
313.706	850.81
313.935	887.81
314.165	927.81
314.394	974.81
314.624	940.81
314.853	861.81
315.083	871.81
315.312	920.81
315.542	898.81
315.771	913.81
316.001	910.81
316.23	960.81
316.46	978.81
316.689	1091.81
316.919	1281.81
317.148	1825.81
317.377	2822.81
317.607	4131.81
317.836	4253.81
318.065	2454.81
318.295	1583.81
318.524	1288.81
318.753	1117.81
318.983	1062.81
319.212	989.81
319.441	982.81
319.67	984.81
319.9	977.81
320.129	960.81
320.358	967.81
320.587	959.81
320.816	955.81
321.046	951.81
321.275	957.81
321.504	982.81
321.733	991.81
321.962	1028.81
322.191	1036.81
322.42	1008.81
322.649	1006.81
322.878	1030.81
323.108	1013.81
323.337	1055.81
323.566	1050.81
323.795	1078.81
324.024	1089.81
324.253	1096.81
324.482	1122.81
324.71	1201.81
324.939	1241.81
325.168	1289.81
325.397	1335.81
325.626	1581.81
325.855	2186.81
326.084	3315.81
326.313	5020.81
326.542	5297.81
326.77	3295.81
326.999	2151.81
327.228	1812.81
327.457	1754.81
327.686	1766.81
327.914	1879.81
328.143	2175.81
328.372	2527.81
328.6	2712.81
328.829	2478.81
329.058	2163.81
329.287	1934.81
329.515	1827.81
329.744	1666.81
329.972	1589.81
330.201	1521.81
330.43	1487.81
330.658	1468.81
330.887	1405.81
331.115	1356.81
331.344	1380.81
331.572	1360.81
331.801	1383.81
332.03	1393.81
332.258	1429.81
332.486	1448.81
332.715	1661.81
332.943	2031.81
333.172	2509.81
333.4	2390.81
333.629	1907.81
333.857	1743.81
334.085	1729.81
334.314	1804.81
334.542	1988.81
334.771	2291.81
334.999	2708.81
335.227	3329.81
335.455	3711.81
335.684	3343.81
335.912	2814.81
336.14	2449.81
336.369	2181.81
336.597	2022.81
336.825	1870.81
337.053	1753.81
337.281	1693.81
337.51	1584.81
337.738	1543.81
337.966	1462.81
338.194	1428.81
338.422	1399.81
338.65	1347.81
338.878	1341.81
339.106	1331.81
339.334	1318.81
339.562	1267.81
339.79	1253.81
340.018	1237.81
340.246	1263.81
340.474	1212.81
340.702	1225.81
340.93	1227.81
341.158	1213.81
341.386	1220.81
341.614	1221.81
341.842	1191.81
342.07	1209.81
342.298	1156.81
342.526	1122.81
342.754	1153.81
342.981	1137.81
343.209	1156.81
343.437	1169.81
343.665	1173.81
343.893	1145.81
344.12	1171.81
344.348	1151.81
344.576	1138.81
344.804	1115.81
345.031	1119.81
345.259	1074.81
345.487	1059.81
345.714	1061.81
345.942	1043.81
346.17	1064.81
346.397	1049.81
346.625	1071.81
346.853	1064.81
347.08	1039.81
347.308	1055.81
347.535	1060.81
347.763	1047.81
347.99	1087.81
348.218	1034.81
348.445	1032.81
348.673	1008.81
348.9	1047.81
349.128	1048.81
349.355	1009.81
349.583	1028.81
349.81	1019.81
350.037	1010.81
350.265	1017.81
350.492	1006.81
350.72	990.81
350.947	999.81
351.174	1014.81
351.402	991.81
351.629	1015.81
351.856	988.81
352.083	983.81
352.311	984.81
352.538	999.81
352.765	1005.81
352.992	981.81
353.22	983.81
353.447	1022.81
353.674	989.81
353.901	1018.81
354.128	1000.81
354.355	1008.81
354.583	1005.81
354.81	1006.81
355.037	982.81
355.264	1022.81
355.491	1021.81
355.718	1026.81
355.945	1008.81
356.172	1035.81
356.399	1014.81
356.626	1019.81
356.853	1064.81
357.08	1047.81
357.307	1064.81
357.534	1062.81
357.761	1077.81
357.988	1070.81
358.215	1069.81
358.441	1054.81
358.668	1053.81
358.895	1063.81
359.122	1079.81
359.349	1055.81
359.576	1058.81
359.802	1055.81
360.029	1055.81
360.256	1053.81
360.483	1048.81
360.709	1077.81
360.936	1069.81
361.163	1059.81
361.39	1073.81
361.616	1079.81
361.843	1101.81
362.07	1091.81
362.296	1063.81
362.523	1060.81
362.749	1096.81
362.976	1088.81
363.203	1049.81
363.429	1055.81
363.656	1045.81
363.882	1067.81
364.109	1063.81
364.335	1077.81
364.562	1056.81
364.788	1080.81
365.015	1057.81
365.241	1097.81
365.468	1147.81
365.694	1178.81
365.92	1134.81
366.147	1081.81
366.373	1073.81
366.599	1114.81
366.826	1088.81
367.052	1082.81
367.278	1107.81
367.505	1087.81
367.731	1093.81
367.957	1095.81
368.184	1085.81
368.41	1082.81
368.636	1126.81
368.862	1109.81
369.089	1109.81
369.315	1099.81
369.541	1132.81
369.767	1089.81
369.993	1103.81
370.219	1116.81
370.445	1097.81
370.672	1114.81
370.898	1102.81
371.124	1122.81
371.35	1138.81
371.576	1134.81
371.802	1122.81
372.028	1146.81
372.254	1154.81
372.48	1150.81
372.706	1168.81
372.932	1167.81
373.158	1176.81
373.384	1183.81
373.61	1152.81
373.835	1159.81
374.061	1170.81
374.287	1198.81
374.513	1178.81
374.739	1204.81
374.965	1226.81
375.191	1197.81
375.416	1204.81
375.642	1200.81
375.868	1190.81
376.094	1168.81
376.319	1173.81
376.545	1184.81
376.771	1167.81
376.997	1133.81
377.222	1136.81
377.448	1121.81
377.674	1168.81
377.899	1165.81
378.125	1162.81
378.35	1144.81
378.576	1153.81
378.802	1151.81
379.027	1205.81
379.253	1202.81
379.478	1259.81
379.704	1488.81
379.929	2032.81
380.155	3013.81
380.38	3275.81
380.606	1999.81
380.831	1459.81
381.057	1294.81
381.282	1216.81
381.507	1197.81
381.733	1181.81
381.958	1128.81
382.184	1176.81
382.409	1149.81
382.634	1155.81
382.86	1139.81
383.085	1128.81
383.31	1169.81
383.535	1137.81
383.761	1154.81
383.986	1142.81
384.211	1143.81
384.436	1155.81
384.662	1141.81
384.887	1177.81
385.112	1167.81
385.337	1185.81
385.562	1168.81
385.787	1176.81
386.013	1182.81
386.238	1188.81
386.463	1191.81
386.688	1178.81
386.913	1166.81
387.138	1185.81
387.363	1164.81
387.588	1141.81
387.813	1174.81
388.038	1195.81
388.263	1167.81
388.488	1177.81
388.713	1173.81
388.938	1176.81
389.163	1167.81
389.387	1171.81
389.612	1164.81
389.837	1197.81
390.062	1197.81
390.287	1187.81
390.512	1190.81
390.736	1179.81
390.961	1227.81
391.186	1201.81
391.411	1212.81
391.636	1264.81
391.86	1229.81
392.085	1225.81
392.31	1250.81
392.534	1205.81
392.759	1251.81
392.984	1240.81
393.208	1209.81
393.433	1207.81
393.658	1232.81
393.882	1194.81
394.107	1171.81
394.331	1191.81
394.556	1202.81
394.78	1186.81
395.005	1213.81
395.229	1202.81
395.454	1207.81
395.678	1203.81
395.903	1232.81
396.127	1240.81
396.352	1184.81
396.576	1222.81
396.801	1230.81
397.025	1249.81
397.249	1250.81
397.474	1280.81
397.698	1251.81
397.922	1261.81
398.147	1241.81
398.371	1288.81
398.595	1312.81
398.82	1339.81
399.044	1361.81
399.268	1444.81
399.492	1510.81
399.717	1571.81
399.941	1551.81
400.165	1510.81
400.389	1459.81
400.613	1382.81
400.837	1383.81
401.062	1346.81
401.286	1320.81
401.51	1367.81
401.734	1311.81
401.958	1335.81
402.182	1363.81
402.406	1305.81
402.63	1316.81
402.854	1318.81
403.078	1315.81
403.302	1366.81
403.526	1337.81
403.75	1360.81
403.974	1391.81
404.198	1350.81
404.422	1370.81
404.645	1351.81
404.869	1357.81
405.093	1355.81
405.317	1365.81
405.541	1350.81
405.765	1382.81
405.988	1390.81
406.212	1405.81
406.436	1405.81
406.66	1391.81
406.883	1383.81
407.107	1450.81
407.331	1461.81
407.555	1451.81
407.778	1472.81
408.002	1442.81
408.226	1393.81
408.449	1393.81
408.673	1391.81
408.896	1373.81
409.12	1321.81
409.344	1370.81
409.567	1346.81
409.791	1371.81
410.014	1349.81
410.238	1349.81
410.461	1363.81
410.685	1341.81
410.908	1319.81
411.132	1334.81
411.355	1289.81
411.578	1303.81
411.802	1302.81
412.025	1295.81
412.249	1294.81
412.472	1289.81
412.695	1288.81
412.919	1227.81
413.142	1257.81
413.365	1284.81
413.589	1279.81
413.812	1293.81
414.035	1264.81
414.258	1283.81
414.482	1291.81
414.705	1317.81
414.928	1287.81
415.151	1271.81
415.374	1252.81
415.597	1254.81
415.821	1199.81
416.044	1259.81
416.267	1251.81
416.49	1257.81
416.713	1232.81
416.936	1253.81
417.159	1239.81
417.382	1216.81
417.605	1214.81
417.828	1205.81
418.051	1249.81
418.274	1228.81
418.497	1236.81
418.72	1272.81
418.943	1215.81
419.166	1289.81
419.389	1406.81
419.611	1344.81
419.834	1284.81
420.057	1267.81
420.28	1232.81
420.503	1228.81
420.726	1216.81
420.948	1231.81
421.171	1218.81
421.394	1235.81
421.617	1262.81
421.839	1233.81
422.062	1225.81
422.285	1226.81
422.507	1271.81
422.73	1253.81
422.953	1290.81
423.175	1283.81
423.398	1263.81
423.621	1234.81
423.843	1247.81
424.066	1240.81
424.288	1236.81
424.511	1258.81
424.733	1267.81
424.956	1242.81
425.178	1224.81
425.401	1207.81
425.623	1238.81
425.846	1223.81
426.068	1188.81
426.291	1202.81
426.513	1187.81
426.735	1175.81
426.958	1186.81
427.18	1169.81
427.402	1197.81
427.625	1201.81
427.847	1147.81
428.069	1140.81
428.292	1140.81
428.514	1163.81
428.736	1122.81
428.958	1175.81
429.181	1129.81
429.403	1108.81
429.625	1158.81
429.847	1165.81
430.069	1165.81
430.292	1203.81
430.514	1192.81
430.736	1248.81
430.958	1180.81
431.18	1173.81
431.402	1177.81
431.624	1111.81
431.846	1124.81
432.068	1121.81
432.29	1091.81
432.512	1081.81
432.734	1140.81
432.956	1167.81
433.178	1150.81
433.4	1146.81
433.622	1163.81
433.844	1116.81
434.066	1141.81
434.287	1123.81
434.509	1155.81
434.731	1169.81
434.953	1198.81
435.175	1180.81
435.397	1173.81
435.618	1159.81
435.84	1118.81
436.062	1140.81
436.284	1099.81
436.505	1137.81
436.727	1141.81
436.949	1126.81
437.17	1135.81
437.392	1123.81
437.614	1114.81
437.835	1085.81
438.057	1089.81
438.278	1094.81
438.5	1085.81
438.721	1156.81
438.943	1157.81
439.165	1155.81
439.386	1183.81
439.608	1199.81
439.829	1192.81
440.05	1210.81
440.272	1226.81
440.493	1161.81
440.715	1167.81
440.936	1203.81
441.158	1173.81
441.379	1231.81
441.6	1218.81
441.822	1253.81
442.043	1313.81
442.264	1319.81
442.486	1289.81
442.707	1225.81
442.928	1222.81
443.149	1229.81
443.371	1197.81
443.592	1194.81
443.813	1218.81
444.034	1222.81
444.255	1281.81
444.476	1248.81
444.698	1297.81
444.919	1340.81
445.14	1422.81
445.361	1309.81
445.582	1289.81
445.803	1247.81
446.024	1223.81
446.245	1239.81
446.466	1233.81
446.687	1205.81
446.908	1227.81
447.129	1172.81
447.35	1128.81
447.571	1153.81
447.792	1135.81
448.013	1133.81
448.234	1089.81
448.455	1122.81
448.675	1141.81
448.896	1177.81
449.117	1187.81
449.338	1253.81
449.559	1323.81
449.779	1190.81
450	1145.81
450.221	1105.81
450.442	1109.81
450.662	1133.81
450.883	1061.81
451.104	1091.81
451.324	1069.81
451.545	1115.81
451.766	1084.81
451.986	1090.81
452.207	1182.81
452.428	1457.81
452.648	1976.81
452.869	1663.81
453.089	1242.81
453.31	1182.81
453.53	1202.81
453.751	1240.81
453.971	1318.81
454.192	1301.81
454.412	1149.81
454.633	1090.81
454.853	1056.81
455.073	1033.81
455.294	1081.81
455.514	1029.81
455.734	1072.81
455.955	1060.81
456.175	1039.81
456.395	1015.81
456.616	1046.81
456.836	1052.81
457.056	1072.81
457.276	1073.81
457.497	1111.81
457.717	1086.81
457.937	1099.81
458.157	1124.81
458.377	1099.81
458.598	1083.81
458.818	1099.81
459.038	1125.81
459.258	1101.81
459.478	1109.81
459.698	1134.81
459.918	1179.81
460.138	1174.81
460.358	1214.81
460.578	1190.81
460.798	1219.81
461.018	1244.81
461.238	1218.81
461.458	1255.81
461.678	1259.81
461.898	1263.81
462.118	1276.81
462.338	1282.81
462.558	1328.81
462.777	1335.81
462.997	1414.81
463.217	1442.81
463.437	1453.81
463.657	1499.81
463.876	1501.81
464.096	1428.81
464.316	1352.81
464.536	1359.81
464.755	1322.81
464.975	1308.81
465.195	1238.81
465.414	1211.81
465.634	1193.81
465.854	1157.81
466.073	1167.81
466.293	1145.81
466.512	1145.81
466.732	1138.81
466.951	1201.81
467.171	1275.81
467.391	1250.81
467.61	1178.81
467.829	1143.81
468.049	1140.81
468.268	1115.81
468.488	1125.81
468.707	1089.81
468.927	1130.81
469.146	1137.81
469.365	1149.81
469.585	1120.81
469.804	1155.81
470.023	1161.81
470.243	1202.81
470.462	1238.81
470.681	1290.81
470.901	1379.81
471.12	1587.81
471.339	1624.81
471.558	1328.81
471.777	1216.81
471.997	1171.81
472.216	1162.81
472.435	1104.81
472.654	1097.81
472.873	1092.81
473.092	1107.81
473.311	1105.81
473.53	1128.81
473.749	1153.81
473.968	1193.81
474.187	1128.81
474.406	1117.81
474.625	1118.81
474.844	1147.81
475.063	1127.81
475.282	1131.81
475.501	1127.81
475.72	1147.81
475.939	1129.81
476.158	1147.81
476.377	1195.81
476.596	1189.81
476.814	1177.81
477.033	1206.81
477.252	1181.81
477.471	1177.81
477.69	1235.81
477.908	1289.81
478.127	1297.81
478.346	1272.81
478.564	1310.81
478.783	1321.81
479.002	1314.81
479.22	1356.81
479.439	1335.81
479.658	1313.81
479.876	1367.81
480.095	1359.81
480.313	1340.81
480.532	1371.81
480.751	1353.81
480.969	1339.81
481.188	1309.81
481.406	1309.81
481.624	1318.81
481.843	1312.81
482.061	1341.81
482.28	1351.81
482.498	1317.81
482.717	1341.81
482.935	1350.81
483.153	1373.81
483.372	1425.81
483.59	1422.81
483.808	1445.81
484.027	1443.81
484.245	1495.81
484.463	1705.81
484.681	1875.81
484.9	1661.81
485.118	1563.81
485.336	1561.81
485.554	1605.81
485.772	1704.81
485.99	1896.81
486.209	2022.81
486.427	1700.81
486.645	1529.81
486.863	1502.81
487.081	1480.81
487.299	1435.81
487.517	1409.81
487.735	1418.81
487.953	1435.81
488.171	1459.81
488.389	1465.81
488.607	1451.81
488.825	1400.81
489.043	1370.81
489.261	1386.81
489.479	1390.81
489.696	1401.81
489.914	1390.81
490.132	1429.81
490.35	1455.81
490.568	1425.81
490.786	1421.81
491.003	1463.81
