Data from SnStandardFlinnAPT0064_LampEnergy10_LIBS07252019.E.O._I.C._HRD10591_15-22-27-494.txt Node
Date: Thu Jul 25 15:22:27 EDT 2019
User: cochatt
Spectrometer: HR+D1059
Trigger mode: 1
Integration Time (sec): 1.000000E-1
Scans to average: 1
Electric dark correction enabled: true
Nonlinearity correction enabled: false
Boxcar width: 0
XAxis mode: Wavelengths
Number of Pixels in Spectrum: 2048
>>>>>Begin Spectral Data<<<<<
223.165	-12.19
223.4	-12.19
223.635	-12.19
223.869	-8.19
224.104	-9.19
224.338	-19.19
224.573	-19.19
224.808	-8.19
225.042	-7.19
225.277	-0.19
225.511	-13.19
225.746	-2.19
225.98	4.81
226.215	11.81
226.449	2.81
226.683	28.81
226.918	23.81
227.152	26.81
227.387	47.81
227.621	41.81
227.856	39.81
228.09	35.81
228.324	40.81
228.559	42.81
228.793	114.81
229.027	302.81
229.262	335.81
229.496	301.81
229.73	274.81
229.964	308.81
230.199	308.81
230.433	312.81
230.667	290.81
230.901	323.81
231.136	310.81
231.37	334.81
231.604	374.81
231.838	427.81
232.072	513.81
232.306	541.81
232.541	475.81
232.775	417.81
233.009	408.81
233.243	406.81
233.477	452.81
233.711	492.81
233.945	571.81
234.179	494.81
234.413	437.81
234.647	423.81
234.881	444.81
235.115	489.81
235.349	608.81
235.583	768.81
235.817	984.81
236.051	951.81
236.285	659.81
236.519	521.81
236.753	486.81
236.987	505.81
237.221	534.81
237.455	526.81
237.689	468.81
237.922	449.81
238.156	462.81
238.39	458.81
238.624	491.81
238.858	466.81
239.091	479.81
239.325	502.81
239.559	483.81
239.793	499.81
240.027	521.81
240.26	517.81
240.494	541.81
240.728	563.81
240.961	605.81
241.195	658.81
241.429	668.81
241.662	672.81
241.896	777.81
242.13	941.81
242.363	1233.81
242.597	1597.81
242.83	1557.81
243.064	1538.81
243.298	1775.81
243.531	1441.81
243.765	915.81
243.998	740.81
244.232	703.81
244.465	664.81
244.699	633.81
244.932	632.81
245.166	659.81
245.399	665.81
245.633	647.81
245.866	692.81
246.099	662.81
246.333	647.81
246.566	639.81
246.8	616.81
247.033	637.81
247.266	619.81
247.5	645.81
247.733	654.81
247.966	699.81
248.2	762.81
248.433	838.81
248.666	974.81
248.899	937.81
249.133	851.81
249.366	846.81
249.599	919.81
249.832	1073.81
250.066	1071.81
250.299	870.81
250.532	775.81
250.765	736.81
250.998	743.81
251.231	737.81
251.465	730.81
251.698	749.81
251.931	720.81
252.164	724.81
252.397	734.81
252.63	776.81
252.863	799.81
253.096	773.81
253.329	748.81
253.562	783.81
253.795	770.81
254.028	790.81
254.261	807.81
254.494	866.81
254.727	1011.81
254.96	1223.81
255.193	1197.81
255.426	951.81
255.659	871.81
255.892	867.81
256.124	860.81
256.357	858.81
256.59	896.81
256.823	945.81
257.056	1096.81
257.289	1319.81
257.521	1444.81
257.754	1165.81
257.987	944.81
258.22	900.81
258.452	897.81
258.685	888.81
258.918	933.81
259.151	969.81
259.383	1079.81
259.616	1222.81
259.849	1231.81
260.081	1076.81
260.314	969.81
260.547	971.81
260.779	933.81
261.012	983.81
261.244	957.81
261.477	975.81
261.71	975.81
261.942	972.81
262.175	1008.81
262.407	1007.81
262.64	1052.81
262.872	1077.81
263.105	1133.81
263.337	1195.81
263.57	1267.81
263.802	1307.81
264.035	1304.81
264.267	1330.81
264.499	1372.81
264.732	1429.81
264.964	1477.81
265.197	1400.81
265.429	1436.81
265.661	1485.81
265.894	1563.81
266.126	1748.81
266.358	1969.81
266.591	1903.81
266.823	1623.81
267.055	1472.81
267.287	1384.81
267.52	1313.81
267.752	1312.81
267.984	1256.81
268.216	1239.81
268.448	1236.81
268.681	1195.81
268.913	1220.81
269.145	1253.81
269.377	1192.81
269.609	1235.81
269.841	1253.81
270.073	1371.81
270.306	1578.81
270.538	2095.81
270.77	3182.81
271.002	3859.81
271.234	2701.81
271.466	1840.81
271.698	1491.81
271.93	1378.81
272.162	1312.81
272.394	1268.81
272.626	1236.81
272.858	1223.81
273.09	1209.81
273.322	1219.81
273.553	1203.81
273.785	1200.81
274.017	1184.81
274.249	1176.81
274.481	1199.81
274.713	1197.81
274.945	1205.81
275.176	1185.81
275.408	1187.81
275.64	1199.81
275.872	1223.81
276.104	1240.81
276.335	1265.81
276.567	1269.81
276.799	1270.81
277.031	1313.81
277.262	1316.81
277.494	1405.81
277.726	1556.81
277.957	1807.81
278.189	2065.81
278.421	1985.81
278.652	1722.81
278.884	1727.81
279.115	1484.81
279.347	1430.81
279.579	1382.81
279.81	1377.81
280.042	1398.81
280.273	1402.81
280.505	1456.81
280.736	1504.81
280.968	1593.81
281.199	1762.81
281.431	2040.81
281.662	2067.81
281.894	1763.81
282.125	1604.81
282.356	1656.81
282.588	1645.81
282.819	1679.81
283.051	1777.81
283.282	1981.81
283.513	2443.81
283.745	3525.81
283.976	5583.81
284.207	7817.81
284.439	7173.81
284.67	4443.81
284.901	3642.81
285.132	3693.81
285.364	3560.81
285.595	2711.81
285.826	2345.81
286.057	2798.81
286.288	3828.81
286.52	5120.81
286.751	4762.81
286.982	3021.81
287.213	2205.81
287.444	1976.81
287.675	1848.81
287.906	1754.81
288.138	1715.81
288.369	1660.81
288.6	1669.81
288.831	1653.81
289.062	1638.81
289.293	1678.81
289.524	1661.81
289.755	1679.81
289.986	1683.81
290.217	1700.81
290.448	1708.81
290.679	1740.81
290.91	1751.81
291.141	1849.81
291.371	2014.81
291.602	2107.81
291.833	1932.81
292.064	1741.81
292.295	1676.81
292.526	1637.81
292.757	1601.81
292.987	1582.81
293.218	1564.81
293.449	1591.81
293.68	1605.81
293.91	1554.81
294.141	1547.81
294.372	1518.81
294.603	1567.81
294.833	1542.81
295.064	1575.81
295.295	1563.81
295.525	1562.81
295.756	1535.81
295.987	1537.81
296.217	1546.81
296.448	1564.81
296.679	1590.81
296.909	1579.81
297.14	1583.81
297.37	1610.81
297.601	1604.81
297.831	1575.81
298.062	1611.81
298.292	1635.81
298.523	1689.81
298.753	1675.81
298.984	1716.81
299.214	1732.81
299.445	1760.81
299.675	1776.81
299.905	1845.81
300.136	1894.81
300.366	2159.81
300.597	2680.81
300.827	3845.81
301.057	5255.81
301.288	5168.81
301.518	3280.81
301.748	2570.81
301.979	2336.81
302.209	2265.81
302.439	2254.81
302.669	2387.81
302.9	2925.81
303.13	4116.81
303.36	6133.81
303.59	8174.81
303.82	6995.81
304.051	4095.81
304.281	2966.81
304.511	2481.81
304.741	2289.81
304.971	2143.81
305.201	2029.81
305.431	2005.81
305.661	1959.81
305.891	1871.81
306.121	1880.81
306.352	1866.81
306.582	1819.81
306.812	1795.81
307.042	1812.81
307.272	1785.81
307.502	1800.81
307.731	1778.81
307.961	1836.81
308.191	1837.81
308.421	1769.81
308.651	1794.81
308.881	1843.81
309.111	1807.81
309.341	1792.81
309.571	1805.81
309.8	1868.81
310.03	1868.81
310.26	1851.81
310.49	1894.81
310.72	1877.81
310.949	1865.81
311.179	1867.81
311.409	1886.81
311.639	1909.81
311.868	1930.81
312.098	1919.81
312.328	1950.81
312.557	1925.81
312.787	1960.81
313.017	1948.81
313.246	2010.81
313.476	2025.81
313.706	2082.81
313.935	2201.81
314.165	2327.81
314.394	2439.81
314.624	2372.81
314.853	2157.81
315.083	2158.81
315.312	2155.81
315.542	2190.81
315.771	2232.81
316.001	2206.81
316.23	2305.81
316.46	2432.81
316.689	2678.81
316.919	3182.81
317.148	4607.81
317.377	7083.81
317.607	10262.81
317.836	10621.81
318.065	6489.81
318.295	4139.81
318.524	3335.81
318.753	2904.81
318.983	2696.81
319.212	2555.81
319.441	2495.81
319.67	2441.81
319.9	2358.81
320.129	2368.81
320.358	2354.81
320.587	2310.81
320.816	2286.81
321.046	2363.81
321.275	2303.81
321.504	2374.81
321.733	2427.81
321.962	2502.81
322.191	2548.81
322.42	2477.81
322.649	2437.81
322.878	2475.81
323.108	2481.81
323.337	2561.81
323.566	2576.81
323.795	2621.81
324.024	2649.81
324.253	2694.81
324.482	2751.81
324.71	2971.81
324.939	3172.81
325.168	3217.81
325.397	3375.81
325.626	3994.81
325.855	5543.81
326.084	8658.81
326.313	12567.81
326.542	13376.81
326.77	8854.81
326.999	5781.81
327.228	4867.81
327.457	4635.81
327.686	4708.81
327.914	4991.81
328.143	5819.81
328.372	7006.81
328.6	7594.81
328.829	6711.81
329.058	5524.81
329.287	4944.81
329.515	4549.81
329.744	4233.81
329.972	3973.81
330.201	3768.81
330.43	3660.81
330.658	3570.81
330.887	3517.81
331.115	3476.81
331.344	3478.81
331.572	3435.81
331.801	3479.81
332.03	3461.81
332.258	3535.81
332.486	3766.81
332.715	4248.81
332.943	5325.81
333.172	6490.81
333.4	6487.81
333.629	4917.81
333.857	4450.81
334.085	4395.81
334.314	4620.81
334.542	5011.81
334.771	5918.81
334.999	7240.81
335.227	9111.81
335.455	10159.81
335.684	9085.81
335.912	7434.81
336.14	6295.81
336.369	5524.81
336.597	5091.81
336.825	4711.81
337.053	4432.81
337.281	4233.81
337.51	3976.81
337.738	3878.81
337.966	3658.81
338.194	3517.81
338.422	3504.81
338.65	3342.81
338.878	3318.81
339.106	3259.81
339.334	3163.81
339.562	3158.81
339.79	3083.81
340.018	3053.81
340.246	2995.81
340.474	2980.81
340.702	3011.81
340.93	3069.81
341.158	3037.81
341.386	2942.81
341.614	3005.81
341.842	2899.81
342.07	2856.81
342.298	2775.81
342.526	2775.81
342.754	2743.81
342.981	2708.81
343.209	2763.81
343.437	2817.81
343.665	2788.81
343.893	2841.81
344.12	2838.81
344.348	2759.81
344.576	2743.81
344.804	2720.81
345.031	2593.81
345.259	2614.81
345.487	2566.81
345.714	2555.81
345.942	2546.81
346.17	2564.81
346.397	2573.81
346.625	2532.81
346.853	2495.81
347.08	2564.81
347.308	2493.81
347.535	2537.81
347.763	2513.81
347.99	2477.81
348.218	2456.81
348.445	2443.81
348.673	2419.81
348.9	2502.81
349.128	2419.81
349.355	2425.81
349.583	2449.81
349.81	2414.81
350.037	2399.81
350.265	2393.81
350.492	2404.81
350.72	2380.81
350.947	2381.81
351.174	2395.81
351.402	2393.81
351.629	2385.81
351.856	2380.81
352.083	2395.81
352.311	2394.81
352.538	2388.81
352.765	2403.81
352.992	2335.81
353.22	2387.81
353.447	2371.81
353.674	2367.81
353.901	2362.81
354.128	2416.81
354.355	2397.81
354.583	2376.81
354.81	2359.81
355.037	2449.81
355.264	2471.81
355.491	2392.81
355.718	2438.81
355.945	2437.81
356.172	2461.81
356.399	2473.81
356.626	2455.81
356.853	2505.81
357.08	2500.81
357.307	2581.81
357.534	2523.81
357.761	2560.81
357.988	2559.81
358.215	2551.81
358.441	2587.81
358.668	2534.81
358.895	2509.81
359.122	2492.81
359.349	2552.81
359.576	2563.81
359.802	2470.81
360.029	2536.81
360.256	2500.81
360.483	2511.81
360.709	2544.81
360.936	2555.81
361.163	2591.81
361.39	2488.81
361.616	2597.81
361.843	2577.81
362.07	2569.81
362.296	2565.81
362.523	2558.81
362.749	2583.81
362.976	2531.81
363.203	2549.81
363.429	2545.81
363.656	2596.81
363.882	2550.81
364.109	2512.81
364.335	2591.81
364.562	2527.81
364.788	2507.81
365.015	2561.81
365.241	2679.81
365.468	2762.81
365.694	2907.81
365.92	2895.81
366.147	2619.81
366.373	2640.81
366.599	2612.81
366.826	2620.81
367.052	2599.81
367.278	2610.81
367.505	2611.81
367.731	2622.81
367.957	2601.81
368.184	2656.81
368.41	2633.81
368.636	2606.81
368.862	2667.81
369.089	2672.81
369.315	2651.81
369.541	2651.81
369.767	2639.81
369.993	2624.81
370.219	2653.81
370.445	2673.81
370.672	2705.81
370.898	2690.81
371.124	2643.81
371.35	2721.81
371.576	2703.81
371.802	2769.81
372.028	2741.81
372.254	2740.81
372.48	2786.81
372.706	2815.81
372.932	2758.81
373.158	2789.81
373.384	2787.81
373.61	2785.81
373.835	2800.81
374.061	2803.81
374.287	2795.81
374.513	2850.81
374.739	2873.81
374.965	2902.81
375.191	2925.81
375.416	2915.81
375.642	2819.81
375.868	2836.81
376.094	2860.81
376.319	2785.81
376.545	2800.81
376.771	2744.81
376.997	2815.81
377.222	2795.81
377.448	2797.81
377.674	2743.81
377.899	2725.81
378.125	2723.81
378.35	2713.81
378.576	2751.81
378.802	2764.81
379.027	2855.81
379.253	2936.81
379.478	3070.81
379.704	3634.81
379.929	5123.81
380.155	7822.81
380.38	8483.81
380.606	5143.81
380.831	3617.81
381.057	3153.81
381.282	2982.81
381.507	2850.81
381.733	2785.81
381.958	2723.81
382.184	2723.81
382.409	2701.81
382.634	2706.81
382.86	2693.81
383.085	2679.81
383.31	2709.81
383.535	2694.81
383.761	2667.81
383.986	2698.81
384.211	2725.81
384.436	2756.81
384.662	2827.81
384.887	2788.81
385.112	2724.81
385.337	2759.81
385.562	2807.81
385.787	2797.81
386.013	2796.81
386.238	2753.81
386.463	2784.81
386.688	2776.81
386.913	2782.81
387.138	2793.81
387.363	2760.81
387.588	2764.81
387.813	2737.81
388.038	2765.81
388.263	2790.81
388.488	2741.81
388.713	2792.81
388.938	2771.81
389.163	2782.81
389.387	2833.81
389.612	2801.81
389.837	2788.81
390.062	2760.81
390.287	2841.81
390.512	2780.81
390.736	2836.81
390.961	2889.81
391.186	2862.81
391.411	2943.81
391.636	2926.81
391.86	2913.81
392.085	2919.81
392.31	2956.81
392.534	2888.81
392.759	2925.81
392.984	2856.81
393.208	2789.81
393.433	2878.81
393.658	2886.81
393.882	2860.81
394.107	2881.81
394.331	2828.81
394.556	2795.81
394.78	2853.81
395.005	2829.81
395.229	2853.81
395.454	2932.81
395.678	2954.81
395.903	2934.81
396.127	2902.81
396.352	2875.81
396.576	2868.81
396.801	2917.81
397.025	2909.81
397.249	2927.81
397.474	3012.81
397.698	2881.81
397.922	2913.81
398.147	2940.81
398.371	3014.81
398.595	3007.81
398.82	3114.81
399.044	3260.81
399.268	3334.81
399.492	3595.81
399.717	3672.81
399.941	3664.81
400.165	3553.81
400.389	3349.81
400.613	3285.81
400.837	3179.81
401.062	3144.81
401.286	3127.81
401.51	3093.81
401.734	3039.81
401.958	3077.81
402.182	3071.81
402.406	3017.81
402.63	3075.81
402.854	3151.81
403.078	3064.81
403.302	3072.81
403.526	3183.81
403.75	3181.81
403.974	3195.81
404.198	3176.81
404.422	3237.81
404.645	3200.81
404.869	3184.81
405.093	3161.81
405.317	3173.81
405.541	3237.81
405.765	3263.81
405.988	3328.81
406.212	3279.81
406.436	3267.81
406.66	3308.81
406.883	3267.81
407.107	3390.81
407.331	3382.81
407.555	3468.81
407.778	3467.81
408.002	3443.81
408.226	3415.81
408.449	3409.81
408.673	3367.81
408.896	3307.81
409.12	3213.81
409.344	3247.81
409.567	3192.81
409.791	3142.81
410.014	3159.81
410.238	3164.81
410.461	3218.81
410.685	3183.81
410.908	3145.81
411.132	3131.81
411.355	3078.81
411.578	3061.81
411.802	3037.81
412.025	3015.81
412.249	3075.81
412.472	3034.81
412.695	3041.81
412.919	2987.81
413.142	3065.81
413.365	3011.81
413.589	3015.81
413.812	2990.81
414.035	2960.81
414.258	2964.81
414.482	3007.81
414.705	2998.81
414.928	3027.81
415.151	3000.81
415.374	2997.81
415.597	2937.81
415.821	2862.81
416.044	2868.81
416.267	2892.81
416.49	2851.81
416.713	2904.81
416.936	2910.81
417.159	2844.81
417.382	2872.81
417.605	2832.81
417.828	2831.81
418.051	2928.81
418.274	2863.81
418.497	2953.81
418.72	3009.81
418.943	2900.81
419.166	3058.81
419.389	3185.81
419.611	3154.81
419.834	3052.81
420.057	2977.81
420.28	2976.81
420.503	2878.81
420.726	2869.81
420.948	2849.81
421.171	2873.81
421.394	2905.81
421.617	2851.81
421.839	2870.81
422.062	2891.81
422.285	2801.81
422.507	2957.81
422.73	2991.81
422.953	2965.81
423.175	2928.81
423.398	2935.81
423.621	2887.81
423.843	2954.81
424.066	2888.81
424.288	2871.81
424.511	2877.81
424.733	2900.81
424.956	2817.81
425.178	2920.81
425.401	2850.81
425.623	2840.81
425.846	2721.81
426.068	2807.81
426.291	2749.81
426.513	2703.81
426.735	2736.81
426.958	2791.81
427.18	2682.81
427.402	2738.81
427.625	2739.81
427.847	2641.81
428.069	2688.81
428.292	2703.81
428.514	2671.81
428.736	2638.81
428.958	2723.81
429.181	2577.81
429.403	2641.81
429.625	2661.81
429.847	2619.81
430.069	2750.81
430.292	2835.81
430.514	2840.81
430.736	2843.81
430.958	2717.81
431.18	2629.81
431.402	2596.81
431.624	2649.81
431.846	2599.81
432.068	2668.81
432.29	2653.81
432.512	2543.81
432.734	2635.81
432.956	2645.81
433.178	2653.81
433.4	2658.81
433.622	2664.81
433.844	2692.81
434.066	2623.81
434.287	2661.81
434.509	2715.81
434.731	2745.81
434.953	2722.81
435.175	2811.81
435.397	2731.81
435.618	2724.81
435.84	2651.81
436.062	2609.81
436.284	2575.81
436.505	2565.81
436.727	2628.81
436.949	2603.81
437.17	2580.81
437.392	2558.81
437.614	2564.81
437.835	2534.81
438.057	2565.81
438.278	2518.81
438.5	2549.81
438.721	2596.81
438.943	2669.81
439.165	2729.81
439.386	2716.81
439.608	2663.81
439.829	2677.81
440.05	2828.81
440.272	2850.81
440.493	2745.81
440.715	2741.81
440.936	2695.81
441.158	2804.81
441.379	2819.81
441.6	2895.81
441.822	2920.81
442.043	3098.81
442.264	3180.81
442.486	2950.81
442.707	2878.81
442.928	2859.81
443.149	2832.81
443.371	2855.81
443.592	2805.81
443.813	2836.81
444.034	2838.81
444.255	2943.81
444.476	2927.81
444.698	3019.81
444.919	3036.81
445.14	3133.81
445.361	3011.81
445.582	2914.81
445.803	2880.81
446.024	2768.81
446.245	2833.81
446.466	2782.81
446.687	2763.81
446.908	2716.81
447.129	2643.81
447.35	2637.81
447.571	2665.81
447.792	2572.81
448.013	2637.81
448.234	2580.81
448.455	2584.81
448.675	2642.81
448.896	2673.81
449.117	2799.81
449.338	3024.81
449.559	3131.81
449.779	2801.81
450	2585.81
450.221	2547.81
450.442	2604.81
450.662	2537.81
450.883	2545.81
451.104	2509.81
451.324	2525.81
451.545	2516.81
451.766	2555.81
451.986	2630.81
452.207	2790.81
452.428	3601.81
452.648	5493.81
452.869	4491.81
453.089	3147.81
453.31	2938.81
453.53	2948.81
453.751	3027.81
453.971	3133.81
454.192	3125.81
454.412	2687.81
454.633	2544.81
454.853	2481.81
455.073	2449.81
455.294	2455.81
455.514	2437.81
455.734	2399.81
455.955	2400.81
456.175	2397.81
456.395	2433.81
456.616	2415.81
456.836	2507.81
457.056	2500.81
457.276	2497.81
457.497	2603.81
457.717	2629.81
457.937	2592.81
458.157	2519.81
458.377	2498.81
458.598	2597.81
458.818	2623.81
459.038	2607.81
459.258	2631.81
459.478	2654.81
459.698	2691.81
459.918	2724.81
460.138	2775.81
460.358	2807.81
460.578	2829.81
460.798	2866.81
461.018	2885.81
461.238	2884.81
461.458	2871.81
461.678	2895.81
461.898	2975.81
462.118	3021.81
462.338	3061.81
462.558	3124.81
462.777	3114.81
462.997	3240.81
463.217	3320.81
463.437	3501.81
463.657	3625.81
463.876	3553.81
464.096	3335.81
464.316	3203.81
464.536	3168.81
464.755	3073.81
464.975	2980.81
465.195	2903.81
465.414	2843.81
465.634	2759.81
465.854	2726.81
466.073	2684.81
466.293	2685.81
466.512	2627.81
466.732	2688.81
466.951	2861.81
467.171	2995.81
467.391	2943.81
467.61	2697.81
467.829	2632.81
468.049	2566.81
468.268	2579.81
468.488	2533.81
468.707	2552.81
468.927	2565.81
469.146	2534.81
469.365	2587.81
469.585	2619.81
469.804	2727.81
470.023	2740.81
470.243	2781.81
470.462	2866.81
470.681	3021.81
470.901	3284.81
471.12	3761.81
471.339	3755.81
471.558	3152.81
471.777	2875.81
471.997	2811.81
472.216	2679.81
472.435	2637.81
472.654	2629.81
472.873	2538.81
473.092	2598.81
473.311	2606.81
473.53	2573.81
473.749	2723.81
473.968	2783.81
474.187	2685.81
474.406	2573.81
474.625	2642.81
474.844	2613.81
475.063	2619.81
475.282	2645.81
475.501	2638.81
475.72	2697.81
475.939	2659.81
476.158	2743.81
476.377	2770.81
476.596	2764.81
476.814	2743.81
477.033	2739.81
477.252	2779.81
477.471	2829.81
477.69	2895.81
477.908	2876.81
478.127	2932.81
478.346	2939.81
478.564	2967.81
478.783	3035.81
479.002	3138.81
479.22	3087.81
479.439	3091.81
479.658	3104.81
479.876	3147.81
480.095	3145.81
480.313	3206.81
480.532	3204.81
480.751	3206.81
480.969	3199.81
481.188	3169.81
481.406	3161.81
481.624	3157.81
481.843	3185.81
482.061	3164.81
482.28	3145.81
482.498	3178.81
482.717	3133.81
482.935	3167.81
483.153	3201.81
483.372	3232.81
483.59	3293.81
483.808	3332.81
484.027	3411.81
484.245	3588.81
484.463	4029.81
484.681	4473.81
484.9	4113.81
485.118	3765.81
485.336	3688.81
485.554	3726.81
485.772	3990.81
485.99	4517.81
486.209	4802.81
486.427	4150.81
486.645	3693.81
486.863	3539.81
487.081	3427.81
487.299	3389.81
487.517	3361.81
487.735	3379.81
