Data from SnStandardFlinnAPT0064_LampEnergy10_LIBS07252019.E.O._I.C._HRD10591_15-19-23-493.txt Node
Date: Thu Jul 25 15:19:23 EDT 2019
User: cochatt
Spectrometer: HR+D1059
Trigger mode: 1
Integration Time (sec): 1.000000E-1
Scans to average: 1
Electric dark correction enabled: true
Nonlinearity correction enabled: false
Boxcar width: 0
XAxis mode: Wavelengths
Number of Pixels in Spectrum: 2048
>>>>>Begin Spectral Data<<<<<
223.165	-21.81
223.4	-21.81
223.635	-21.81
223.869	-14.81
224.104	-10.81
224.338	-11.81
224.573	-16.81
224.808	-10.81
225.042	-3.81
225.277	-8.81
225.511	-4.81
225.746	3.19
225.98	13.19
226.215	11.19
226.449	15.19
226.683	19.19
226.918	17.19
227.152	25.19
227.387	34.19
227.621	34.19
227.856	40.19
228.09	43.19
228.324	51.19
228.559	45.19
228.793	117.19
229.027	326.19
229.262	347.19
229.496	322.19
229.73	324.19
229.964	303.19
230.199	297.19
230.433	316.19
230.667	338.19
230.901	338.19
231.136	344.19
231.37	363.19
231.604	395.19
231.838	449.19
232.072	572.19
232.306	605.19
232.541	504.19
232.775	440.19
233.009	428.19
233.243	445.19
233.477	482.19
233.711	545.19
233.945	637.19
234.179	564.19
234.413	501.19
234.647	473.19
234.881	475.19
235.115	563.19
235.349	642.19
235.583	849.19
235.817	1083.19
236.051	1083.19
236.285	732.19
236.519	565.19
236.753	530.19
236.987	522.19
237.221	569.19
237.455	530.19
237.689	473.19
237.922	492.19
238.156	503.19
238.39	519.19
238.624	507.19
238.858	499.19
239.091	499.19
239.325	502.19
239.559	525.19
239.793	515.19
240.027	544.19
240.26	583.19
240.494	557.19
240.728	605.19
240.961	639.19
241.195	673.19
241.429	716.19
241.662	751.19
241.896	871.19
242.13	1047.19
242.363	1405.19
242.597	1803.19
242.83	1748.19
243.064	1688.19
243.298	2021.19
243.531	1660.19
243.765	1039.19
243.998	829.19
244.232	743.19
244.465	680.19
244.699	689.19
244.932	682.19
245.166	684.19
245.399	698.19
245.633	697.19
245.866	709.19
246.099	695.19
246.333	643.19
246.566	650.19
246.8	662.19
247.033	652.19
247.266	650.19
247.5	650.19
247.733	665.19
247.966	730.19
248.2	799.19
248.433	907.19
248.666	1066.19
248.899	1031.19
249.133	892.19
249.366	919.19
249.599	1029.19
249.832	1139.19
250.066	1149.19
250.299	889.19
250.532	803.19
250.765	785.19
250.998	747.19
251.231	716.19
251.465	749.19
251.698	748.19
251.931	751.19
252.164	759.19
252.397	757.19
252.63	783.19
252.863	807.19
253.096	766.19
253.329	788.19
253.562	771.19
253.795	801.19
254.028	799.19
254.261	842.19
254.494	908.19
254.727	1119.19
254.96	1372.19
255.193	1299.19
255.426	996.19
255.659	906.19
255.892	890.19
256.124	888.19
256.357	921.19
256.59	935.19
256.823	1017.19
257.056	1169.19
257.289	1441.19
257.521	1642.19
257.754	1253.19
257.987	1002.19
258.22	946.19
258.452	949.19
258.685	938.19
258.918	1012.19
259.151	1015.19
259.383	1088.19
259.616	1281.19
259.849	1345.19
260.081	1128.19
260.314	1028.19
260.547	977.19
260.779	934.19
261.012	941.19
261.244	962.19
261.477	967.19
261.71	988.19
261.942	989.19
262.175	1001.19
262.407	1045.19
262.64	1031.19
262.872	1108.19
263.105	1112.19
263.337	1180.19
263.57	1260.19
263.802	1254.19
264.035	1297.19
264.267	1318.19
264.499	1314.19
264.732	1375.19
264.964	1389.19
265.197	1401.19
265.429	1393.19
265.661	1430.19
265.894	1505.19
266.126	1736.19
266.358	1942.19
266.591	1956.19
266.823	1604.19
267.055	1454.19
267.287	1381.19
267.52	1342.19
267.752	1291.19
267.984	1283.19
268.216	1239.19
268.448	1241.19
268.681	1214.19
268.913	1244.19
269.145	1218.19
269.377	1237.19
269.609	1252.19
269.841	1325.19
270.073	1412.19
270.306	1706.19
270.538	2320.19
270.77	3552.19
271.002	4339.19
271.234	3117.19
271.466	2015.19
271.698	1604.19
271.93	1455.19
272.162	1399.19
272.394	1325.19
272.626	1263.19
272.858	1244.19
273.09	1256.19
273.322	1228.19
273.553	1205.19
273.785	1200.19
274.017	1192.19
274.249	1192.19
274.481	1204.19
274.713	1199.19
274.945	1230.19
275.176	1260.19
275.408	1238.19
275.64	1216.19
275.872	1243.19
276.104	1267.19
276.335	1312.19
276.567	1301.19
276.799	1263.19
277.031	1355.19
277.262	1376.19
277.494	1427.19
277.726	1615.19
277.957	1950.19
278.189	2255.19
278.421	2103.19
278.652	1828.19
278.884	1697.19
279.115	1558.19
279.347	1479.19
279.579	1481.19
279.81	1393.19
280.042	1406.19
280.273	1446.19
280.505	1503.19
280.736	1560.19
280.968	1660.19
281.199	1897.19
281.431	2163.19
281.662	2242.19
281.894	1903.19
282.125	1684.19
282.356	1686.19
282.588	1744.19
282.819	1773.19
283.051	1931.19
283.282	2145.19
283.513	2624.19
283.745	3958.19
283.976	6240.19
284.207	8965.19
284.439	8183.19
284.67	5116.19
284.901	4196.19
285.132	4227.19
285.364	3931.19
285.595	2974.19
285.826	2629.19
286.057	3085.19
286.288	4263.19
286.52	5858.19
286.751	5442.19
286.982	3396.19
287.213	2456.19
287.444	2151.19
287.675	1936.19
287.906	1841.19
288.138	1774.19
288.369	1745.19
288.6	1734.19
288.831	1754.19
289.062	1695.19
289.293	1707.19
289.524	1704.19
289.755	1707.19
289.986	1722.19
290.217	1738.19
290.448	1716.19
290.679	1770.19
290.91	1789.19
291.141	1920.19
291.371	2053.19
291.602	2151.19
291.833	2021.19
292.064	1793.19
292.295	1688.19
292.526	1700.19
292.757	1638.19
292.987	1669.19
293.218	1574.19
293.449	1607.19
293.68	1583.19
293.91	1577.19
294.141	1591.19
294.372	1577.19
294.603	1581.19
294.833	1576.19
295.064	1557.19
295.295	1559.19
295.525	1547.19
295.756	1572.19
295.987	1531.19
296.217	1579.19
296.448	1569.19
296.679	1571.19
296.909	1547.19
297.14	1603.19
297.37	1588.19
297.601	1657.19
297.831	1636.19
298.062	1616.19
298.292	1651.19
298.523	1689.19
298.753	1692.19
298.984	1738.19
299.214	1741.19
299.445	1799.19
299.675	1781.19
299.905	1892.19
300.136	2018.19
300.366	2198.19
300.597	2975.19
300.827	4233.19
301.057	5756.19
301.288	5831.19
301.518	3711.19
301.748	2809.19
301.979	2490.19
302.209	2411.19
302.439	2430.19
302.669	2547.19
302.9	3185.19
303.13	4487.19
303.36	6844.19
303.59	9164.19
303.82	7977.19
304.051	4712.19
304.281	3323.19
304.511	2684.19
304.741	2494.19
304.971	2305.19
305.201	2184.19
305.431	2049.19
305.661	2012.19
305.891	1969.19
306.121	1923.19
306.352	1905.19
306.582	1881.19
306.812	1848.19
307.042	1900.19
307.272	1832.19
307.502	1825.19
307.731	1845.19
307.961	1812.19
308.191	1848.19
308.421	1796.19
308.651	1784.19
308.881	1834.19
309.111	1805.19
309.341	1768.19
309.571	1828.19
309.8	1864.19
310.03	1835.19
310.26	1876.19
310.49	1872.19
310.72	1868.19
310.949	1861.19
311.179	1895.19
311.409	1864.19
311.639	1896.19
311.868	1975.19
312.098	1930.19
312.328	1928.19
312.557	1948.19
312.787	1937.19
313.017	1914.19
313.246	1967.19
313.476	2014.19
313.706	2153.19
313.935	2209.19
314.165	2400.19
314.394	2512.19
314.624	2412.19
314.853	2219.19
315.083	2176.19
315.312	2213.19
315.542	2182.19
315.771	2281.19
316.001	2310.19
316.23	2340.19
316.46	2551.19
316.689	2778.19
316.919	3427.19
317.148	4968.19
317.377	7898.19
317.607	11557.19
317.836	12062.19
318.065	7427.19
318.295	4753.19
318.524	3714.19
318.753	3180.19
318.983	2884.19
319.212	2707.19
319.441	2629.19
319.67	2546.19
319.9	2471.19
320.129	2417.19
320.358	2376.19
320.587	2388.19
320.816	2409.19
321.046	2382.19
321.275	2407.19
321.504	2419.19
321.733	2411.19
321.962	2533.19
322.191	2573.19
322.42	2481.19
322.649	2503.19
322.878	2491.19
323.108	2530.19
323.337	2559.19
323.566	2613.19
323.795	2675.19
324.024	2685.19
324.253	2770.19
324.482	2947.19
324.71	3042.19
324.939	3377.19
325.168	3391.19
325.397	3485.19
325.626	4251.19
325.855	6072.19
326.084	9606.19
326.313	13615.19
326.542	14353.19
326.77	10176.19
326.999	6605.19
327.228	5424.19
327.457	5095.19
327.686	5043.19
327.914	5354.19
328.143	6251.19
328.372	7374.19
328.6	8089.19
328.829	7192.19
329.058	5991.19
329.287	5192.19
329.515	4732.19
329.744	4349.19
329.972	4119.19
330.201	3885.19
330.43	3783.19
330.658	3631.19
330.887	3603.19
331.115	3545.19
331.344	3524.19
331.572	3511.19
331.801	3505.19
332.03	3525.19
332.258	3568.19
332.486	3879.19
332.715	4392.19
332.943	5550.19
333.172	7115.19
333.4	7089.19
333.629	5229.19
333.857	4656.19
334.085	4595.19
334.314	4733.19
334.542	5240.19
334.771	6104.19
334.999	7590.19
335.227	9439.19
335.455	10708.19
335.684	9505.19
335.912	7809.19
336.14	6576.19
336.369	5871.19
336.597	5257.19
336.825	4843.19
337.053	4505.19
337.281	4324.19
337.51	4019.19
337.738	3858.19
337.966	3725.19
338.194	3581.19
338.422	3449.19
338.65	3365.19
338.878	3335.19
339.106	3203.19
339.334	3164.19
339.562	3099.19
339.79	2993.19
340.018	3009.19
340.246	2945.19
340.474	3024.19
340.702	3035.19
340.93	3021.19
341.158	2945.19
341.386	2956.19
341.614	2922.19
341.842	2904.19
342.07	2816.19
342.298	2769.19
342.526	2766.19
342.754	2677.19
342.981	2659.19
343.209	2679.19
343.437	2736.19
343.665	2764.19
343.893	2735.19
344.12	2793.19
344.348	2762.19
344.576	2664.19
344.804	2645.19
345.031	2585.19
345.259	2602.19
345.487	2585.19
345.714	2518.19
345.942	2503.19
346.17	2515.19
346.397	2567.19
346.625	2495.19
346.853	2470.19
347.08	2477.19
347.308	2522.19
347.535	2503.19
347.763	2459.19
347.99	2441.19
348.218	2434.19
348.445	2408.19
348.673	2444.19
348.9	2456.19
349.128	2435.19
349.355	2371.19
349.583	2398.19
349.81	2383.19
350.037	2359.19
350.265	2372.19
350.492	2383.19
350.72	2358.19
350.947	2373.19
351.174	2394.19
351.402	2364.19
351.629	2423.19
351.856	2345.19
352.083	2367.19
352.311	2407.19
352.538	2365.19
352.765	2364.19
352.992	2359.19
353.22	2302.19
353.447	2330.19
353.674	2348.19
353.901	2360.19
354.128	2345.19
354.355	2335.19
354.583	2403.19
354.81	2334.19
355.037	2418.19
355.264	2384.19
355.491	2443.19
355.718	2394.19
355.945	2389.19
356.172	2428.19
356.399	2434.19
356.626	2479.19
356.853	2479.19
357.08	2420.19
357.307	2496.19
357.534	2511.19
357.761	2524.19
357.988	2579.19
358.215	2549.19
358.441	2515.19
358.668	2485.19
358.895	2459.19
359.122	2540.19
359.349	2493.19
359.576	2457.19
359.802	2544.19
360.029	2489.19
360.256	2479.19
360.483	2475.19
360.709	2502.19
360.936	2504.19
361.163	2500.19
361.39	2527.19
361.616	2519.19
361.843	2544.19
362.07	2543.19
362.296	2554.19
362.523	2558.19
362.749	2540.19
362.976	2491.19
363.203	2496.19
363.429	2501.19
363.656	2487.19
363.882	2495.19
364.109	2480.19
364.335	2482.19
364.562	2511.19
364.788	2486.19
365.015	2565.19
365.241	2579.19
365.468	2804.19
365.694	2941.19
365.92	2779.19
366.147	2563.19
366.373	2605.19
366.599	2593.19
366.826	2551.19
367.052	2523.19
367.278	2563.19
367.505	2581.19
367.731	2604.19
367.957	2583.19
368.184	2578.19
368.41	2648.19
368.636	2581.19
368.862	2575.19
369.089	2616.19
369.315	2592.19
369.541	2625.19
369.767	2605.19
369.993	2531.19
370.219	2584.19
370.445	2561.19
370.672	2615.19
370.898	2618.19
371.124	2617.19
371.35	2636.19
371.576	2697.19
371.802	2659.19
372.028	2695.19
372.254	2696.19
372.48	2723.19
372.706	2731.19
372.932	2723.19
373.158	2728.19
373.384	2710.19
373.61	2695.19
373.835	2707.19
374.061	2765.19
374.287	2787.19
374.513	2754.19
374.739	2801.19
374.965	2877.19
375.191	2865.19
375.416	2820.19
375.642	2786.19
375.868	2799.19
376.094	2772.19
376.319	2742.19
376.545	2754.19
376.771	2674.19
376.997	2657.19
377.222	2658.19
377.448	2644.19
377.674	2672.19
377.899	2670.19
378.125	2667.19
378.35	2662.19
378.576	2706.19
378.802	2699.19
379.027	2762.19
379.253	2858.19
379.478	3076.19
379.704	3655.19
379.929	5443.19
380.155	8598.19
380.38	9471.19
380.606	5757.19
380.831	3917.19
381.057	3357.19
381.282	3052.19
381.507	2923.19
381.733	2800.19
381.958	2788.19
382.184	2696.19
382.409	2663.19
382.634	2687.19
382.86	2657.19
383.085	2641.19
383.31	2651.19
383.535	2639.19
383.761	2704.19
383.986	2661.19
384.211	2664.19
384.436	2650.19
384.662	2735.19
384.887	2715.19
385.112	2732.19
385.337	2730.19
385.562	2689.19
385.787	2722.19
386.013	2775.19
386.238	2725.19
386.463	2721.19
386.688	2757.19
386.913	2672.19
387.138	2738.19
387.363	2676.19
387.588	2682.19
387.813	2740.19
388.038	2726.19
388.263	2722.19
388.488	2698.19
388.713	2749.19
388.938	2715.19
389.163	2669.19
389.387	2725.19
389.612	2671.19
389.837	2729.19
390.062	2674.19
390.287	2761.19
390.512	2739.19
390.736	2783.19
390.961	2793.19
391.186	2833.19
391.411	2811.19
391.636	2848.19
391.86	2828.19
392.085	2842.19
392.31	2833.19
392.534	2802.19
392.759	2801.19
392.984	2731.19
393.208	2780.19
393.433	2854.19
393.658	2819.19
393.882	2741.19
394.107	2733.19
394.331	2720.19
394.556	2713.19
394.78	2777.19
395.005	2807.19
395.229	2825.19
395.454	2772.19
395.678	2822.19
395.903	2839.19
396.127	2855.19
396.352	2783.19
396.576	2792.19
396.801	2824.19
397.025	2892.19
397.249	2857.19
397.474	2860.19
397.698	2792.19
397.922	2937.19
398.147	2855.19
398.371	2937.19
398.595	2930.19
398.82	2987.19
399.044	3155.19
399.268	3268.19
399.492	3419.19
399.717	3511.19
399.941	3526.19
400.165	3457.19
400.389	3288.19
400.613	3151.19
400.837	3096.19
401.062	3029.19
401.286	2964.19
401.51	3012.19
401.734	2972.19
401.958	3011.19
402.182	3003.19
402.406	2987.19
402.63	2954.19
402.854	3006.19
403.078	3033.19
403.302	3106.19
403.526	3113.19
403.75	3117.19
403.974	3108.19
404.198	3068.19
404.422	3108.19
404.645	3100.19
404.869	3053.19
405.093	3108.19
405.317	3085.19
405.541	3175.19
405.765	3146.19
405.988	3245.19
406.212	3221.19
406.436	3186.19
406.66	3244.19
406.883	3178.19
407.107	3302.19
407.331	3324.19
407.555	3420.19
407.778	3312.19
408.002	3292.19
408.226	3377.19
408.449	3343.19
408.673	3264.19
408.896	3129.19
409.12	3157.19
409.344	3177.19
409.567	3093.19
409.791	3092.19
410.014	3096.19
410.238	3104.19
410.461	3047.19
410.685	3064.19
410.908	3044.19
411.132	3022.19
411.355	2978.19
411.578	2987.19
411.802	2977.19
412.025	2921.19
412.249	3021.19
412.472	2968.19
412.695	2961.19
412.919	2963.19
413.142	2931.19
413.365	2933.19
413.589	2912.19
413.812	2936.19
414.035	2917.19
414.258	2903.19
414.482	2907.19
414.705	2907.19
414.928	2977.19
415.151	2930.19
415.374	2897.19
415.597	2882.19
415.821	2794.19
416.044	2813.19
416.267	2830.19
416.49	2786.19
416.713	2807.19
416.936	2777.19
417.159	2751.19
417.382	2745.19
417.605	2802.19
417.828	2772.19
418.051	2834.19
418.274	2859.19
418.497	2828.19
418.72	2921.19
418.943	2840.19
419.166	2983.19
419.389	3109.19
419.611	3129.19
419.834	3020.19
420.057	2928.19
420.28	2843.19
420.503	2781.19
420.726	2754.19
420.948	2784.19
421.171	2865.19
421.394	2796.19
421.617	2826.19
421.839	2871.19
422.062	2871.19
422.285	2791.19
422.507	2883.19
422.73	2884.19
422.953	2880.19
423.175	2951.19
423.398	2858.19
423.621	2832.19
423.843	2882.19
424.066	2836.19
424.288	2804.19
424.511	2805.19
424.733	2778.19
424.956	2760.19
425.178	2744.19
425.401	2762.19
425.623	2752.19
425.846	2724.19
426.068	2666.19
426.291	2716.19
426.513	2688.19
426.735	2625.19
426.958	2711.19
427.18	2649.19
427.402	2687.19
427.625	2704.19
427.847	2680.19
428.069	2629.19
428.292	2646.19
428.514	2667.19
428.736	2625.19
428.958	2613.19
429.181	2589.19
429.403	2557.19
429.625	2573.19
429.847	2632.19
430.069	2659.19
430.292	2779.19
430.514	2823.19
430.736	2801.19
430.958	2659.19
431.18	2643.19
431.402	2602.19
431.624	2607.19
431.846	2597.19
432.068	2584.19
432.29	2599.19
432.512	2518.19
432.734	2647.19
432.956	2563.19
433.178	2603.19
433.4	2600.19
433.622	2611.19
433.844	2643.19
434.066	2564.19
434.287	2609.19
434.509	2638.19
434.731	2701.19
434.953	2694.19
435.175	2710.19
435.397	2700.19
435.618	2626.19
435.84	2598.19
436.062	2559.19
436.284	2623.19
436.505	2544.19
436.727	2556.19
436.949	2564.19
437.17	2562.19
437.392	2523.19
437.614	2479.19
437.835	2476.19
438.057	2498.19
438.278	2550.19
438.5	2530.19
438.721	2587.19
438.943	2622.19
439.165	2728.19
439.386	2737.19
439.608	2681.19
439.829	2708.19
440.05	2830.19
440.272	2836.19
440.493	2747.19
440.715	2727.19
440.936	2698.19
441.158	2761.19
441.379	2705.19
441.6	2839.19
441.822	2907.19
442.043	3116.19
442.264	3208.19
442.486	2908.19
442.707	2852.19
442.928	2769.19
443.149	2777.19
443.371	2785.19
443.592	2791.19
443.813	2791.19
444.034	2781.19
444.255	2853.19
444.476	2940.19
444.698	2951.19
444.919	2970.19
445.14	2954.19
445.361	2892.19
445.582	2869.19
445.803	2772.19
446.024	2764.19
446.245	2757.19
446.466	2721.19
446.687	2722.19
446.908	2733.19
447.129	2630.19
447.35	2632.19
447.571	2642.19
447.792	2600.19
448.013	2537.19
448.234	2541.19
448.455	2532.19
448.675	2619.19
448.896	2738.19
449.117	2794.19
449.338	3083.19
449.559	3223.19
449.779	2848.19
450	2575.19
450.221	2588.19
450.442	2571.19
450.662	2535.19
450.883	2514.19
451.104	2548.19
451.324	2520.19
451.545	2500.19
451.766	2573.19
451.986	2646.19
452.207	2838.19
452.428	3784.19
452.648	5969.19
452.869	4982.19
453.089	3315.19
453.31	3071.19
453.53	3064.19
453.751	3127.19
453.971	3269.19
454.192	3234.19
454.412	2721.19
454.633	2580.19
454.853	2487.19
455.073	2401.19
455.294	2461.19
455.514	2412.19
455.734	2409.19
455.955	2347.19
456.175	2356.19
456.395	2415.19
456.616	2415.19
456.836	2445.19
457.056	2467.19
457.276	2424.19
457.497	2586.19
457.717	2629.19
457.937	2577.19
458.157	2513.19
458.377	2569.19
458.598	2513.19
458.818	2551.19
459.038	2552.19
459.258	2546.19
459.478	2599.19
459.698	2629.19
459.918	2680.19
460.138	2785.19
460.358	2787.19
460.578	2753.19
460.798	2842.19
461.018	2856.19
461.238	2820.19
461.458	2868.19
461.678	2851.19
461.898	2944.19
462.118	2943.19
462.338	3055.19
462.558	2980.19
462.777	3071.19
462.997	3243.19
463.217	3323.19
463.437	3426.19
463.657	3553.19
463.876	3629.19
464.096	3354.19
464.316	3162.19
464.536	3183.19
464.755	3058.19
464.975	2964.19
465.195	2904.19
465.414	2815.19
465.634	2752.19
465.854	2747.19
466.073	2672.19
466.293	2642.19
466.512	2617.19
466.732	2697.19
466.951	2823.19
467.171	3016.19
467.391	2983.19
467.61	2740.19
467.829	2646.19
468.049	2604.19
468.268	2555.19
468.488	2581.19
468.707	2577.19
468.927	2540.19
469.146	2610.19
469.365	2598.19
469.585	2636.19
469.804	2678.19
470.023	2727.19
470.243	2792.19
470.462	2875.19
470.681	3052.19
470.901	3415.19
471.12	3869.19
471.339	3877.19
471.558	3211.19
471.777	2913.19
471.997	2809.19
472.216	2755.19
472.435	2631.19
472.654	2593.19
472.873	2549.19
473.092	2591.19
473.311	2582.19
473.53	2633.19
473.749	2773.19
473.968	2777.19
474.187	2624.19
474.406	2588.19
474.625	2567.19
474.844	2613.19
475.063	2631.19
475.282	2575.19
475.501	2612.19
475.72	2620.19
475.939	2659.19
476.158	2719.19
476.377	2786.19
476.596	2733.19
476.814	2730.19
477.033	2709.19
477.252	2799.19
477.471	2786.19
477.69	2863.19
477.908	2887.19
478.127	2913.19
478.346	2907.19
478.564	2987.19
478.783	3028.19
479.002	3073.19
479.22	3078.19
479.439	3086.19
479.658	3034.19
479.876	3139.19
480.095	3155.19
480.313	3199.19
480.532	3203.19
480.751	3155.19
480.969	3165.19
481.188	3140.19
481.406	3148.19
481.624	3152.19
481.843	3188.19
482.061	3251.19
482.28	3108.19
482.498	3112.19
482.717	3110.19
482.935	3193.19
483.153	3168.19
483.372	3224.19
483.59	3266.19
483.808	3356.19
484.027	3452.19
484.245	3680.19
484.463	4210.19
484.681	4614.19
484.9	4252.19
485.118	3869.19
485.336	3844.19
485.554	3850.19
485.772	4136.19
485.99	4668.19
486.209	5009.19
486.427	4268.19
486.645	3753.19
486.863	3555.19
487.081	3481.19
487.299	3385.19
487.517	3409.19
