Data from SnStandardFlinnAPT0064_LampEnergy5.5_LIBS07252019.E.O._I.C._HRD10591_15-14-36-491.txt Node
Date: Thu Jul 25 15:14:36 EDT 2019
User: cochatt
Spectrometer: HR+D1059
Trigger mode: 1
Integration Time (sec): 1.000000E-1
Scans to average: 1
Electric dark correction enabled: true
Nonlinearity correction enabled: false
Boxcar width: 0
XAxis mode: Wavelengths
Number of Pixels in Spectrum: 2048
>>>>>Begin Spectral Data<<<<<
223.165	-26.75
223.4	-26.75
223.635	-26.75
223.869	-11.75
224.104	-22.75
224.338	-18.75
224.573	-11.75
224.808	-25.75
225.042	-0.75
225.277	3.25
225.511	-1.75
225.746	8.25
225.98	5.25
226.215	-1.75
226.449	17.25
226.683	30.25
226.918	17.25
227.152	40.25
227.387	32.25
227.621	26.25
227.856	53.25
228.09	55.25
228.324	55.25
228.559	49.25
228.793	74.25
229.027	124.25
229.262	157.25
229.496	149.25
229.73	156.25
229.964	146.25
230.199	136.25
230.433	157.25
230.667	157.25
230.901	157.25
231.136	177.25
231.37	172.25
231.604	173.25
231.838	181.25
232.072	189.25
232.306	208.25
232.541	203.25
232.775	183.25
233.009	183.25
233.243	201.25
233.477	193.25
233.711	233.25
233.945	245.25
234.179	237.25
234.413	207.25
234.647	206.25
234.881	205.25
235.115	233.25
235.349	256.25
235.583	298.25
235.817	369.25
236.051	364.25
236.285	255.25
236.519	211.25
236.753	220.25
236.987	217.25
237.221	223.25
237.455	226.25
237.689	216.25
237.922	197.25
238.156	207.25
238.39	224.25
238.624	225.25
238.858	210.25
239.091	215.25
239.325	216.25
239.559	228.25
239.793	222.25
240.027	227.25
240.26	233.25
240.494	228.25
240.728	260.25
240.961	259.25
241.195	261.25
241.429	288.25
241.662	281.25
241.896	295.25
242.13	358.25
242.363	435.25
242.597	561.25
242.83	529.25
243.064	535.25
243.298	602.25
243.531	535.25
243.765	353.25
243.998	309.25
244.232	280.25
244.465	279.25
244.699	272.25
244.932	267.25
245.166	269.25
245.399	284.25
245.633	306.25
245.866	290.25
246.099	275.25
246.333	303.25
246.566	273.25
246.8	280.25
247.033	285.25
247.266	280.25
247.5	269.25
247.733	287.25
247.966	311.25
248.2	319.25
248.433	343.25
248.666	359.25
248.899	362.25
249.133	322.25
249.366	362.25
249.599	359.25
249.832	411.25
250.066	394.25
250.299	333.25
250.532	325.25
250.765	329.25
250.998	311.25
251.231	322.25
251.465	314.25
251.698	313.25
251.931	327.25
252.164	336.25
252.397	337.25
252.63	335.25
252.863	313.25
253.096	314.25
253.329	323.25
253.562	330.25
253.795	342.25
254.028	343.25
254.261	362.25
254.494	363.25
254.727	388.25
254.96	427.25
255.193	451.25
255.426	363.25
255.659	345.25
255.892	357.25
256.124	349.25
256.357	384.25
256.59	381.25
256.823	384.25
257.056	425.25
257.289	465.25
257.521	498.25
257.754	428.25
257.987	399.25
258.22	381.25
258.452	375.25
258.685	375.25
258.918	383.25
259.151	403.25
259.383	436.25
259.616	447.25
259.849	465.25
260.081	431.25
260.314	403.25
260.547	401.25
260.779	419.25
261.012	402.25
261.244	392.25
261.477	412.25
261.71	415.25
261.942	433.25
262.175	454.25
262.407	433.25
262.64	441.25
262.872	449.25
263.105	470.25
263.337	519.25
263.57	543.25
263.802	546.25
264.035	556.25
264.267	544.25
264.499	595.25
264.732	597.25
264.964	587.25
265.197	597.25
265.429	586.25
265.661	619.25
265.894	644.25
266.126	678.25
266.358	781.25
266.591	735.25
266.823	675.25
267.055	625.25
267.287	585.25
267.52	548.25
267.752	535.25
267.984	519.25
268.216	533.25
268.448	543.25
268.681	519.25
268.913	531.25
269.145	528.25
269.377	525.25
269.609	519.25
269.841	543.25
270.073	540.25
270.306	627.25
270.538	765.25
270.77	1035.25
271.002	1248.25
271.234	944.25
271.466	700.25
271.698	606.25
271.93	542.25
272.162	532.25
272.394	540.25
272.626	532.25
272.858	515.25
273.09	512.25
273.322	487.25
273.553	489.25
273.785	492.25
274.017	509.25
274.249	508.25
274.481	486.25
274.713	503.25
274.945	499.25
275.176	503.25
275.408	490.25
275.64	502.25
275.872	499.25
276.104	503.25
276.335	511.25
276.567	505.25
276.799	507.25
277.031	512.25
277.262	519.25
277.494	545.25
277.726	569.25
277.957	655.25
278.189	717.25
278.421	682.25
278.652	632.25
278.884	604.25
279.115	560.25
279.347	579.25
279.579	541.25
279.81	543.25
280.042	567.25
280.273	580.25
280.505	594.25
280.736	582.25
280.968	603.25
281.199	643.25
281.431	695.25
281.662	705.25
281.894	663.25
282.125	628.25
282.356	661.25
282.588	620.25
282.819	652.25
283.051	668.25
283.282	735.25
283.513	891.25
283.745	1175.25
283.976	1818.25
284.207	2487.25
284.439	2271.25
284.67	1498.25
284.901	1225.25
285.132	1167.25
285.364	1112.25
285.595	927.25
285.826	857.25
286.057	1024.25
286.288	1231.25
286.52	1621.25
286.751	1485.25
286.982	1027.25
287.213	802.25
287.444	723.25
287.675	720.25
287.906	722.25
288.138	671.25
288.369	684.25
288.6	687.25
288.831	674.25
289.062	659.25
289.293	655.25
289.524	670.25
289.755	675.25
289.986	680.25
290.217	679.25
290.448	676.25
290.679	693.25
290.91	687.25
291.141	679.25
291.371	731.25
291.602	711.25
291.833	713.25
292.064	699.25
292.295	652.25
292.526	648.25
292.757	663.25
292.987	617.25
293.218	625.25
293.449	640.25
293.68	636.25
293.91	638.25
294.141	631.25
294.372	613.25
294.603	637.25
294.833	646.25
295.064	623.25
295.295	639.25
295.525	625.25
295.756	613.25
295.987	631.25
296.217	657.25
296.448	612.25
296.679	650.25
296.909	652.25
297.14	653.25
297.37	668.25
297.601	649.25
297.831	638.25
298.062	642.25
298.292	640.25
298.523	672.25
298.753	687.25
298.984	666.25
299.214	690.25
299.445	704.25
299.675	671.25
299.905	723.25
300.136	745.25
300.366	829.25
300.597	977.25
300.827	1255.25
301.057	1648.25
301.288	1638.25
301.518	1131.25
301.748	915.25
301.979	845.25
302.209	851.25
302.439	829.25
302.669	893.25
302.9	1011.25
303.13	1318.25
303.36	1830.25
303.59	2377.25
303.82	2145.25
304.051	1381.25
304.281	1043.25
304.511	925.25
304.741	850.25
304.971	853.25
305.201	782.25
305.431	756.25
305.661	782.25
305.891	760.25
306.121	742.25
306.352	737.25
306.582	733.25
306.812	733.25
307.042	739.25
307.272	711.25
307.502	747.25
307.731	723.25
307.961	727.25
308.191	724.25
308.421	725.25
308.651	715.25
308.881	712.25
309.111	733.25
309.341	728.25
309.571	741.25
309.8	772.25
310.03	759.25
310.26	740.25
310.49	725.25
310.72	770.25
310.949	754.25
311.179	756.25
311.409	773.25
311.639	753.25
311.868	773.25
312.098	789.25
312.328	784.25
312.557	781.25
312.787	767.25
313.017	783.25
313.246	823.25
313.476	793.25
313.706	818.25
313.935	837.25
314.165	869.25
314.394	884.25
314.624	870.25
314.853	831.25
315.083	826.25
315.312	826.25
315.542	860.25
315.771	854.25
316.001	859.25
316.23	877.25
316.46	948.25
316.689	981.25
316.919	1147.25
317.148	1514.25
317.377	2253.25
317.607	3125.25
317.836	3248.25
318.065	2071.25
318.295	1455.25
318.524	1193.25
318.753	1087.25
318.983	1018.25
319.212	987.25
319.441	953.25
319.67	927.25
319.9	916.25
320.129	935.25
320.358	931.25
320.587	887.25
320.816	907.25
321.046	942.25
321.275	920.25
321.504	928.25
321.733	944.25
321.962	965.25
322.191	999.25
322.42	951.25
322.649	935.25
322.878	952.25
323.108	973.25
323.337	1002.25
323.566	1001.25
323.795	1039.25
324.024	1027.25
324.253	1044.25
324.482	1055.25
324.71	1112.25
324.939	1165.25
325.168	1201.25
325.397	1234.25
325.626	1408.25
325.855	1839.25
326.084	2719.25
326.313	3935.25
326.542	4131.25
326.77	2816.25
326.999	1983.25
327.228	1733.25
327.457	1624.25
327.686	1660.25
327.914	1806.25
328.143	1995.25
328.372	2271.25
328.6	2441.25
328.829	2282.25
329.058	2070.25
329.287	1883.25
329.515	1726.25
329.744	1627.25
329.972	1542.25
330.201	1467.25
330.43	1424.25
330.658	1349.25
330.887	1399.25
331.115	1348.25
331.344	1352.25
331.572	1333.25
331.801	1328.25
332.03	1343.25
332.258	1355.25
332.486	1387.25
332.715	1541.25
332.943	1773.25
333.172	2118.25
333.4	2100.25
333.629	1730.25
333.857	1594.25
334.085	1651.25
334.314	1721.25
334.542	1862.25
334.771	2133.25
334.999	2487.25
335.227	2972.25
335.455	3267.25
335.684	3101.25
335.912	2661.25
336.14	2324.25
336.369	2117.25
336.597	1962.25
336.825	1805.25
337.053	1745.25
337.281	1635.25
337.51	1523.25
337.738	1496.25
337.966	1438.25
338.194	1372.25
338.422	1336.25
338.65	1292.25
338.878	1297.25
339.106	1288.25
339.334	1240.25
339.562	1201.25
339.79	1188.25
340.018	1178.25
340.246	1185.25
340.474	1175.25
340.702	1195.25
340.93	1181.25
341.158	1185.25
341.386	1160.25
341.614	1167.25
341.842	1144.25
342.07	1109.25
342.298	1099.25
342.526	1078.25
342.754	1091.25
342.981	1077.25
343.209	1098.25
343.437	1087.25
343.665	1113.25
343.893	1098.25
344.12	1117.25
344.348	1075.25
344.576	1080.25
344.804	1027.25
345.031	1021.25
345.259	1042.25
345.487	1057.25
345.714	1003.25
345.942	1015.25
346.17	1051.25
346.397	998.25
346.625	997.25
346.853	1018.25
347.08	970.25
347.308	969.25
347.535	1003.25
347.763	980.25
347.99	1001.25
348.218	999.25
348.445	971.25
348.673	979.25
348.9	995.25
349.128	981.25
349.355	952.25
349.583	973.25
349.81	962.25
350.037	992.25
350.265	951.25
350.492	981.25
350.72	969.25
350.947	962.25
351.174	967.25
351.402	943.25
351.629	947.25
351.856	974.25
352.083	985.25
352.311	961.25
352.538	947.25
352.765	965.25
352.992	975.25
353.22	943.25
353.447	920.25
353.674	984.25
353.901	980.25
354.128	975.25
354.355	986.25
354.583	972.25
354.81	960.25
355.037	961.25
355.264	961.25
355.491	966.25
355.718	958.25
355.945	986.25
356.172	1017.25
356.399	991.25
356.626	969.25
356.853	994.25
357.08	993.25
357.307	1031.25
357.534	1044.25
357.761	1014.25
357.988	1008.25
358.215	1014.25
358.441	992.25
358.668	1004.25
358.895	1026.25
359.122	983.25
359.349	1029.25
359.576	1007.25
359.802	1033.25
360.029	1012.25
360.256	1016.25
360.483	1036.25
360.709	1010.25
360.936	1050.25
361.163	1046.25
361.39	1025.25
361.616	1026.25
361.843	1043.25
362.07	1015.25
362.296	1016.25
362.523	1040.25
362.749	1019.25
362.976	1040.25
363.203	1042.25
363.429	1029.25
363.656	1001.25
363.882	1026.25
364.109	1016.25
364.335	1017.25
364.562	1039.25
364.788	1015.25
365.015	1051.25
365.241	1027.25
365.468	1068.25
365.694	1076.25
365.92	1058.25
366.147	1031.25
366.373	1050.25
366.599	1044.25
366.826	1051.25
367.052	1030.25
367.278	1040.25
367.505	1051.25
367.731	1039.25
367.957	1069.25
368.184	1041.25
368.41	1066.25
368.636	1068.25
368.862	1079.25
369.089	1075.25
369.315	1082.25
369.541	1062.25
369.767	1075.25
369.993	1066.25
370.219	1104.25
370.445	1052.25
370.672	1068.25
370.898	1046.25
371.124	1078.25
371.35	1101.25
371.576	1108.25
371.802	1110.25
372.028	1078.25
372.254	1094.25
372.48	1103.25
372.706	1081.25
372.932	1141.25
373.158	1121.25
373.384	1115.25
373.61	1141.25
373.835	1107.25
374.061	1145.25
374.287	1128.25
374.513	1135.25
374.739	1165.25
374.965	1165.25
375.191	1173.25
375.416	1188.25
375.642	1156.25
375.868	1184.25
376.094	1148.25
376.319	1091.25
376.545	1128.25
376.771	1079.25
376.997	1104.25
377.222	1126.25
377.448	1060.25
377.674	1107.25
377.899	1076.25
378.125	1115.25
378.35	1119.25
378.576	1125.25
378.802	1099.25
379.027	1117.25
379.253	1108.25
379.478	1162.25
379.704	1331.25
379.929	1718.25
380.155	2420.25
380.38	2533.25
380.606	1750.25
380.831	1357.25
381.057	1252.25
381.282	1163.25
381.507	1169.25
381.733	1148.25
381.958	1078.25
382.184	1107.25
382.409	1112.25
382.634	1047.25
382.86	1084.25
383.085	1093.25
383.31	1095.25
383.535	1123.25
383.761	1068.25
383.986	1079.25
384.211	1091.25
384.436	1103.25
384.662	1120.25
384.887	1117.25
385.112	1106.25
385.337	1156.25
385.562	1162.25
385.787	1105.25
386.013	1146.25
386.238	1165.25
386.463	1127.25
386.688	1145.25
386.913	1123.25
387.138	1103.25
387.363	1136.25
387.588	1144.25
387.813	1127.25
388.038	1107.25
388.263	1138.25
388.488	1131.25
388.713	1122.25
388.938	1103.25
389.163	1116.25
389.387	1135.25
389.612	1115.25
389.837	1133.25
390.062	1108.25
390.287	1133.25
390.512	1117.25
390.736	1130.25
390.961	1187.25
391.186	1169.25
391.411	1178.25
391.636	1195.25
391.86	1204.25
392.085	1229.25
392.31	1164.25
392.534	1186.25
392.759	1167.25
392.984	1142.25
393.208	1156.25
393.433	1117.25
393.658	1125.25
393.882	1154.25
394.107	1106.25
394.331	1165.25
394.556	1129.25
394.78	1135.25
395.005	1125.25
395.229	1163.25
395.454	1194.25
395.678	1166.25
395.903	1185.25
396.127	1166.25
396.352	1147.25
396.576	1159.25
396.801	1147.25
397.025	1184.25
397.249	1189.25
397.474	1209.25
397.698	1193.25
397.922	1204.25
398.147	1168.25
398.371	1255.25
398.595	1251.25
398.82	1301.25
399.044	1340.25
399.268	1393.25
399.492	1447.25
399.717	1503.25
399.941	1552.25
400.165	1452.25
400.389	1369.25
400.613	1349.25
400.837	1307.25
401.062	1287.25
401.286	1280.25
401.51	1236.25
401.734	1228.25
401.958	1271.25
402.182	1254.25
402.406	1263.25
402.63	1295.25
402.854	1287.25
403.078	1251.25
403.302	1294.25
403.526	1323.25
403.75	1289.25
403.974	1297.25
404.198	1283.25
404.422	1324.25
404.645	1297.25
404.869	1259.25
405.093	1290.25
405.317	1248.25
405.541	1307.25
405.765	1315.25
405.988	1311.25
406.212	1338.25
406.436	1338.25
406.66	1355.25
406.883	1354.25
407.107	1363.25
407.331	1400.25
407.555	1439.25
407.778	1400.25
408.002	1404.25
408.226	1374.25
408.449	1348.25
408.673	1323.25
408.896	1328.25
409.12	1281.25
409.344	1313.25
409.567	1316.25
409.791	1284.25
410.014	1268.25
410.238	1299.25
410.461	1300.25
410.685	1283.25
410.908	1301.25
411.132	1283.25
411.355	1254.25
411.578	1255.25
411.802	1221.25
412.025	1254.25
412.249	1252.25
412.472	1251.25
412.695	1247.25
412.919	1232.25
413.142	1216.25
413.365	1230.25
413.589	1214.25
413.812	1224.25
414.035	1224.25
414.258	1216.25
414.482	1220.25
414.705	1221.25
414.928	1229.25
415.151	1216.25
415.374	1211.25
415.597	1180.25
415.821	1199.25
416.044	1190.25
416.267	1209.25
416.49	1184.25
416.713	1165.25
416.936	1189.25
417.159	1168.25
417.382	1171.25
417.605	1141.25
417.828	1173.25
418.051	1178.25
418.274	1224.25
418.497	1203.25
418.72	1218.25
418.943	1215.25
419.166	1258.25
419.389	1306.25
419.611	1280.25
419.834	1240.25
420.057	1250.25
420.28	1202.25
420.503	1179.25
420.726	1176.25
420.948	1171.25
421.171	1192.25
421.394	1199.25
421.617	1194.25
421.839	1211.25
422.062	1204.25
422.285	1166.25
422.507	1220.25
422.73	1210.25
422.953	1191.25
423.175	1227.25
423.398	1212.25
423.621	1184.25
423.843	1187.25
424.066	1198.25
424.288	1192.25
424.511	1169.25
424.733	1194.25
424.956	1191.25
425.178	1157.25
425.401	1181.25
425.623	1178.25
425.846	1119.25
426.068	1177.25
426.291	1183.25
426.513	1139.25
426.735	1137.25
426.958	1148.25
427.18	1135.25
427.402	1133.25
427.625	1146.25
427.847	1105.25
428.069	1092.25
428.292	1110.25
428.514	1127.25
428.736	1101.25
428.958	1137.25
429.181	1101.25
429.403	1107.25
429.625	1092.25
429.847	1073.25
430.069	1124.25
430.292	1142.25
430.514	1169.25
430.736	1155.25
430.958	1112.25
431.18	1108.25
431.402	1137.25
431.624	1099.25
431.846	1055.25
432.068	1049.25
432.29	1080.25
432.512	1078.25
432.734	1116.25
432.956	1081.25
433.178	1097.25
433.4	1070.25
433.622	1110.25
433.844	1098.25
434.066	1120.25
434.287	1067.25
434.509	1088.25
434.731	1125.25
434.953	1142.25
435.175	1141.25
435.397	1149.25
435.618	1104.25
435.84	1101.25
436.062	1088.25
436.284	1091.25
436.505	1102.25
436.727	1089.25
436.949	1071.25
437.17	1092.25
437.392	1095.25
437.614	1071.25
437.835	1033.25
438.057	1067.25
438.278	1035.25
438.5	1073.25
438.721	1085.25
438.943	1097.25
439.165	1112.25
439.386	1112.25
439.608	1127.25
439.829	1147.25
440.05	1155.25
440.272	1164.25
440.493	1129.25
440.715	1118.25
440.936	1159.25
441.158	1182.25
441.379	1146.25
441.6	1201.25
441.822	1205.25
442.043	1236.25
442.264	1255.25
442.486	1197.25
442.707	1186.25
442.928	1159.25
443.149	1160.25
443.371	1151.25
443.592	1156.25
443.813	1210.25
444.034	1167.25
444.255	1235.25
444.476	1204.25
444.698	1259.25
444.919	1283.25
445.14	1327.25
445.361	1285.25
445.582	1231.25
445.803	1201.25
446.024	1168.25
446.245	1201.25
446.466	1166.25
446.687	1129.25
446.908	1171.25
447.129	1122.25
447.35	1141.25
447.571	1105.25
447.792	1073.25
448.013	1099.25
448.234	1092.25
448.455	1061.25
448.675	1075.25
448.896	1095.25
449.117	1115.25
449.338	1195.25
449.559	1258.25
449.779	1161.25
450	1065.25
450.221	1071.25
450.442	1076.25
450.662	1036.25
450.883	1034.25
451.104	1058.25
451.324	1043.25
451.545	1048.25
451.766	1047.25
451.986	1076.25
452.207	1135.25
452.428	1280.25
452.648	1703.25
452.869	1455.25
453.089	1164.25
453.31	1111.25
453.53	1151.25
453.751	1155.25
453.971	1196.25
454.192	1190.25
454.412	1115.25
454.633	1035.25
454.853	997.25
455.073	1012.25
455.294	1015.25
455.514	1010.25
455.734	1005.25
455.955	975.25
456.175	985.25
456.395	976.25
456.616	967.25
456.836	991.25
457.056	1026.25
457.276	1043.25
457.497	1052.25
457.717	1047.25
457.937	1049.25
458.157	1058.25
458.377	1049.25
458.598	1075.25
458.818	1075.25
459.038	1072.25
459.258	1057.25
459.478	1084.25
459.698	1093.25
459.918	1129.25
460.138	1156.25
460.358	1174.25
460.578	1164.25
460.798	1179.25
461.018	1155.25
461.238	1214.25
461.458	1184.25
461.678	1187.25
461.898	1229.25
462.118	1203.25
462.338	1251.25
462.558	1281.25
462.777	1291.25
462.997	1347.25
463.217	1352.25
463.437	1363.25
463.657	1391.25
463.876	1391.25
464.096	1311.25
464.316	1292.25
464.536	1316.25
464.755	1273.25
464.975	1236.25
465.195	1235.25
465.414	1196.25
465.634	1142.25
465.854	1113.25
466.073	1133.25
466.293	1118.25
466.512	1098.25
466.732	1124.25
466.951	1163.25
467.171	1204.25
467.391	1185.25
467.61	1135.25
467.829	1092.25
468.049	1045.25
468.268	1066.25
468.488	1083.25
468.707	1081.25
468.927	1066.25
469.146	1080.25
469.365	1057.25
469.585	1105.25
469.804	1102.25
470.023	1119.25
470.243	1134.25
470.462	1131.25
470.681	1194.25
470.901	1266.25
471.12	1436.25
471.339	1437.25
471.558	1249.25
471.777	1161.25
471.997	1124.25
472.216	1089.25
472.435	1065.25
472.654	1098.25
472.873	1073.25
473.092	1061.25
473.311	1089.25
473.53	1062.25
473.749	1119.25
473.968	1105.25
474.187	1117.25
474.406	1073.25
474.625	1072.25
474.844	1079.25
475.063	1101.25
475.282	1090.25
475.501	1111.25
475.72	1102.25
475.939	1098.25
476.158	1138.25
476.377	1139.25
476.596	1149.25
476.814	1148.25
477.033	1150.25
477.252	1136.25
477.471	1161.25
477.69	1171.25
477.908	1215.25
478.127	1227.25
478.346	1223.25
478.564	1227.25
478.783	1252.25
479.002	1271.25
479.22	1297.25
479.439	1299.25
479.658	1284.25
479.876	1302.25
480.095	1268.25
480.313	1271.25
480.532	1276.25
480.751	1284.25
480.969	1303.25
481.188	1289.25
481.406	1250.25
481.624	1276.25
481.843	1283.25
482.061	1263.25
482.28	1251.25
482.498	1283.25
482.717	1286.25
482.935	1305.25
483.153	1287.25
483.372	1319.25
483.59	1327.25
483.808	1360.25
484.027	1350.25
484.245	1433.25
484.463	1535.25
484.681	1675.25
484.9	1588.25
485.118	1509.25
485.336	1459.25
485.554	1458.25
485.772	1560.25
485.99	1695.25
486.209	1791.25
486.427	1538.25
486.645	1406.25
486.863	1385.25
487.081	1395.25
487.299	1374.25
487.517	1381.25
487.735	1425.25
487.953	1431.25
488.171	1427.25
488.389	1399.25
488.607	1353.25
488.825	1340.25
489.043	1333.25
489.261	1323.25
489.479	1331.25
489.696	1331.25
489.914	1347.25
490.132	1347.25
490.35	1385.25
490.568	1391.25
490.786	1360.25
491.003	1419.25
491.221	1418.25
491.439	1419.25
491.657	1454.25
