Data from SnStandardFlinnAPT0064_LampEnergy5.5_LIBS07252019.E.O._I.C._HRD10591_15-17-24-492.txt Node
Date: Thu Jul 25 15:17:24 EDT 2019
User: cochatt
Spectrometer: HR+D1059
Trigger mode: 1
Integration Time (sec): 1.000000E-1
Scans to average: 1
Electric dark correction enabled: true
Nonlinearity correction enabled: false
Boxcar width: 0
XAxis mode: Wavelengths
Number of Pixels in Spectrum: 2048
>>>>>Begin Spectral Data<<<<<
223.165	-12.88
223.4	-12.88
223.635	-12.88
223.869	-14.88
224.104	-22.88
224.338	-13.88
224.573	-13.88
224.808	-3.88
225.042	-4.88
225.277	-4.88
225.511	2.12
225.746	-6.88
225.98	5.12
226.215	15.12
226.449	11.12
226.683	18.12
226.918	18.12
227.152	29.12
227.387	36.12
227.621	34.12
227.856	40.12
228.09	42.12
228.324	54.12
228.559	56.12
228.793	88.12
229.027	169.12
229.262	160.12
229.496	157.12
229.73	151.12
229.964	149.12
230.199	159.12
230.433	171.12
230.667	184.12
230.901	160.12
231.136	190.12
231.37	194.12
231.604	206.12
231.838	228.12
232.072	259.12
232.306	273.12
232.541	235.12
232.775	205.12
233.009	212.12
233.243	214.12
233.477	230.12
233.711	263.12
233.945	280.12
234.179	251.12
234.413	229.12
234.647	216.12
234.881	219.12
235.115	265.12
235.349	296.12
235.583	345.12
235.817	475.12
236.051	472.12
236.285	306.12
236.519	259.12
236.753	246.12
236.987	257.12
237.221	252.12
237.455	248.12
237.689	235.12
237.922	217.12
238.156	248.12
238.39	233.12
238.624	242.12
238.858	232.12
239.091	231.12
239.325	234.12
239.559	252.12
239.793	247.12
240.027	244.12
240.26	249.12
240.494	267.12
240.728	264.12
240.961	289.12
241.195	291.12
241.429	309.12
241.662	330.12
241.896	372.12
242.13	406.12
242.363	539.12
242.597	723.12
242.83	663.12
243.064	678.12
243.298	830.12
243.531	664.12
243.765	432.12
243.998	374.12
244.232	342.12
244.465	309.12
244.699	288.12
244.932	302.12
245.166	288.12
245.399	331.12
245.633	315.12
245.866	312.12
246.099	329.12
246.333	312.12
246.566	314.12
246.8	298.12
247.033	291.12
247.266	314.12
247.5	316.12
247.733	300.12
247.966	336.12
248.2	332.12
248.433	383.12
248.666	446.12
248.899	427.12
249.133	373.12
249.366	392.12
249.599	422.12
249.832	481.12
250.066	468.12
250.299	391.12
250.532	342.12
250.765	374.12
250.998	356.12
251.231	345.12
251.465	327.12
251.698	346.12
251.931	358.12
252.164	369.12
252.397	336.12
252.63	354.12
252.863	362.12
253.096	369.12
253.329	356.12
253.562	375.12
253.795	362.12
254.028	388.12
254.261	371.12
254.494	414.12
254.727	477.12
254.96	548.12
255.193	538.12
255.426	429.12
255.659	397.12
255.892	388.12
256.124	383.12
256.357	378.12
256.59	418.12
256.823	446.12
257.056	491.12
257.289	568.12
257.521	646.12
257.754	523.12
257.987	455.12
258.22	418.12
258.452	406.12
258.685	411.12
258.918	431.12
259.151	458.12
259.383	488.12
259.616	522.12
259.849	546.12
260.081	496.12
260.314	443.12
260.547	438.12
260.779	430.12
261.012	434.12
261.244	435.12
261.477	459.12
261.71	462.12
261.942	480.12
262.175	470.12
262.407	486.12
262.64	467.12
262.872	508.12
263.105	537.12
263.337	553.12
263.57	575.12
263.802	571.12
264.035	601.12
264.267	603.12
264.499	612.12
264.732	667.12
264.964	668.12
265.197	655.12
265.429	644.12
265.661	648.12
265.894	702.12
266.126	813.12
266.358	857.12
266.591	839.12
266.823	702.12
267.055	634.12
267.287	622.12
267.52	598.12
267.752	599.12
267.984	594.12
268.216	584.12
268.448	588.12
268.681	583.12
268.913	570.12
269.145	563.12
269.377	538.12
269.609	576.12
269.841	598.12
270.073	620.12
270.306	694.12
270.538	962.12
270.77	1411.12
271.002	1695.12
271.234	1167.12
271.466	791.12
271.698	646.12
271.93	616.12
272.162	607.12
272.394	586.12
272.626	576.12
272.858	580.12
273.09	565.12
273.322	525.12
273.553	553.12
273.785	543.12
274.017	536.12
274.249	559.12
274.481	546.12
274.713	554.12
274.945	556.12
275.176	549.12
275.408	548.12
275.64	558.12
275.872	571.12
276.104	571.12
276.335	561.12
276.567	547.12
276.799	586.12
277.031	580.12
277.262	599.12
277.494	615.12
277.726	659.12
277.957	776.12
278.189	855.12
278.421	830.12
278.652	751.12
278.884	708.12
279.115	639.12
279.347	603.12
279.579	609.12
279.81	624.12
280.042	639.12
280.273	640.12
280.505	642.12
280.736	680.12
280.968	676.12
281.199	747.12
281.431	831.12
281.662	844.12
281.894	758.12
282.125	713.12
282.356	698.12
282.588	710.12
282.819	735.12
283.051	794.12
283.282	870.12
283.513	1052.12
283.745	1561.12
283.976	2501.12
284.207	3600.12
284.439	3182.12
284.67	1823.12
284.901	1484.12
285.132	1478.12
285.364	1398.12
285.595	1119.12
285.826	998.12
286.057	1204.12
286.288	1638.12
286.52	2264.12
286.751	2056.12
286.982	1244.12
287.213	959.12
287.444	846.12
287.675	788.12
287.906	782.12
288.138	760.12
288.369	743.12
288.6	728.12
288.831	731.12
289.062	744.12
289.293	743.12
289.524	740.12
289.755	766.12
289.986	733.12
290.217	763.12
290.448	735.12
290.679	735.12
290.91	764.12
291.141	798.12
291.371	853.12
291.602	859.12
291.833	834.12
292.064	763.12
292.295	722.12
292.526	708.12
292.757	735.12
292.987	706.12
293.218	701.12
293.449	697.12
293.68	656.12
293.91	697.12
294.141	709.12
294.372	703.12
294.603	705.12
294.833	691.12
295.064	682.12
295.295	713.12
295.525	710.12
295.756	720.12
295.987	706.12
296.217	697.12
296.448	691.12
296.679	694.12
296.909	701.12
297.14	746.12
297.37	728.12
297.601	712.12
297.831	711.12
298.062	706.12
298.292	732.12
298.523	715.12
298.753	740.12
298.984	743.12
299.214	737.12
299.445	759.12
299.675	800.12
299.905	791.12
300.136	843.12
300.366	927.12
300.597	1198.12
300.827	1654.12
301.057	2229.12
301.288	2234.12
301.518	1372.12
301.748	1083.12
301.979	977.12
302.209	959.12
302.439	950.12
302.669	1006.12
302.9	1222.12
303.13	1742.12
303.36	2594.12
303.59	3476.12
303.82	2979.12
304.051	1721.12
304.281	1202.12
304.511	1033.12
304.741	979.12
304.971	910.12
305.201	871.12
305.431	853.12
305.661	853.12
305.891	830.12
306.121	812.12
306.352	804.12
306.582	810.12
306.812	801.12
307.042	811.12
307.272	794.12
307.502	798.12
307.731	788.12
307.961	801.12
308.191	764.12
308.421	790.12
308.651	786.12
308.881	817.12
309.111	791.12
309.341	806.12
309.571	826.12
309.8	806.12
310.03	834.12
310.26	828.12
310.49	832.12
310.72	823.12
310.949	819.12
311.179	801.12
311.409	843.12
311.639	840.12
311.868	847.12
312.098	830.12
312.328	855.12
312.557	859.12
312.787	884.12
313.017	884.12
313.246	865.12
313.476	898.12
313.706	894.12
313.935	949.12
314.165	974.12
314.394	1045.12
314.624	995.12
314.853	929.12
315.083	923.12
315.312	944.12
315.542	962.12
315.771	958.12
316.001	975.12
316.23	991.12
316.46	1035.12
316.689	1127.12
316.919	1342.12
317.148	1990.12
317.377	3085.12
317.607	4571.12
317.836	4759.12
318.065	2672.12
318.295	1686.12
318.524	1346.12
318.753	1239.12
318.983	1119.12
319.212	1061.12
319.441	1042.12
319.67	1032.12
319.9	1010.12
320.129	1027.12
320.358	991.12
320.587	1013.12
320.816	1019.12
321.046	989.12
321.275	997.12
321.504	1052.12
321.733	1020.12
321.962	1055.12
322.191	1082.12
322.42	1065.12
322.649	1066.12
322.878	1051.12
323.108	1088.12
323.337	1090.12
323.566	1114.12
323.795	1109.12
324.024	1122.12
324.253	1155.12
324.482	1189.12
324.71	1233.12
324.939	1300.12
325.168	1342.12
325.397	1401.12
325.626	1657.12
325.855	2335.12
326.084	3770.12
326.313	5616.12
326.542	5949.12
326.77	3616.12
326.999	2317.12
327.228	1946.12
327.457	1857.12
327.686	1848.12
327.914	2011.12
328.143	2305.12
328.372	2698.12
328.6	2867.12
328.829	2705.12
329.058	2284.12
329.287	2068.12
329.515	1915.12
329.744	1775.12
329.972	1665.12
330.201	1584.12
330.43	1546.12
330.658	1490.12
330.887	1458.12
331.115	1441.12
331.344	1456.12
331.572	1443.12
331.801	1474.12
332.03	1466.12
332.258	1490.12
332.486	1560.12
332.715	1797.12
332.943	2230.12
333.172	2678.12
333.4	2672.12
333.629	2011.12
333.857	1846.12
334.085	1851.12
334.314	1886.12
334.542	2064.12
334.771	2366.12
334.999	2848.12
335.227	3514.12
335.455	3915.12
335.684	3587.12
335.912	3017.12
336.14	2596.12
336.369	2297.12
336.597	2158.12
336.825	1953.12
337.053	1864.12
337.281	1716.12
337.51	1667.12
337.738	1647.12
337.966	1554.12
338.194	1479.12
338.422	1458.12
338.65	1411.12
338.878	1432.12
339.106	1374.12
339.334	1378.12
339.562	1352.12
339.79	1342.12
340.018	1330.12
340.246	1255.12
340.474	1298.12
340.702	1254.12
340.93	1335.12
341.158	1282.12
341.386	1262.12
341.614	1271.12
341.842	1259.12
342.07	1220.12
342.298	1186.12
342.526	1216.12
342.754	1195.12
342.981	1176.12
343.209	1169.12
343.437	1186.12
343.665	1217.12
343.893	1209.12
344.12	1258.12
344.348	1206.12
344.576	1166.12
344.804	1206.12
345.031	1152.12
345.259	1144.12
345.487	1127.12
345.714	1134.12
345.942	1114.12
346.17	1120.12
346.397	1123.12
346.625	1076.12
346.853	1075.12
347.08	1088.12
347.308	1087.12
347.535	1079.12
347.763	1094.12
347.99	1088.12
348.218	1090.12
348.445	1060.12
348.673	1062.12
348.9	1092.12
349.128	1056.12
349.355	1082.12
349.583	1059.12
349.81	1066.12
350.037	1029.12
350.265	1083.12
350.492	1078.12
350.72	1078.12
350.947	1047.12
351.174	1073.12
351.402	1075.12
351.629	1075.12
351.856	1062.12
352.083	1055.12
352.311	1030.12
352.538	1065.12
352.765	1040.12
352.992	1023.12
353.22	1044.12
353.447	1048.12
353.674	1024.12
353.901	1046.12
354.128	1067.12
354.355	1048.12
354.583	1075.12
354.81	1074.12
355.037	1059.12
355.264	1076.12
355.491	1061.12
355.718	1043.12
355.945	1044.12
356.172	1108.12
356.399	1080.12
356.626	1090.12
356.853	1100.12
357.08	1065.12
357.307	1106.12
357.534	1104.12
357.761	1114.12
357.988	1117.12
358.215	1101.12
358.441	1078.12
358.668	1098.12
358.895	1110.12
359.122	1097.12
359.349	1091.12
359.576	1130.12
359.802	1095.12
360.029	1130.12
360.256	1100.12
360.483	1108.12
360.709	1149.12
360.936	1138.12
361.163	1120.12
361.39	1122.12
361.616	1097.12
361.843	1150.12
362.07	1134.12
362.296	1115.12
362.523	1132.12
362.749	1122.12
362.976	1115.12
363.203	1103.12
363.429	1108.12
363.656	1094.12
363.882	1124.12
364.109	1131.12
364.335	1100.12
364.562	1105.12
364.788	1112.12
365.015	1116.12
365.241	1122.12
365.468	1186.12
365.694	1228.12
365.92	1226.12
366.147	1181.12
366.373	1150.12
366.599	1136.12
366.826	1147.12
367.052	1143.12
367.278	1141.12
367.505	1140.12
367.731	1154.12
367.957	1138.12
368.184	1151.12
368.41	1152.12
368.636	1176.12
368.862	1160.12
369.089	1190.12
369.315	1150.12
369.541	1141.12
369.767	1149.12
369.993	1137.12
370.219	1139.12
370.445	1152.12
370.672	1198.12
370.898	1162.12
371.124	1218.12
371.35	1208.12
371.576	1160.12
371.802	1192.12
372.028	1191.12
372.254	1192.12
372.48	1186.12
372.706	1216.12
372.932	1223.12
373.158	1239.12
373.384	1224.12
373.61	1213.12
373.835	1220.12
374.061	1203.12
374.287	1224.12
374.513	1220.12
374.739	1255.12
374.965	1254.12
375.191	1233.12
375.416	1272.12
375.642	1236.12
375.868	1210.12
376.094	1246.12
376.319	1193.12
376.545	1222.12
376.771	1229.12
376.997	1184.12
377.222	1180.12
377.448	1207.12
377.674	1218.12
377.899	1207.12
378.125	1180.12
378.35	1177.12
378.576	1182.12
378.802	1194.12
379.027	1189.12
379.253	1228.12
379.478	1296.12
379.704	1507.12
379.929	2192.12
380.155	3344.12
380.38	3565.12
380.606	2148.12
380.831	1536.12
381.057	1379.12
381.282	1275.12
381.507	1232.12
381.733	1227.12
381.958	1198.12
382.184	1236.12
382.409	1220.12
382.634	1217.12
382.86	1163.12
383.085	1166.12
383.31	1186.12
383.535	1142.12
383.761	1174.12
383.986	1203.12
384.211	1202.12
384.436	1233.12
384.662	1220.12
384.887	1231.12
385.112	1211.12
385.337	1286.12
385.562	1237.12
385.787	1234.12
386.013	1248.12
386.238	1221.12
386.463	1219.12
386.688	1222.12
386.913	1241.12
387.138	1224.12
387.363	1260.12
387.588	1203.12
387.813	1223.12
388.038	1239.12
388.263	1242.12
388.488	1213.12
388.713	1236.12
388.938	1214.12
389.163	1233.12
389.387	1220.12
389.612	1234.12
389.837	1227.12
390.062	1215.12
390.287	1234.12
390.512	1240.12
390.736	1244.12
390.961	1312.12
391.186	1263.12
391.411	1294.12
391.636	1289.12
391.86	1304.12
392.085	1322.12
392.31	1308.12
392.534	1261.12
392.759	1318.12
392.984	1225.12
393.208	1281.12
393.433	1258.12
393.658	1256.12
393.882	1223.12
394.107	1225.12
394.331	1219.12
394.556	1243.12
394.78	1263.12
395.005	1283.12
395.229	1243.12
395.454	1310.12
395.678	1274.12
395.903	1266.12
396.127	1290.12
396.352	1250.12
396.576	1266.12
396.801	1313.12
397.025	1319.12
397.249	1299.12
397.474	1271.12
397.698	1302.12
397.922	1305.12
398.147	1291.12
398.371	1326.12
398.595	1350.12
398.82	1375.12
399.044	1431.12
399.268	1498.12
399.492	1558.12
399.717	1620.12
399.941	1601.12
400.165	1566.12
400.389	1497.12
400.613	1421.12
400.837	1372.12
401.062	1370.12
401.286	1357.12
401.51	1361.12
401.734	1310.12
401.958	1348.12
402.182	1372.12
402.406	1320.12
402.63	1344.12
402.854	1370.12
403.078	1390.12
403.302	1390.12
403.526	1353.12
403.75	1393.12
403.974	1431.12
404.198	1412.12
404.422	1387.12
404.645	1423.12
404.869	1404.12
405.093	1387.12
405.317	1382.12
405.541	1400.12
405.765	1435.12
405.988	1454.12
406.212	1446.12
406.436	1448.12
406.66	1451.12
406.883	1463.12
407.107	1471.12
407.331	1501.12
407.555	1505.12
407.778	1494.12
408.002	1497.12
408.226	1516.12
408.449	1493.12
408.673	1438.12
408.896	1424.12
409.12	1414.12
409.344	1418.12
409.567	1355.12
409.791	1385.12
410.014	1370.12
410.238	1392.12
410.461	1410.12
410.685	1380.12
410.908	1371.12
411.132	1387.12
411.355	1323.12
411.578	1354.12
411.802	1318.12
412.025	1375.12
412.249	1353.12
412.472	1355.12
412.695	1338.12
412.919	1359.12
413.142	1323.12
413.365	1326.12
413.589	1330.12
413.812	1328.12
414.035	1310.12
414.258	1368.12
414.482	1342.12
414.705	1357.12
414.928	1336.12
415.151	1353.12
415.374	1310.12
415.597	1315.12
415.821	1317.12
416.044	1295.12
416.267	1328.12
416.49	1296.12
416.713	1263.12
416.936	1278.12
417.159	1295.12
417.382	1279.12
417.605	1268.12
417.828	1269.12
418.051	1272.12
418.274	1273.12
418.497	1289.12
418.72	1329.12
418.943	1313.12
419.166	1356.12
419.389	1419.12
419.611	1410.12
419.834	1375.12
420.057	1314.12
420.28	1318.12
420.503	1271.12
420.726	1251.12
420.948	1249.12
421.171	1308.12
421.394	1314.12
421.617	1289.12
421.839	1271.12
422.062	1324.12
422.285	1295.12
422.507	1310.12
422.73	1336.12
422.953	1322.12
423.175	1358.12
423.398	1319.12
423.621	1301.12
423.843	1308.12
424.066	1294.12
424.288	1300.12
424.511	1298.12
424.733	1316.12
424.956	1272.12
425.178	1285.12
425.401	1261.12
425.623	1260.12
425.846	1279.12
426.068	1298.12
426.291	1214.12
426.513	1223.12
426.735	1214.12
426.958	1226.12
427.18	1221.12
427.402	1219.12
427.625	1222.12
427.847	1170.12
428.069	1196.12
428.292	1215.12
428.514	1201.12
428.736	1174.12
428.958	1204.12
429.181	1186.12
429.403	1174.12
429.625	1170.12
429.847	1207.12
430.069	1202.12
430.292	1234.12
430.514	1222.12
430.736	1251.12
430.958	1212.12
431.18	1169.12
431.402	1174.12
431.624	1160.12
431.846	1162.12
432.068	1126.12
432.29	1150.12
432.512	1183.12
432.734	1184.12
432.956	1162.12
433.178	1178.12
433.4	1175.12
433.622	1168.12
433.844	1204.12
434.066	1186.12
434.287	1178.12
434.509	1190.12
434.731	1168.12
434.953	1160.12
435.175	1282.12
435.397	1238.12
435.618	1173.12
435.84	1195.12
436.062	1158.12
436.284	1169.12
436.505	1165.12
436.727	1176.12
436.949	1176.12
437.17	1166.12
437.392	1162.12
437.614	1143.12
437.835	1134.12
438.057	1125.12
438.278	1156.12
438.5	1120.12
438.721	1162.12
438.943	1204.12
439.165	1207.12
439.386	1211.12
439.608	1229.12
439.829	1225.12
440.05	1262.12
440.272	1286.12
440.493	1240.12
440.715	1199.12
440.936	1238.12
441.158	1285.12
441.379	1238.12
441.6	1283.12
441.822	1323.12
442.043	1373.12
442.264	1448.12
442.486	1315.12
442.707	1277.12
442.928	1297.12
443.149	1263.12
443.371	1236.12
443.592	1287.12
443.813	1304.12
444.034	1275.12
444.255	1303.12
444.476	1316.12
444.698	1342.12
444.919	1316.12
445.14	1469.12
445.361	1363.12
445.582	1304.12
445.803	1262.12
446.024	1243.12
446.245	1281.12
446.466	1256.12
446.687	1266.12
446.908	1239.12
447.129	1234.12
447.35	1191.12
447.571	1208.12
447.792	1201.12
448.013	1185.12
448.234	1186.12
448.455	1186.12
448.675	1201.12
448.896	1216.12
449.117	1239.12
449.338	1369.12
449.559	1379.12
449.779	1262.12
450	1204.12
450.221	1144.12
450.442	1152.12
450.662	1153.12
450.883	1121.12
451.104	1120.12
451.324	1128.12
451.545	1136.12
451.766	1159.12
451.986	1137.12
452.207	1237.12
452.428	1523.12
452.648	2133.12
452.869	1854.12
453.089	1347.12
453.31	1245.12
453.53	1280.12
453.751	1307.12
453.971	1408.12
454.192	1372.12
454.412	1154.12
454.633	1165.12
454.853	1100.12
455.073	1086.12
455.294	1091.12
455.514	1070.12
455.734	1058.12
455.955	1068.12
456.175	1089.12
456.395	1068.12
456.616	1084.12
456.836	1111.12
457.056	1081.12
457.276	1099.12
457.497	1146.12
457.717	1160.12
457.937	1142.12
458.157	1129.12
458.377	1134.12
458.598	1158.12
458.818	1148.12
459.038	1156.12
459.258	1174.12
459.478	1173.12
459.698	1190.12
459.918	1170.12
460.138	1200.12
460.358	1246.12
460.578	1247.12
460.798	1283.12
461.018	1270.12
461.238	1297.12
461.458	1298.12
461.678	1313.12
461.898	1360.12
462.118	1338.12
462.338	1362.12
462.558	1370.12
462.777	1377.12
462.997	1436.12
463.217	1526.12
463.437	1538.12
463.657	1580.12
463.876	1551.12
464.096	1455.12
464.316	1391.12
464.536	1391.12
464.755	1385.12
464.975	1356.12
465.195	1282.12
465.414	1272.12
465.634	1205.12
465.854	1194.12
466.073	1206.12
466.293	1196.12
466.512	1200.12
466.732	1223.12
466.951	1253.12
467.171	1339.12
467.391	1310.12
467.61	1217.12
467.829	1192.12
468.049	1184.12
468.268	1192.12
468.488	1159.12
468.707	1158.12
468.927	1165.12
469.146	1172.12
469.365	1182.12
469.585	1187.12
469.804	1184.12
470.023	1250.12
470.243	1266.12
470.462	1264.12
470.681	1319.12
470.901	1472.12
471.12	1724.12
471.339	1728.12
471.558	1396.12
471.777	1269.12
471.997	1228.12
472.216	1215.12
472.435	1218.12
472.654	1152.12
472.873	1160.12
473.092	1153.12
473.311	1171.12
473.53	1171.12
473.749	1177.12
473.968	1216.12
474.187	1190.12
474.406	1169.12
474.625	1175.12
474.844	1139.12
475.063	1183.12
475.282	1144.12
475.501	1159.12
475.72	1173.12
475.939	1199.12
476.158	1209.12
476.377	1210.12
476.596	1240.12
476.814	1225.12
477.033	1190.12
477.252	1217.12
477.471	1266.12
477.69	1271.12
477.908	1328.12
478.127	1324.12
478.346	1322.12
478.564	1351.12
478.783	1360.12
479.002	1361.12
479.22	1351.12
479.439	1385.12
479.658	1371.12
479.876	1401.12
480.095	1397.12
480.313	1404.12
480.532	1437.12
480.751	1416.12
480.969	1376.12
481.188	1371.12
481.406	1357.12
481.624	1345.12
481.843	1344.12
482.061	1364.12
482.28	1364.12
482.498	1360.12
482.717	1397.12
482.935	1426.12
483.153	1427.12
483.372	1404.12
483.59	1468.12
483.808	1495.12
484.027	1483.12
484.245	1593.12
484.463	1767.12
484.681	1940.12
484.9	1797.12
485.118	1638.12
485.336	1638.12
485.554	1650.12
485.772	1762.12
485.99	1945.12
486.209	2180.12
486.427	1786.12
486.645	1586.12
486.863	1557.12
487.081	1499.12
487.299	1467.12
487.517	1485.12
487.735	1539.12
487.953	1559.12
488.171	1539.12
488.389	1563.12
488.607	1458.12
488.825	1441.12
489.043	1417.12
489.261	1405.12
489.479	1426.12
489.696	1452.12
489.914	1451.12
490.132	1457.12
490.35	1476.12
490.568	1471.12
490.786	1507.12
