Data from SnStandardFlinnAPT0064_LampEnergy10_LIBS07252019.E.O._I.C._HRD10591_15-19-29-493.txt Node
Date: Thu Jul 25 15:19:29 EDT 2019
User: cochatt
Spectrometer: HR+D1059
Trigger mode: 1
Integration Time (sec): 1.000000E-1
Scans to average: 1
Electric dark correction enabled: true
Nonlinearity correction enabled: false
Boxcar width: 0
XAxis mode: Wavelengths
Number of Pixels in Spectrum: 2048
>>>>>Begin Spectral Data<<<<<
223.165	-21.69
223.4	-21.69
223.635	-21.69
223.869	-29.69
224.104	-5.69
224.338	-18.69
224.573	-17.69
224.808	-19.69
225.042	-9.69
225.277	5.31
225.511	7.31
225.746	-10.69
225.98	-0.69
226.215	0.31
226.449	22.31
226.683	23.31
226.918	37.31
227.152	38.31
227.387	30.31
227.621	43.31
227.856	48.31
228.09	43.31
228.324	33.31
228.559	41.31
228.793	120.31
229.027	331.31
229.262	362.31
229.496	328.31
229.73	338.31
229.964	296.31
230.199	305.31
230.433	303.31
230.667	318.31
230.901	311.31
231.136	352.31
231.37	360.31
231.604	395.31
231.838	447.31
232.072	547.31
232.306	591.31
232.541	494.31
232.775	436.31
233.009	438.31
233.243	424.31
233.477	470.31
233.711	547.31
233.945	607.31
234.179	548.31
234.413	478.31
234.647	462.31
234.881	486.31
235.115	565.31
235.349	658.31
235.583	841.31
235.817	1062.31
236.051	1024.31
236.285	698.31
236.519	572.31
236.753	521.31
236.987	508.31
237.221	560.31
237.455	531.31
237.689	509.31
237.922	480.31
238.156	491.31
238.39	514.31
238.624	501.31
238.858	486.31
239.091	510.31
239.325	480.31
239.559	524.31
239.793	543.31
240.027	540.31
240.26	564.31
240.494	560.31
240.728	606.31
240.961	641.31
241.195	682.31
241.429	736.31
241.662	757.31
241.896	853.31
242.13	1038.31
242.363	1359.31
242.597	1706.31
242.83	1688.31
243.064	1661.31
243.298	1962.31
243.531	1573.31
243.765	1018.31
243.998	836.31
244.232	738.31
244.465	697.31
244.699	671.31
244.932	660.31
245.166	675.31
245.399	713.31
245.633	709.31
245.866	726.31
246.099	685.31
246.333	664.31
246.566	652.31
246.8	634.31
247.033	663.31
247.266	685.31
247.5	674.31
247.733	688.31
247.966	731.31
248.2	770.31
248.433	904.31
248.666	1039.31
248.899	947.31
249.133	891.31
249.366	932.31
249.599	1021.31
249.832	1116.31
250.066	1157.31
250.299	905.31
250.532	819.31
250.765	767.31
250.998	757.31
251.231	737.31
251.465	734.31
251.698	763.31
251.931	761.31
252.164	748.31
252.397	765.31
252.63	782.31
252.863	814.31
253.096	784.31
253.329	789.31
253.562	774.31
253.795	804.31
254.028	819.31
254.261	853.31
254.494	883.31
254.727	1046.31
254.96	1308.31
255.193	1291.31
255.426	989.31
255.659	900.31
255.892	886.31
256.124	888.31
256.357	907.31
256.59	925.31
256.823	1018.31
257.056	1164.31
257.289	1448.31
257.521	1579.31
257.754	1214.31
257.987	996.31
258.22	938.31
258.452	940.31
258.685	956.31
258.918	977.31
259.151	1053.31
259.383	1126.31
259.616	1265.31
259.849	1320.31
260.081	1125.31
260.314	1031.31
260.547	954.31
260.779	984.31
261.012	966.31
261.244	956.31
261.477	986.31
261.71	989.31
261.942	993.31
262.175	986.31
262.407	1028.31
262.64	1014.31
262.872	1090.31
263.105	1136.31
263.337	1170.31
263.57	1213.31
263.802	1298.31
264.035	1308.31
264.267	1338.31
264.499	1373.31
264.732	1405.31
264.964	1391.31
265.197	1407.31
265.429	1404.31
265.661	1492.31
265.894	1579.31
266.126	1755.31
266.358	1986.31
266.591	1946.31
266.823	1617.31
267.055	1454.31
267.287	1382.31
267.52	1292.31
267.752	1279.31
267.984	1299.31
268.216	1266.31
268.448	1245.31
268.681	1242.31
268.913	1253.31
269.145	1228.31
269.377	1276.31
269.609	1271.31
269.841	1287.31
270.073	1422.31
270.306	1666.31
270.538	2281.31
270.77	3408.31
271.002	4206.31
271.234	3028.31
271.466	2000.31
271.698	1631.31
271.93	1486.31
272.162	1387.31
272.394	1334.31
272.626	1310.31
272.858	1243.31
273.09	1225.31
273.322	1230.31
273.553	1229.31
273.785	1199.31
274.017	1204.31
274.249	1237.31
274.481	1216.31
274.713	1239.31
274.945	1250.31
275.176	1230.31
275.408	1219.31
275.64	1225.31
275.872	1260.31
276.104	1246.31
276.335	1315.31
276.567	1288.31
276.799	1284.31
277.031	1307.31
277.262	1356.31
277.494	1435.31
277.726	1627.31
277.957	1976.31
278.189	2238.31
278.421	2081.31
278.652	1853.31
278.884	1735.31
279.115	1569.31
279.347	1463.31
279.579	1432.31
279.81	1429.31
280.042	1454.31
280.273	1458.31
280.505	1491.31
280.736	1552.31
280.968	1646.31
281.199	1861.31
281.431	2157.31
281.662	2253.31
281.894	1855.31
282.125	1690.31
282.356	1694.31
282.588	1699.31
282.819	1775.31
283.051	1914.31
283.282	2133.31
283.513	2609.31
283.745	3807.31
283.976	6071.31
284.207	8555.31
284.439	7839.31
284.67	4966.31
284.901	4088.31
285.132	4056.31
285.364	3852.31
285.595	2915.31
285.826	2617.31
286.057	3051.31
286.288	4117.31
286.52	5568.31
286.751	5270.31
286.982	3326.31
287.213	2476.31
287.444	2131.31
287.675	1944.31
287.906	1848.31
288.138	1804.31
288.369	1770.31
288.6	1726.31
288.831	1729.31
289.062	1718.31
289.293	1700.31
289.524	1716.31
289.755	1741.31
289.986	1753.31
290.217	1726.31
290.448	1744.31
290.679	1776.31
290.91	1836.31
291.141	1931.31
291.371	2082.31
291.602	2173.31
291.833	1983.31
292.064	1798.31
292.295	1703.31
292.526	1691.31
292.757	1662.31
292.987	1607.31
293.218	1615.31
293.449	1629.31
293.68	1628.31
293.91	1592.31
294.141	1572.31
294.372	1588.31
294.603	1601.31
294.833	1603.31
295.064	1576.31
295.295	1597.31
295.525	1575.31
295.756	1567.31
295.987	1600.31
296.217	1589.31
296.448	1628.31
296.679	1588.31
296.909	1588.31
297.14	1619.31
297.37	1644.31
297.601	1682.31
297.831	1672.31
298.062	1684.31
298.292	1677.31
298.523	1735.31
298.753	1732.31
298.984	1727.31
299.214	1816.31
299.445	1799.31
299.675	1825.31
299.905	1862.31
300.136	1988.31
300.366	2239.31
300.597	2852.31
300.827	4073.31
301.057	5610.31
301.288	5611.31
301.518	3755.31
301.748	2767.31
301.979	2458.31
302.209	2380.31
302.439	2419.31
302.669	2606.31
302.9	3178.31
303.13	4412.31
303.36	6584.31
303.59	8837.31
303.82	7725.31
304.051	4684.31
304.281	3252.31
304.511	2704.31
304.741	2446.31
304.971	2334.31
305.201	2182.31
305.431	2063.31
305.661	2015.31
305.891	1955.31
306.121	1909.31
306.352	1876.31
306.582	1872.31
306.812	1879.31
307.042	1868.31
307.272	1842.31
307.502	1847.31
307.731	1840.31
307.961	1823.31
308.191	1839.31
308.421	1819.31
308.651	1805.31
308.881	1811.31
309.111	1789.31
309.341	1811.31
309.571	1877.31
309.8	1858.31
310.03	1859.31
310.26	1891.31
310.49	1874.31
310.72	1828.31
310.949	1900.31
311.179	1926.31
311.409	1903.31
311.639	1940.31
311.868	1948.31
312.098	1948.31
312.328	1967.31
312.557	1986.31
312.787	1940.31
313.017	1974.31
313.246	2035.31
313.476	2055.31
313.706	2145.31
313.935	2246.31
314.165	2457.31
314.394	2583.31
314.624	2472.31
314.853	2225.31
315.083	2211.31
315.312	2194.31
315.542	2234.31
315.771	2305.31
316.001	2347.31
316.23	2430.31
316.46	2506.31
316.689	2803.31
316.919	3356.31
317.148	4890.31
317.377	7538.31
317.607	11014.31
317.836	11666.31
318.065	7311.31
318.295	4696.31
318.524	3729.31
318.753	3190.31
318.983	2873.31
319.212	2706.31
319.441	2592.31
319.67	2566.31
319.9	2450.31
320.129	2416.31
320.358	2403.31
320.587	2403.31
320.816	2399.31
321.046	2403.31
321.275	2386.31
321.504	2420.31
321.733	2472.31
321.962	2484.31
322.191	2595.31
322.42	2524.31
322.649	2512.31
322.878	2524.31
323.108	2496.31
323.337	2591.31
323.566	2634.31
323.795	2724.31
324.024	2683.31
324.253	2763.31
324.482	2897.31
324.71	3061.31
324.939	3319.31
325.168	3471.31
325.397	3542.31
325.626	4265.31
325.855	5970.31
326.084	9278.31
326.313	13297.31
326.542	14070.31
326.77	9968.31
326.999	6536.31
327.228	5279.31
327.457	5081.31
327.686	5080.31
327.914	5395.31
328.143	6311.31
328.372	7508.31
328.6	8098.31
328.829	7259.31
329.058	6094.31
329.287	5325.31
329.515	4830.31
329.744	4424.31
329.972	4199.31
330.201	3923.31
330.43	3827.31
330.658	3739.31
330.887	3639.31
331.115	3557.31
331.344	3501.31
331.572	3492.31
331.801	3511.31
332.03	3515.31
332.258	3619.31
332.486	3892.31
332.715	4496.31
332.943	5514.31
333.172	6932.31
333.4	6973.31
333.629	5205.31
333.857	4632.31
334.085	4651.31
334.314	4780.31
334.542	5307.31
334.771	6210.31
334.999	7679.31
335.227	9762.31
335.455	10913.31
335.684	9859.31
335.912	8140.31
336.14	6709.31
336.369	5903.31
336.597	5392.31
336.825	4924.31
337.053	4589.31
337.281	4307.31
337.51	4109.31
337.738	3934.31
337.966	3766.31
338.194	3630.31
338.422	3542.31
338.65	3376.31
338.878	3335.31
339.106	3272.31
339.334	3256.31
339.562	3178.31
339.79	3118.31
340.018	3066.31
340.246	3058.31
340.474	3049.31
340.702	2997.31
340.93	3068.31
341.158	3078.31
341.386	3003.31
341.614	3001.31
341.842	2864.31
342.07	2844.31
342.298	2799.31
342.526	2758.31
342.754	2783.31
342.981	2746.31
343.209	2675.31
343.437	2749.31
343.665	2805.31
343.893	2766.31
344.12	2792.31
344.348	2771.31
344.576	2691.31
344.804	2680.31
345.031	2613.31
345.259	2604.31
345.487	2623.31
345.714	2593.31
345.942	2564.31
346.17	2556.31
346.397	2520.31
346.625	2547.31
346.853	2505.31
347.08	2516.31
347.308	2535.31
347.535	2547.31
347.763	2533.31
347.99	2465.31
348.218	2486.31
348.445	2467.31
348.673	2479.31
348.9	2457.31
349.128	2500.31
349.355	2432.31
349.583	2418.31
349.81	2431.31
350.037	2444.31
350.265	2382.31
350.492	2406.31
350.72	2399.31
350.947	2386.31
351.174	2423.31
351.402	2404.31
351.629	2426.31
351.856	2425.31
352.083	2388.31
352.311	2436.31
352.538	2405.31
352.765	2368.31
352.992	2419.31
353.22	2391.31
353.447	2344.31
353.674	2340.31
353.901	2396.31
354.128	2400.31
354.355	2372.31
354.583	2374.31
354.81	2422.31
355.037	2432.31
355.264	2386.31
355.491	2482.31
355.718	2481.31
355.945	2450.31
356.172	2483.31
356.399	2436.31
356.626	2532.31
356.853	2507.31
357.08	2463.31
357.307	2539.31
357.534	2530.31
357.761	2590.31
357.988	2573.31
358.215	2582.31
358.441	2576.31
358.668	2518.31
358.895	2553.31
359.122	2548.31
359.349	2546.31
359.576	2501.31
359.802	2523.31
360.029	2529.31
360.256	2555.31
360.483	2529.31
360.709	2554.31
360.936	2576.31
361.163	2568.31
361.39	2563.31
361.616	2556.31
361.843	2548.31
362.07	2577.31
362.296	2542.31
362.523	2540.31
362.749	2567.31
362.976	2525.31
363.203	2559.31
363.429	2511.31
363.656	2488.31
363.882	2508.31
364.109	2563.31
364.335	2514.31
364.562	2513.31
364.788	2540.31
365.015	2567.31
365.241	2648.31
365.468	2796.31
365.694	2940.31
365.92	2856.31
366.147	2644.31
366.373	2613.31
366.599	2592.31
366.826	2559.31
367.052	2561.31
367.278	2629.31
367.505	2592.31
367.731	2593.31
367.957	2604.31
368.184	2648.31
368.41	2621.31
368.636	2632.31
368.862	2646.31
369.089	2655.31
369.315	2626.31
369.541	2612.31
369.767	2643.31
369.993	2640.31
370.219	2572.31
370.445	2633.31
370.672	2677.31
370.898	2657.31
371.124	2628.31
371.35	2697.31
371.576	2684.31
371.802	2741.31
372.028	2715.31
372.254	2757.31
372.48	2752.31
372.706	2754.31
372.932	2763.31
373.158	2770.31
373.384	2774.31
373.61	2786.31
373.835	2787.31
374.061	2797.31
374.287	2810.31
374.513	2816.31
374.739	2842.31
374.965	2877.31
375.191	2856.31
375.416	2870.31
375.642	2789.31
375.868	2795.31
376.094	2771.31
376.319	2734.31
376.545	2738.31
376.771	2715.31
376.997	2699.31
377.222	2723.31
377.448	2724.31
377.674	2705.31
377.899	2685.31
378.125	2691.31
378.35	2746.31
378.576	2734.31
378.802	2736.31
379.027	2810.31
379.253	2907.31
379.478	3053.31
379.704	3698.31
379.929	5284.31
380.155	8398.31
380.38	9155.31
380.606	5635.31
380.831	3901.31
381.057	3322.31
381.282	3027.31
381.507	2911.31
381.733	2791.31
381.958	2740.31
382.184	2747.31
382.409	2714.31
382.634	2684.31
382.86	2682.31
383.085	2662.31
383.31	2718.31
383.535	2678.31
383.761	2681.31
383.986	2651.31
384.211	2745.31
384.436	2703.31
384.662	2762.31
384.887	2788.31
385.112	2756.31
385.337	2758.31
385.562	2735.31
385.787	2772.31
386.013	2770.31
386.238	2778.31
386.463	2776.31
386.688	2798.31
386.913	2718.31
387.138	2758.31
387.363	2719.31
387.588	2716.31
387.813	2746.31
388.038	2734.31
388.263	2724.31
388.488	2778.31
388.713	2686.31
388.938	2703.31
389.163	2698.31
389.387	2760.31
389.612	2748.31
389.837	2767.31
390.062	2734.31
390.287	2781.31
390.512	2757.31
390.736	2832.31
390.961	2892.31
391.186	2844.31
391.411	2840.31
391.636	2860.31
391.86	2922.31
392.085	2925.31
392.31	2886.31
392.534	2858.31
392.759	2807.31
392.984	2774.31
393.208	2832.31
393.433	2881.31
393.658	2884.31
393.882	2802.31
394.107	2792.31
394.331	2767.31
394.556	2760.31
394.78	2781.31
395.005	2827.31
395.229	2802.31
395.454	2873.31
395.678	2853.31
395.903	2863.31
396.127	2876.31
396.352	2847.31
396.576	2816.31
396.801	2834.31
397.025	2876.31
397.249	2872.31
397.474	2900.31
397.698	2879.31
397.922	2925.31
398.147	2906.31
398.371	2919.31
398.595	2984.31
398.82	3085.31
399.044	3182.31
399.268	3282.31
399.492	3533.31
399.717	3621.31
399.941	3623.31
400.165	3457.31
400.389	3334.31
400.613	3210.31
400.837	3100.31
401.062	3081.31
401.286	3069.31
401.51	3066.31
401.734	2997.31
401.958	3040.31
402.182	3024.31
402.406	3024.31
402.63	3080.31
402.854	3092.31
403.078	3084.31
403.302	3101.31
403.526	3116.31
403.75	3136.31
403.974	3149.31
404.198	3136.31
404.422	3154.31
404.645	3157.31
404.869	3082.31
405.093	3180.31
405.317	3114.31
405.541	3164.31
405.765	3226.31
405.988	3271.31
406.212	3260.31
406.436	3178.31
406.66	3326.31
406.883	3259.31
407.107	3311.31
407.331	3394.31
407.555	3491.31
407.778	3388.31
408.002	3428.31
408.226	3399.31
408.449	3397.31
408.673	3374.31
408.896	3208.31
409.12	3222.31
409.344	3183.31
409.567	3078.31
409.791	3194.31
410.014	3112.31
410.238	3095.31
410.461	3066.31
410.685	3137.31
410.908	3076.31
411.132	3053.31
411.355	2970.31
411.578	3054.31
411.802	3062.31
412.025	3030.31
412.249	3035.31
412.472	3026.31
412.695	2946.31
412.919	3005.31
413.142	2947.31
413.365	2934.31
413.589	2956.31
413.812	2966.31
414.035	2912.31
414.258	2997.31
414.482	2942.31
414.705	3013.31
414.928	2962.31
415.151	2922.31
415.374	2894.31
415.597	2898.31
415.821	2870.31
416.044	2849.31
416.267	2848.31
416.49	2832.31
416.713	2813.31
416.936	2846.31
417.159	2832.31
417.382	2817.31
417.605	2814.31
417.828	2831.31
418.051	2874.31
418.274	2929.31
418.497	2865.31
418.72	2949.31
418.943	2845.31
419.166	3015.31
419.389	3159.31
419.611	3089.31
419.834	2979.31
420.057	3045.31
420.28	2918.31
420.503	2831.31
420.726	2804.31
420.948	2790.31
421.171	2852.31
421.394	2870.31
421.617	2852.31
421.839	2888.31
422.062	2935.31
422.285	2801.31
422.507	2915.31
422.73	2864.31
422.953	2938.31
423.175	2992.31
423.398	2963.31
423.621	2865.31
423.843	2913.31
424.066	2892.31
424.288	2828.31
424.511	2862.31
424.733	2843.31
424.956	2791.31
425.178	2814.31
425.401	2807.31
425.623	2835.31
425.846	2723.31
426.068	2780.31
426.291	2733.31
426.513	2737.31
426.735	2723.31
426.958	2766.31
427.18	2686.31
427.402	2719.31
427.625	2743.31
427.847	2651.31
428.069	2655.31
428.292	2681.31
428.514	2644.31
428.736	2634.31
428.958	2648.31
429.181	2630.31
429.403	2627.31
429.625	2622.31
429.847	2626.31
430.069	2675.31
430.292	2755.31
430.514	2895.31
430.736	2903.31
430.958	2770.31
431.18	2679.31
431.402	2608.31
431.624	2580.31
431.846	2637.31
432.068	2606.31
432.29	2623.31
432.512	2589.31
432.734	2606.31
432.956	2636.31
433.178	2626.31
433.4	2674.31
433.622	2655.31
433.844	2672.31
434.066	2636.31
434.287	2640.31
434.509	2632.31
434.731	2714.31
434.953	2672.31
435.175	2742.31
435.397	2772.31
435.618	2661.31
435.84	2650.31
436.062	2649.31
436.284	2642.31
436.505	2581.31
436.727	2620.31
436.949	2584.31
437.17	2573.31
437.392	2542.31
437.614	2540.31
437.835	2489.31
438.057	2529.31
438.278	2524.31
438.5	2575.31
438.721	2649.31
438.943	2712.31
439.165	2754.31
439.386	2768.31
439.608	2714.31
439.829	2706.31
440.05	2819.31
440.272	2910.31
440.493	2763.31
440.715	2735.31
440.936	2745.31
441.158	2753.31
441.379	2788.31
441.6	2869.31
441.822	2964.31
442.043	3104.31
442.264	3213.31
442.486	2970.31
442.707	2888.31
442.928	2814.31
443.149	2772.31
443.371	2806.31
443.592	2797.31
443.813	2795.31
444.034	2845.31
444.255	2871.31
444.476	2905.31
444.698	2979.31
444.919	3010.31
445.14	3013.31
445.361	2905.31
445.582	2923.31
445.803	2838.31
446.024	2778.31
446.245	2797.31
446.466	2814.31
446.687	2774.31
446.908	2763.31
447.129	2614.31
447.35	2636.31
447.571	2659.31
447.792	2614.31
448.013	2626.31
448.234	2608.31
448.455	2574.31
448.675	2604.31
448.896	2681.31
449.117	2828.31
449.338	3033.31
449.559	3161.31
449.779	2828.31
450	2653.31
450.221	2543.31
450.442	2572.31
450.662	2559.31
450.883	2556.31
451.104	2577.31
451.324	2582.31
451.545	2520.31
451.766	2625.31
451.986	2646.31
452.207	2855.31
452.428	3766.31
452.648	5828.31
452.869	4835.31
453.089	3280.31
453.31	3046.31
453.53	3056.31
453.751	3103.31
453.971	3263.31
454.192	3249.31
454.412	2762.31
454.633	2568.31
454.853	2513.31
455.073	2471.31
455.294	2471.31
455.514	2443.31
455.734	2501.31
455.955	2394.31
456.175	2400.31
456.395	2418.31
456.616	2444.31
456.836	2471.31
457.056	2517.31
457.276	2480.31
457.497	2658.31
457.717	2646.31
457.937	2624.31
458.157	2602.31
458.377	2593.31
458.598	2550.31
458.818	2603.31
459.038	2587.31
459.258	2586.31
459.478	2620.31
459.698	2681.31
459.918	2679.31
460.138	2735.31
460.358	2822.31
460.578	2814.31
460.798	2849.31
461.018	2864.31
461.238	2882.31
461.458	2927.31
461.678	2926.31
461.898	3053.31
462.118	2974.31
462.338	3009.31
462.558	3074.31
462.777	3114.31
462.997	3278.31
463.217	3402.31
463.437	3491.31
463.657	3602.31
463.876	3485.31
464.096	3373.31
464.316	3177.31
464.536	3155.31
464.755	3102.31
464.975	3070.31
465.195	2913.31
465.414	2880.31
465.634	2757.31
465.854	2754.31
466.073	2730.31
466.293	2654.31
466.512	2675.31
466.732	2728.31
466.951	2808.31
467.171	3061.31
467.391	3021.31
467.61	2717.31
467.829	2663.31
468.049	2616.31
468.268	2604.31
468.488	2572.31
468.707	2560.31
468.927	2614.31
469.146	2574.31
469.365	2658.31
469.585	2660.31
469.804	2687.31
470.023	2743.31
470.243	2795.31
470.462	2951.31
470.681	3036.31
470.901	3378.31
471.12	3819.31
471.339	3838.31
471.558	3243.31
471.777	2903.31
471.997	2796.31
472.216	2708.31
472.435	2702.31
472.654	2679.31
472.873	2609.31
473.092	2641.31
473.311	2615.31
473.53	2645.31
473.749	2706.31
473.968	2757.31
474.187	2702.31
474.406	2627.31
474.625	2623.31
474.844	2605.31
475.063	2663.31
475.282	2649.31
475.501	2652.31
475.72	2638.31
475.939	2633.31
476.158	2694.31
476.377	2799.31
476.596	2780.31
476.814	2756.31
477.033	2754.31
477.252	2821.31
477.471	2859.31
477.69	2932.31
477.908	2946.31
478.127	2965.31
478.346	2984.31
478.564	3005.31
478.783	3079.31
479.002	3075.31
479.22	3107.31
479.439	3122.31
479.658	3128.31
479.876	3103.31
480.095	3166.31
480.313	3229.31
480.532	3218.31
480.751	3288.31
480.969	3155.31
481.188	3108.31
481.406	3173.31
481.624	3134.31
481.843	3193.31
482.061	3246.31
482.28	3196.31
482.498	3183.31
482.717	3152.31
482.935	3168.31
483.153	3258.31
483.372	3275.31
483.59	3316.31
483.808	3389.31
484.027	3470.31
484.245	3724.31
484.463	4221.31
484.681	4601.31
484.9	4258.31
485.118	3853.31
485.336	3818.31
485.554	3903.31
485.772	4163.31
485.99	4667.31
486.209	4950.31
486.427	4230.31
486.645	3727.31
486.863	3550.31
487.081	3515.31
487.299	3500.31
487.517	3413.31
487.735	3392.31
