Data from SnStandardFlinnAPT0064_LampEnergy5.5_LIBS07252019.E.O._I.C._HRD10591_15-17-28-492.txt Node
Date: Thu Jul 25 15:17:28 EDT 2019
User: cochatt
Spectrometer: HR+D1059
Trigger mode: 1
Integration Time (sec): 1.000000E-1
Scans to average: 1
Electric dark correction enabled: true
Nonlinearity correction enabled: false
Boxcar width: 0
XAxis mode: Wavelengths
Number of Pixels in Spectrum: 2048
>>>>>Begin Spectral Data<<<<<
223.165	-20.12
223.4	-20.12
223.635	-20.12
223.869	-25.12
224.104	-27.12
224.338	-21.12
224.573	-16.12
224.808	-10.12
225.042	-1.12
225.277	-5.12
225.511	-16.12
225.746	-5.12
225.98	22.88
226.215	19.88
226.449	13.88
226.683	34.88
226.918	28.88
227.152	26.88
227.387	40.88
227.621	43.88
227.856	28.88
228.09	30.88
228.324	37.88
228.559	54.88
228.793	77.88
229.027	144.88
229.262	181.88
229.496	161.88
229.73	162.88
229.964	152.88
230.199	166.88
230.433	154.88
230.667	170.88
230.901	173.88
231.136	178.88
231.37	199.88
231.604	206.88
231.838	248.88
232.072	253.88
232.306	258.88
232.541	241.88
232.775	208.88
233.009	204.88
233.243	216.88
233.477	234.88
233.711	252.88
233.945	281.88
234.179	248.88
234.413	228.88
234.647	230.88
234.881	239.88
235.115	242.88
235.349	269.88
235.583	371.88
235.817	479.88
236.051	473.88
236.285	294.88
236.519	257.88
236.753	246.88
236.987	249.88
237.221	264.88
237.455	255.88
237.689	234.88
237.922	217.88
238.156	231.88
238.39	226.88
238.624	250.88
238.858	227.88
239.091	232.88
239.325	254.88
239.559	239.88
239.793	240.88
240.027	244.88
240.26	266.88
240.494	273.88
240.728	270.88
240.961	284.88
241.195	293.88
241.429	298.88
241.662	325.88
241.896	371.88
242.13	435.88
242.363	557.88
242.597	693.88
242.83	689.88
243.064	682.88
243.298	813.88
243.531	718.88
243.765	439.88
243.998	370.88
244.232	328.88
244.465	307.88
244.699	295.88
244.932	289.88
245.166	302.88
245.399	321.88
245.633	324.88
245.866	318.88
246.099	309.88
246.333	315.88
246.566	293.88
246.8	293.88
247.033	301.88
247.266	317.88
247.5	308.88
247.733	319.88
247.966	316.88
248.2	352.88
248.433	397.88
248.666	439.88
248.899	437.88
249.133	367.88
249.366	392.88
249.599	423.88
249.832	466.88
250.066	472.88
250.299	390.88
250.532	351.88
250.765	358.88
250.998	350.88
251.231	334.88
251.465	346.88
251.698	367.88
251.931	344.88
252.164	350.88
252.397	362.88
252.63	358.88
252.863	370.88
253.096	365.88
253.329	365.88
253.562	355.88
253.795	357.88
254.028	368.88
254.261	382.88
254.494	424.88
254.727	478.88
254.96	538.88
255.193	540.88
255.426	425.88
255.659	404.88
255.892	388.88
256.124	386.88
256.357	392.88
256.59	402.88
256.823	456.88
257.056	496.88
257.289	590.88
257.521	661.88
257.754	522.88
257.987	435.88
258.22	428.88
258.452	415.88
258.685	429.88
258.918	443.88
259.151	448.88
259.383	492.88
259.616	531.88
259.849	557.88
260.081	497.88
260.314	464.88
260.547	446.88
260.779	447.88
261.012	423.88
261.244	455.88
261.477	456.88
261.71	475.88
261.942	466.88
262.175	471.88
262.407	496.88
262.64	487.88
262.872	499.88
263.105	531.88
263.337	579.88
263.57	592.88
263.802	611.88
264.035	609.88
264.267	632.88
264.499	652.88
264.732	676.88
264.964	665.88
265.197	654.88
265.429	642.88
265.661	672.88
265.894	707.88
266.126	806.88
266.358	868.88
266.591	848.88
266.823	727.88
267.055	682.88
267.287	657.88
267.52	628.88
267.752	582.88
267.984	585.88
268.216	576.88
268.448	584.88
268.681	574.88
268.913	550.88
269.145	569.88
269.377	545.88
269.609	569.88
269.841	600.88
270.073	639.88
270.306	710.88
270.538	954.88
270.77	1428.88
271.002	1736.88
271.234	1208.88
271.466	807.88
271.698	654.88
271.93	596.88
272.162	595.88
272.394	564.88
272.626	588.88
272.858	579.88
273.09	560.88
273.322	531.88
273.553	555.88
273.785	558.88
274.017	556.88
274.249	573.88
274.481	557.88
274.713	546.88
274.945	547.88
275.176	556.88
275.408	571.88
275.64	566.88
275.872	558.88
276.104	571.88
276.335	577.88
276.567	567.88
276.799	559.88
277.031	592.88
277.262	591.88
277.494	625.88
277.726	686.88
277.957	798.88
278.189	896.88
278.421	828.88
278.652	746.88
278.884	768.88
279.115	651.88
279.347	648.88
279.579	621.88
279.81	636.88
280.042	660.88
280.273	627.88
280.505	651.88
280.736	660.88
280.968	692.88
281.199	777.88
281.431	842.88
281.662	893.88
281.894	780.88
282.125	712.88
282.356	714.88
282.588	714.88
282.819	735.88
283.051	782.88
283.282	847.88
283.513	1044.88
283.745	1567.88
283.976	2568.88
284.207	3662.88
284.439	3237.88
284.67	1890.88
284.901	1499.88
285.132	1492.88
285.364	1450.88
285.595	1118.88
285.826	1021.88
286.057	1213.88
286.288	1701.88
286.52	2285.88
286.751	2128.88
286.982	1290.88
287.213	946.88
287.444	834.88
287.675	806.88
287.906	776.88
288.138	772.88
288.369	741.88
288.6	741.88
288.831	758.88
289.062	728.88
289.293	731.88
289.524	740.88
289.755	753.88
289.986	748.88
290.217	740.88
290.448	736.88
290.679	742.88
290.91	767.88
291.141	805.88
291.371	846.88
291.602	894.88
291.833	832.88
292.064	756.88
292.295	738.88
292.526	702.88
292.757	715.88
292.987	725.88
293.218	710.88
293.449	720.88
293.68	727.88
293.91	694.88
294.141	715.88
294.372	698.88
294.603	692.88
294.833	701.88
295.064	706.88
295.295	704.88
295.525	679.88
295.756	696.88
295.987	710.88
296.217	718.88
296.448	678.88
296.679	695.88
296.909	694.88
297.14	734.88
297.37	726.88
297.601	735.88
297.831	760.88
298.062	732.88
298.292	730.88
298.523	742.88
298.753	770.88
298.984	763.88
299.214	747.88
299.445	772.88
299.675	796.88
299.905	794.88
300.136	834.88
300.366	937.88
300.597	1168.88
300.827	1662.88
301.057	2306.88
301.288	2267.88
301.518	1420.88
301.748	1055.88
301.979	999.88
302.209	948.88
302.439	984.88
302.669	1010.88
302.9	1230.88
303.13	1773.88
303.36	2661.88
303.59	3564.88
303.82	3050.88
304.051	1731.88
304.281	1228.88
304.511	1020.88
304.741	938.88
304.971	928.88
305.201	892.88
305.431	838.88
305.661	828.88
305.891	836.88
306.121	837.88
306.352	839.88
306.582	804.88
306.812	779.88
307.042	815.88
307.272	790.88
307.502	796.88
307.731	799.88
307.961	821.88
308.191	808.88
308.421	810.88
308.651	790.88
308.881	816.88
309.111	808.88
309.341	814.88
309.571	788.88
309.8	828.88
310.03	822.88
310.26	831.88
310.49	824.88
310.72	850.88
310.949	848.88
311.179	828.88
311.409	843.88
311.639	863.88
311.868	838.88
312.098	851.88
312.328	857.88
312.557	853.88
312.787	869.88
313.017	863.88
313.246	867.88
313.476	888.88
313.706	903.88
313.935	981.88
314.165	1017.88
314.394	1077.88
314.624	1013.88
314.853	959.88
315.083	954.88
315.312	958.88
315.542	955.88
315.771	964.88
316.001	958.88
316.23	991.88
316.46	1040.88
316.689	1134.88
316.919	1387.88
317.148	2005.88
317.377	3161.88
317.607	4715.88
317.836	4811.88
318.065	2725.88
318.295	1734.88
318.524	1371.88
318.753	1246.88
318.983	1141.88
319.212	1079.88
319.441	1053.88
319.67	1062.88
319.9	1023.88
320.129	1022.88
320.358	1011.88
320.587	977.88
320.816	984.88
321.046	1013.88
321.275	1010.88
321.504	1023.88
321.733	1031.88
321.962	1041.88
322.191	1066.88
322.42	1038.88
322.649	1054.88
322.878	1094.88
323.108	1082.88
323.337	1084.88
323.566	1111.88
323.795	1132.88
324.024	1145.88
324.253	1158.88
324.482	1220.88
324.71	1266.88
324.939	1380.88
325.168	1396.88
325.397	1404.88
325.626	1662.88
325.855	2391.88
326.084	3841.88
326.313	5779.88
326.542	6130.88
326.77	3717.88
326.999	2366.88
327.228	1972.88
327.457	1893.88
327.686	1898.88
327.914	2018.88
328.143	2330.88
328.372	2727.88
328.6	2933.88
328.829	2669.88
329.058	2309.88
329.287	2086.88
329.515	1902.88
329.744	1773.88
329.972	1683.88
330.201	1624.88
330.43	1588.88
330.658	1509.88
330.887	1484.88
331.115	1492.88
331.344	1466.88
331.572	1475.88
331.801	1514.88
332.03	1480.88
332.258	1507.88
332.486	1557.88
332.715	1763.88
332.943	2248.88
333.172	2718.88
333.4	2676.88
333.629	2062.88
333.857	1802.88
334.085	1793.88
334.314	1922.88
334.542	2108.88
334.771	2394.88
334.999	2901.88
335.227	3488.88
335.455	3916.88
335.684	3570.88
335.912	3037.88
336.14	2606.88
336.369	2338.88
336.597	2143.88
336.825	1976.88
337.053	1869.88
337.281	1780.88
337.51	1710.88
337.738	1636.88
337.966	1603.88
338.194	1536.88
338.422	1494.88
338.65	1462.88
338.878	1468.88
339.106	1375.88
339.334	1374.88
339.562	1366.88
339.79	1345.88
340.018	1339.88
340.246	1322.88
340.474	1322.88
340.702	1355.88
340.93	1290.88
341.158	1302.88
341.386	1308.88
341.614	1288.88
341.842	1278.88
342.07	1260.88
342.298	1204.88
342.526	1195.88
342.754	1200.88
342.981	1210.88
343.209	1188.88
343.437	1197.88
343.665	1204.88
343.893	1233.88
344.12	1223.88
344.348	1223.88
344.576	1199.88
344.804	1200.88
345.031	1141.88
345.259	1127.88
345.487	1130.88
345.714	1118.88
345.942	1140.88
346.17	1138.88
346.397	1131.88
346.625	1114.88
346.853	1091.88
347.08	1090.88
347.308	1101.88
347.535	1125.88
347.763	1090.88
347.99	1112.88
348.218	1092.88
348.445	1096.88
348.673	1087.88
348.9	1084.88
349.128	1106.88
349.355	1060.88
349.583	1061.88
349.81	1046.88
350.037	1072.88
350.265	1063.88
350.492	1067.88
350.72	1076.88
350.947	1049.88
351.174	1053.88
351.402	1044.88
351.629	1073.88
351.856	1046.88
352.083	1050.88
352.311	1032.88
352.538	1059.88
352.765	1057.88
352.992	1036.88
353.22	1051.88
353.447	1046.88
353.674	1054.88
353.901	1043.88
354.128	1060.88
354.355	1058.88
354.583	1067.88
354.81	1093.88
355.037	1041.88
355.264	1052.88
355.491	1089.88
355.718	1111.88
355.945	1095.88
356.172	1091.88
356.399	1115.88
356.626	1115.88
356.853	1105.88
357.08	1090.88
357.307	1128.88
357.534	1136.88
357.761	1150.88
357.988	1133.88
358.215	1116.88
358.441	1132.88
358.668	1114.88
358.895	1111.88
359.122	1105.88
359.349	1090.88
359.576	1100.88
359.802	1112.88
360.029	1095.88
360.256	1128.88
360.483	1146.88
360.709	1137.88
360.936	1114.88
361.163	1120.88
361.39	1119.88
361.616	1148.88
361.843	1143.88
362.07	1139.88
362.296	1117.88
362.523	1148.88
362.749	1166.88
362.976	1133.88
363.203	1140.88
363.429	1114.88
363.656	1131.88
363.882	1094.88
364.109	1101.88
364.335	1090.88
364.562	1123.88
364.788	1111.88
365.015	1147.88
365.241	1160.88
365.468	1182.88
365.694	1249.88
365.92	1224.88
366.147	1133.88
366.373	1148.88
366.599	1137.88
366.826	1127.88
367.052	1118.88
367.278	1161.88
367.505	1127.88
367.731	1160.88
367.957	1124.88
368.184	1173.88
368.41	1170.88
368.636	1170.88
368.862	1169.88
369.089	1157.88
369.315	1166.88
369.541	1179.88
369.767	1197.88
369.993	1173.88
370.219	1184.88
370.445	1190.88
370.672	1202.88
370.898	1180.88
371.124	1180.88
371.35	1213.88
371.576	1180.88
371.802	1198.88
372.028	1206.88
372.254	1223.88
372.48	1236.88
372.706	1207.88
372.932	1225.88
373.158	1216.88
373.384	1225.88
373.61	1229.88
373.835	1234.88
374.061	1270.88
374.287	1263.88
374.513	1254.88
374.739	1294.88
374.965	1302.88
375.191	1289.88
375.416	1275.88
375.642	1263.88
375.868	1238.88
376.094	1251.88
376.319	1220.88
376.545	1205.88
376.771	1237.88
376.997	1198.88
377.222	1242.88
377.448	1199.88
377.674	1212.88
377.899	1196.88
378.125	1203.88
378.35	1220.88
378.576	1205.88
378.802	1216.88
379.027	1273.88
379.253	1270.88
379.478	1323.88
379.704	1502.88
379.929	2282.88
380.155	3432.88
380.38	3643.88
380.606	2158.88
380.831	1558.88
381.057	1381.88
381.282	1324.88
381.507	1222.88
381.733	1244.88
381.958	1224.88
382.184	1189.88
382.409	1250.88
382.634	1192.88
382.86	1182.88
383.085	1174.88
383.31	1205.88
383.535	1181.88
383.761	1197.88
383.986	1218.88
384.211	1249.88
384.436	1211.88
384.662	1222.88
384.887	1217.88
385.112	1235.88
385.337	1206.88
385.562	1228.88
385.787	1274.88
386.013	1261.88
386.238	1266.88
386.463	1242.88
386.688	1223.88
386.913	1222.88
387.138	1232.88
387.363	1223.88
387.588	1209.88
387.813	1241.88
388.038	1247.88
388.263	1219.88
388.488	1239.88
388.713	1234.88
388.938	1218.88
389.163	1226.88
389.387	1251.88
389.612	1215.88
389.837	1232.88
390.062	1248.88
390.287	1265.88
390.512	1253.88
390.736	1235.88
390.961	1293.88
391.186	1239.88
391.411	1325.88
391.636	1294.88
391.86	1321.88
392.085	1315.88
392.31	1285.88
392.534	1250.88
392.759	1269.88
392.984	1282.88
393.208	1268.88
393.433	1281.88
393.658	1278.88
393.882	1263.88
394.107	1232.88
394.331	1224.88
394.556	1261.88
394.78	1264.88
395.005	1258.88
395.229	1270.88
395.454	1277.88
395.678	1287.88
395.903	1293.88
396.127	1298.88
396.352	1259.88
396.576	1270.88
396.801	1293.88
397.025	1322.88
397.249	1295.88
397.474	1292.88
397.698	1298.88
397.922	1316.88
398.147	1312.88
398.371	1340.88
398.595	1350.88
398.82	1347.88
399.044	1434.88
399.268	1492.88
399.492	1580.88
399.717	1626.88
399.941	1657.88
400.165	1572.88
400.389	1507.88
400.613	1434.88
400.837	1421.88
401.062	1399.88
401.286	1367.88
401.51	1386.88
401.734	1364.88
401.958	1374.88
402.182	1391.88
402.406	1396.88
402.63	1351.88
402.854	1403.88
403.078	1380.88
403.302	1417.88
403.526	1398.88
403.75	1423.88
403.974	1423.88
404.198	1386.88
404.422	1418.88
404.645	1427.88
404.869	1404.88
405.093	1429.88
405.317	1432.88
405.541	1391.88
405.765	1457.88
405.988	1460.88
406.212	1438.88
406.436	1404.88
406.66	1455.88
406.883	1479.88
407.107	1487.88
407.331	1527.88
407.555	1541.88
407.778	1553.88
408.002	1491.88
408.226	1521.88
408.449	1518.88
408.673	1463.88
408.896	1438.88
409.12	1420.88
409.344	1468.88
409.567	1419.88
409.791	1432.88
410.014	1402.88
410.238	1411.88
410.461	1431.88
410.685	1407.88
410.908	1410.88
411.132	1373.88
411.355	1346.88
411.578	1376.88
411.802	1351.88
412.025	1360.88
412.249	1356.88
412.472	1344.88
412.695	1354.88
412.919	1362.88
413.142	1354.88
413.365	1330.88
413.589	1343.88
413.812	1322.88
414.035	1324.88
414.258	1349.88
414.482	1325.88
414.705	1342.88
414.928	1387.88
415.151	1355.88
415.374	1326.88
415.597	1328.88
415.821	1318.88
416.044	1341.88
416.267	1307.88
416.49	1307.88
416.713	1308.88
416.936	1322.88
417.159	1255.88
417.382	1252.88
417.605	1290.88
417.828	1284.88
418.051	1325.88
418.274	1319.88
418.497	1307.88
418.72	1372.88
418.943	1323.88
419.166	1374.88
419.389	1420.88
419.611	1434.88
419.834	1366.88
420.057	1344.88
420.28	1327.88
420.503	1290.88
420.726	1279.88
420.948	1294.88
421.171	1308.88
421.394	1295.88
421.617	1312.88
421.839	1330.88
422.062	1311.88
422.285	1300.88
422.507	1290.88
422.73	1316.88
422.953	1312.88
423.175	1322.88
423.398	1326.88
423.621	1318.88
423.843	1309.88
424.066	1351.88
424.288	1284.88
424.511	1269.88
424.733	1272.88
424.956	1303.88
425.178	1271.88
425.401	1272.88
425.623	1293.88
425.846	1254.88
426.068	1285.88
426.291	1245.88
426.513	1271.88
426.735	1279.88
426.958	1264.88
427.18	1210.88
427.402	1249.88
427.625	1208.88
427.847	1206.88
428.069	1182.88
428.292	1224.88
428.514	1189.88
428.736	1198.88
428.958	1222.88
429.181	1195.88
429.403	1178.88
429.625	1179.88
429.847	1207.88
430.069	1212.88
430.292	1265.88
430.514	1306.88
430.736	1289.88
430.958	1226.88
431.18	1200.88
431.402	1208.88
431.624	1178.88
431.846	1175.88
432.068	1142.88
432.29	1174.88
432.512	1164.88
432.734	1194.88
432.956	1172.88
433.178	1188.88
433.4	1209.88
433.622	1200.88
433.844	1210.88
434.066	1192.88
434.287	1186.88
434.509	1206.88
434.731	1210.88
434.953	1221.88
435.175	1262.88
435.397	1260.88
435.618	1235.88
435.84	1180.88
436.062	1153.88
436.284	1165.88
436.505	1179.88
436.727	1178.88
436.949	1176.88
437.17	1192.88
437.392	1183.88
437.614	1167.88
437.835	1118.88
438.057	1164.88
438.278	1137.88
438.5	1158.88
438.721	1181.88
438.943	1214.88
439.165	1230.88
439.386	1262.88
439.608	1246.88
439.829	1266.88
440.05	1278.88
440.272	1292.88
440.493	1240.88
440.715	1251.88
440.936	1245.88
441.158	1240.88
441.379	1242.88
441.6	1279.88
441.822	1347.88
442.043	1407.88
442.264	1435.88
442.486	1354.88
442.707	1301.88
442.928	1261.88
443.149	1259.88
443.371	1254.88
443.592	1296.88
443.813	1291.88
444.034	1310.88
444.255	1306.88
444.476	1347.88
444.698	1344.88
444.919	1373.88
445.14	1450.88
445.361	1364.88
445.582	1326.88
445.803	1272.88
446.024	1263.88
446.245	1292.88
446.466	1278.88
446.687	1264.88
446.908	1267.88
447.129	1253.88
447.35	1227.88
447.571	1210.88
447.792	1198.88
448.013	1164.88
448.234	1163.88
448.455	1200.88
448.675	1191.88
448.896	1227.88
449.117	1251.88
449.338	1332.88
449.559	1415.88
449.779	1250.88
450	1190.88
450.221	1147.88
450.442	1179.88
450.662	1148.88
450.883	1147.88
451.104	1142.88
451.324	1113.88
451.545	1152.88
451.766	1180.88
451.986	1198.88
452.207	1254.88
452.428	1528.88
452.648	2206.88
452.869	1858.88
453.089	1354.88
453.31	1270.88
453.53	1261.88
453.751	1316.88
453.971	1393.88
454.192	1419.88
454.412	1196.88
454.633	1154.88
454.853	1110.88
455.073	1083.88
455.294	1130.88
455.514	1094.88
455.734	1086.88
455.955	1087.88
456.175	1084.88
456.395	1073.88
456.616	1062.88
456.836	1100.88
457.056	1107.88
457.276	1124.88
457.497	1196.88
457.717	1190.88
457.937	1154.88
458.157	1154.88
458.377	1141.88
458.598	1173.88
458.818	1184.88
459.038	1155.88
459.258	1137.88
459.478	1185.88
459.698	1179.88
459.918	1233.88
460.138	1191.88
460.358	1255.88
460.578	1262.88
460.798	1302.88
461.018	1273.88
461.238	1294.88
461.458	1314.88
461.678	1296.88
461.898	1327.88
462.118	1328.88
462.338	1356.88
462.558	1358.88
462.777	1383.88
462.997	1414.88
463.217	1516.88
463.437	1569.88
463.657	1614.88
463.876	1550.88
464.096	1462.88
464.316	1418.88
464.536	1394.88
464.755	1397.88
464.975	1359.88
465.195	1314.88
465.414	1294.88
465.634	1237.88
465.854	1219.88
466.073	1197.88
466.293	1208.88
466.512	1218.88
466.732	1225.88
466.951	1303.88
467.171	1360.88
467.391	1346.88
467.61	1223.88
467.829	1189.88
468.049	1187.88
468.268	1190.88
468.488	1191.88
468.707	1172.88
468.927	1171.88
469.146	1159.88
469.365	1194.88
469.585	1194.88
469.804	1203.88
470.023	1221.88
470.243	1274.88
470.462	1264.88
470.681	1359.88
470.901	1464.88
471.12	1755.88
471.339	1749.88
471.558	1407.88
471.777	1280.88
471.997	1265.88
472.216	1202.88
472.435	1190.88
472.654	1175.88
472.873	1136.88
473.092	1126.88
473.311	1153.88
473.53	1200.88
473.749	1224.88
473.968	1222.88
474.187	1200.88
474.406	1143.88
474.625	1182.88
474.844	1184.88
475.063	1160.88
475.282	1207.88
475.501	1189.88
475.72	1198.88
475.939	1187.88
476.158	1235.88
476.377	1249.88
476.596	1241.88
476.814	1216.88
477.033	1221.88
477.252	1243.88
477.471	1283.88
477.69	1296.88
477.908	1311.88
478.127	1317.88
478.346	1349.88
478.564	1335.88
478.783	1354.88
479.002	1375.88
479.22	1388.88
479.439	1398.88
479.658	1351.88
479.876	1369.88
480.095	1408.88
480.313	1438.88
480.532	1429.88
480.751	1409.88
480.969	1396.88
481.188	1390.88
481.406	1391.88
481.624	1387.88
481.843	1381.88
482.061	1381.88
482.28	1398.88
482.498	1397.88
482.717	1419.88
482.935	1415.88
483.153	1421.88
483.372	1459.88
483.59	1438.88
483.808	1490.88
484.027	1530.88
484.245	1623.88
484.463	1808.88
484.681	2035.88
484.9	1794.88
485.118	1635.88
485.336	1606.88
485.554	1653.88
485.772	1722.88
485.99	2005.88
486.209	2172.88
486.427	1822.88
486.645	1608.88
486.863	1596.88
487.081	1573.88
487.299	1517.88
487.517	1498.88
487.735	1500.88
487.953	1555.88
488.171	1507.88
488.389	1498.88
488.607	1471.88
488.825	1480.88
489.043	1418.88
489.261	1414.88
489.479	1464.88
489.696	1438.88
489.914	1471.88
490.132	1468.88
490.35	1469.88
490.568	1493.88
