Data from SnStandardFlinnAPT0064_LampEnergy10_LIBS07252019.E.O._I.C._HRD10591_15-22-00-494.txt Node
Date: Thu Jul 25 15:22:00 EDT 2019
User: cochatt
Spectrometer: HR+D1059
Trigger mode: 1
Integration Time (sec): 1.000000E-1
Scans to average: 1
Electric dark correction enabled: true
Nonlinearity correction enabled: false
Boxcar width: 0
XAxis mode: Wavelengths
Number of Pixels in Spectrum: 2048
>>>>>Begin Spectral Data<<<<<
223.165	-25.75
223.4	-25.75
223.635	-25.75
223.869	-28.75
224.104	-31.75
224.338	-4.75
224.573	-9.75
224.808	-22.75
225.042	-5.75
225.277	2.25
225.511	8.25
225.746	4.25
225.98	2.25
226.215	14.25
226.449	12.25
226.683	25.25
226.918	22.25
227.152	38.25
227.387	38.25
227.621	41.25
227.856	42.25
228.09	55.25
228.324	60.25
228.559	76.25
228.793	138.25
229.027	310.25
229.262	332.25
229.496	310.25
229.73	314.25
229.964	299.25
230.199	288.25
230.433	311.25
230.667	317.25
230.901	329.25
231.136	339.25
231.37	354.25
231.604	400.25
231.838	460.25
232.072	552.25
232.306	579.25
232.541	470.25
232.775	427.25
233.009	400.25
233.243	429.25
233.477	456.25
233.711	520.25
233.945	576.25
234.179	508.25
234.413	467.25
234.647	438.25
234.881	449.25
235.115	520.25
235.349	619.25
235.583	783.25
235.817	1024.25
236.051	981.25
236.285	656.25
236.519	528.25
236.753	506.25
236.987	492.25
237.221	552.25
237.455	521.25
237.689	486.25
237.922	458.25
238.156	487.25
238.39	488.25
238.624	503.25
238.858	517.25
239.091	479.25
239.325	484.25
239.559	491.25
239.793	494.25
240.027	528.25
240.26	548.25
240.494	564.25
240.728	582.25
240.961	618.25
241.195	660.25
241.429	687.25
241.662	695.25
241.896	782.25
242.13	948.25
242.363	1249.25
242.597	1648.25
242.83	1561.25
243.064	1530.25
243.298	1836.25
243.531	1531.25
243.765	942.25
243.998	776.25
244.232	683.25
244.465	674.25
244.699	657.25
244.932	662.25
245.166	670.25
245.399	671.25
245.633	674.25
245.866	688.25
246.099	671.25
246.333	661.25
246.566	642.25
246.8	626.25
247.033	653.25
247.266	650.25
247.5	659.25
247.733	679.25
247.966	700.25
248.2	777.25
248.433	878.25
248.666	1006.25
248.899	958.25
249.133	849.25
249.366	860.25
249.599	952.25
249.832	1106.25
250.066	1109.25
250.299	858.25
250.532	778.25
250.765	774.25
250.998	739.25
251.231	741.25
251.465	738.25
251.698	741.25
251.931	743.25
252.164	733.25
252.397	745.25
252.63	789.25
252.863	802.25
253.096	802.25
253.329	777.25
253.562	790.25
253.795	788.25
254.028	784.25
254.261	844.25
254.494	872.25
254.727	1054.25
254.96	1259.25
255.193	1238.25
255.426	996.25
255.659	898.25
255.892	892.25
256.124	884.25
256.357	887.25
256.59	950.25
256.823	984.25
257.056	1112.25
257.289	1368.25
257.521	1507.25
257.754	1202.25
257.987	973.25
258.22	935.25
258.452	915.25
258.685	918.25
258.918	935.25
259.151	1000.25
259.383	1101.25
259.616	1243.25
259.849	1285.25
260.081	1108.25
260.314	1020.25
260.547	967.25
260.779	949.25
261.012	950.25
261.244	964.25
261.477	982.25
261.71	999.25
261.942	1019.25
262.175	1040.25
262.407	1020.25
262.64	1064.25
262.872	1083.25
263.105	1133.25
263.337	1217.25
263.57	1273.25
263.802	1331.25
264.035	1351.25
264.267	1386.25
264.499	1393.25
264.732	1450.25
264.964	1451.25
265.197	1496.25
265.429	1471.25
265.661	1504.25
265.894	1621.25
266.126	1793.25
266.358	1990.25
266.591	1929.25
266.823	1662.25
267.055	1481.25
267.287	1393.25
267.52	1322.25
267.752	1322.25
267.984	1316.25
268.216	1268.25
268.448	1293.25
268.681	1267.25
268.913	1229.25
269.145	1236.25
269.377	1278.25
269.609	1263.25
269.841	1296.25
270.073	1404.25
270.306	1643.25
270.538	2144.25
270.77	3269.25
271.002	4010.25
271.234	2789.25
271.466	1880.25
271.698	1536.25
271.93	1389.25
272.162	1347.25
272.394	1298.25
272.626	1255.25
272.858	1242.25
273.09	1233.25
273.322	1226.25
273.553	1221.25
273.785	1216.25
274.017	1200.25
274.249	1206.25
274.481	1189.25
274.713	1202.25
274.945	1220.25
275.176	1211.25
275.408	1226.25
275.64	1246.25
275.872	1231.25
276.104	1266.25
276.335	1267.25
276.567	1273.25
276.799	1300.25
277.031	1333.25
277.262	1314.25
277.494	1400.25
277.726	1602.25
277.957	1884.25
278.189	2175.25
278.421	2042.25
278.652	1784.25
278.884	1650.25
279.115	1515.25
279.347	1414.25
279.579	1401.25
279.81	1424.25
280.042	1398.25
280.273	1417.25
280.505	1470.25
280.736	1479.25
280.968	1605.25
281.199	1819.25
281.431	2075.25
281.662	2146.25
281.894	1758.25
282.125	1634.25
282.356	1653.25
282.588	1673.25
282.819	1723.25
283.051	1813.25
283.282	2043.25
283.513	2495.25
283.745	3681.25
283.976	5785.25
284.207	8159.25
284.439	7292.25
284.67	4578.25
284.901	3753.25
285.132	3774.25
285.364	3580.25
285.595	2729.25
285.826	2401.25
286.057	2870.25
286.288	3926.25
286.52	5340.25
286.751	4961.25
286.982	3056.25
287.213	2256.25
287.444	1961.25
287.675	1873.25
287.906	1753.25
288.138	1727.25
288.369	1664.25
288.6	1710.25
288.831	1662.25
289.062	1676.25
289.293	1669.25
289.524	1670.25
289.755	1725.25
289.986	1703.25
290.217	1701.25
290.448	1743.25
290.679	1721.25
290.91	1817.25
291.141	1903.25
291.371	2014.25
291.602	2180.25
291.833	1941.25
292.064	1748.25
292.295	1705.25
292.526	1671.25
292.757	1648.25
292.987	1622.25
293.218	1566.25
293.449	1598.25
293.68	1628.25
293.91	1576.25
294.141	1591.25
294.372	1554.25
294.603	1543.25
294.833	1539.25
295.064	1587.25
295.295	1552.25
295.525	1572.25
295.756	1551.25
295.987	1551.25
296.217	1584.25
296.448	1576.25
296.679	1561.25
296.909	1583.25
297.14	1624.25
297.37	1670.25
297.601	1620.25
297.831	1616.25
298.062	1638.25
298.292	1593.25
298.523	1676.25
298.753	1712.25
298.984	1731.25
299.214	1759.25
299.445	1765.25
299.675	1767.25
299.905	1871.25
300.136	1952.25
300.366	2153.25
300.597	2788.25
300.827	3953.25
301.057	5298.25
301.288	5382.25
301.518	3422.25
301.748	2642.25
301.979	2410.25
302.209	2326.25
302.439	2321.25
302.669	2430.25
302.9	3004.25
303.13	4312.25
303.36	6350.25
303.59	8364.25
303.82	7162.25
304.051	4228.25
304.281	3069.25
304.511	2507.25
304.741	2320.25
304.971	2166.25
305.201	2111.25
305.431	2051.25
305.661	1913.25
305.891	1914.25
306.121	1904.25
306.352	1899.25
306.582	1858.25
306.812	1835.25
307.042	1872.25
307.272	1852.25
307.502	1795.25
307.731	1834.25
307.961	1790.25
308.191	1800.25
308.421	1771.25
308.651	1776.25
308.881	1826.25
309.111	1834.25
309.341	1830.25
309.571	1824.25
309.8	1891.25
310.03	1890.25
310.26	1854.25
310.49	1871.25
310.72	1896.25
310.949	1849.25
311.179	1899.25
311.409	1900.25
311.639	1912.25
311.868	1930.25
312.098	1973.25
312.328	1966.25
312.557	1960.25
312.787	1958.25
313.017	1966.25
313.246	1968.25
313.476	1984.25
313.706	2115.25
313.935	2216.25
314.165	2394.25
314.394	2467.25
314.624	2391.25
314.853	2184.25
315.083	2176.25
315.312	2177.25
315.542	2166.25
315.771	2212.25
316.001	2258.25
316.23	2296.25
316.46	2433.25
316.689	2714.25
316.919	3253.25
317.148	4689.25
317.377	7236.25
317.607	10665.25
317.836	10978.25
318.065	6571.25
318.295	4278.25
318.524	3392.25
318.753	2958.25
318.983	2761.25
319.212	2592.25
319.441	2450.25
319.67	2459.25
319.9	2390.25
320.129	2380.25
320.358	2351.25
320.587	2392.25
320.816	2384.25
321.046	2369.25
321.275	2399.25
321.504	2377.25
321.733	2484.25
321.962	2504.25
322.191	2572.25
322.42	2515.25
322.649	2467.25
322.878	2496.25
323.108	2507.25
323.337	2562.25
323.566	2566.25
323.795	2606.25
324.024	2656.25
324.253	2724.25
324.482	2876.25
324.71	2986.25
324.939	3235.25
325.168	3252.25
325.397	3411.25
325.626	4014.25
325.855	5772.25
326.084	8926.25
326.313	12958.25
326.542	13537.25
326.77	9104.25
326.999	5912.25
327.228	4947.25
327.457	4691.25
327.686	4787.25
327.914	5138.25
328.143	6000.25
328.372	7167.25
328.6	7833.25
328.829	6934.25
329.058	5777.25
329.287	5040.25
329.515	4572.25
329.744	4303.25
329.972	4082.25
330.201	3842.25
330.43	3678.25
330.658	3587.25
330.887	3603.25
331.115	3517.25
331.344	3531.25
331.572	3491.25
331.801	3491.25
332.03	3510.25
332.258	3622.25
332.486	3824.25
332.715	4312.25
332.943	5438.25
333.172	6786.25
333.4	6714.25
333.629	4989.25
333.857	4523.25
334.085	4498.25
334.314	4701.25
334.542	5159.25
334.771	6045.25
334.999	7397.25
335.227	9422.25
335.455	10539.25
335.684	9379.25
335.912	7691.25
336.14	6466.25
336.369	5656.25
336.597	5215.25
336.825	4784.25
337.053	4527.25
337.281	4242.25
337.51	4028.25
337.738	3890.25
337.966	3708.25
338.194	3615.25
338.422	3496.25
338.65	3403.25
338.878	3326.25
339.106	3241.25
339.334	3276.25
339.562	3149.25
339.79	3102.25
340.018	3083.25
340.246	3059.25
340.474	3060.25
340.702	3061.25
340.93	3104.25
341.158	3051.25
341.386	3027.25
341.614	3019.25
341.842	2897.25
342.07	2886.25
342.298	2903.25
342.526	2805.25
342.754	2782.25
342.981	2722.25
343.209	2700.25
343.437	2826.25
343.665	2802.25
343.893	2876.25
344.12	2847.25
344.348	2853.25
344.576	2734.25
344.804	2728.25
345.031	2628.25
345.259	2655.25
345.487	2607.25
345.714	2577.25
345.942	2608.25
346.17	2606.25
346.397	2529.25
346.625	2588.25
346.853	2505.25
347.08	2522.25
347.308	2564.25
347.535	2558.25
347.763	2535.25
347.99	2512.25
348.218	2437.25
348.445	2483.25
348.673	2471.25
348.9	2496.25
349.128	2471.25
349.355	2483.25
349.583	2459.25
349.81	2426.25
350.037	2390.25
350.265	2430.25
350.492	2443.25
350.72	2462.25
350.947	2427.25
351.174	2419.25
351.402	2426.25
351.629	2443.25
351.856	2409.25
352.083	2440.25
352.311	2399.25
352.538	2344.25
352.765	2433.25
352.992	2362.25
353.22	2366.25
353.447	2379.25
353.674	2386.25
353.901	2416.25
354.128	2465.25
354.355	2392.25
354.583	2414.25
354.81	2372.25
355.037	2462.25
355.264	2408.25
355.491	2470.25
355.718	2488.25
355.945	2470.25
356.172	2521.25
356.399	2509.25
356.626	2454.25
356.853	2532.25
357.08	2533.25
357.307	2616.25
357.534	2578.25
357.761	2648.25
357.988	2631.25
358.215	2558.25
358.441	2578.25
358.668	2539.25
358.895	2592.25
359.122	2561.25
359.349	2533.25
359.576	2610.25
359.802	2588.25
360.029	2563.25
360.256	2542.25
360.483	2582.25
360.709	2573.25
360.936	2571.25
361.163	2575.25
361.39	2583.25
361.616	2572.25
361.843	2574.25
362.07	2620.25
362.296	2611.25
362.523	2551.25
362.749	2587.25
362.976	2573.25
363.203	2580.25
363.429	2580.25
363.656	2579.25
363.882	2556.25
364.109	2574.25
364.335	2550.25
364.562	2530.25
364.788	2584.25
365.015	2623.25
365.241	2630.25
365.468	2851.25
365.694	2995.25
365.92	2867.25
366.147	2644.25
366.373	2635.25
366.599	2615.25
366.826	2589.25
367.052	2643.25
367.278	2687.25
367.505	2680.25
367.731	2622.25
367.957	2612.25
368.184	2704.25
368.41	2658.25
368.636	2651.25
368.862	2702.25
369.089	2634.25
369.315	2642.25
369.541	2634.25
369.767	2659.25
369.993	2613.25
370.219	2612.25
370.445	2694.25
370.672	2734.25
370.898	2700.25
371.124	2725.25
371.35	2781.25
371.576	2757.25
371.802	2787.25
372.028	2781.25
372.254	2821.25
372.48	2798.25
372.706	2757.25
372.932	2806.25
373.158	2820.25
373.384	2790.25
373.61	2799.25
373.835	2806.25
374.061	2818.25
374.287	2854.25
374.513	2873.25
374.739	2871.25
374.965	2931.25
375.191	2980.25
375.416	2916.25
375.642	2860.25
375.868	2892.25
376.094	2862.25
376.319	2810.25
376.545	2774.25
376.771	2759.25
376.997	2773.25
377.222	2765.25
377.448	2724.25
377.674	2737.25
377.899	2726.25
378.125	2750.25
378.35	2772.25
378.576	2798.25
378.802	2800.25
379.027	2846.25
379.253	2891.25
379.478	3058.25
379.704	3643.25
379.929	5284.25
380.155	8195.25
380.38	8887.25
380.606	5310.25
380.831	3738.25
381.057	3253.25
381.282	3043.25
381.507	2832.25
381.733	2830.25
381.958	2805.25
382.184	2768.25
382.409	2747.25
382.634	2709.25
382.86	2699.25
383.085	2706.25
383.31	2704.25
383.535	2754.25
383.761	2734.25
383.986	2679.25
384.211	2746.25
384.436	2759.25
384.662	2800.25
384.887	2805.25
385.112	2802.25
385.337	2794.25
385.562	2794.25
385.787	2826.25
386.013	2830.25
386.238	2787.25
386.463	2743.25
386.688	2797.25
386.913	2774.25
387.138	2795.25
387.363	2778.25
387.588	2736.25
387.813	2776.25
388.038	2771.25
388.263	2774.25
388.488	2819.25
388.713	2793.25
388.938	2825.25
389.163	2716.25
389.387	2775.25
389.612	2795.25
389.837	2774.25
390.062	2792.25
390.287	2827.25
390.512	2779.25
390.736	2831.25
390.961	2920.25
391.186	2902.25
391.411	2929.25
391.636	2901.25
391.86	3003.25
392.085	2900.25
392.31	2865.25
392.534	2932.25
392.759	2879.25
392.984	2880.25
393.208	2799.25
393.433	2881.25
393.658	2834.25
393.882	2798.25
394.107	2784.25
394.331	2841.25
394.556	2768.25
394.78	2926.25
395.005	2873.25
395.229	2853.25
395.454	2846.25
395.678	2894.25
395.903	2976.25
396.127	2917.25
396.352	2868.25
396.576	2852.25
396.801	2897.25
397.025	2896.25
397.249	2927.25
397.474	2953.25
397.698	2898.25
397.922	2972.25
398.147	2939.25
398.371	2992.25
398.595	3039.25
398.82	3128.25
399.044	3144.25
399.268	3371.25
399.492	3555.25
399.717	3702.25
399.941	3719.25
400.165	3568.25
400.389	3434.25
400.613	3316.25
400.837	3190.25
401.062	3141.25
401.286	3102.25
401.51	3075.25
401.734	3050.25
401.958	3091.25
402.182	3079.25
402.406	3096.25
402.63	3059.25
402.854	3095.25
403.078	3121.25
403.302	3132.25
403.526	3177.25
403.75	3130.25
403.974	3187.25
404.198	3151.25
404.422	3238.25
404.645	3197.25
404.869	3169.25
405.093	3212.25
405.317	3161.25
405.541	3209.25
405.765	3280.25
405.988	3302.25
406.212	3323.25
406.436	3262.25
406.66	3256.25
406.883	3318.25
407.107	3407.25
407.331	3445.25
407.555	3466.25
407.778	3455.25
408.002	3417.25
408.226	3416.25
408.449	3392.25
408.673	3365.25
408.896	3283.25
409.12	3248.25
409.344	3249.25
409.567	3157.25
409.791	3218.25
410.014	3184.25
410.238	3158.25
410.461	3206.25
410.685	3129.25
410.908	3131.25
411.132	3096.25
411.355	3041.25
411.578	3113.25
411.802	3054.25
412.025	3075.25
412.249	3082.25
412.472	3074.25
412.695	2971.25
412.919	2996.25
413.142	3014.25
413.365	3015.25
413.589	3032.25
413.812	3007.25
414.035	3031.25
414.258	3018.25
414.482	3008.25
414.705	3058.25
414.928	2991.25
415.151	3029.25
415.374	2976.25
415.597	2955.25
415.821	2923.25
416.044	2888.25
416.267	2856.25
416.49	2897.25
416.713	2831.25
416.936	2921.25
417.159	2840.25
417.382	2820.25
417.605	2844.25
417.828	2860.25
418.051	2914.25
418.274	2936.25
418.497	2920.25
418.72	2946.25
418.943	2949.25
419.166	3063.25
419.389	3231.25
419.611	3161.25
419.834	3102.25
420.057	3034.25
420.28	2918.25
420.503	2915.25
420.726	2879.25
420.948	2832.25
421.171	2896.25
421.394	2878.25
421.617	2881.25
421.839	2931.25
422.062	2946.25
422.285	2896.25
422.507	2909.25
422.73	2977.25
422.953	2966.25
423.175	3030.25
423.398	3000.25
423.621	2940.25
423.843	2947.25
424.066	2936.25
424.288	2865.25
424.511	2864.25
424.733	2902.25
424.956	2850.25
425.178	2819.25
425.401	2848.25
425.623	2854.25
425.846	2748.25
426.068	2773.25
426.291	2748.25
426.513	2748.25
426.735	2713.25
426.958	2820.25
427.18	2702.25
427.402	2710.25
427.625	2762.25
427.847	2711.25
428.069	2630.25
428.292	2707.25
428.514	2647.25
428.736	2666.25
428.958	2692.25
429.181	2624.25
429.403	2602.25
429.625	2626.25
429.847	2660.25
430.069	2729.25
430.292	2845.25
430.514	2898.25
430.736	2848.25
430.958	2691.25
431.18	2679.25
431.402	2663.25
431.624	2596.25
431.846	2594.25
432.068	2676.25
432.29	2670.25
432.512	2595.25
432.734	2666.25
432.956	2596.25
433.178	2641.25
433.4	2625.25
433.622	2658.25
433.844	2667.25
434.066	2640.25
434.287	2643.25
434.509	2690.25
434.731	2726.25
434.953	2746.25
435.175	2762.25
435.397	2731.25
435.618	2734.25
435.84	2690.25
436.062	2626.25
436.284	2642.25
436.505	2589.25
436.727	2624.25
436.949	2626.25
437.17	2620.25
437.392	2607.25
437.614	2612.25
437.835	2542.25
438.057	2570.25
438.278	2544.25
438.5	2610.25
438.721	2590.25
438.943	2676.25
439.165	2734.25
439.386	2729.25
439.608	2751.25
439.829	2774.25
440.05	2768.25
440.272	2896.25
440.493	2744.25
440.715	2690.25
440.936	2738.25
441.158	2747.25
441.379	2770.25
441.6	2880.25
441.822	2921.25
442.043	3084.25
442.264	3192.25
442.486	2985.25
442.707	2867.25
442.928	2784.25
443.149	2831.25
443.371	2838.25
443.592	2819.25
443.813	2805.25
444.034	2866.25
444.255	2915.25
444.476	2947.25
444.698	3074.25
444.919	3043.25
445.14	3146.25
445.361	2938.25
445.582	2906.25
445.803	2848.25
446.024	2830.25
446.245	2800.25
446.466	2845.25
446.687	2814.25
446.908	2816.25
447.129	2709.25
447.35	2670.25
447.571	2655.25
447.792	2614.25
448.013	2581.25
448.234	2561.25
448.455	2624.25
448.675	2622.25
448.896	2750.25
449.117	2790.25
449.338	3070.25
449.559	3155.25
449.779	2840.25
450	2658.25
450.221	2608.25
450.442	2594.25
450.662	2563.25
450.883	2534.25
451.104	2545.25
451.324	2571.25
451.545	2531.25
451.766	2558.25
451.986	2609.25
452.207	2838.25
452.428	3719.25
452.648	5651.25
452.869	4618.25
453.089	3198.25
453.31	3021.25
453.53	2971.25
453.751	3038.25
453.971	3200.25
454.192	3154.25
454.412	2698.25
454.633	2544.25
454.853	2518.25
455.073	2469.25
455.294	2461.25
455.514	2455.25
455.734	2396.25
455.955	2416.25
456.175	2416.25
456.395	2441.25
456.616	2499.25
456.836	2506.25
457.056	2479.25
457.276	2490.25
457.497	2651.25
457.717	2666.25
457.937	2571.25
458.157	2602.25
458.377	2564.25
458.598	2646.25
458.818	2649.25
459.038	2580.25
459.258	2604.25
459.478	2649.25
459.698	2659.25
459.918	2722.25
460.138	2696.25
460.358	2780.25
460.578	2860.25
460.798	2854.25
461.018	2844.25
461.238	2892.25
461.458	2889.25
461.678	2918.25
461.898	3025.25
462.118	2997.25
462.338	3116.25
462.558	3097.25
462.777	3129.25
462.997	3277.25
463.217	3388.25
463.437	3494.25
463.657	3612.25
463.876	3596.25
464.096	3442.25
464.316	3266.25
464.536	3190.25
464.755	3123.25
464.975	2971.25
465.195	2910.25
465.414	2851.25
465.634	2764.25
465.854	2750.25
466.073	2759.25
466.293	2633.25
466.512	2697.25
466.732	2717.25
466.951	2810.25
467.171	3088.25
467.391	2961.25
467.61	2718.25
467.829	2682.25
468.049	2643.25
468.268	2591.25
468.488	2602.25
468.707	2603.25
468.927	2620.25
469.146	2576.25
469.365	2588.25
469.585	2634.25
469.804	2682.25
470.023	2738.25
470.243	2807.25
470.462	2865.25
470.681	3032.25
470.901	3348.25
471.12	3850.25
471.339	3784.25
471.558	3220.25
471.777	2921.25
471.997	2768.25
472.216	2713.25
472.435	2676.25
472.654	2640.25
472.873	2633.25
473.092	2600.25
473.311	2620.25
473.53	2676.25
473.749	2701.25
473.968	2806.25
474.187	2666.25
474.406	2614.25
474.625	2610.25
474.844	2584.25
475.063	2582.25
475.282	2633.25
475.501	2613.25
475.72	2637.25
475.939	2718.25
476.158	2727.25
476.377	2771.25
476.596	2750.25
476.814	2767.25
477.033	2751.25
477.252	2824.25
477.471	2850.25
477.69	2896.25
477.908	2978.25
478.127	3001.25
478.346	2954.25
478.564	3014.25
478.783	3018.25
479.002	3104.25
479.22	3108.25
479.439	3091.25
479.658	3105.25
479.876	3140.25
480.095	3164.25
480.313	3231.25
480.532	3275.25
480.751	3242.25
480.969	3225.25
481.188	3178.25
481.406	3154.25
481.624	3160.25
481.843	3213.25
482.061	3257.25
482.28	3163.25
482.498	3165.25
482.717	3157.25
482.935	3143.25
483.153	3194.25
483.372	3213.25
483.59	3344.25
483.808	3362.25
484.027	3388.25
484.245	3627.25
484.463	4104.25
484.681	4562.25
484.9	4189.25
485.118	3780.25
485.336	3732.25
485.554	3851.25
485.772	4044.25
485.99	4548.25
486.209	4942.25
486.427	4144.25
486.645	3732.25
486.863	3562.25
487.081	3454.25
487.299	3441.25
487.517	3383.25
487.735	3362.25
