Data from SnStandardFlinnAPT0064_LampEnergy5.5_LIBS07252019.E.O._I.C._HRD10591_15-16-35-492.txt Node
Date: Thu Jul 25 15:16:35 EDT 2019
User: cochatt
Spectrometer: HR+D1059
Trigger mode: 1
Integration Time (sec): 1.000000E-1
Scans to average: 1
Electric dark correction enabled: true
Nonlinearity correction enabled: false
Boxcar width: 0
XAxis mode: Wavelengths
Number of Pixels in Spectrum: 2048
>>>>>Begin Spectral Data<<<<<
223.165	0.25
223.4	0.25
223.635	0.25
223.869	-24.75
224.104	-30.75
224.338	-5.75
224.573	-15.75
224.808	-10.75
225.042	-2.75
225.277	-7.75
225.511	-5.75
225.746	1.25
225.98	10.25
226.215	1.25
226.449	12.25
226.683	20.25
226.918	29.25
227.152	29.25
227.387	38.25
227.621	55.25
227.856	34.25
228.09	51.25
228.324	54.25
228.559	41.25
228.793	89.25
229.027	166.25
229.262	158.25
229.496	132.25
229.73	152.25
229.964	167.25
230.199	149.25
230.433	174.25
230.667	165.25
230.901	160.25
231.136	180.25
231.37	171.25
231.604	190.25
231.838	225.25
232.072	263.25
232.306	255.25
232.541	227.25
232.775	209.25
233.009	205.25
233.243	219.25
233.477	218.25
233.711	233.25
233.945	270.25
234.179	246.25
234.413	234.25
234.647	227.25
234.881	235.25
235.115	234.25
235.349	290.25
235.583	345.25
235.817	461.25
236.051	445.25
236.285	288.25
236.519	240.25
236.753	226.25
236.987	238.25
237.221	255.25
237.455	237.25
237.689	216.25
237.922	196.25
238.156	216.25
238.39	230.25
238.624	235.25
238.858	229.25
239.091	238.25
239.325	227.25
239.559	239.25
239.793	240.25
240.027	242.25
240.26	263.25
240.494	265.25
240.728	274.25
240.961	271.25
241.195	286.25
241.429	290.25
241.662	297.25
241.896	330.25
242.13	399.25
242.363	527.25
242.597	648.25
242.83	630.25
243.064	625.25
243.298	755.25
243.531	647.25
243.765	390.25
243.998	343.25
244.232	311.25
244.465	291.25
244.699	300.25
244.932	291.25
245.166	291.25
245.399	314.25
245.633	313.25
245.866	303.25
246.099	323.25
246.333	305.25
246.566	290.25
246.8	295.25
247.033	302.25
247.266	289.25
247.5	294.25
247.733	304.25
247.966	323.25
248.2	334.25
248.433	370.25
248.666	401.25
248.899	401.25
249.133	368.25
249.366	372.25
249.599	410.25
249.832	467.25
250.066	454.25
250.299	353.25
250.532	353.25
250.765	334.25
250.998	333.25
251.231	329.25
251.465	333.25
251.698	328.25
251.931	324.25
252.164	321.25
252.397	338.25
252.63	351.25
252.863	366.25
253.096	335.25
253.329	358.25
253.562	347.25
253.795	340.25
254.028	351.25
254.261	361.25
254.494	387.25
254.727	445.25
254.96	529.25
255.193	506.25
255.426	388.25
255.659	393.25
255.892	380.25
256.124	370.25
256.357	374.25
256.59	380.25
256.823	424.25
257.056	487.25
257.289	544.25
257.521	587.25
257.754	495.25
257.987	427.25
258.22	411.25
258.452	407.25
258.685	395.25
258.918	418.25
259.151	445.25
259.383	473.25
259.616	494.25
259.849	508.25
260.081	474.25
260.314	441.25
260.547	402.25
260.779	416.25
261.012	421.25
261.244	431.25
261.477	443.25
261.71	433.25
261.942	443.25
262.175	440.25
262.407	474.25
262.64	474.25
262.872	493.25
263.105	505.25
263.337	538.25
263.57	534.25
263.802	575.25
264.035	586.25
264.267	586.25
264.499	601.25
264.732	605.25
264.964	627.25
265.197	626.25
265.429	634.25
265.661	633.25
265.894	689.25
266.126	727.25
266.358	824.25
266.591	804.25
266.823	680.25
267.055	660.25
267.287	590.25
267.52	600.25
267.752	559.25
267.984	560.25
268.216	557.25
268.448	550.25
268.681	537.25
268.913	517.25
269.145	529.25
269.377	559.25
269.609	547.25
269.841	561.25
270.073	609.25
270.306	703.25
270.538	874.25
270.77	1277.25
271.002	1559.25
271.234	1087.25
271.466	715.25
271.698	638.25
271.93	583.25
272.162	598.25
272.394	570.25
272.626	544.25
272.858	544.25
273.09	530.25
273.322	551.25
273.553	520.25
273.785	533.25
274.017	525.25
274.249	521.25
274.481	498.25
274.713	516.25
274.945	551.25
275.176	532.25
275.408	543.25
275.64	543.25
275.872	539.25
276.104	553.25
276.335	550.25
276.567	553.25
276.799	553.25
277.031	554.25
277.262	585.25
277.494	585.25
277.726	645.25
277.957	739.25
278.189	810.25
278.421	789.25
278.652	713.25
278.884	670.25
279.115	607.25
279.347	600.25
279.579	623.25
279.81	589.25
280.042	607.25
280.273	608.25
280.505	615.25
280.736	640.25
280.968	661.25
281.199	725.25
281.431	763.25
281.662	801.25
281.894	727.25
282.125	659.25
282.356	697.25
282.588	690.25
282.819	695.25
283.051	734.25
283.282	821.25
283.513	1022.25
283.745	1437.25
283.976	2243.25
284.207	3225.25
284.439	2849.25
284.67	1684.25
284.901	1384.25
285.132	1384.25
285.364	1344.25
285.595	1049.25
285.826	956.25
286.057	1153.25
286.288	1543.25
286.52	2044.25
286.751	1878.25
286.982	1179.25
287.213	905.25
287.444	804.25
287.675	746.25
287.906	742.25
288.138	725.25
288.369	694.25
288.6	716.25
288.831	722.25
289.062	672.25
289.293	682.25
289.524	717.25
289.755	743.25
289.986	713.25
290.217	736.25
290.448	729.25
290.679	715.25
290.91	722.25
291.141	765.25
291.371	801.25
291.602	815.25
291.833	779.25
292.064	727.25
292.295	694.25
292.526	699.25
292.757	685.25
292.987	677.25
293.218	680.25
293.449	692.25
293.68	671.25
293.91	665.25
294.141	659.25
294.372	670.25
294.603	669.25
294.833	692.25
295.064	655.25
295.295	678.25
295.525	617.25
295.756	671.25
295.987	657.25
296.217	657.25
296.448	654.25
296.679	676.25
296.909	672.25
297.14	676.25
297.37	692.25
297.601	667.25
297.831	734.25
298.062	697.25
298.292	697.25
298.523	703.25
298.753	727.25
298.984	734.25
299.214	729.25
299.445	736.25
299.675	728.25
299.905	767.25
300.136	776.25
300.366	863.25
300.597	1102.25
300.827	1504.25
301.057	2033.25
301.288	1999.25
301.518	1318.25
301.748	1017.25
301.979	920.25
302.209	909.25
302.439	899.25
302.669	973.25
302.9	1147.25
303.13	1581.25
303.36	2343.25
303.59	3150.25
303.82	2755.25
304.051	1610.25
304.281	1161.25
304.511	977.25
304.741	896.25
304.971	897.25
305.201	857.25
305.431	822.25
305.661	777.25
305.891	786.25
306.121	765.25
306.352	786.25
306.582	759.25
306.812	784.25
307.042	780.25
307.272	771.25
307.502	781.25
307.731	773.25
307.961	776.25
308.191	760.25
308.421	760.25
308.651	787.25
308.881	780.25
309.111	794.25
309.341	762.25
309.571	763.25
309.8	803.25
310.03	770.25
310.26	818.25
310.49	800.25
310.72	759.25
310.949	803.25
311.179	797.25
311.409	805.25
311.639	816.25
311.868	818.25
312.098	832.25
312.328	839.25
312.557	856.25
312.787	832.25
313.017	834.25
313.246	849.25
313.476	836.25
313.706	861.25
313.935	899.25
314.165	953.25
314.394	980.25
314.624	940.25
314.853	914.25
315.083	922.25
315.312	913.25
315.542	893.25
315.771	897.25
316.001	923.25
316.23	962.25
316.46	986.25
316.689	1094.25
316.919	1282.25
317.148	1865.25
317.377	2841.25
317.607	4152.25
317.836	4305.25
318.065	2481.25
318.295	1611.25
318.524	1310.25
318.753	1168.25
318.983	1076.25
319.212	1025.25
319.441	1023.25
319.67	1008.25
319.9	983.25
320.129	965.25
320.358	948.25
320.587	954.25
320.816	961.25
321.046	972.25
321.275	976.25
321.504	983.25
321.733	1005.25
321.962	993.25
322.191	1016.25
322.42	1018.25
322.649	1019.25
322.878	1021.25
323.108	1016.25
323.337	1027.25
323.566	1023.25
323.795	1065.25
324.024	1081.25
324.253	1123.25
324.482	1129.25
324.71	1231.25
324.939	1261.25
325.168	1298.25
325.397	1387.25
325.626	1592.25
325.855	2206.25
326.084	3439.25
326.313	5098.25
326.542	5452.25
326.77	3383.25
326.999	2239.25
327.228	1850.25
327.457	1821.25
327.686	1822.25
327.914	1949.25
328.143	2181.25
328.372	2575.25
328.6	2734.25
328.829	2524.25
329.058	2197.25
329.287	1957.25
329.515	1811.25
329.744	1679.25
329.972	1617.25
330.201	1533.25
330.43	1488.25
330.658	1421.25
330.887	1440.25
331.115	1449.25
331.344	1392.25
331.572	1383.25
331.801	1401.25
332.03	1392.25
332.258	1427.25
332.486	1476.25
332.715	1676.25
332.943	2030.25
333.172	2503.25
333.4	2455.25
333.629	1925.25
333.857	1731.25
334.085	1763.25
334.314	1828.25
334.542	1975.25
334.771	2258.25
334.999	2727.25
335.227	3275.25
335.455	3628.25
335.684	3397.25
335.912	2886.25
336.14	2421.25
336.369	2181.25
336.597	2030.25
336.825	1874.25
337.053	1821.25
337.281	1651.25
337.51	1612.25
337.738	1543.25
337.966	1531.25
338.194	1440.25
338.422	1421.25
338.65	1366.25
338.878	1362.25
339.106	1339.25
339.334	1323.25
339.562	1280.25
339.79	1281.25
340.018	1287.25
340.246	1259.25
340.474	1233.25
340.702	1254.25
340.93	1238.25
341.158	1249.25
341.386	1218.25
341.614	1205.25
341.842	1213.25
342.07	1161.25
342.298	1162.25
342.526	1170.25
342.754	1161.25
342.981	1160.25
343.209	1153.25
343.437	1182.25
343.665	1186.25
343.893	1191.25
344.12	1201.25
344.348	1201.25
344.576	1126.25
344.804	1130.25
345.031	1136.25
345.259	1077.25
345.487	1093.25
345.714	1097.25
345.942	1085.25
346.17	1093.25
346.397	1075.25
346.625	1083.25
346.853	1051.25
347.08	1032.25
347.308	1067.25
347.535	1035.25
347.763	1064.25
347.99	1064.25
348.218	1058.25
348.445	1029.25
348.673	1017.25
348.9	1037.25
349.128	1049.25
349.355	1014.25
349.583	1031.25
349.81	1045.25
350.037	1061.25
350.265	1042.25
350.492	1043.25
350.72	1046.25
350.947	1050.25
351.174	1011.25
351.402	1019.25
351.629	1000.25
351.856	995.25
352.083	1006.25
352.311	985.25
352.538	1014.25
352.765	1054.25
352.992	1019.25
353.22	1021.25
353.447	1025.25
353.674	1043.25
353.901	1019.25
354.128	1028.25
354.355	1002.25
354.583	1030.25
354.81	1009.25
355.037	1031.25
355.264	1047.25
355.491	1035.25
355.718	1044.25
355.945	1025.25
356.172	1043.25
356.399	1039.25
356.626	1046.25
356.853	1038.25
357.08	1043.25
357.307	1072.25
357.534	1066.25
357.761	1075.25
357.988	1085.25
358.215	1058.25
358.441	1094.25
358.668	1045.25
358.895	1067.25
359.122	1107.25
359.349	1059.25
359.576	1066.25
359.802	1071.25
360.029	1091.25
360.256	1091.25
360.483	1090.25
360.709	1083.25
360.936	1092.25
361.163	1071.25
361.39	1095.25
361.616	1092.25
361.843	1077.25
362.07	1109.25
362.296	1078.25
362.523	1081.25
362.749	1087.25
362.976	1080.25
363.203	1102.25
363.429	1045.25
363.656	1086.25
363.882	1064.25
364.109	1103.25
364.335	1090.25
364.562	1080.25
364.788	1074.25
365.015	1088.25
365.241	1114.25
365.468	1171.25
365.694	1183.25
365.92	1162.25
366.147	1094.25
366.373	1094.25
366.599	1117.25
366.826	1098.25
367.052	1116.25
367.278	1085.25
367.505	1107.25
367.731	1138.25
367.957	1095.25
368.184	1127.25
368.41	1135.25
368.636	1147.25
368.862	1116.25
369.089	1133.25
369.315	1145.25
369.541	1127.25
369.767	1123.25
369.993	1117.25
370.219	1110.25
370.445	1109.25
370.672	1149.25
370.898	1125.25
371.124	1157.25
371.35	1143.25
371.576	1160.25
371.802	1162.25
372.028	1154.25
372.254	1167.25
372.48	1177.25
372.706	1194.25
372.932	1191.25
373.158	1195.25
373.384	1190.25
373.61	1213.25
373.835	1175.25
374.061	1194.25
374.287	1202.25
374.513	1218.25
374.739	1204.25
374.965	1213.25
375.191	1232.25
375.416	1243.25
375.642	1189.25
375.868	1197.25
376.094	1172.25
376.319	1175.25
376.545	1157.25
376.771	1182.25
376.997	1182.25
377.222	1146.25
377.448	1176.25
377.674	1161.25
377.899	1155.25
378.125	1174.25
378.35	1141.25
378.576	1163.25
378.802	1165.25
379.027	1183.25
379.253	1231.25
379.478	1266.25
379.704	1439.25
379.929	2021.25
380.155	2994.25
380.38	3215.25
380.606	2047.25
380.831	1474.25
381.057	1328.25
381.282	1248.25
381.507	1206.25
381.733	1179.25
381.958	1179.25
382.184	1164.25
382.409	1183.25
382.634	1146.25
382.86	1139.25
383.085	1122.25
383.31	1151.25
383.535	1129.25
383.761	1149.25
383.986	1147.25
384.211	1154.25
384.436	1169.25
384.662	1173.25
384.887	1199.25
385.112	1186.25
385.337	1197.25
385.562	1230.25
385.787	1197.25
386.013	1220.25
386.238	1186.25
386.463	1160.25
386.688	1169.25
386.913	1209.25
387.138	1192.25
387.363	1205.25
387.588	1189.25
387.813	1196.25
388.038	1198.25
388.263	1175.25
388.488	1157.25
388.713	1203.25
388.938	1176.25
389.163	1174.25
389.387	1221.25
389.612	1189.25
389.837	1200.25
390.062	1194.25
390.287	1223.25
390.512	1185.25
390.736	1222.25
390.961	1237.25
391.186	1223.25
391.411	1212.25
391.636	1233.25
391.86	1263.25
392.085	1265.25
392.31	1230.25
392.534	1232.25
392.759	1219.25
392.984	1199.25
393.208	1225.25
393.433	1266.25
393.658	1269.25
393.882	1229.25
394.107	1194.25
394.331	1187.25
394.556	1177.25
394.78	1193.25
395.005	1219.25
395.229	1227.25
395.454	1218.25
395.678	1263.25
395.903	1239.25
396.127	1254.25
396.352	1238.25
396.576	1247.25
396.801	1250.25
397.025	1289.25
397.249	1288.25
397.474	1235.25
397.698	1257.25
397.922	1255.25
398.147	1262.25
398.371	1303.25
398.595	1331.25
398.82	1330.25
399.044	1389.25
399.268	1432.25
399.492	1539.25
399.717	1618.25
399.941	1603.25
400.165	1502.25
400.389	1458.25
400.613	1404.25
400.837	1374.25
401.062	1345.25
401.286	1361.25
401.51	1313.25
401.734	1315.25
401.958	1325.25
402.182	1316.25
402.406	1317.25
402.63	1327.25
402.854	1366.25
403.078	1374.25
403.302	1318.25
403.526	1360.25
403.75	1397.25
403.974	1372.25
404.198	1337.25
404.422	1401.25
404.645	1358.25
404.869	1363.25
405.093	1397.25
405.317	1391.25
405.541	1373.25
405.765	1417.25
405.988	1407.25
406.212	1392.25
406.436	1366.25
406.66	1411.25
406.883	1401.25
407.107	1421.25
407.331	1465.25
407.555	1509.25
407.778	1470.25
408.002	1440.25
408.226	1462.25
408.449	1461.25
408.673	1385.25
408.896	1403.25
409.12	1403.25
409.344	1416.25
409.567	1368.25
409.791	1360.25
410.014	1370.25
410.238	1371.25
410.461	1374.25
410.685	1369.25
410.908	1337.25
411.132	1336.25
411.355	1296.25
411.578	1318.25
411.802	1330.25
412.025	1309.25
412.249	1337.25
412.472	1334.25
412.695	1293.25
412.919	1300.25
413.142	1283.25
413.365	1320.25
413.589	1302.25
413.812	1302.25
414.035	1313.25
414.258	1325.25
414.482	1301.25
414.705	1308.25
414.928	1268.25
415.151	1334.25
415.374	1283.25
415.597	1267.25
415.821	1275.25
416.044	1266.25
416.267	1255.25
416.49	1242.25
416.713	1230.25
416.936	1279.25
417.159	1252.25
417.382	1218.25
417.605	1220.25
417.828	1255.25
418.051	1252.25
418.274	1249.25
418.497	1255.25
418.72	1287.25
418.943	1297.25
419.166	1325.25
419.389	1358.25
419.611	1382.25
419.834	1305.25
420.057	1323.25
420.28	1270.25
420.503	1251.25
420.726	1265.25
420.948	1213.25
421.171	1261.25
421.394	1258.25
421.617	1273.25
421.839	1259.25
422.062	1273.25
422.285	1245.25
422.507	1265.25
422.73	1292.25
422.953	1289.25
423.175	1278.25
423.398	1297.25
423.621	1255.25
423.843	1269.25
424.066	1282.25
424.288	1235.25
424.511	1255.25
424.733	1243.25
424.956	1247.25
425.178	1256.25
425.401	1243.25
425.623	1252.25
425.846	1207.25
426.068	1221.25
426.291	1191.25
426.513	1223.25
426.735	1200.25
426.958	1179.25
427.18	1200.25
427.402	1191.25
427.625	1173.25
427.847	1189.25
428.069	1162.25
428.292	1202.25
428.514	1137.25
428.736	1167.25
428.958	1167.25
429.181	1152.25
429.403	1181.25
429.625	1150.25
429.847	1185.25
430.069	1167.25
430.292	1189.25
430.514	1243.25
430.736	1240.25
430.958	1219.25
431.18	1185.25
431.402	1186.25
431.624	1151.25
431.846	1160.25
432.068	1109.25
432.29	1127.25
432.512	1103.25
432.734	1155.25
432.956	1142.25
433.178	1182.25
433.4	1185.25
433.622	1171.25
433.844	1184.25
434.066	1159.25
434.287	1159.25
434.509	1161.25
434.731	1171.25
434.953	1160.25
435.175	1184.25
435.397	1216.25
435.618	1164.25
435.84	1143.25
436.062	1149.25
436.284	1159.25
436.505	1146.25
436.727	1145.25
436.949	1165.25
437.17	1150.25
437.392	1140.25
437.614	1109.25
437.835	1103.25
438.057	1123.25
438.278	1069.25
438.5	1090.25
438.721	1167.25
438.943	1155.25
439.165	1200.25
439.386	1209.25
439.608	1191.25
439.829	1187.25
440.05	1208.25
440.272	1249.25
440.493	1188.25
440.715	1179.25
440.936	1185.25
441.158	1236.25
441.379	1203.25
441.6	1251.25
441.822	1250.25
442.043	1326.25
442.264	1362.25
442.486	1304.25
442.707	1262.25
442.928	1265.25
443.149	1222.25
443.371	1245.25
443.592	1265.25
443.813	1281.25
444.034	1249.25
444.255	1281.25
444.476	1310.25
444.698	1334.25
444.919	1324.25
445.14	1412.25
445.361	1321.25
445.582	1300.25
445.803	1263.25
446.024	1227.25
446.245	1256.25
446.466	1257.25
446.687	1210.25
446.908	1228.25
447.129	1171.25
447.35	1163.25
447.571	1206.25
447.792	1125.25
448.013	1117.25
448.234	1122.25
448.455	1115.25
448.675	1137.25
448.896	1169.25
449.117	1200.25
449.338	1298.25
449.559	1323.25
449.779	1197.25
450	1162.25
450.221	1128.25
450.442	1111.25
450.662	1106.25
450.883	1114.25
451.104	1104.25
451.324	1129.25
451.545	1115.25
451.766	1124.25
451.986	1124.25
452.207	1190.25
452.428	1429.25
452.648	1973.25
452.869	1745.25
453.089	1277.25
453.31	1245.25
453.53	1199.25
453.751	1239.25
453.971	1325.25
454.192	1290.25
454.412	1142.25
454.633	1099.25
454.853	1092.25
455.073	1063.25
455.294	1055.25
455.514	1046.25
455.734	1043.25
455.955	1037.25
456.175	1050.25
456.395	1052.25
456.616	1037.25
456.836	1050.25
457.056	1030.25
457.276	1090.25
457.497	1134.25
457.717	1128.25
457.937	1115.25
458.157	1105.25
458.377	1087.25
458.598	1118.25
458.818	1153.25
459.038	1093.25
459.258	1111.25
459.478	1151.25
459.698	1157.25
459.918	1175.25
460.138	1178.25
460.358	1239.25
460.578	1214.25
460.798	1227.25
461.018	1258.25
461.238	1239.25
461.458	1236.25
461.678	1280.25
461.898	1295.25
462.118	1304.25
462.338	1307.25
462.558	1345.25
462.777	1351.25
462.997	1411.25
463.217	1439.25
463.437	1492.25
463.657	1527.25
463.876	1511.25
464.096	1405.25
464.316	1336.25
464.536	1356.25
464.755	1340.25
464.975	1329.25
465.195	1248.25
465.414	1281.25
465.634	1238.25
465.854	1190.25
466.073	1187.25
466.293	1153.25
466.512	1119.25
466.732	1181.25
466.951	1223.25
467.171	1273.25
467.391	1266.25
467.61	1190.25
467.829	1164.25
468.049	1165.25
468.268	1111.25
468.488	1125.25
468.707	1164.25
468.927	1143.25
469.146	1111.25
469.365	1175.25
469.585	1154.25
469.804	1146.25
470.023	1190.25
470.243	1193.25
470.462	1245.25
470.681	1296.25
470.901	1426.25
471.12	1621.25
471.339	1624.25
471.558	1345.25
471.777	1226.25
471.997	1182.25
472.216	1189.25
472.435	1149.25
472.654	1156.25
472.873	1124.25
473.092	1138.25
473.311	1119.25
473.53	1145.25
473.749	1157.25
473.968	1194.25
474.187	1145.25
474.406	1107.25
474.625	1145.25
474.844	1137.25
475.063	1132.25
475.282	1146.25
475.501	1150.25
475.72	1142.25
475.939	1198.25
476.158	1193.25
476.377	1213.25
476.596	1198.25
476.814	1203.25
477.033	1204.25
477.252	1190.25
477.471	1234.25
477.69	1231.25
477.908	1305.25
478.127	1285.25
478.346	1280.25
478.564	1315.25
478.783	1333.25
479.002	1314.25
479.22	1346.25
479.439	1377.25
479.658	1319.25
479.876	1353.25
480.095	1385.25
480.313	1400.25
480.532	1389.25
480.751	1382.25
480.969	1367.25
481.188	1342.25
481.406	1325.25
481.624	1350.25
481.843	1337.25
482.061	1376.25
482.28	1341.25
482.498	1315.25
482.717	1342.25
482.935	1353.25
483.153	1426.25
483.372	1399.25
483.59	1425.25
483.808	1422.25
484.027	1427.25
484.245	1505.25
484.463	1713.25
484.681	1881.25
484.9	1665.25
485.118	1587.25
485.336	1585.25
485.554	1593.25
485.772	1662.25
485.99	1877.25
486.209	2065.25
486.427	1723.25
486.645	1545.25
486.863	1513.25
487.081	1467.25
487.299	1450.25
487.517	1441.25
487.735	1468.25
487.953	1489.25
488.171	1491.25
488.389	1453.25
488.607	1429.25
488.825	1416.25
489.043	1414.25
489.261	1401.25
489.479	1394.25
489.696	1383.25
489.914	1426.25
490.132	1446.25
490.35	1451.25
490.568	1421.25
490.786	1458.25
491.003	1497.25
