Data from SnStandardFlinnAPT0064_QswitchEnergy10_LIBS07252019.E.O._I.C._HRD10591_15-28-16-974.txt Node
Date: Thu Jul 25 15:28:16 EDT 2019
User: cochatt
Spectrometer: HR+D1059
Trigger mode: 1
Integration Time (sec): 1.000000E-1
Scans to average: 1
Electric dark correction enabled: true
Nonlinearity correction enabled: false
Boxcar width: 0
XAxis mode: Wavelengths
Number of Pixels in Spectrum: 2048
>>>>>Begin Spectral Data<<<<<
223.165	-6.81
223.4	-6.81
223.635	-6.81
223.869	-21.81
224.104	-16.81
224.338	-16.81
224.573	-9.81
224.808	-12.81
225.042	0.19
225.277	-9.81
225.511	3.19
225.746	-5.81
225.98	-0.81
226.215	20.19
226.449	23.19
226.683	11.19
226.918	17.19
227.152	26.19
227.387	29.19
227.621	37.19
227.856	45.19
228.09	50.19
228.324	67.19
228.559	59.19
228.793	70.19
229.027	75.19
229.262	78.19
229.496	71.19
229.73	59.19
229.964	77.19
230.199	78.19
230.433	74.19
230.667	77.19
230.901	79.19
231.136	85.19
231.37	79.19
231.604	85.19
231.838	102.19
232.072	113.19
232.306	132.19
232.541	119.19
232.775	87.19
233.009	88.19
233.243	91.19
233.477	92.19
233.711	90.19
233.945	113.19
234.179	104.19
234.413	93.19
234.647	75.19
234.881	94.19
235.115	88.19
235.349	106.19
235.583	111.19
235.817	134.19
236.051	135.19
236.285	106.19
236.519	86.19
236.753	92.19
236.987	65.19
237.221	83.19
237.455	89.19
237.689	91.19
237.922	83.19
238.156	90.19
238.39	86.19
238.624	110.19
238.858	94.19
239.091	92.19
239.325	94.19
239.559	83.19
239.793	85.19
240.027	82.19
240.26	75.19
240.494	83.19
240.728	97.19
240.961	87.19
241.195	100.19
241.429	109.19
241.662	98.19
241.896	101.19
242.13	103.19
242.363	137.19
242.597	187.19
242.83	148.19
243.064	159.19
243.298	202.19
243.531	152.19
243.765	114.19
243.998	82.19
244.232	87.19
244.465	85.19
244.699	90.19
244.932	79.19
245.166	89.19
245.399	75.19
245.633	93.19
245.866	85.19
246.099	87.19
246.333	88.19
246.566	81.19
246.8	78.19
247.033	83.19
247.266	92.19
247.5	98.19
247.733	80.19
247.966	85.19
248.2	90.19
248.433	98.19
248.666	142.19
248.899	127.19
249.133	98.19
249.366	86.19
249.599	120.19
249.832	129.19
250.066	140.19
250.299	95.19
250.532	85.19
250.765	99.19
250.998	74.19
251.231	69.19
251.465	93.19
251.698	93.19
251.931	76.19
252.164	109.19
252.397	98.19
252.63	93.19
252.863	109.19
253.096	100.19
253.329	94.19
253.562	104.19
253.795	90.19
254.028	88.19
254.261	91.19
254.494	101.19
254.727	131.19
254.96	162.19
255.193	141.19
255.426	93.19
255.659	95.19
255.892	94.19
256.124	110.19
256.357	95.19
256.59	99.19
256.823	96.19
257.056	118.19
257.289	166.19
257.521	213.19
257.754	146.19
257.987	100.19
258.22	92.19
258.452	90.19
258.685	91.19
258.918	86.19
259.151	101.19
259.383	109.19
259.616	133.19
259.849	149.19
260.081	113.19
260.314	91.19
260.547	79.19
260.779	80.19
261.012	77.19
261.244	83.19
261.477	96.19
261.71	105.19
261.942	111.19
262.175	91.19
262.407	88.19
262.64	90.19
262.872	82.19
263.105	84.19
263.337	99.19
263.57	105.19
263.802	77.19
264.035	76.19
264.267	79.19
264.499	87.19
264.732	101.19
264.964	92.19
265.197	88.19
265.429	96.19
265.661	105.19
265.894	109.19
266.126	136.19
266.358	179.19
266.591	160.19
266.823	110.19
267.055	93.19
267.287	78.19
267.52	103.19
267.752	85.19
267.984	93.19
268.216	94.19
268.448	87.19
268.681	91.19
268.913	86.19
269.145	102.19
269.377	95.19
269.609	89.19
269.841	106.19
270.073	121.19
270.306	129.19
270.538	226.19
270.77	372.19
271.002	433.19
271.234	214.19
271.466	113.19
271.698	101.19
271.93	91.19
272.162	88.19
272.394	88.19
272.626	97.19
272.858	93.19
273.09	97.19
273.322	85.19
273.553	94.19
273.785	92.19
274.017	98.19
274.249	93.19
274.481	84.19
274.713	89.19
274.945	89.19
275.176	81.19
275.408	71.19
275.64	98.19
275.872	79.19
276.104	103.19
276.335	108.19
276.567	108.19
276.799	93.19
277.031	85.19
277.262	114.19
277.494	117.19
277.726	125.19
277.957	202.19
278.189	284.19
278.421	277.19
278.652	223.19
278.884	200.19
279.115	157.19
279.347	118.19
279.579	99.19
279.81	94.19
280.042	95.19
280.273	98.19
280.505	110.19
280.736	119.19
280.968	129.19
281.199	196.19
281.431	273.19
281.662	298.19
281.894	168.19
282.125	118.19
282.356	114.19
282.588	109.19
282.819	115.19
283.051	141.19
283.282	149.19
283.513	213.19
283.745	352.19
283.976	647.19
284.207	923.19
284.439	700.19
284.67	316.19
284.901	296.19
285.132	405.19
285.364	455.19
285.595	262.19
285.826	198.19
286.057	275.19
286.288	455.19
286.52	713.19
286.751	574.19
286.982	221.19
287.213	151.19
287.444	117.19
287.675	106.19
287.906	93.19
288.138	99.19
288.369	110.19
288.6	119.19
288.831	100.19
289.062	101.19
289.293	100.19
289.524	90.19
289.755	89.19
289.986	98.19
290.217	103.19
290.448	108.19
290.679	106.19
290.91	126.19
291.141	166.19
291.371	277.19
291.602	326.19
291.833	237.19
292.064	124.19
292.295	106.19
292.526	96.19
292.757	103.19
292.987	98.19
293.218	86.19
293.449	94.19
293.68	100.19
293.91	98.19
294.141	102.19
294.372	114.19
294.603	89.19
294.833	99.19
295.064	99.19
295.295	96.19
295.525	87.19
295.756	91.19
295.987	105.19
296.217	94.19
296.448	91.19
296.679	90.19
296.909	91.19
297.14	101.19
297.37	97.19
297.601	101.19
297.831	90.19
298.062	99.19
298.292	115.19
298.523	125.19
298.753	119.19
298.984	113.19
299.214	104.19
299.445	126.19
299.675	123.19
299.905	129.19
300.136	143.19
300.366	193.19
300.597	322.19
300.827	522.19
301.057	822.19
301.288	745.19
301.518	283.19
301.748	174.19
301.979	135.19
302.209	154.19
302.439	158.19
302.669	189.19
302.9	281.19
303.13	564.19
303.36	995.19
303.59	1445.19
303.82	983.19
304.051	325.19
304.281	172.19
304.511	135.19
304.741	126.19
304.971	113.19
305.201	102.19
305.431	110.19
305.661	105.19
305.891	101.19
306.121	96.19
306.352	109.19
306.582	119.19
306.812	125.19
307.042	115.19
307.272	110.19
307.502	102.19
307.731	114.19
307.961	105.19
308.191	127.19
308.421	105.19
308.651	107.19
308.881	126.19
309.111	118.19
309.341	125.19
309.571	108.19
309.8	111.19
310.03	118.19
310.26	115.19
310.49	115.19
310.72	114.19
310.949	115.19
311.179	115.19
311.409	110.19
311.639	115.19
311.868	121.19
312.098	124.19
312.328	118.19
312.557	127.19
312.787	118.19
313.017	126.19
313.246	113.19
313.476	135.19
313.706	151.19
313.935	181.19
314.165	215.19
314.394	265.19
314.624	203.19
314.853	155.19
315.083	137.19
315.312	133.19
315.542	139.19
315.771	127.19
316.001	158.19
316.23	153.19
316.46	177.19
316.689	206.19
316.919	285.19
317.148	592.19
317.377	1065.19
317.607	1733.19
317.836	1669.19
318.065	615.19
318.295	243.19
318.524	179.19
318.753	146.19
318.983	141.19
319.212	130.19
319.441	122.19
319.67	132.19
319.9	124.19
320.129	126.19
320.358	109.19
320.587	119.19
320.816	133.19
321.046	124.19
321.275	135.19
321.504	146.19
321.733	148.19
321.962	182.19
322.191	165.19
322.42	149.19
322.649	150.19
322.878	126.19
323.108	127.19
323.337	150.19
323.566	155.19
323.795	139.19
324.024	132.19
324.253	156.19
324.482	211.19
324.71	270.19
324.939	330.19
325.168	271.19
325.397	210.19
325.626	294.19
325.855	549.19
326.084	1089.19
326.313	1903.19
326.542	1826.19
326.77	703.19
326.999	319.19
327.228	237.19
327.457	280.19
327.686	283.19
327.914	183.19
328.143	161.19
328.372	154.19
328.6	129.19
328.829	135.19
329.058	131.19
329.287	119.19
329.515	139.19
329.744	129.19
329.972	108.19
330.201	120.19
330.43	129.19
330.658	123.19
330.887	123.19
331.115	126.19
331.344	119.19
331.572	132.19
331.801	110.19
332.03	124.19
332.258	136.19
332.486	185.19
332.715	313.19
332.943	584.19
333.172	901.19
333.4	775.19
333.629	287.19
333.857	167.19
334.085	144.19
334.314	129.19
334.542	136.19
334.771	107.19
334.999	128.19
335.227	129.19
335.455	128.19
335.684	138.19
335.912	121.19
336.14	113.19
336.369	141.19
336.597	109.19
336.825	107.19
337.053	127.19
337.281	118.19
337.51	105.19
337.738	121.19
337.966	118.19
338.194	116.19
338.422	120.19
338.65	112.19
338.878	129.19
339.106	126.19
339.334	131.19
339.562	121.19
339.79	119.19
340.018	125.19
340.246	113.19
340.474	118.19
340.702	102.19
340.93	118.19
341.158	118.19
341.386	134.19
341.614	129.19
341.842	131.19
342.07	120.19
342.298	130.19
342.526	123.19
342.754	123.19
342.981	121.19
343.209	127.19
343.437	123.19
343.665	124.19
343.893	124.19
344.12	118.19
344.348	115.19
344.576	109.19
344.804	125.19
345.031	106.19
345.259	129.19
345.487	117.19
345.714	115.19
345.942	108.19
346.17	119.19
346.397	96.19
346.625	124.19
346.853	116.19
347.08	92.19
347.308	111.19
347.535	113.19
347.763	106.19
347.99	101.19
348.218	114.19
348.445	113.19
348.673	116.19
348.9	119.19
349.128	128.19
349.355	121.19
349.583	136.19
349.81	103.19
350.037	109.19
350.265	120.19
350.492	116.19
350.72	113.19
350.947	121.19
351.174	130.19
351.402	124.19
351.629	117.19
351.856	113.19
352.083	114.19
352.311	102.19
352.538	120.19
352.765	118.19
352.992	103.19
353.22	113.19
353.447	110.19
353.674	109.19
353.901	110.19
354.128	102.19
354.355	108.19
354.583	109.19
354.81	110.19
355.037	107.19
355.264	110.19
355.491	106.19
355.718	113.19
355.945	102.19
356.172	103.19
356.399	113.19
356.626	117.19
356.853	116.19
357.08	135.19
357.307	103.19
357.534	110.19
357.761	108.19
357.988	122.19
358.215	125.19
358.441	105.19
358.668	103.19
358.895	124.19
359.122	122.19
359.349	121.19
359.576	121.19
359.802	115.19
360.029	116.19
360.256	121.19
360.483	113.19
360.709	114.19
360.936	113.19
361.163	126.19
361.39	114.19
361.616	120.19
361.843	115.19
362.07	115.19
362.296	119.19
362.523	97.19
362.749	105.19
362.976	112.19
363.203	120.19
363.429	108.19
363.656	127.19
363.882	127.19
364.109	137.19
364.335	125.19
364.562	111.19
364.788	116.19
365.015	112.19
365.241	133.19
365.468	213.19
365.694	293.19
365.92	231.19
366.147	119.19
366.373	99.19
366.599	100.19
366.826	107.19
367.052	121.19
367.278	122.19
367.505	98.19
367.731	99.19
367.957	101.19
368.184	120.19
368.41	135.19
368.636	117.19
368.862	107.19
369.089	108.19
369.315	111.19
369.541	117.19
369.767	123.19
369.993	111.19
370.219	117.19
370.445	109.19
370.672	96.19
370.898	114.19
371.124	106.19
371.35	103.19
371.576	119.19
371.802	123.19
372.028	118.19
372.254	121.19
372.48	109.19
372.706	125.19
372.932	121.19
373.158	101.19
373.384	123.19
373.61	131.19
373.835	115.19
374.061	119.19
374.287	113.19
374.513	117.19
374.739	122.19
374.965	115.19
375.191	108.19
375.416	127.19
375.642	127.19
375.868	102.19
376.094	102.19
376.319	93.19
376.545	112.19
376.771	125.19
376.997	113.19
377.222	117.19
377.448	116.19
377.674	129.19
377.899	113.19
378.125	132.19
378.35	121.19
378.576	126.19
378.802	133.19
379.027	145.19
379.253	149.19
379.478	195.19
379.704	346.19
379.929	892.19
380.155	1809.19
380.38	1941.19
380.606	611.19
380.831	206.19
381.057	155.19
381.282	132.19
381.507	117.19
381.733	108.19
381.958	129.19
382.184	113.19
382.409	123.19
382.634	123.19
382.86	109.19
383.085	110.19
383.31	105.19
383.535	109.19
383.761	117.19
383.986	137.19
384.211	106.19
384.436	93.19
384.662	105.19
384.887	115.19
385.112	107.19
385.337	103.19
385.562	113.19
385.787	105.19
386.013	116.19
386.238	117.19
386.463	102.19
386.688	121.19
386.913	108.19
387.138	133.19
387.363	111.19
387.588	120.19
387.813	122.19
388.038	117.19
388.263	93.19
388.488	97.19
388.713	114.19
388.938	111.19
389.163	115.19
389.387	113.19
389.612	102.19
389.837	100.19
390.062	110.19
390.287	101.19
390.512	100.19
390.736	97.19
390.961	93.19
391.186	99.19
391.411	106.19
391.636	101.19
391.86	94.19
392.085	115.19
392.31	105.19
392.534	109.19
392.759	105.19
392.984	100.19
393.208	128.19
393.433	164.19
393.658	155.19
393.882	105.19
394.107	99.19
394.331	98.19
394.556	109.19
394.78	90.19
395.005	100.19
395.229	94.19
395.454	110.19
395.678	105.19
395.903	105.19
396.127	124.19
396.352	109.19
396.576	118.19
396.801	125.19
397.025	144.19
397.249	134.19
397.474	104.19
397.698	92.19
397.922	115.19
398.147	99.19
398.371	102.19
398.595	108.19
398.82	105.19
399.044	100.19
399.268	103.19
399.492	122.19
399.717	97.19
399.941	110.19
400.165	115.19
400.389	93.19
400.613	121.19
400.837	101.19
401.062	101.19
401.286	100.19
401.51	99.19
401.734	99.19
401.958	117.19
402.182	113.19
402.406	103.19
402.63	99.19
402.854	95.19
403.078	92.19
403.302	102.19
403.526	115.19
403.75	123.19
403.974	105.19
404.198	97.19
404.422	86.19
404.645	102.19
404.869	100.19
405.093	109.19
405.317	99.19
405.541	113.19
405.765	141.19
405.988	163.19
406.212	139.19
406.436	109.19
406.66	109.19
406.883	94.19
407.107	96.19
407.331	113.19
407.555	102.19
407.778	104.19
408.002	100.19
408.226	106.19
408.449	115.19
408.673	102.19
408.896	108.19
409.12	113.19
409.344	103.19
409.567	112.19
409.791	111.19
410.014	79.19
410.238	115.19
410.461	111.19
410.685	106.19
410.908	104.19
411.132	103.19
411.355	101.19
411.578	117.19
411.802	107.19
412.025	102.19
412.249	107.19
412.472	95.19
412.695	97.19
412.919	108.19
413.142	102.19
413.365	104.19
413.589	100.19
413.812	105.19
414.035	117.19
414.258	106.19
414.482	108.19
414.705	108.19
414.928	122.19
415.151	113.19
415.374	98.19
415.597	109.19
415.821	86.19
416.044	97.19
416.267	102.19
416.49	115.19
416.713	102.19
416.936	95.19
417.159	113.19
417.382	105.19
417.605	85.19
417.828	97.19
418.051	72.19
418.274	107.19
418.497	97.19
418.72	113.19
418.943	108.19
419.166	119.19
419.389	123.19
419.611	122.19
419.834	100.19
420.057	92.19
420.28	102.19
420.503	106.19
420.726	107.19
420.948	105.19
421.171	100.19
421.394	91.19
421.617	104.19
421.839	103.19
422.062	100.19
422.285	99.19
422.507	108.19
422.73	132.19
422.953	161.19
423.175	123.19
423.398	99.19
423.621	111.19
423.843	99.19
424.066	96.19
424.288	105.19
424.511	108.19
424.733	117.19
424.956	100.19
425.178	106.19
425.401	104.19
425.623	94.19
425.846	96.19
426.068	115.19
426.291	86.19
426.513	87.19
426.735	100.19
426.958	99.19
427.18	98.19
427.402	110.19
427.625	109.19
427.847	97.19
428.069	91.19
428.292	106.19
428.514	101.19
428.736	102.19
428.958	104.19
429.181	105.19
429.403	111.19
429.625	102.19
429.847	96.19
430.069	115.19
430.292	124.19
430.514	107.19
430.736	115.19
430.958	118.19
431.18	114.19
431.402	92.19
431.624	91.19
431.846	104.19
432.068	102.19
432.29	93.19
432.512	102.19
432.734	102.19
432.956	99.19
433.178	116.19
433.4	99.19
433.622	111.19
433.844	107.19
434.066	82.19
434.287	94.19
434.509	97.19
434.731	103.19
434.953	94.19
435.175	100.19
435.397	103.19
435.618	96.19
435.84	89.19
436.062	93.19
436.284	107.19
436.505	89.19
436.727	98.19
436.949	93.19
437.17	102.19
437.392	93.19
437.614	96.19
437.835	98.19
438.057	86.19
438.278	99.19
438.5	98.19
438.721	107.19
438.943	116.19
439.165	131.19
439.386	127.19
439.608	89.19
439.829	101.19
440.05	132.19
440.272	130.19
440.493	116.19
440.715	95.19
440.936	98.19
441.158	99.19
441.379	101.19
441.6	99.19
441.822	121.19
442.043	121.19
442.264	141.19
442.486	130.19
442.707	109.19
442.928	106.19
443.149	108.19
443.371	100.19
443.592	90.19
443.813	91.19
444.034	91.19
444.255	109.19
444.476	116.19
444.698	106.19
444.919	110.19
445.14	205.19
445.361	147.19
445.582	96.19
445.803	101.19
446.024	108.19
446.245	101.19
446.466	116.19
446.687	117.19
446.908	109.19
447.129	110.19
447.35	95.19
447.571	101.19
447.792	91.19
448.013	93.19
448.234	99.19
448.455	117.19
448.675	110.19
448.896	111.19
449.117	129.19
449.338	137.19
449.559	158.19
449.779	147.19
450	116.19
450.221	108.19
450.442	127.19
450.662	135.19
450.883	127.19
451.104	123.19
451.324	123.19
451.545	106.19
451.766	127.19
451.986	131.19
452.207	246.19
452.428	643.19
452.648	1568.19
452.869	898.19
453.089	231.19
453.31	123.19
453.53	153.19
453.751	154.19
453.971	174.19
454.192	159.19
454.412	110.19
454.633	104.19
454.853	101.19
455.073	114.19
455.294	111.19
455.514	85.19
455.734	90.19
455.955	101.19
456.175	93.19
456.395	108.19
456.616	106.19
456.836	107.19
457.056	115.19
457.276	106.19
457.497	133.19
457.717	150.19
457.937	94.19
458.157	115.19
458.377	89.19
458.598	92.19
458.818	88.19
459.038	90.19
459.258	103.19
459.478	96.19
459.698	103.19
459.918	101.19
460.138	94.19
460.358	79.19
460.578	112.19
460.798	101.19
461.018	109.19
461.238	101.19
461.458	88.19
461.678	108.19
461.898	96.19
462.118	110.19
462.338	88.19
462.558	98.19
462.777	108.19
462.997	102.19
463.217	118.19
463.437	141.19
463.657	200.19
463.876	206.19
464.096	139.19
464.316	118.19
464.536	113.19
464.755	107.19
464.975	93.19
465.195	90.19
465.414	92.19
465.634	103.19
465.854	85.19
466.073	90.19
466.293	98.19
466.512	113.19
466.732	113.19
466.951	125.19
467.171	153.19
467.391	150.19
467.61	119.19
467.829	102.19
468.049	124.19
468.268	101.19
468.488	102.19
468.707	103.19
468.927	91.19
469.146	105.19
469.365	101.19
469.585	101.19
469.804	115.19
470.023	115.19
470.243	105.19
470.462	109.19
470.681	108.19
470.901	148.19
471.12	220.19
471.339	232.19
471.558	151.19
471.777	120.19
471.997	119.19
472.216	102.19
472.435	107.19
472.654	99.19
472.873	87.19
473.092	100.19
473.311	81.19
473.53	100.19
473.749	94.19
473.968	104.19
474.187	97.19
474.406	84.19
474.625	99.19
474.844	103.19
475.063	107.19
475.282	102.19
475.501	81.19
475.72	120.19
475.939	94.19
476.158	104.19
476.377	116.19
476.596	113.19
476.814	101.19
477.033	92.19
477.252	104.19
477.471	121.19
477.69	107.19
477.908	105.19
478.127	99.19
478.346	105.19
478.564	115.19
478.783	99.19
479.002	105.19
479.22	107.19
479.439	103.19
479.658	105.19
479.876	103.19
480.095	106.19
480.313	99.19
480.532	103.19
480.751	102.19
480.969	87.19
481.188	89.19
481.406	116.19
481.624	97.19
481.843	125.19
482.061	131.19
482.28	110.19
482.498	109.19
482.717	101.19
482.935	90.19
483.153	116.19
483.372	96.19
483.59	107.19
483.808	121.19
484.027	109.19
484.245	126.19
484.463	214.19
484.681	273.19
484.9	171.19
485.118	116.19
485.336	114.19
485.554	119.19
485.772	157.19
485.99	209.19
486.209	283.19
486.427	197.19
486.645	129.19
486.863	128.19
487.081	112.19
487.299	105.19
487.517	97.19
487.735	91.19
487.953	116.19
488.171	107.19
488.389	98.19
488.607	96.19
488.825	95.19
489.043	94.19
489.261	105.19
489.479	102.19
489.696	115.19
489.914	89.19
490.132	109.19
490.35	96.19
490.568	101.19
490.786	103.19
491.003	109.19
491.221	103.19
491.439	118.19
491.657	107.19
491.874	109.19
492.092	113.19
492.31	127.19
492.527	110.19
492.745	124.19
492.963	113.19
493.18	116.19
493.398	108.19
493.615	113.19
493.833	115.19
494.05	104.19
494.268	113.19
494.485	106.19
494.703	111.19
494.92	100.19
495.138	107.19
495.355	106.19
495.573	109.19
495.79	116.19
496.008	113.19
496.225	111.19
496.442	102.19
496.66	136.19
496.877	178.19
497.094	167.19
497.312	127.19
497.529	109.19
497.746	101.19
497.963	110.19
498.181	114.19
498.398	113.19
498.615	105.19
498.832	115.19
499.049	110.19
499.267	141.19
499.484	183.19
499.701	123.19
499.918	116.19
500.135	116.19
500.352	103.19
500.569	97.19
500.786	102.19
501.003	98.19
501.22	109.19
501.437	100.19
501.654	101.19
501.871	104.19
502.088	109.19
502.305	105.19
502.522	119.19
502.739	105.19
502.956	108.19
503.172	109.19
503.389	93.19
503.606	100.19
503.823	97.19
504.04	107.19
504.256	115.19
504.473	109.19
504.69	129.19
504.907	122.19
505.123	118.19
505.34	107.19
505.557	106.19
505.773	90.19
505.99	106.19
