Data from SnStandardFlinnAPT0064_QswitchEnergy10_LIBS07252019.E.O._I.C._HRD10591_15-27-19-973.txt Node
Date: Thu Jul 25 15:27:19 EDT 2019
User: cochatt
Spectrometer: HR+D1059
Trigger mode: 1
Integration Time (sec): 1.000000E-1
Scans to average: 1
Electric dark correction enabled: true
Nonlinearity correction enabled: false
Boxcar width: 0
XAxis mode: Wavelengths
Number of Pixels in Spectrum: 2048
>>>>>Begin Spectral Data<<<<<
223.165	-19.56
223.4	-19.56
223.635	-19.56
223.869	-26.56
224.104	-11.56
224.338	-5.56
224.573	-17.56
224.808	-16.56
225.042	-9.56
225.277	-4.56
225.511	-0.56
225.746	2.44
225.98	6.44
226.215	10.44
226.449	17.44
226.683	25.44
226.918	32.44
227.152	17.44
227.387	30.44
227.621	41.44
227.856	47.44
228.09	31.44
228.324	43.44
228.559	46.44
228.793	59.44
229.027	55.44
229.262	68.44
229.496	56.44
229.73	73.44
229.964	70.44
230.199	64.44
230.433	81.44
230.667	70.44
230.901	75.44
231.136	69.44
231.37	76.44
231.604	81.44
231.838	89.44
232.072	100.44
232.306	112.44
232.541	80.44
232.775	89.44
233.009	97.44
233.243	89.44
233.477	87.44
233.711	98.44
233.945	90.44
234.179	96.44
234.413	69.44
234.647	90.44
234.881	97.44
235.115	80.44
235.349	92.44
235.583	94.44
235.817	116.44
236.051	120.44
236.285	104.44
236.519	87.44
236.753	63.44
236.987	75.44
237.221	73.44
237.455	80.44
237.689	73.44
237.922	75.44
238.156	96.44
238.39	79.44
238.624	81.44
238.858	81.44
239.091	76.44
239.325	74.44
239.559	80.44
239.793	80.44
240.027	75.44
240.26	76.44
240.494	65.44
240.728	88.44
240.961	75.44
241.195	88.44
241.429	91.44
241.662	83.44
241.896	81.44
242.13	96.44
242.363	119.44
242.597	168.44
242.83	130.44
243.064	115.44
243.298	160.44
243.531	125.44
243.765	97.44
243.998	80.44
244.232	82.44
244.465	84.44
244.699	66.44
244.932	86.44
245.166	75.44
245.399	65.44
245.633	77.44
245.866	77.44
246.099	100.44
246.333	65.44
246.566	80.44
246.8	71.44
247.033	72.44
247.266	86.44
247.5	80.44
247.733	53.44
247.966	83.44
248.2	81.44
248.433	109.44
248.666	105.44
248.899	99.44
249.133	94.44
249.366	97.44
249.599	96.44
249.832	123.44
250.066	123.44
250.299	86.44
250.532	85.44
250.765	77.44
250.998	76.44
251.231	88.44
251.465	84.44
251.698	87.44
251.931	78.44
252.164	67.44
252.397	69.44
252.63	86.44
252.863	94.44
253.096	95.44
253.329	98.44
253.562	87.44
253.795	92.44
254.028	93.44
254.261	74.44
254.494	97.44
254.727	106.44
254.96	137.44
255.193	135.44
255.426	96.44
255.659	85.44
255.892	84.44
256.124	89.44
256.357	69.44
256.59	72.44
256.823	92.44
257.056	97.44
257.289	144.44
257.521	158.44
257.754	109.44
257.987	80.44
258.22	100.44
258.452	85.44
258.685	83.44
258.918	85.44
259.151	95.44
259.383	104.44
259.616	131.44
259.849	151.44
260.081	102.44
260.314	76.44
260.547	77.44
260.779	82.44
261.012	83.44
261.244	74.44
261.477	96.44
261.71	85.44
261.942	82.44
262.175	83.44
262.407	80.44
262.64	88.44
262.872	77.44
263.105	86.44
263.337	73.44
263.57	84.44
263.802	86.44
264.035	83.44
264.267	69.44
264.499	79.44
264.732	67.44
264.964	68.44
265.197	72.44
265.429	85.44
265.661	95.44
265.894	97.44
266.126	119.44
266.358	139.44
266.591	144.44
266.823	73.44
267.055	94.44
267.287	73.44
267.52	93.44
267.752	69.44
267.984	79.44
268.216	69.44
268.448	98.44
268.681	86.44
268.913	101.44
269.145	91.44
269.377	98.44
269.609	94.44
269.841	88.44
270.073	101.44
270.306	103.44
270.538	171.44
270.77	301.44
271.002	348.44
271.234	190.44
271.466	97.44
271.698	80.44
271.93	77.44
272.162	94.44
272.394	82.44
272.626	88.44
272.858	77.44
273.09	87.44
273.322	86.44
273.553	84.44
273.785	62.44
274.017	78.44
274.249	100.44
274.481	93.44
274.713	73.44
274.945	80.44
275.176	91.44
275.408	81.44
275.64	83.44
275.872	80.44
276.104	102.44
276.335	103.44
276.567	99.44
276.799	97.44
277.031	84.44
277.262	100.44
277.494	101.44
277.726	122.44
277.957	151.44
278.189	235.44
278.421	215.44
278.652	157.44
278.884	149.44
279.115	132.44
279.347	109.44
279.579	92.44
279.81	97.44
280.042	95.44
280.273	101.44
280.505	104.44
280.736	108.44
280.968	111.44
281.199	147.44
281.431	196.44
281.662	214.44
281.894	139.44
282.125	110.44
282.356	120.44
282.588	101.44
282.819	100.44
283.051	108.44
283.282	127.44
283.513	177.44
283.745	276.44
283.976	503.44
284.207	687.44
284.439	534.44
284.67	243.44
284.901	220.44
285.132	307.44
285.364	325.44
285.595	180.44
285.826	155.44
286.057	200.44
286.288	374.44
286.52	556.44
286.751	433.44
286.982	190.44
287.213	117.44
287.444	91.44
287.675	91.44
287.906	86.44
288.138	89.44
288.369	79.44
288.6	71.44
288.831	85.44
289.062	107.44
289.293	86.44
289.524	96.44
289.755	95.44
289.986	83.44
290.217	97.44
290.448	93.44
290.679	99.44
290.91	116.44
291.141	151.44
291.371	190.44
291.602	229.44
291.833	177.44
292.064	119.44
292.295	85.44
292.526	97.44
292.757	98.44
292.987	88.44
293.218	98.44
293.449	96.44
293.68	88.44
293.91	103.44
294.141	79.44
294.372	84.44
294.603	91.44
294.833	86.44
295.064	94.44
295.295	100.44
295.525	94.44
295.756	99.44
295.987	81.44
296.217	88.44
296.448	89.44
296.679	98.44
296.909	95.44
297.14	96.44
297.37	90.44
297.601	114.44
297.831	94.44
298.062	100.44
298.292	96.44
298.523	92.44
298.753	95.44
298.984	91.44
299.214	100.44
299.445	98.44
299.675	109.44
299.905	110.44
300.136	130.44
300.366	153.44
300.597	234.44
300.827	393.44
301.057	614.44
301.288	573.44
301.518	220.44
301.748	147.44
301.979	143.44
302.209	126.44
302.439	136.44
302.669	145.44
302.9	258.44
303.13	447.44
303.36	771.44
303.59	1081.44
303.82	747.44
304.051	269.44
304.281	142.44
304.511	119.44
304.741	96.44
304.971	93.44
305.201	83.44
305.431	87.44
305.661	94.44
305.891	110.44
306.121	100.44
306.352	104.44
306.582	103.44
306.812	85.44
307.042	114.44
307.272	105.44
307.502	99.44
307.731	100.44
307.961	96.44
308.191	101.44
308.421	85.44
308.651	100.44
308.881	103.44
309.111	110.44
309.341	96.44
309.571	99.44
309.8	103.44
310.03	86.44
310.26	101.44
310.49	107.44
310.72	96.44
310.949	101.44
311.179	107.44
311.409	107.44
311.639	91.44
311.868	82.44
312.098	93.44
312.328	112.44
312.557	115.44
312.787	99.44
313.017	110.44
313.246	121.44
313.476	117.44
313.706	112.44
313.935	147.44
314.165	163.44
314.394	203.44
314.624	163.44
314.853	114.44
315.083	108.44
315.312	115.44
315.542	114.44
315.771	114.44
316.001	124.44
316.23	120.44
316.46	141.44
316.689	164.44
316.919	215.44
317.148	458.44
317.377	821.44
317.607	1318.44
317.836	1242.44
318.065	454.44
318.295	207.44
318.524	139.44
318.753	120.44
318.983	133.44
319.212	116.44
319.441	95.44
319.67	107.44
319.9	102.44
320.129	116.44
320.358	111.44
320.587	105.44
320.816	122.44
321.046	114.44
321.275	117.44
321.504	111.44
321.733	125.44
321.962	139.44
322.191	133.44
322.42	123.44
322.649	121.44
322.878	105.44
323.108	102.44
323.337	127.44
323.566	112.44
323.795	109.44
324.024	117.44
324.253	135.44
324.482	148.44
324.71	205.44
324.939	242.44
325.168	207.44
325.397	164.44
325.626	236.44
325.855	431.44
326.084	830.44
326.313	1399.44
326.542	1389.44
326.77	533.44
326.999	243.44
327.228	195.44
327.457	205.44
327.686	198.44
327.914	137.44
328.143	129.44
328.372	121.44
328.6	125.44
328.829	113.44
329.058	117.44
329.287	111.44
329.515	103.44
329.744	113.44
329.972	96.44
330.201	108.44
330.43	100.44
330.658	109.44
330.887	115.44
331.115	108.44
331.344	105.44
331.572	118.44
331.801	110.44
332.03	117.44
332.258	133.44
332.486	166.44
332.715	241.44
332.943	461.44
333.172	671.44
333.4	573.44
333.629	219.44
333.857	131.44
334.085	118.44
334.314	101.44
334.542	114.44
334.771	89.44
334.999	95.44
335.227	116.44
335.455	116.44
335.684	117.44
335.912	112.44
336.14	101.44
336.369	117.44
336.597	108.44
336.825	109.44
337.053	100.44
337.281	100.44
337.51	108.44
337.738	104.44
337.966	102.44
338.194	109.44
338.422	101.44
338.65	100.44
338.878	115.44
339.106	108.44
339.334	117.44
339.562	113.44
339.79	123.44
340.018	108.44
340.246	116.44
340.474	104.44
340.702	94.44
340.93	114.44
341.158	91.44
341.386	110.44
341.614	116.44
341.842	108.44
342.07	108.44
342.298	94.44
342.526	102.44
342.754	99.44
342.981	100.44
343.209	113.44
343.437	100.44
343.665	100.44
343.893	96.44
344.12	85.44
344.348	96.44
344.576	95.44
344.804	111.44
345.031	101.44
345.259	118.44
345.487	90.44
345.714	100.44
345.942	89.44
346.17	101.44
346.397	116.44
346.625	110.44
346.853	107.44
347.08	100.44
347.308	94.44
347.535	104.44
347.763	104.44
347.99	90.44
348.218	93.44
348.445	103.44
348.673	104.44
348.9	115.44
349.128	115.44
349.355	121.44
349.583	116.44
349.81	120.44
350.037	109.44
350.265	111.44
350.492	90.44
350.72	90.44
350.947	110.44
351.174	103.44
351.402	107.44
351.629	103.44
351.856	99.44
352.083	104.44
352.311	102.44
352.538	113.44
352.765	106.44
352.992	110.44
353.22	105.44
353.447	96.44
353.674	101.44
353.901	96.44
354.128	101.44
354.355	101.44
354.583	94.44
354.81	80.44
355.037	92.44
355.264	103.44
355.491	99.44
355.718	83.44
355.945	94.44
356.172	98.44
356.399	90.44
356.626	88.44
356.853	99.44
357.08	89.44
357.307	100.44
357.534	101.44
357.761	97.44
357.988	87.44
358.215	95.44
358.441	108.44
358.668	95.44
358.895	113.44
359.122	112.44
359.349	109.44
359.576	111.44
359.802	102.44
360.029	117.44
360.256	101.44
360.483	121.44
360.709	107.44
360.936	113.44
361.163	96.44
361.39	99.44
361.616	119.44
361.843	105.44
362.07	99.44
362.296	106.44
362.523	114.44
362.749	92.44
362.976	97.44
363.203	93.44
363.429	110.44
363.656	113.44
363.882	109.44
364.109	118.44
364.335	107.44
364.562	96.44
364.788	86.44
365.015	95.44
365.241	127.44
365.468	164.44
365.694	219.44
365.92	166.44
366.147	96.44
366.373	98.44
366.599	97.44
366.826	105.44
367.052	98.44
367.278	96.44
367.505	101.44
367.731	95.44
367.957	94.44
368.184	108.44
368.41	109.44
368.636	111.44
368.862	104.44
369.089	91.44
369.315	89.44
369.541	97.44
369.767	104.44
369.993	95.44
370.219	101.44
370.445	98.44
370.672	91.44
370.898	117.44
371.124	103.44
371.35	91.44
371.576	100.44
371.802	87.44
372.028	101.44
372.254	106.44
372.48	116.44
372.706	106.44
372.932	105.44
373.158	108.44
373.384	99.44
373.61	113.44
373.835	115.44
374.061	88.44
374.287	108.44
374.513	98.44
374.739	95.44
374.965	100.44
375.191	100.44
375.416	87.44
375.642	91.44
375.868	111.44
376.094	116.44
376.319	109.44
376.545	114.44
376.771	99.44
376.997	87.44
377.222	90.44
377.448	89.44
377.674	110.44
377.899	109.44
378.125	91.44
378.35	119.44
378.576	104.44
378.802	119.44
379.027	107.44
379.253	131.44
379.478	156.44
379.704	285.44
379.929	679.44
380.155	1397.44
380.38	1435.44
380.606	469.44
380.831	171.44
381.057	137.44
381.282	104.44
381.507	107.44
381.733	108.44
381.958	94.44
382.184	91.44
382.409	98.44
382.634	112.44
382.86	107.44
383.085	99.44
383.31	99.44
383.535	97.44
383.761	103.44
383.986	83.44
384.211	98.44
384.436	79.44
384.662	89.44
384.887	100.44
385.112	112.44
385.337	104.44
385.562	105.44
385.787	88.44
386.013	101.44
386.238	100.44
386.463	102.44
386.688	98.44
386.913	109.44
387.138	104.44
387.363	87.44
387.588	93.44
387.813	95.44
388.038	99.44
388.263	95.44
388.488	101.44
388.713	100.44
388.938	106.44
389.163	91.44
389.387	110.44
389.612	91.44
389.837	85.44
390.062	91.44
390.287	84.44
390.512	97.44
390.736	108.44
390.961	82.44
391.186	93.44
391.411	86.44
391.636	81.44
391.86	84.44
392.085	92.44
392.31	100.44
392.534	88.44
392.759	94.44
392.984	93.44
393.208	109.44
393.433	121.44
393.658	115.44
393.882	85.44
394.107	96.44
394.331	101.44
394.556	103.44
394.78	98.44
395.005	92.44
395.229	97.44
395.454	109.44
395.678	97.44
395.903	83.44
396.127	103.44
396.352	95.44
396.576	95.44
396.801	102.44
397.025	104.44
397.249	91.44
397.474	109.44
397.698	99.44
397.922	83.44
398.147	91.44
398.371	99.44
398.595	80.44
398.82	102.44
399.044	84.44
399.268	108.44
399.492	95.44
399.717	77.44
399.941	86.44
400.165	109.44
400.389	98.44
400.613	92.44
400.837	96.44
401.062	104.44
401.286	86.44
401.51	97.44
401.734	93.44
401.958	98.44
402.182	76.44
402.406	85.44
402.63	85.44
402.854	108.44
403.078	111.44
403.302	92.44
403.526	106.44
403.75	80.44
403.974	96.44
404.198	93.44
404.422	101.44
404.645	92.44
404.869	84.44
405.093	96.44
405.317	96.44
405.541	96.44
405.765	109.44
405.988	127.44
406.212	101.44
406.436	96.44
406.66	91.44
406.883	96.44
407.107	94.44
407.331	104.44
407.555	86.44
407.778	83.44
408.002	100.44
408.226	89.44
408.449	88.44
408.673	96.44
408.896	100.44
409.12	94.44
409.344	99.44
409.567	90.44
409.791	84.44
410.014	94.44
410.238	93.44
410.461	99.44
410.685	84.44
410.908	94.44
411.132	107.44
411.355	96.44
411.578	80.44
411.802	82.44
412.025	95.44
412.249	92.44
412.472	75.44
412.695	84.44
412.919	84.44
413.142	88.44
413.365	107.44
413.589	85.44
413.812	101.44
414.035	99.44
414.258	109.44
414.482	99.44
414.705	95.44
414.928	96.44
415.151	101.44
415.374	94.44
415.597	93.44
415.821	88.44
416.044	94.44
416.267	91.44
416.49	88.44
416.713	91.44
416.936	100.44
417.159	101.44
417.382	98.44
417.605	91.44
417.828	101.44
418.051	92.44
418.274	94.44
418.497	100.44
418.72	85.44
418.943	98.44
419.166	97.44
419.389	97.44
419.611	98.44
419.834	95.44
420.057	78.44
420.28	91.44
420.503	109.44
420.726	101.44
420.948	83.44
421.171	85.44
421.394	86.44
421.617	89.44
421.839	92.44
422.062	93.44
422.285	98.44
422.507	98.44
422.73	100.44
422.953	120.44
423.175	109.44
423.398	103.44
423.621	103.44
423.843	85.44
424.066	84.44
424.288	95.44
424.511	94.44
424.733	76.44
424.956	85.44
425.178	86.44
425.401	87.44
425.623	86.44
425.846	100.44
426.068	86.44
426.291	91.44
426.513	81.44
426.735	96.44
426.958	98.44
427.18	95.44
427.402	100.44
427.625	86.44
427.847	97.44
428.069	88.44
428.292	95.44
428.514	106.44
428.736	97.44
428.958	93.44
429.181	87.44
429.403	78.44
429.625	84.44
429.847	98.44
430.069	102.44
430.292	100.44
430.514	104.44
430.736	98.44
430.958	97.44
431.18	96.44
431.402	89.44
431.624	80.44
431.846	99.44
432.068	100.44
432.29	76.44
432.512	97.44
432.734	97.44
432.956	103.44
433.178	84.44
433.4	82.44
433.622	91.44
433.844	89.44
434.066	91.44
434.287	92.44
434.509	80.44
434.731	106.44
434.953	85.44
435.175	101.44
435.397	92.44
435.618	88.44
435.84	91.44
436.062	79.44
436.284	75.44
436.505	89.44
436.727	96.44
436.949	75.44
437.17	78.44
437.392	84.44
437.614	91.44
437.835	81.44
438.057	86.44
438.278	88.44
438.5	84.44
438.721	93.44
438.943	85.44
439.165	102.44
439.386	99.44
439.608	95.44
439.829	97.44
440.05	113.44
440.272	117.44
440.493	88.44
440.715	84.44
440.936	102.44
441.158	86.44
441.379	78.44
441.6	94.44
441.822	97.44
442.043	101.44
442.264	119.44
442.486	115.44
442.707	99.44
442.928	87.44
443.149	90.44
443.371	95.44
443.592	102.44
443.813	96.44
444.034	95.44
444.255	90.44
444.476	87.44
444.698	104.44
444.919	98.44
445.14	178.44
445.361	129.44
445.582	98.44
445.803	100.44
446.024	90.44
446.245	104.44
446.466	95.44
446.687	111.44
446.908	99.44
447.129	92.44
447.35	91.44
447.571	98.44
447.792	92.44
448.013	97.44
448.234	94.44
448.455	86.44
448.675	105.44
448.896	96.44
449.117	112.44
449.338	125.44
449.559	147.44
449.779	99.44
450	104.44
450.221	108.44
450.442	95.44
450.662	104.44
450.883	108.44
451.104	103.44
451.324	110.44
451.545	101.44
451.766	102.44
451.986	116.44
452.207	195.44
452.428	469.44
452.648	1142.44
452.869	631.44
453.089	178.44
453.31	100.44
453.53	109.44
453.751	141.44
453.971	160.44
454.192	147.44
454.412	107.44
454.633	91.44
454.853	71.44
455.073	81.44
455.294	77.44
455.514	101.44
455.734	91.44
455.955	92.44
456.175	104.44
456.395	89.44
456.616	95.44
456.836	79.44
457.056	87.44
457.276	83.44
457.497	109.44
457.717	123.44
457.937	95.44
458.157	95.44
458.377	89.44
458.598	98.44
458.818	81.44
459.038	78.44
459.258	93.44
459.478	82.44
459.698	73.44
459.918	91.44
460.138	77.44
460.358	77.44
460.578	80.44
460.798	86.44
461.018	94.44
461.238	92.44
461.458	100.44
461.678	98.44
461.898	77.44
462.118	89.44
462.338	95.44
462.558	89.44
462.777	100.44
462.997	109.44
463.217	94.44
463.437	118.44
463.657	173.44
463.876	168.44
464.096	123.44
464.316	91.44
464.536	87.44
464.755	83.44
464.975	87.44
465.195	89.44
465.414	92.44
465.634	94.44
465.854	82.44
466.073	88.44
466.293	99.44
466.512	92.44
466.732	105.44
466.951	92.44
467.171	123.44
467.391	119.44
467.61	110.44
467.829	102.44
468.049	88.44
468.268	86.44
468.488	101.44
468.707	76.44
468.927	82.44
469.146	82.44
469.365	103.44
469.585	93.44
469.804	88.44
470.023	104.44
470.243	84.44
470.462	89.44
470.681	110.44
470.901	119.44
471.12	177.44
471.339	175.44
471.558	113.44
471.777	79.44
471.997	102.44
472.216	87.44
472.435	103.44
472.654	73.44
472.873	96.44
473.092	99.44
473.311	88.44
473.53	92.44
473.749	97.44
473.968	90.44
474.187	92.44
474.406	89.44
474.625	100.44
474.844	79.44
475.063	98.44
475.282	91.44
475.501	92.44
475.72	99.44
475.939	103.44
476.158	97.44
476.377	102.44
476.596	109.44
476.814	87.44
477.033	79.44
477.252	79.44
477.471	93.44
477.69	91.44
477.908	89.44
478.127	102.44
478.346	107.44
478.564	104.44
478.783	90.44
479.002	103.44
479.22	76.44
479.439	96.44
479.658	88.44
479.876	97.44
480.095	95.44
480.313	84.44
480.532	95.44
480.751	96.44
480.969	92.44
481.188	79.44
481.406	97.44
481.624	96.44
481.843	104.44
482.061	92.44
482.28	95.44
482.498	99.44
482.717	100.44
482.935	95.44
483.153	91.44
483.372	90.44
483.59	89.44
483.808	100.44
484.027	100.44
484.245	118.44
484.463	165.44
484.681	203.44
484.9	127.44
485.118	107.44
485.336	101.44
485.554	107.44
485.772	109.44
485.99	161.44
486.209	221.44
486.427	143.44
486.645	104.44
486.863	100.44
487.081	99.44
487.299	91.44
487.517	89.44
487.735	76.44
487.953	89.44
488.171	92.44
488.389	100.44
488.607	96.44
488.825	96.44
489.043	86.44
489.261	104.44
489.479	81.44
489.696	92.44
489.914	85.44
490.132	88.44
490.35	101.44
490.568	94.44
490.786	107.44
491.003	101.44
491.221	105.44
491.439	99.44
491.657	101.44
491.874	109.44
492.092	103.44
492.31	96.44
492.527	99.44
492.745	113.44
492.963	105.44
493.18	95.44
493.398	105.44
493.615	109.44
493.833	100.44
494.05	99.44
494.268	92.44
494.485	95.44
494.703	109.44
494.92	99.44
495.138	107.44
495.355	99.44
495.573	109.44
495.79	93.44
496.008	96.44
496.225	83.44
496.442	98.44
496.66	111.44
496.877	143.44
497.094	137.44
497.312	106.44
497.529	99.44
497.746	97.44
497.963	103.44
498.181	101.44
498.398	107.44
498.615	97.44
498.832	103.44
499.049	105.44
499.267	116.44
499.484	136.44
499.701	97.44
499.918	103.44
500.135	99.44
500.352	88.44
500.569	86.44
500.786	91.44
501.003	96.44
501.22	96.44
501.437	83.44
501.654	85.44
501.871	87.44
502.088	84.44
502.305	94.44
502.522	87.44
502.739	95.44
502.956	87.44
503.172	100.44
503.389	96.44
503.606	108.44
503.823	114.44
504.04	99.44
504.256	96.44
504.473	96.44
504.69	90.44
504.907	85.44
505.123	102.44
505.34	80.44
505.557	93.44
505.773	98.44
505.99	107.44
506.207	90.44
506.423	99.44
506.64	89.44
506.856	83.44
507.073	92.44
507.289	100.44
507.506	83.44
507.722	74.44
507.939	96.44
508.155	101.44
508.372	97.44
508.588	89.44
508.805	82.44
509.021	91.44
509.238	79.44
509.454	117.44
509.67	139.44
509.887	105.44
510.103	97.44
510.319	88.44
510.536	92.44
510.752	110.44
510.968	98.44
511.184	95.44
