Data from SnStandardFlinnAPT0064_LampEnergy5.5_LIBS07252019.E.O._I.C._HRD10591_15-15-49-491.txt Node
Date: Thu Jul 25 15:15:49 EDT 2019
User: cochatt
Spectrometer: HR+D1059
Trigger mode: 1
Integration Time (sec): 1.000000E-1
Scans to average: 1
Electric dark correction enabled: true
Nonlinearity correction enabled: false
Boxcar width: 0
XAxis mode: Wavelengths
Number of Pixels in Spectrum: 2048
>>>>>Begin Spectral Data<<<<<
223.165	-20.06
223.4	-20.06
223.635	-20.06
223.869	-23.06
224.104	-30.06
224.338	-16.06
224.573	-19.06
224.808	10.94
225.042	-1.06
225.277	-5.06
225.511	-3.06
225.746	-0.06
225.98	-6.06
226.215	18.94
226.449	20.94
226.683	20.94
226.918	20.94
227.152	30.94
227.387	43.94
227.621	33.94
227.856	40.94
228.09	41.94
228.324	54.94
228.559	62.94
228.793	89.94
229.027	142.94
229.262	158.94
229.496	145.94
229.73	148.94
229.964	161.94
230.199	127.94
230.433	160.94
230.667	175.94
230.901	160.94
231.136	175.94
231.37	179.94
231.604	181.94
231.838	182.94
232.072	208.94
232.306	224.94
232.541	192.94
232.775	203.94
233.009	202.94
233.243	196.94
233.477	201.94
233.711	244.94
233.945	243.94
234.179	233.94
234.413	216.94
234.647	210.94
234.881	226.94
235.115	234.94
235.349	256.94
235.583	320.94
235.817	403.94
236.051	392.94
236.285	278.94
236.519	233.94
236.753	223.94
236.987	243.94
237.221	244.94
237.455	235.94
237.689	216.94
237.922	217.94
238.156	223.94
238.39	231.94
238.624	211.94
238.858	199.94
239.091	213.94
239.325	236.94
239.559	229.94
239.793	230.94
240.027	257.94
240.26	232.94
240.494	242.94
240.728	244.94
240.961	244.94
241.195	276.94
241.429	296.94
241.662	284.94
241.896	329.94
242.13	387.94
242.363	471.94
242.597	570.94
242.83	545.94
243.064	557.94
243.298	652.94
243.531	562.94
243.765	370.94
243.998	306.94
244.232	305.94
244.465	279.94
244.699	275.94
244.932	281.94
245.166	278.94
245.399	288.94
245.633	303.94
245.866	320.94
246.099	314.94
246.333	284.94
246.566	282.94
246.8	288.94
247.033	282.94
247.266	294.94
247.5	294.94
247.733	286.94
247.966	319.94
248.2	310.94
248.433	352.94
248.666	378.94
248.899	350.94
249.133	354.94
249.366	347.94
249.599	367.94
249.832	414.94
250.066	423.94
250.299	367.94
250.532	330.94
250.765	298.94
250.998	324.94
251.231	330.94
251.465	323.94
251.698	332.94
251.931	322.94
252.164	308.94
252.397	355.94
252.63	346.94
252.863	354.94
253.096	330.94
253.329	326.94
253.562	336.94
253.795	354.94
254.028	331.94
254.261	348.94
254.494	377.94
254.727	420.94
254.96	482.94
255.193	482.94
255.426	401.94
255.659	371.94
255.892	375.94
256.124	359.94
256.357	386.94
256.59	384.94
256.823	392.94
257.056	435.94
257.289	475.94
257.521	540.94
257.754	461.94
257.987	388.94
258.22	402.94
258.452	403.94
258.685	395.94
258.918	382.94
259.151	406.94
259.383	443.94
259.616	453.94
259.849	498.94
260.081	438.94
260.314	444.94
260.547	411.94
260.779	400.94
261.012	412.94
261.244	420.94
261.477	440.94
261.71	427.94
261.942	410.94
262.175	450.94
262.407	447.94
262.64	469.94
262.872	472.94
263.105	499.94
263.337	513.94
263.57	540.94
263.802	538.94
264.035	561.94
264.267	564.94
264.499	575.94
264.732	588.94
264.964	633.94
265.197	601.94
265.429	599.94
265.661	618.94
265.894	645.94
266.126	734.94
266.358	774.94
266.591	718.94
266.823	666.94
267.055	623.94
267.287	595.94
267.52	563.94
267.752	550.94
267.984	568.94
268.216	554.94
268.448	529.94
268.681	529.94
268.913	549.94
269.145	520.94
269.377	548.94
269.609	527.94
269.841	546.94
270.073	561.94
270.306	640.94
270.538	828.94
270.77	1154.94
271.002	1399.94
271.234	992.94
271.466	730.94
271.698	592.94
271.93	564.94
272.162	524.94
272.394	529.94
272.626	518.94
272.858	518.94
273.09	502.94
273.322	519.94
273.553	514.94
273.785	525.94
274.017	519.94
274.249	522.94
274.481	516.94
274.713	511.94
274.945	531.94
275.176	528.94
275.408	521.94
275.64	521.94
275.872	503.94
276.104	516.94
276.335	534.94
276.567	529.94
276.799	549.94
277.031	526.94
277.262	543.94
277.494	578.94
277.726	607.94
277.957	662.94
278.189	744.94
278.421	716.94
278.652	682.94
278.884	639.94
279.115	563.94
279.347	564.94
279.579	567.94
279.81	547.94
280.042	537.94
280.273	582.94
280.505	574.94
280.736	601.94
280.968	614.94
281.199	649.94
281.431	721.94
281.662	729.94
281.894	672.94
282.125	632.94
282.356	651.94
282.588	634.94
282.819	686.94
283.051	701.94
283.282	757.94
283.513	942.94
283.745	1298.94
283.976	2036.94
284.207	2713.94
284.439	2467.94
284.67	1568.94
284.901	1296.94
285.132	1238.94
285.364	1192.94
285.595	950.94
285.826	894.94
286.057	1039.94
286.288	1361.94
286.52	1810.94
286.751	1661.94
286.982	1116.94
287.213	870.94
287.444	768.94
287.675	720.94
287.906	718.94
288.138	719.94
288.369	683.94
288.6	677.94
288.831	691.94
289.062	674.94
289.293	683.94
289.524	693.94
289.755	663.94
289.986	701.94
290.217	678.94
290.448	688.94
290.679	696.94
290.91	689.94
291.141	708.94
291.371	733.94
291.602	750.94
291.833	722.94
292.064	695.94
292.295	683.94
292.526	691.94
292.757	656.94
292.987	663.94
293.218	667.94
293.449	656.94
293.68	662.94
293.91	630.94
294.141	624.94
294.372	631.94
294.603	637.94
294.833	648.94
295.064	638.94
295.295	642.94
295.525	647.94
295.756	615.94
295.987	657.94
296.217	646.94
296.448	631.94
296.679	644.94
296.909	668.94
297.14	655.94
297.37	666.94
297.601	646.94
297.831	659.94
298.062	640.94
298.292	684.94
298.523	657.94
298.753	686.94
298.984	697.94
299.214	698.94
299.445	687.94
299.675	699.94
299.905	733.94
300.136	765.94
300.366	842.94
300.597	1044.94
300.827	1354.94
301.057	1767.94
301.288	1744.94
301.518	1197.94
301.748	942.94
301.979	859.94
302.209	870.94
302.439	869.94
302.669	918.94
302.9	1086.94
303.13	1430.94
303.36	2032.94
303.59	2623.94
303.82	2325.94
304.051	1420.94
304.281	1081.94
304.511	927.94
304.741	868.94
304.971	835.94
305.201	803.94
305.431	755.94
305.661	774.94
305.891	756.94
306.121	747.94
306.352	774.94
306.582	753.94
306.812	718.94
307.042	717.94
307.272	720.94
307.502	733.94
307.731	728.94
307.961	740.94
308.191	752.94
308.421	763.94
308.651	763.94
308.881	767.94
309.111	735.94
309.341	754.94
309.571	752.94
309.8	752.94
310.03	745.94
310.26	738.94
310.49	723.94
310.72	737.94
310.949	762.94
311.179	756.94
311.409	772.94
311.639	767.94
311.868	797.94
312.098	794.94
312.328	778.94
312.557	817.94
312.787	775.94
313.017	804.94
313.246	816.94
313.476	801.94
313.706	848.94
313.935	840.94
314.165	903.94
314.394	920.94
314.624	893.94
314.853	866.94
315.083	833.94
315.312	875.94
315.542	875.94
315.771	875.94
316.001	879.94
316.23	884.94
316.46	914.94
316.689	978.94
316.919	1175.94
317.148	1680.94
317.377	2414.94
317.607	3577.94
317.836	3610.94
318.065	2179.94
318.295	1506.94
318.524	1221.94
318.753	1102.94
318.983	1026.94
319.212	963.94
319.441	962.94
319.67	958.94
319.9	945.94
320.129	930.94
320.358	914.94
320.587	934.94
320.816	928.94
321.046	923.94
321.275	947.94
321.504	930.94
321.733	944.94
321.962	955.94
322.191	986.94
322.42	990.94
322.649	985.94
322.878	979.94
323.108	960.94
323.337	1004.94
323.566	992.94
323.795	1031.94
324.024	1066.94
324.253	1042.94
324.482	1090.94
324.71	1136.94
324.939	1217.94
325.168	1195.94
325.397	1252.94
325.626	1444.94
325.855	1961.94
326.084	2995.94
326.313	4348.94
326.542	4664.94
326.77	3001.94
326.999	2060.94
327.228	1735.94
327.457	1674.94
327.686	1734.94
327.914	1805.94
328.143	2068.94
328.372	2358.94
328.6	2530.94
328.829	2348.94
329.058	2097.94
329.287	1897.94
329.515	1754.94
329.744	1615.94
329.972	1547.94
330.201	1482.94
330.43	1400.94
330.658	1418.94
330.887	1387.94
331.115	1369.94
331.344	1318.94
331.572	1305.94
331.801	1368.94
332.03	1345.94
332.258	1330.94
332.486	1430.94
332.715	1549.94
332.943	1828.94
333.172	2226.94
333.4	2176.94
333.629	1812.94
333.857	1695.94
334.085	1640.94
334.314	1763.94
334.542	1869.94
334.771	2129.94
334.999	2472.94
335.227	3052.94
335.455	3399.94
335.684	3142.94
335.912	2728.94
336.14	2378.94
336.369	2105.94
336.597	1996.94
336.825	1819.94
337.053	1730.94
337.281	1648.94
337.51	1547.94
337.738	1507.94
337.966	1454.94
338.194	1415.94
338.422	1337.94
338.65	1300.94
338.878	1317.94
339.106	1277.94
339.334	1267.94
339.562	1237.94
339.79	1229.94
340.018	1200.94
340.246	1209.94
340.474	1186.94
340.702	1186.94
340.93	1188.94
341.158	1190.94
341.386	1187.94
341.614	1212.94
341.842	1192.94
342.07	1153.94
342.298	1157.94
342.526	1124.94
342.754	1103.94
342.981	1093.94
343.209	1100.94
343.437	1128.94
343.665	1123.94
343.893	1161.94
344.12	1137.94
344.348	1138.94
344.576	1102.94
344.804	1104.94
345.031	1067.94
345.259	1062.94
345.487	1048.94
345.714	1049.94
345.942	1037.94
346.17	1060.94
346.397	1018.94
346.625	1035.94
346.853	1034.94
347.08	1019.94
347.308	1029.94
347.535	1011.94
347.763	1003.94
347.99	979.94
348.218	1027.94
348.445	1022.94
348.673	979.94
348.9	1028.94
349.128	1002.94
349.355	993.94
349.583	1025.94
349.81	975.94
350.037	992.94
350.265	948.94
350.492	992.94
350.72	953.94
350.947	974.94
351.174	980.94
351.402	960.94
351.629	965.94
351.856	1001.94
352.083	985.94
352.311	969.94
352.538	962.94
352.765	985.94
352.992	965.94
353.22	955.94
353.447	958.94
353.674	966.94
353.901	1003.94
354.128	965.94
354.355	972.94
354.583	955.94
354.81	1002.94
355.037	1017.94
355.264	974.94
355.491	972.94
355.718	982.94
355.945	1007.94
356.172	1012.94
356.399	995.94
356.626	984.94
356.853	1028.94
357.08	1003.94
357.307	1001.94
357.534	1053.94
357.761	1033.94
357.988	1012.94
358.215	1006.94
358.441	1027.94
358.668	1011.94
358.895	1040.94
359.122	1001.94
359.349	1022.94
359.576	1019.94
359.802	1060.94
360.029	998.94
360.256	1039.94
360.483	1044.94
360.709	1042.94
360.936	1059.94
361.163	1053.94
361.39	1042.94
361.616	1039.94
361.843	1020.94
362.07	1046.94
362.296	1063.94
362.523	1036.94
362.749	1028.94
362.976	1051.94
363.203	1025.94
363.429	1027.94
363.656	1047.94
363.882	1030.94
364.109	1040.94
364.335	1015.94
364.562	1058.94
364.788	1012.94
365.015	1059.94
365.241	1055.94
365.468	1095.94
365.694	1121.94
365.92	1106.94
366.147	1075.94
366.373	1041.94
366.599	1030.94
366.826	1059.94
367.052	1047.94
367.278	1073.94
367.505	1046.94
367.731	1043.94
367.957	1036.94
368.184	1078.94
368.41	1086.94
368.636	1080.94
368.862	1073.94
369.089	1085.94
369.315	1070.94
369.541	1063.94
369.767	1080.94
369.993	1069.94
370.219	1052.94
370.445	1084.94
370.672	1104.94
370.898	1095.94
371.124	1113.94
371.35	1116.94
371.576	1105.94
371.802	1096.94
372.028	1112.94
372.254	1131.94
372.48	1116.94
372.706	1140.94
372.932	1128.94
373.158	1141.94
373.384	1128.94
373.61	1131.94
373.835	1139.94
374.061	1125.94
374.287	1163.94
374.513	1158.94
374.739	1156.94
374.965	1192.94
375.191	1153.94
375.416	1168.94
375.642	1160.94
375.868	1167.94
376.094	1147.94
376.319	1143.94
376.545	1114.94
376.771	1126.94
376.997	1142.94
377.222	1116.94
377.448	1103.94
377.674	1106.94
377.899	1110.94
378.125	1076.94
378.35	1136.94
378.576	1094.94
378.802	1113.94
379.027	1119.94
379.253	1193.94
379.478	1198.94
379.704	1347.94
379.929	1863.94
380.155	2647.94
380.38	2825.94
380.606	1836.94
380.831	1414.94
381.057	1234.94
381.282	1160.94
381.507	1144.94
381.733	1131.94
381.958	1105.94
382.184	1103.94
382.409	1121.94
382.634	1135.94
382.86	1115.94
383.085	1092.94
383.31	1102.94
383.535	1121.94
383.761	1094.94
383.986	1113.94
384.211	1118.94
384.436	1142.94
384.662	1135.94
384.887	1146.94
385.112	1137.94
385.337	1162.94
385.562	1155.94
385.787	1159.94
386.013	1163.94
386.238	1157.94
386.463	1139.94
386.688	1168.94
386.913	1130.94
387.138	1138.94
387.363	1145.94
387.588	1154.94
387.813	1158.94
388.038	1154.94
388.263	1146.94
388.488	1134.94
388.713	1141.94
388.938	1151.94
389.163	1140.94
389.387	1150.94
389.612	1147.94
389.837	1152.94
390.062	1159.94
390.287	1158.94
390.512	1175.94
390.736	1175.94
390.961	1178.94
391.186	1197.94
391.411	1187.94
391.636	1177.94
391.86	1233.94
392.085	1221.94
392.31	1214.94
392.534	1202.94
392.759	1177.94
392.984	1153.94
393.208	1174.94
393.433	1152.94
393.658	1170.94
393.882	1163.94
394.107	1150.94
394.331	1179.94
394.556	1164.94
394.78	1131.94
395.005	1166.94
395.229	1174.94
395.454	1159.94
395.678	1193.94
395.903	1196.94
396.127	1199.94
396.352	1219.94
396.576	1191.94
396.801	1172.94
397.025	1159.94
397.249	1156.94
397.474	1218.94
397.698	1232.94
397.922	1203.94
398.147	1238.94
398.371	1225.94
398.595	1268.94
398.82	1252.94
399.044	1335.94
399.268	1352.94
399.492	1514.94
399.717	1550.94
399.941	1520.94
400.165	1479.94
400.389	1396.94
400.613	1376.94
400.837	1326.94
401.062	1300.94
401.286	1276.94
401.51	1257.94
401.734	1267.94
401.958	1262.94
402.182	1308.94
402.406	1271.94
402.63	1252.94
402.854	1264.94
403.078	1300.94
403.302	1292.94
403.526	1282.94
403.75	1327.94
403.974	1360.94
404.198	1304.94
404.422	1329.94
404.645	1338.94
404.869	1305.94
405.093	1364.94
405.317	1307.94
405.541	1347.94
405.765	1356.94
405.988	1337.94
406.212	1353.94
406.436	1320.94
406.66	1362.94
406.883	1396.94
407.107	1452.94
407.331	1401.94
407.555	1456.94
407.778	1451.94
408.002	1393.94
408.226	1398.94
408.449	1384.94
408.673	1369.94
408.896	1340.94
409.12	1335.94
409.344	1347.94
409.567	1358.94
409.791	1334.94
410.014	1305.94
410.238	1292.94
410.461	1294.94
410.685	1254.94
410.908	1308.94
411.132	1294.94
411.355	1270.94
411.578	1267.94
411.802	1271.94
412.025	1264.94
412.249	1260.94
412.472	1270.94
412.695	1279.94
412.919	1253.94
413.142	1251.94
413.365	1232.94
413.589	1242.94
413.812	1234.94
414.035	1234.94
414.258	1238.94
414.482	1248.94
414.705	1262.94
414.928	1234.94
415.151	1253.94
415.374	1262.94
415.597	1221.94
415.821	1205.94
416.044	1230.94
416.267	1231.94
416.49	1172.94
416.713	1230.94
416.936	1229.94
417.159	1224.94
417.382	1202.94
417.605	1165.94
417.828	1227.94
418.051	1210.94
418.274	1210.94
418.497	1211.94
418.72	1231.94
418.943	1225.94
419.166	1274.94
419.389	1382.94
419.611	1339.94
419.834	1257.94
420.057	1264.94
420.28	1249.94
420.503	1204.94
420.726	1172.94
420.948	1175.94
421.171	1212.94
421.394	1191.94
421.617	1203.94
421.839	1257.94
422.062	1234.94
422.285	1200.94
422.507	1233.94
422.73	1207.94
422.953	1207.94
423.175	1234.94
423.398	1234.94
423.621	1186.94
423.843	1243.94
424.066	1221.94
424.288	1199.94
424.511	1228.94
424.733	1208.94
424.956	1217.94
425.178	1210.94
425.401	1204.94
425.623	1216.94
425.846	1163.94
426.068	1171.94
426.291	1175.94
426.513	1144.94
426.735	1163.94
426.958	1132.94
427.18	1105.94
427.402	1147.94
427.625	1133.94
427.847	1107.94
428.069	1111.94
428.292	1128.94
428.514	1119.94
428.736	1135.94
428.958	1135.94
429.181	1096.94
429.403	1095.94
429.625	1106.94
429.847	1098.94
430.069	1135.94
430.292	1152.94
430.514	1165.94
430.736	1212.94
430.958	1111.94
431.18	1085.94
431.402	1117.94
431.624	1092.94
431.846	1106.94
432.068	1084.94
432.29	1098.94
432.512	1078.94
432.734	1129.94
432.956	1123.94
433.178	1143.94
433.4	1117.94
433.622	1102.94
433.844	1145.94
434.066	1116.94
434.287	1115.94
434.509	1145.94
434.731	1116.94
434.953	1158.94
435.175	1157.94
435.397	1191.94
435.618	1134.94
435.84	1101.94
436.062	1117.94
436.284	1080.94
436.505	1082.94
436.727	1124.94
436.949	1116.94
437.17	1124.94
437.392	1108.94
437.614	1077.94
437.835	1046.94
438.057	1039.94
438.278	1039.94
438.5	1080.94
438.721	1078.94
438.943	1129.94
439.165	1143.94
439.386	1118.94
439.608	1136.94
439.829	1168.94
440.05	1177.94
440.272	1194.94
440.493	1146.94
440.715	1167.94
440.936	1183.94
441.158	1186.94
441.379	1192.94
441.6	1249.94
441.822	1246.94
442.043	1257.94
442.264	1288.94
442.486	1223.94
442.707	1200.94
442.928	1193.94
443.149	1198.94
443.371	1184.94
443.592	1187.94
443.813	1216.94
444.034	1184.94
444.255	1227.94
444.476	1269.94
444.698	1253.94
444.919	1296.94
445.14	1328.94
445.361	1304.94
445.582	1219.94
445.803	1181.94
446.024	1176.94
446.245	1235.94
446.466	1190.94
446.687	1160.94
446.908	1160.94
447.129	1112.94
447.35	1138.94
447.571	1106.94
447.792	1097.94
448.013	1062.94
448.234	1079.94
448.455	1074.94
448.675	1096.94
448.896	1152.94
449.117	1122.94
449.338	1234.94
449.559	1266.94
449.779	1163.94
450	1068.94
450.221	1078.94
450.442	1100.94
450.662	1078.94
450.883	1053.94
451.104	1072.94
451.324	1068.94
451.545	1046.94
451.766	1070.94
451.986	1051.94
452.207	1152.94
452.428	1286.94
452.648	1752.94
452.869	1527.94
453.089	1211.94
453.31	1137.94
453.53	1163.94
453.751	1170.94
453.971	1232.94
454.192	1220.94
454.412	1088.94
454.633	1064.94
454.853	1039.94
455.073	1039.94
455.294	1009.94
455.514	1027.94
455.734	1022.94
455.955	1010.94
456.175	1025.94
456.395	996.94
456.616	995.94
456.836	1043.94
457.056	1015.94
457.276	1011.94
457.497	1073.94
457.717	1104.94
457.937	1058.94
458.157	1083.94
458.377	1088.94
458.598	1047.94
458.818	1104.94
459.038	1088.94
459.258	1056.94
459.478	1070.94
459.698	1101.94
459.918	1152.94
460.138	1152.94
460.358	1190.94
460.578	1203.94
460.798	1182.94
461.018	1204.94
461.238	1177.94
461.458	1225.94
461.678	1197.94
461.898	1257.94
462.118	1269.94
462.338	1270.94
462.558	1274.94
462.777	1305.94
462.997	1350.94
463.217	1392.94
463.437	1410.94
463.657	1442.94
463.876	1381.94
464.096	1367.94
464.316	1341.94
464.536	1316.94
464.755	1272.94
464.975	1255.94
465.195	1222.94
465.414	1212.94
465.634	1149.94
465.854	1146.94
466.073	1105.94
466.293	1129.94
466.512	1105.94
466.732	1142.94
466.951	1162.94
467.171	1225.94
467.391	1190.94
467.61	1143.94
467.829	1099.94
468.049	1124.94
468.268	1103.94
468.488	1070.94
468.707	1094.94
468.927	1066.94
469.146	1089.94
469.365	1123.94
469.585	1119.94
469.804	1115.94
470.023	1159.94
470.243	1161.94
470.462	1211.94
470.681	1235.94
470.901	1305.94
471.12	1489.94
471.339	1501.94
471.558	1284.94
471.777	1188.94
471.997	1183.94
472.216	1128.94
472.435	1116.94
472.654	1091.94
472.873	1073.94
473.092	1103.94
473.311	1065.94
473.53	1063.94
473.749	1090.94
473.968	1178.94
474.187	1090.94
474.406	1094.94
474.625	1088.94
474.844	1108.94
475.063	1114.94
475.282	1144.94
475.501	1094.94
475.72	1112.94
475.939	1091.94
476.158	1139.94
476.377	1156.94
476.596	1153.94
476.814	1147.94
477.033	1156.94
477.252	1170.94
477.471	1180.94
477.69	1201.94
477.908	1202.94
478.127	1265.94
478.346	1263.94
478.564	1303.94
478.783	1267.94
479.002	1320.94
479.22	1311.94
479.439	1262.94
479.658	1286.94
479.876	1307.94
480.095	1324.94
480.313	1325.94
480.532	1383.94
480.751	1358.94
480.969	1277.94
481.188	1328.94
481.406	1285.94
481.624	1261.94
481.843	1295.94
482.061	1297.94
482.28	1295.94
482.498	1288.94
482.717	1311.94
482.935	1291.94
483.153	1353.94
483.372	1364.94
483.59	1376.94
483.808	1367.94
484.027	1394.94
484.245	1472.94
484.463	1567.94
484.681	1737.94
484.9	1583.94
485.118	1511.94
485.336	1507.94
485.554	1498.94
485.772	1583.94
485.99	1754.94
486.209	1868.94
486.427	1632.94
486.645	1478.94
486.863	1439.94
487.081	1426.94
487.299	1403.94
487.517	1388.94
487.735	1415.94
487.953	1407.94
488.171	1422.94
488.389	1434.94
488.607	1377.94
488.825	1346.94
489.043	1362.94
489.261	1339.94
489.479	1336.94
489.696	1361.94
489.914	1367.94
490.132	1374.94
490.35	1395.94
490.568	1376.94
490.786	1411.94
491.003	1387.94
491.221	1430.94
491.439	1426.94
