Data from SnStandardFlinnAPT0064_QswitchEnergy10_LIBS07252019.E.O._I.C._HRD10591_15-28-06-974.txt Node
Date: Thu Jul 25 15:28:06 EDT 2019
User: cochatt
Spectrometer: HR+D1059
Trigger mode: 1
Integration Time (sec): 1.000000E-1
Scans to average: 1
Electric dark correction enabled: true
Nonlinearity correction enabled: false
Boxcar width: 0
XAxis mode: Wavelengths
Number of Pixels in Spectrum: 2048
>>>>>Begin Spectral Data<<<<<
223.165	-9.94
223.4	-9.94
223.635	-9.94
223.869	-27.94
224.104	-19.94
224.338	-9.94
224.573	-26.94
224.808	-13.94
225.042	-6.94
225.277	-3.94
225.511	-0.94
225.746	5.06
225.98	4.06
226.215	23.06
226.449	11.06
226.683	23.06
226.918	28.06
227.152	26.06
227.387	34.06
227.621	42.06
227.856	40.06
228.09	45.06
228.324	52.06
228.559	52.06
228.793	56.06
229.027	69.06
229.262	72.06
229.496	77.06
229.73	56.06
229.964	85.06
230.199	78.06
230.433	87.06
230.667	76.06
230.901	62.06
231.136	77.06
231.37	83.06
231.604	98.06
231.838	105.06
232.072	125.06
232.306	120.06
232.541	102.06
232.775	101.06
233.009	92.06
233.243	74.06
233.477	79.06
233.711	92.06
233.945	101.06
234.179	86.06
234.413	82.06
234.647	84.06
234.881	67.06
235.115	95.06
235.349	88.06
235.583	111.06
235.817	118.06
236.051	130.06
236.285	84.06
236.519	85.06
236.753	74.06
236.987	81.06
237.221	94.06
237.455	74.06
237.689	77.06
237.922	73.06
238.156	76.06
238.39	75.06
238.624	100.06
238.858	78.06
239.091	81.06
239.325	86.06
239.559	78.06
239.793	71.06
240.027	89.06
240.26	88.06
240.494	87.06
240.728	95.06
240.961	84.06
241.195	92.06
241.429	84.06
241.662	89.06
241.896	91.06
242.13	97.06
242.363	116.06
242.597	166.06
242.83	145.06
243.064	150.06
243.298	167.06
243.531	154.06
243.765	100.06
243.998	82.06
244.232	76.06
244.465	78.06
244.699	76.06
244.932	74.06
245.166	80.06
245.399	78.06
245.633	78.06
245.866	85.06
246.099	81.06
246.333	90.06
246.566	80.06
246.8	71.06
247.033	69.06
247.266	92.06
247.5	90.06
247.733	92.06
247.966	89.06
248.2	87.06
248.433	107.06
248.666	134.06
248.899	121.06
249.133	96.06
249.366	107.06
249.599	94.06
249.832	117.06
250.066	140.06
250.299	86.06
250.532	82.06
250.765	65.06
250.998	69.06
251.231	89.06
251.465	89.06
251.698	88.06
251.931	89.06
252.164	84.06
252.397	81.06
252.63	100.06
252.863	101.06
253.096	86.06
253.329	93.06
253.562	94.06
253.795	80.06
254.028	95.06
254.261	90.06
254.494	101.06
254.727	117.06
254.96	161.06
255.193	132.06
255.426	97.06
255.659	90.06
255.892	81.06
256.124	84.06
256.357	94.06
256.59	99.06
256.823	80.06
257.056	125.06
257.289	154.06
257.521	184.06
257.754	128.06
257.987	95.06
258.22	82.06
258.452	87.06
258.685	83.06
258.918	97.06
259.151	90.06
259.383	110.06
259.616	152.06
259.849	144.06
260.081	93.06
260.314	96.06
260.547	73.06
260.779	84.06
261.012	84.06
261.244	73.06
261.477	84.06
261.71	88.06
261.942	100.06
262.175	77.06
262.407	60.06
262.64	74.06
262.872	92.06
263.105	86.06
263.337	97.06
263.57	81.06
263.802	86.06
264.035	96.06
264.267	97.06
264.499	88.06
264.732	93.06
264.964	89.06
265.197	90.06
265.429	87.06
265.661	87.06
265.894	100.06
266.126	115.06
266.358	157.06
266.591	153.06
266.823	98.06
267.055	85.06
267.287	92.06
267.52	76.06
267.752	86.06
267.984	67.06
268.216	90.06
268.448	99.06
268.681	93.06
268.913	82.06
269.145	79.06
269.377	87.06
269.609	100.06
269.841	100.06
270.073	105.06
270.306	128.06
270.538	201.06
270.77	336.06
271.002	412.06
271.234	200.06
271.466	100.06
271.698	101.06
271.93	86.06
272.162	84.06
272.394	88.06
272.626	89.06
272.858	78.06
273.09	85.06
273.322	86.06
273.553	83.06
273.785	97.06
274.017	85.06
274.249	95.06
274.481	81.06
274.713	82.06
274.945	89.06
275.176	84.06
275.408	91.06
275.64	109.06
275.872	96.06
276.104	86.06
276.335	91.06
276.567	87.06
276.799	88.06
277.031	70.06
277.262	84.06
277.494	104.06
277.726	121.06
277.957	205.06
278.189	282.06
278.421	240.06
278.652	180.06
278.884	188.06
279.115	146.06
279.347	108.06
279.579	96.06
279.81	88.06
280.042	97.06
280.273	108.06
280.505	104.06
280.736	103.06
280.968	128.06
281.199	166.06
281.431	256.06
281.662	274.06
281.894	157.06
282.125	124.06
282.356	126.06
282.588	101.06
282.819	106.06
283.051	119.06
283.282	144.06
283.513	211.06
283.745	315.06
283.976	570.06
284.207	863.06
284.439	634.06
284.67	276.06
284.901	272.06
285.132	371.06
285.364	396.06
285.595	233.06
285.826	188.06
286.057	254.06
286.288	444.06
286.52	646.06
286.751	534.06
286.982	200.06
287.213	116.06
287.444	117.06
287.675	102.06
287.906	101.06
288.138	88.06
288.369	99.06
288.6	99.06
288.831	91.06
289.062	97.06
289.293	101.06
289.524	101.06
289.755	97.06
289.986	93.06
290.217	113.06
290.448	108.06
290.679	105.06
290.91	134.06
291.141	175.06
291.371	247.06
291.602	297.06
291.833	201.06
292.064	125.06
292.295	111.06
292.526	122.06
292.757	100.06
292.987	111.06
293.218	95.06
293.449	102.06
293.68	92.06
293.91	100.06
294.141	102.06
294.372	98.06
294.603	97.06
294.833	93.06
295.064	88.06
295.295	82.06
295.525	102.06
295.756	89.06
295.987	80.06
296.217	100.06
296.448	99.06
296.679	93.06
296.909	80.06
297.14	97.06
297.37	109.06
297.601	108.06
297.831	92.06
298.062	102.06
298.292	98.06
298.523	98.06
298.753	111.06
298.984	100.06
299.214	118.06
299.445	122.06
299.675	105.06
299.905	120.06
300.136	127.06
300.366	187.06
300.597	307.06
300.827	506.06
301.057	748.06
301.288	647.06
301.518	278.06
301.748	167.06
301.979	137.06
302.209	137.06
302.439	149.06
302.669	189.06
302.9	283.06
303.13	523.06
303.36	914.06
303.59	1294.06
303.82	906.06
304.051	319.06
304.281	161.06
304.511	132.06
304.741	120.06
304.971	122.06
305.201	117.06
305.431	106.06
305.661	110.06
305.891	118.06
306.121	115.06
306.352	108.06
306.582	105.06
306.812	103.06
307.042	110.06
307.272	96.06
307.502	104.06
307.731	100.06
307.961	110.06
308.191	92.06
308.421	106.06
308.651	104.06
308.881	109.06
309.111	105.06
309.341	108.06
309.571	116.06
309.8	119.06
310.03	114.06
310.26	105.06
310.49	108.06
310.72	106.06
310.949	92.06
311.179	110.06
311.409	116.06
311.639	92.06
311.868	99.06
312.098	103.06
312.328	117.06
312.557	128.06
312.787	108.06
313.017	106.06
313.246	112.06
313.476	120.06
313.706	128.06
313.935	161.06
314.165	202.06
314.394	243.06
314.624	180.06
314.853	133.06
315.083	136.06
315.312	113.06
315.542	129.06
315.771	130.06
316.001	124.06
316.23	143.06
316.46	153.06
316.689	175.06
316.919	284.06
317.148	523.06
317.377	985.06
317.607	1624.06
317.836	1537.06
318.065	555.06
318.295	217.06
318.524	172.06
318.753	128.06
318.983	118.06
319.212	122.06
319.441	127.06
319.67	122.06
319.9	102.06
320.129	105.06
320.358	125.06
320.587	125.06
320.816	117.06
321.046	134.06
321.275	138.06
321.504	115.06
321.733	155.06
321.962	172.06
322.191	175.06
322.42	139.06
322.649	136.06
322.878	113.06
323.108	116.06
323.337	134.06
323.566	126.06
323.795	132.06
324.024	133.06
324.253	164.06
324.482	178.06
324.71	233.06
324.939	297.06
325.168	260.06
325.397	204.06
325.626	269.06
325.855	503.06
326.084	1015.06
326.313	1708.06
326.542	1730.06
326.77	633.06
326.999	268.06
327.228	228.06
327.457	239.06
327.686	246.06
327.914	157.06
328.143	130.06
328.372	149.06
328.6	128.06
328.829	135.06
329.058	126.06
329.287	119.06
329.515	136.06
329.744	121.06
329.972	117.06
330.201	118.06
330.43	119.06
330.658	122.06
330.887	121.06
331.115	101.06
331.344	112.06
331.572	118.06
331.801	132.06
332.03	111.06
332.258	138.06
332.486	181.06
332.715	305.06
332.943	557.06
333.172	830.06
333.4	711.06
333.629	279.06
333.857	158.06
334.085	119.06
334.314	124.06
334.542	126.06
334.771	130.06
334.999	142.06
335.227	127.06
335.455	134.06
335.684	117.06
335.912	128.06
336.14	124.06
336.369	126.06
336.597	117.06
336.825	111.06
337.053	103.06
337.281	124.06
337.51	120.06
337.738	119.06
337.966	120.06
338.194	122.06
338.422	135.06
338.65	118.06
338.878	123.06
339.106	113.06
339.334	125.06
339.562	122.06
339.79	104.06
340.018	116.06
340.246	122.06
340.474	118.06
340.702	109.06
340.93	108.06
341.158	121.06
341.386	119.06
341.614	112.06
341.842	108.06
342.07	108.06
342.298	111.06
342.526	115.06
342.754	114.06
342.981	111.06
343.209	122.06
343.437	119.06
343.665	120.06
343.893	122.06
344.12	105.06
344.348	100.06
344.576	110.06
344.804	120.06
345.031	116.06
345.259	120.06
345.487	105.06
345.714	110.06
345.942	116.06
346.17	114.06
346.397	112.06
346.625	111.06
346.853	93.06
347.08	114.06
347.308	97.06
347.535	102.06
347.763	95.06
347.99	105.06
348.218	102.06
348.445	106.06
348.673	105.06
348.9	118.06
349.128	121.06
349.355	112.06
349.583	118.06
349.81	117.06
350.037	111.06
350.265	120.06
350.492	118.06
350.72	119.06
350.947	111.06
351.174	111.06
351.402	121.06
351.629	124.06
351.856	122.06
352.083	106.06
352.311	114.06
352.538	117.06
352.765	110.06
352.992	101.06
353.22	105.06
353.447	96.06
353.674	109.06
353.901	93.06
354.128	100.06
354.355	104.06
354.583	109.06
354.81	90.06
355.037	100.06
355.264	92.06
355.491	111.06
355.718	106.06
355.945	83.06
356.172	101.06
356.399	110.06
356.626	112.06
356.853	112.06
357.08	127.06
357.307	96.06
357.534	121.06
357.761	114.06
357.988	103.06
358.215	102.06
358.441	107.06
358.668	115.06
358.895	106.06
359.122	132.06
359.349	114.06
359.576	114.06
359.802	128.06
360.029	110.06
360.256	115.06
360.483	101.06
360.709	114.06
360.936	126.06
361.163	104.06
361.39	116.06
361.616	104.06
361.843	112.06
362.07	120.06
362.296	104.06
362.523	108.06
362.749	99.06
362.976	110.06
363.203	120.06
363.429	128.06
363.656	111.06
363.882	113.06
364.109	104.06
364.335	108.06
364.562	86.06
364.788	98.06
365.015	116.06
365.241	135.06
365.468	194.06
365.694	260.06
365.92	209.06
366.147	118.06
366.373	103.06
366.599	87.06
366.826	95.06
367.052	108.06
367.278	95.06
367.505	96.06
367.731	104.06
367.957	103.06
368.184	102.06
368.41	104.06
368.636	117.06
368.862	107.06
369.089	96.06
369.315	112.06
369.541	113.06
369.767	108.06
369.993	101.06
370.219	98.06
370.445	116.06
370.672	106.06
370.898	108.06
371.124	103.06
371.35	109.06
371.576	110.06
371.802	109.06
372.028	130.06
372.254	93.06
372.48	117.06
372.706	118.06
372.932	103.06
373.158	93.06
373.384	101.06
373.61	123.06
373.835	113.06
374.061	114.06
374.287	103.06
374.513	113.06
374.739	108.06
374.965	108.06
375.191	118.06
375.416	100.06
375.642	92.06
375.868	108.06
376.094	111.06
376.319	110.06
376.545	109.06
376.771	109.06
376.997	112.06
377.222	114.06
377.448	98.06
377.674	110.06
377.899	103.06
378.125	114.06
378.35	120.06
378.576	133.06
378.802	124.06
379.027	129.06
379.253	156.06
379.478	168.06
379.704	353.06
379.929	838.06
380.155	1698.06
380.38	1756.06
380.606	568.06
380.831	195.06
381.057	149.06
381.282	112.06
381.507	113.06
381.733	116.06
381.958	111.06
382.184	112.06
382.409	111.06
382.634	96.06
382.86	95.06
383.085	105.06
383.31	117.06
383.535	106.06
383.761	103.06
383.986	103.06
384.211	111.06
384.436	110.06
384.662	113.06
384.887	105.06
385.112	93.06
385.337	115.06
385.562	108.06
385.787	110.06
386.013	101.06
386.238	98.06
386.463	94.06
386.688	105.06
386.913	102.06
387.138	102.06
387.363	116.06
387.588	108.06
387.813	98.06
388.038	110.06
388.263	111.06
388.488	101.06
388.713	106.06
388.938	110.06
389.163	102.06
389.387	90.06
389.612	96.06
389.837	102.06
390.062	114.06
390.287	90.06
390.512	91.06
390.736	105.06
390.961	97.06
391.186	112.06
391.411	98.06
391.636	91.06
391.86	102.06
392.085	102.06
392.31	95.06
392.534	101.06
392.759	96.06
392.984	90.06
393.208	119.06
393.433	136.06
393.658	134.06
393.882	99.06
394.107	111.06
394.331	113.06
394.556	87.06
394.78	88.06
395.005	102.06
395.229	101.06
395.454	104.06
395.678	96.06
395.903	93.06
396.127	92.06
396.352	110.06
396.576	97.06
396.801	103.06
397.025	130.06
397.249	112.06
397.474	103.06
397.698	98.06
397.922	94.06
398.147	93.06
398.371	78.06
398.595	97.06
398.82	97.06
399.044	92.06
399.268	119.06
399.492	96.06
399.717	108.06
399.941	79.06
400.165	114.06
400.389	110.06
400.613	95.06
400.837	90.06
401.062	80.06
401.286	97.06
401.51	89.06
401.734	98.06
401.958	92.06
402.182	99.06
402.406	117.06
402.63	98.06
402.854	94.06
403.078	105.06
403.302	93.06
403.526	92.06
403.75	87.06
403.974	81.06
404.198	91.06
404.422	87.06
404.645	71.06
404.869	98.06
405.093	106.06
405.317	85.06
405.541	105.06
405.765	148.06
405.988	156.06
406.212	122.06
406.436	108.06
406.66	88.06
406.883	90.06
407.107	98.06
407.331	102.06
407.555	97.06
407.778	98.06
408.002	102.06
408.226	113.06
408.449	104.06
408.673	92.06
408.896	93.06
409.12	101.06
409.344	104.06
409.567	109.06
409.791	97.06
410.014	105.06
410.238	112.06
410.461	108.06
410.685	90.06
410.908	91.06
411.132	108.06
411.355	94.06
411.578	96.06
411.802	103.06
412.025	95.06
412.249	87.06
412.472	102.06
412.695	82.06
412.919	86.06
413.142	104.06
413.365	107.06
413.589	104.06
413.812	92.06
414.035	102.06
414.258	109.06
414.482	106.06
414.705	114.06
414.928	119.06
415.151	98.06
415.374	99.06
415.597	105.06
415.821	95.06
416.044	94.06
416.267	85.06
416.49	93.06
416.713	99.06
416.936	85.06
417.159	96.06
417.382	98.06
417.605	106.06
417.828	112.06
418.051	89.06
418.274	100.06
418.497	78.06
418.72	92.06
418.943	95.06
419.166	118.06
419.389	108.06
419.611	114.06
419.834	96.06
420.057	84.06
420.28	87.06
420.503	97.06
420.726	103.06
420.948	111.06
421.171	96.06
421.394	89.06
421.617	100.06
421.839	87.06
422.062	82.06
422.285	101.06
422.507	121.06
422.73	122.06
422.953	125.06
423.175	114.06
423.398	98.06
423.621	113.06
423.843	97.06
424.066	74.06
424.288	85.06
424.511	102.06
424.733	101.06
424.956	108.06
425.178	104.06
425.401	96.06
425.623	94.06
425.846	96.06
426.068	92.06
426.291	88.06
426.513	93.06
426.735	97.06
426.958	94.06
427.18	105.06
427.402	96.06
427.625	91.06
427.847	100.06
428.069	93.06
428.292	84.06
428.514	93.06
428.736	83.06
428.958	95.06
429.181	94.06
429.403	97.06
429.625	98.06
429.847	88.06
430.069	109.06
430.292	92.06
430.514	103.06
430.736	92.06
430.958	99.06
431.18	86.06
431.402	102.06
431.624	83.06
431.846	98.06
432.068	75.06
432.29	98.06
432.512	92.06
432.734	93.06
432.956	97.06
433.178	109.06
433.4	97.06
433.622	99.06
433.844	100.06
434.066	93.06
434.287	91.06
434.509	101.06
434.731	101.06
434.953	96.06
435.175	79.06
435.397	98.06
435.618	93.06
435.84	101.06
436.062	95.06
436.284	88.06
436.505	99.06
436.727	85.06
436.949	100.06
437.17	95.06
437.392	92.06
437.614	95.06
437.835	96.06
438.057	80.06
438.278	79.06
438.5	110.06
438.721	110.06
438.943	94.06
439.165	116.06
439.386	112.06
439.608	101.06
439.829	100.06
440.05	114.06
440.272	120.06
440.493	100.06
440.715	106.06
440.936	99.06
441.158	86.06
441.379	88.06
441.6	95.06
441.822	114.06
442.043	129.06
442.264	139.06
442.486	113.06
442.707	106.06
442.928	109.06
443.149	83.06
443.371	99.06
443.592	92.06
443.813	102.06
444.034	101.06
444.255	91.06
444.476	87.06
444.698	96.06
444.919	94.06
445.14	179.06
445.361	142.06
445.582	96.06
445.803	103.06
446.024	88.06
446.245	103.06
446.466	98.06
446.687	86.06
446.908	98.06
447.129	100.06
447.35	101.06
447.571	89.06
447.792	87.06
448.013	91.06
448.234	102.06
448.455	88.06
448.675	90.06
448.896	109.06
449.117	111.06
449.338	150.06
449.559	156.06
449.779	118.06
450	105.06
450.221	101.06
450.442	111.06
450.662	121.06
450.883	107.06
451.104	99.06
451.324	116.06
451.545	107.06
451.766	120.06
451.986	134.06
452.207	212.06
452.428	543.06
452.648	1468.06
452.869	802.06
453.089	206.06
453.31	119.06
453.53	125.06
453.751	133.06
453.971	159.06
454.192	159.06
454.412	120.06
454.633	95.06
454.853	100.06
455.073	97.06
455.294	87.06
455.514	89.06
455.734	94.06
455.955	101.06
456.175	101.06
456.395	90.06
456.616	97.06
456.836	101.06
457.056	99.06
457.276	109.06
457.497	120.06
457.717	125.06
457.937	80.06
458.157	87.06
458.377	88.06
458.598	98.06
458.818	101.06
459.038	107.06
459.258	64.06
459.478	68.06
459.698	89.06
459.918	91.06
460.138	73.06
460.358	79.06
460.578	89.06
460.798	98.06
461.018	87.06
461.238	87.06
461.458	91.06
461.678	79.06
461.898	78.06
462.118	94.06
462.338	99.06
462.558	92.06
462.777	100.06
462.997	95.06
463.217	94.06
463.437	122.06
463.657	185.06
463.876	200.06
464.096	133.06
464.316	99.06
464.536	97.06
464.755	100.06
464.975	101.06
465.195	103.06
465.414	93.06
465.634	99.06
465.854	99.06
466.073	96.06
466.293	97.06
466.512	100.06
466.732	98.06
466.951	108.06
467.171	148.06
467.391	126.06
467.61	97.06
467.829	88.06
468.049	117.06
468.268	108.06
468.488	104.06
468.707	98.06
468.927	93.06
469.146	107.06
469.365	95.06
469.585	94.06
469.804	97.06
470.023	95.06
470.243	90.06
470.462	104.06
470.681	101.06
470.901	111.06
471.12	204.06
471.339	208.06
471.558	143.06
471.777	116.06
471.997	98.06
472.216	90.06
472.435	105.06
472.654	97.06
472.873	90.06
473.092	94.06
473.311	101.06
473.53	89.06
473.749	102.06
473.968	85.06
474.187	67.06
474.406	87.06
474.625	91.06
474.844	94.06
475.063	101.06
475.282	89.06
475.501	93.06
475.72	97.06
475.939	97.06
476.158	94.06
476.377	102.06
476.596	104.06
476.814	91.06
477.033	97.06
477.252	86.06
477.471	98.06
477.69	95.06
477.908	105.06
478.127	86.06
478.346	102.06
478.564	94.06
478.783	90.06
479.002	87.06
479.22	108.06
479.439	115.06
479.658	109.06
479.876	89.06
480.095	91.06
480.313	99.06
480.532	111.06
480.751	89.06
480.969	88.06
481.188	93.06
481.406	102.06
481.624	113.06
481.843	128.06
482.061	114.06
482.28	90.06
482.498	103.06
482.717	99.06
482.935	108.06
483.153	91.06
483.372	100.06
483.59	99.06
483.808	92.06
484.027	116.06
484.245	116.06
484.463	166.06
484.681	239.06
484.9	134.06
485.118	114.06
485.336	114.06
485.554	123.06
485.772	118.06
485.99	186.06
486.209	261.06
486.427	185.06
486.645	131.06
486.863	116.06
487.081	105.06
487.299	108.06
487.517	102.06
487.735	93.06
487.953	105.06
488.171	104.06
488.389	90.06
488.607	90.06
488.825	101.06
489.043	108.06
489.261	104.06
489.479	112.06
489.696	105.06
489.914	101.06
490.132	112.06
490.35	107.06
490.568	103.06
490.786	102.06
491.003	103.06
491.221	121.06
491.439	103.06
491.657	101.06
491.874	103.06
492.092	111.06
492.31	108.06
492.527	113.06
492.745	95.06
492.963	91.06
493.18	95.06
493.398	94.06
493.615	111.06
493.833	100.06
494.05	98.06
494.268	95.06
494.485	113.06
494.703	104.06
494.92	115.06
495.138	102.06
495.355	102.06
495.573	119.06
495.79	118.06
496.008	118.06
496.225	108.06
496.442	116.06
496.66	145.06
496.877	183.06
497.094	156.06
497.312	114.06
497.529	109.06
497.746	109.06
497.963	109.06
498.181	114.06
498.398	101.06
498.615	95.06
498.832	90.06
499.049	116.06
499.267	140.06
499.484	164.06
499.701	117.06
499.918	92.06
500.135	113.06
500.352	88.06
500.569	94.06
500.786	101.06
501.003	111.06
501.22	86.06
501.437	106.06
501.654	96.06
501.871	104.06
502.088	92.06
502.305	84.06
502.522	100.06
502.739	104.06
502.956	96.06
503.172	102.06
503.389	120.06
503.606	96.06
503.823	102.06
504.04	92.06
504.256	96.06
504.473	116.06
504.69	86.06
504.907	116.06
505.123	128.06
505.34	100.06
505.557	82.06
505.773	103.06
505.99	104.06
506.207	103.06
506.423	105.06
506.64	124.06
506.856	106.06
507.073	105.06
507.289	93.06
507.506	102.06
507.722	90.06
507.939	104.06
508.155	103.06
508.372	107.06
