Data from SnStandardFlinnAPT0064_LampEnergy10_LIBS07252019.E.O._I.C._HRD10591_15-20-16-494.txt Node
Date: Thu Jul 25 15:20:16 EDT 2019
User: cochatt
Spectrometer: HR+D1059
Trigger mode: 1
Integration Time (sec): 1.000000E-1
Scans to average: 1
Electric dark correction enabled: true
Nonlinearity correction enabled: false
Boxcar width: 0
XAxis mode: Wavelengths
Number of Pixels in Spectrum: 2048
>>>>>Begin Spectral Data<<<<<
223.165	-11.56
223.4	-11.56
223.635	-11.56
223.869	-13.56
224.104	-27.56
224.338	-11.56
224.573	-18.56
224.808	-3.56
225.042	0.44
225.277	2.44
225.511	2.44
225.746	-11.56
225.98	12.44
226.215	-5.56
226.449	21.44
226.683	11.44
226.918	25.44
227.152	27.44
227.387	17.44
227.621	34.44
227.856	56.44
228.09	37.44
228.324	52.44
228.559	54.44
228.793	129.44
229.027	315.44
229.262	332.44
229.496	290.44
229.73	292.44
229.964	294.44
230.199	288.44
230.433	318.44
230.667	310.44
230.901	326.44
231.136	324.44
231.37	346.44
231.604	381.44
231.838	463.44
232.072	552.44
232.306	579.44
232.541	477.44
232.775	435.44
233.009	421.44
233.243	440.44
233.477	454.44
233.711	529.44
233.945	612.44
234.179	524.44
234.413	458.44
234.647	425.44
234.881	478.44
235.115	549.44
235.349	617.44
235.583	797.44
235.817	998.44
236.051	1003.44
236.285	683.44
236.519	546.44
236.753	495.44
236.987	530.44
237.221	540.44
237.455	488.44
237.689	441.44
237.922	450.44
238.156	472.44
238.39	502.44
238.624	474.44
238.858	491.44
239.091	490.44
239.325	500.44
239.559	465.44
239.793	475.44
240.027	515.44
240.26	562.44
240.494	554.44
240.728	576.44
240.961	622.44
241.195	644.44
241.429	706.44
241.662	708.44
241.896	805.44
242.13	976.44
242.363	1237.44
242.597	1645.44
242.83	1560.44
243.064	1575.44
243.298	1823.44
243.531	1509.44
243.765	962.44
243.998	802.44
244.232	716.44
244.465	688.44
244.699	648.44
244.932	659.44
245.166	658.44
245.399	682.44
245.633	692.44
245.866	710.44
246.099	681.44
246.333	657.44
246.566	641.44
246.8	636.44
247.033	649.44
247.266	648.44
247.5	658.44
247.733	695.44
247.966	693.44
248.2	775.44
248.433	855.44
248.666	1036.44
248.899	928.44
249.133	872.44
249.366	877.44
249.599	983.44
249.832	1064.44
250.066	1097.44
250.299	856.44
250.532	806.44
250.765	746.44
250.998	742.44
251.231	735.44
251.465	728.44
251.698	733.44
251.931	749.44
252.164	734.44
252.397	749.44
252.63	795.44
252.863	783.44
253.096	793.44
253.329	781.44
253.562	767.44
253.795	805.44
254.028	787.44
254.261	835.44
254.494	883.44
254.727	1050.44
254.96	1265.44
255.193	1211.44
255.426	994.44
255.659	898.44
255.892	847.44
256.124	886.44
256.357	883.44
256.59	895.44
256.823	975.44
257.056	1119.44
257.289	1370.44
257.521	1507.44
257.754	1212.44
257.987	983.44
258.22	914.44
258.452	905.44
258.685	930.44
258.918	965.44
259.151	1018.44
259.383	1082.44
259.616	1240.44
259.849	1278.44
260.081	1122.44
260.314	1027.44
260.547	963.44
260.779	942.44
261.012	950.44
261.244	976.44
261.477	967.44
261.71	968.44
261.942	1007.44
262.175	1014.44
262.407	1041.44
262.64	1043.44
262.872	1102.44
263.105	1145.44
263.337	1177.44
263.57	1254.44
263.802	1295.44
264.035	1314.44
264.267	1336.44
264.499	1353.44
264.732	1404.44
264.964	1435.44
265.197	1410.44
265.429	1436.44
265.661	1462.44
265.894	1572.44
266.126	1747.44
266.358	1969.44
266.591	1880.44
266.823	1590.44
267.055	1423.44
267.287	1357.44
267.52	1321.44
267.752	1308.44
267.984	1312.44
268.216	1254.44
268.448	1232.44
268.681	1240.44
268.913	1220.44
269.145	1251.44
269.377	1212.44
269.609	1227.44
269.841	1259.44
270.073	1373.44
270.306	1594.44
270.538	2171.44
270.77	3234.44
271.002	4031.44
271.234	2787.44
271.466	1895.44
271.698	1546.44
271.93	1389.44
272.162	1331.44
272.394	1289.44
272.626	1257.44
272.858	1218.44
273.09	1220.44
273.322	1221.44
273.553	1182.44
273.785	1217.44
274.017	1169.44
274.249	1201.44
274.481	1209.44
274.713	1226.44
274.945	1235.44
275.176	1206.44
275.408	1225.44
275.64	1207.44
275.872	1207.44
276.104	1249.44
276.335	1234.44
276.567	1294.44
276.799	1220.44
277.031	1300.44
277.262	1309.44
277.494	1387.44
277.726	1591.44
277.957	1859.44
278.189	2161.44
278.421	1986.44
278.652	1748.44
278.884	1690.44
279.115	1501.44
279.347	1411.44
279.579	1395.44
279.81	1403.44
280.042	1378.44
280.273	1411.44
280.505	1445.44
280.736	1517.44
280.968	1595.44
281.199	1757.44
281.431	2054.44
281.662	2142.44
281.894	1834.44
282.125	1643.44
282.356	1677.44
282.588	1669.44
282.819	1727.44
283.051	1821.44
283.282	2037.44
283.513	2528.44
283.745	3603.44
283.976	5660.44
284.207	7950.44
284.439	7420.44
284.67	4657.44
284.901	3830.44
285.132	3836.44
285.364	3658.44
285.595	2774.44
285.826	2439.44
286.057	2884.44
286.288	3891.44
286.52	5265.44
286.751	4951.44
286.982	3104.44
287.213	2344.44
287.444	2044.44
287.675	1872.44
287.906	1782.44
288.138	1750.44
288.369	1734.44
288.6	1696.44
288.831	1667.44
289.062	1655.44
289.293	1651.44
289.524	1686.44
289.755	1699.44
289.986	1718.44
290.217	1707.44
290.448	1661.44
290.679	1737.44
290.91	1779.44
291.141	1919.44
291.371	2031.44
291.602	2177.44
291.833	1953.44
292.064	1724.44
292.295	1691.44
292.526	1679.44
292.757	1632.44
292.987	1578.44
293.218	1578.44
293.449	1589.44
293.68	1560.44
293.91	1583.44
294.141	1602.44
294.372	1547.44
294.603	1573.44
294.833	1537.44
295.064	1559.44
295.295	1571.44
295.525	1557.44
295.756	1546.44
295.987	1537.44
296.217	1620.44
296.448	1625.44
296.679	1604.44
296.909	1569.44
297.14	1619.44
297.37	1621.44
297.601	1618.44
297.831	1614.44
298.062	1627.44
298.292	1658.44
298.523	1721.44
298.753	1703.44
298.984	1704.44
299.214	1728.44
299.445	1729.44
299.675	1788.44
299.905	1848.44
300.136	1941.44
300.366	2171.44
300.597	2746.44
300.827	3886.44
301.057	5223.44
301.288	5330.44
301.518	3447.44
301.748	2611.44
301.979	2408.44
302.209	2269.44
302.439	2306.44
302.669	2455.44
302.9	2963.44
303.13	4235.44
303.36	6277.44
303.59	8313.44
303.82	7245.44
304.051	4359.44
304.281	3077.44
304.511	2556.44
304.741	2312.44
304.971	2227.44
305.201	2109.44
305.431	1971.44
305.661	1968.44
305.891	1918.44
306.121	1877.44
306.352	1856.44
306.582	1849.44
306.812	1835.44
307.042	1833.44
307.272	1822.44
307.502	1808.44
307.731	1827.44
307.961	1801.44
308.191	1818.44
308.421	1831.44
308.651	1798.44
308.881	1779.44
309.111	1807.44
309.341	1804.44
309.571	1827.44
309.8	1860.44
310.03	1845.44
310.26	1859.44
310.49	1843.44
310.72	1850.44
310.949	1840.44
311.179	1845.44
311.409	1862.44
311.639	1923.44
311.868	1937.44
312.098	1949.44
312.328	1950.44
312.557	1957.44
312.787	1966.44
313.017	1981.44
313.246	1991.44
313.476	2005.44
313.706	2098.44
313.935	2193.44
314.165	2366.44
314.394	2527.44
314.624	2374.44
314.853	2205.44
315.083	2154.44
315.312	2134.44
315.542	2196.44
315.771	2163.44
316.001	2249.44
316.23	2328.44
316.46	2425.44
316.689	2701.44
316.919	3244.44
317.148	4541.44
317.377	7072.44
317.607	10538.44
317.836	11055.44
318.065	6810.44
318.295	4415.44
318.524	3507.44
318.753	3032.44
318.983	2804.44
319.212	2598.44
319.441	2571.44
319.67	2475.44
319.9	2374.44
320.129	2389.44
320.358	2342.44
320.587	2332.44
320.816	2384.44
321.046	2369.44
321.275	2334.44
321.504	2409.44
321.733	2449.44
321.962	2519.44
322.191	2535.44
322.42	2533.44
322.649	2500.44
322.878	2481.44
323.108	2483.44
323.337	2504.44
323.566	2589.44
323.795	2634.44
324.024	2651.44
324.253	2720.44
324.482	2827.44
324.71	3041.44
324.939	3215.44
325.168	3290.44
325.397	3373.44
325.626	4049.44
325.855	5591.44
326.084	8798.44
326.313	12688.44
326.542	13532.44
326.77	9273.44
326.999	6065.44
327.228	5077.44
327.457	4758.44
327.686	4795.44
327.914	5133.44
328.143	5961.44
328.372	7126.44
328.6	7742.44
328.829	6901.44
329.058	5863.44
329.287	5106.44
329.515	4623.44
329.744	4274.44
329.972	4017.44
330.201	3873.44
330.43	3741.44
330.658	3663.44
330.887	3484.44
331.115	3543.44
331.344	3533.44
331.572	3475.44
331.801	3454.44
332.03	3460.44
332.258	3515.44
332.486	3750.44
332.715	4358.44
332.943	5388.44
333.172	6716.44
333.4	6661.44
333.629	5018.44
333.857	4486.44
334.085	4549.44
334.314	4717.44
334.542	5122.44
334.771	5933.44
334.999	7293.44
335.227	9077.44
335.455	10191.44
335.684	9215.44
335.912	7598.44
336.14	6456.44
336.369	5746.44
336.597	5142.44
336.825	4745.44
337.053	4499.44
337.281	4181.44
337.51	3948.44
337.738	3799.44
337.966	3683.44
338.194	3567.44
338.422	3449.44
338.65	3341.44
338.878	3277.44
339.106	3226.44
339.334	3157.44
339.562	3162.44
339.79	3072.44
340.018	3003.44
340.246	3044.44
340.474	3025.44
340.702	2984.44
340.93	3019.44
341.158	2991.44
341.386	3013.44
341.614	2950.44
341.842	2843.44
342.07	2839.44
342.298	2763.44
342.526	2751.44
342.754	2689.44
342.981	2663.44
343.209	2722.44
343.437	2721.44
343.665	2776.44
343.893	2802.44
344.12	2826.44
344.348	2758.44
344.576	2722.44
344.804	2685.44
345.031	2648.44
345.259	2611.44
345.487	2571.44
345.714	2564.44
345.942	2494.44
346.17	2529.44
346.397	2533.44
346.625	2518.44
346.853	2518.44
347.08	2455.44
347.308	2470.44
347.535	2480.44
347.763	2506.44
347.99	2432.44
348.218	2471.44
348.445	2431.44
348.673	2404.44
348.9	2429.44
349.128	2421.44
349.355	2399.44
349.583	2451.44
349.81	2409.44
350.037	2354.44
350.265	2365.44
350.492	2358.44
350.72	2357.44
350.947	2413.44
351.174	2389.44
351.402	2393.44
351.629	2387.44
351.856	2371.44
352.083	2391.44
352.311	2435.44
352.538	2357.44
352.765	2423.44
352.992	2371.44
353.22	2355.44
353.447	2354.44
353.674	2373.44
353.901	2366.44
354.128	2373.44
354.355	2355.44
354.583	2391.44
354.81	2369.44
355.037	2428.44
355.264	2399.44
355.491	2393.44
355.718	2418.44
355.945	2421.44
356.172	2472.44
356.399	2424.44
356.626	2482.44
356.853	2525.44
357.08	2462.44
357.307	2533.44
357.534	2548.44
357.761	2562.44
357.988	2547.44
358.215	2486.44
358.441	2523.44
358.668	2508.44
358.895	2531.44
359.122	2525.44
359.349	2504.44
359.576	2510.44
359.802	2521.44
360.029	2501.44
360.256	2474.44
360.483	2470.44
360.709	2525.44
360.936	2543.44
361.163	2511.44
361.39	2516.44
361.616	2549.44
361.843	2534.44
362.07	2543.44
362.296	2537.44
362.523	2557.44
362.749	2595.44
362.976	2499.44
363.203	2571.44
363.429	2491.44
363.656	2502.44
363.882	2545.44
364.109	2512.44
364.335	2516.44
364.562	2545.44
364.788	2538.44
365.015	2552.44
365.241	2638.44
365.468	2774.44
365.694	2907.44
365.92	2771.44
366.147	2644.44
366.373	2616.44
366.599	2615.44
366.826	2546.44
367.052	2573.44
367.278	2602.44
367.505	2641.44
367.731	2605.44
367.957	2589.44
368.184	2638.44
368.41	2615.44
368.636	2686.44
368.862	2581.44
369.089	2597.44
369.315	2607.44
369.541	2634.44
369.767	2603.44
369.993	2672.44
370.219	2589.44
370.445	2597.44
370.672	2667.44
370.898	2658.44
371.124	2696.44
371.35	2687.44
371.576	2701.44
371.802	2673.44
372.028	2673.44
372.254	2768.44
372.48	2740.44
372.706	2719.44
372.932	2770.44
373.158	2775.44
373.384	2786.44
373.61	2774.44
373.835	2753.44
374.061	2754.44
374.287	2783.44
374.513	2801.44
374.739	2864.44
374.965	2818.44
375.191	2834.44
375.416	2864.44
375.642	2845.44
375.868	2789.44
376.094	2761.44
376.319	2771.44
376.545	2728.44
376.771	2705.44
376.997	2702.44
377.222	2674.44
377.448	2652.44
377.674	2709.44
377.899	2673.44
378.125	2663.44
378.35	2697.44
378.576	2684.44
378.802	2772.44
379.027	2783.44
379.253	2858.44
379.478	3055.44
379.704	3610.44
379.929	5113.44
380.155	7987.44
380.38	8808.44
380.606	5361.44
380.831	3759.44
381.057	3211.44
381.282	2967.44
381.507	2874.44
381.733	2771.44
381.958	2728.44
382.184	2661.44
382.409	2648.44
382.634	2699.44
382.86	2695.44
383.085	2641.44
383.31	2637.44
383.535	2676.44
383.761	2672.44
383.986	2698.44
384.211	2737.44
384.436	2721.44
384.662	2765.44
384.887	2765.44
385.112	2730.44
385.337	2769.44
385.562	2784.44
385.787	2722.44
386.013	2775.44
386.238	2752.44
386.463	2697.44
386.688	2773.44
386.913	2703.44
387.138	2744.44
387.363	2735.44
387.588	2771.44
387.813	2743.44
388.038	2737.44
388.263	2724.44
388.488	2729.44
388.713	2735.44
388.938	2769.44
389.163	2691.44
389.387	2775.44
389.612	2723.44
389.837	2718.44
390.062	2722.44
390.287	2793.44
390.512	2779.44
390.736	2792.44
390.961	2837.44
391.186	2799.44
391.411	2885.44
391.636	2857.44
391.86	2902.44
392.085	2901.44
392.31	2872.44
392.534	2861.44
392.759	2882.44
392.984	2757.44
393.208	2800.44
393.433	2813.44
393.658	2817.44
393.882	2775.44
394.107	2801.44
394.331	2828.44
394.556	2826.44
394.78	2828.44
395.005	2835.44
395.229	2794.44
395.454	2872.44
395.678	2873.44
395.903	2886.44
396.127	2901.44
396.352	2805.44
396.576	2780.44
396.801	2820.44
397.025	2890.44
397.249	2873.44
397.474	2893.44
397.698	2911.44
397.922	2914.44
398.147	2922.44
398.371	2898.44
398.595	3005.44
398.82	3097.44
399.044	3174.44
399.268	3342.44
399.492	3479.44
399.717	3602.44
399.941	3600.44
400.165	3474.44
400.389	3358.44
400.613	3241.44
400.837	3158.44
401.062	3094.44
401.286	3035.44
401.51	3038.44
401.734	3025.44
401.958	3059.44
402.182	3019.44
402.406	3045.44
402.63	3048.44
402.854	3028.44
403.078	3075.44
403.302	3050.44
403.526	3087.44
403.75	3099.44
403.974	3156.44
404.198	3107.44
404.422	3191.44
404.645	3168.44
404.869	3148.44
405.093	3176.44
405.317	3140.44
405.541	3189.44
405.765	3196.44
405.988	3223.44
406.212	3261.44
406.436	3226.44
406.66	3282.44
406.883	3229.44
407.107	3395.44
407.331	3347.44
407.555	3447.44
407.778	3404.44
408.002	3365.44
408.226	3377.44
408.449	3359.44
408.673	3245.44
408.896	3240.44
409.12	3206.44
409.344	3193.44
409.567	3159.44
409.791	3187.44
410.014	3160.44
410.238	3053.44
410.461	3152.44
410.685	3137.44
410.908	3142.44
411.132	3088.44
411.355	2949.44
411.578	2982.44
411.802	3043.44
412.025	3034.44
412.249	3055.44
412.472	3015.44
412.695	2957.44
412.919	2929.44
413.142	2943.44
413.365	2985.44
413.589	2979.44
413.812	2946.44
414.035	2955.44
414.258	3001.44
414.482	2974.44
414.705	2949.44
414.928	2941.44
415.151	2969.44
415.374	2916.44
415.597	2877.44
415.821	2879.44
416.044	2922.44
416.267	2851.44
416.49	2837.44
416.713	2788.44
416.936	2888.44
417.159	2848.44
417.382	2788.44
417.605	2813.44
417.828	2838.44
418.051	2887.44
418.274	2872.44
418.497	2840.44
418.72	2960.44
418.943	2858.44
419.166	2977.44
419.389	3178.44
419.611	3119.44
419.834	3024.44
420.057	2974.44
420.28	2888.44
420.503	2832.44
420.726	2884.44
420.948	2893.44
421.171	2866.44
421.394	2838.44
421.617	2823.44
421.839	2881.44
422.062	2903.44
422.285	2819.44
422.507	2893.44
422.73	2975.44
422.953	2973.44
423.175	2917.44
423.398	2922.44
423.621	2862.44
423.843	2871.44
424.066	2875.44
424.288	2819.44
424.511	2880.44
424.733	2833.44
424.956	2804.44
425.178	2853.44
425.401	2804.44
425.623	2842.44
425.846	2733.44
426.068	2718.44
426.291	2773.44
426.513	2709.44
426.735	2693.44
426.958	2750.44
427.18	2667.44
427.402	2730.44
427.625	2700.44
427.847	2626.44
428.069	2675.44
428.292	2677.44
428.514	2638.44
428.736	2669.44
428.958	2639.44
429.181	2589.44
429.403	2617.44
429.625	2665.44
429.847	2607.44
430.069	2698.44
430.292	2757.44
430.514	2868.44
430.736	2906.44
430.958	2697.44
431.18	2634.44
431.402	2621.44
431.624	2562.44
431.846	2565.44
432.068	2569.44
432.29	2653.44
432.512	2567.44
432.734	2643.44
432.956	2557.44
433.178	2585.44
433.4	2639.44
433.622	2676.44
433.844	2676.44
434.066	2620.44
434.287	2661.44
434.509	2646.44
434.731	2694.44
434.953	2722.44
435.175	2764.44
435.397	2719.44
435.618	2634.44
435.84	2666.44
436.062	2594.44
436.284	2610.44
436.505	2607.44
436.727	2618.44
436.949	2645.44
437.17	2590.44
437.392	2587.44
437.614	2554.44
437.835	2478.44
438.057	2506.44
438.278	2510.44
438.5	2597.44
438.721	2571.44
438.943	2662.44
439.165	2658.44
439.386	2729.44
439.608	2710.44
439.829	2750.44
440.05	2796.44
440.272	2858.44
440.493	2785.44
440.715	2681.44
440.936	2736.44
441.158	2751.44
441.379	2773.44
441.6	2865.44
441.822	2926.44
442.043	3130.44
442.264	3148.44
442.486	2933.44
442.707	2851.44
442.928	2818.44
443.149	2789.44
443.371	2771.44
443.592	2810.44
443.813	2798.44
444.034	2825.44
444.255	2858.44
444.476	2934.44
444.698	2967.44
444.919	2951.44
445.14	3077.44
445.361	2936.44
445.582	2857.44
445.803	2790.44
446.024	2770.44
446.245	2826.44
446.466	2786.44
446.687	2754.44
446.908	2725.44
447.129	2711.44
447.35	2643.44
447.571	2653.44
447.792	2580.44
448.013	2581.44
448.234	2590.44
448.455	2575.44
448.675	2617.44
448.896	2720.44
449.117	2820.44
449.338	2961.44
449.559	3069.44
449.779	2769.44
450	2685.44
450.221	2558.44
450.442	2571.44
450.662	2546.44
450.883	2513.44
451.104	2505.44
451.324	2506.44
451.545	2553.44
451.766	2580.44
451.986	2610.44
452.207	2787.44
452.428	3590.44
452.648	5622.44
452.869	4694.44
453.089	3220.44
453.31	2924.44
453.53	2897.44
453.751	3001.44
453.971	3170.44
454.192	3048.44
454.412	2690.44
454.633	2565.44
454.853	2546.44
455.073	2459.44
455.294	2495.44
455.514	2431.44
455.734	2389.44
455.955	2373.44
456.175	2389.44
456.395	2383.44
456.616	2438.44
456.836	2419.44
457.056	2454.44
457.276	2468.44
457.497	2583.44
457.717	2600.44
457.937	2535.44
458.157	2564.44
458.377	2576.44
458.598	2575.44
458.818	2615.44
459.038	2629.44
459.258	2562.44
459.478	2605.44
459.698	2645.44
459.918	2669.44
460.138	2714.44
460.358	2800.44
460.578	2773.44
460.798	2839.44
461.018	2881.44
461.238	2864.44
461.458	2885.44
461.678	2913.44
461.898	2986.44
462.118	3010.44
462.338	3039.44
462.558	3045.44
462.777	3066.44
462.997	3249.44
463.217	3400.44
463.437	3505.44
463.657	3579.44
463.876	3557.44
464.096	3365.44
464.316	3213.44
464.536	3169.44
464.755	3119.44
464.975	2961.44
465.195	2881.44
465.414	2823.44
465.634	2723.44
465.854	2689.44
466.073	2709.44
466.293	2661.44
466.512	2623.44
466.732	2676.44
466.951	2803.44
467.171	3006.44
467.391	2991.44
467.61	2712.44
467.829	2663.44
468.049	2609.44
468.268	2532.44
468.488	2495.44
468.707	2570.44
468.927	2571.44
469.146	2585.44
469.365	2609.44
469.585	2641.44
469.804	2734.44
470.023	2738.44
470.243	2777.44
470.462	2861.44
470.681	2994.44
470.901	3279.44
471.12	3744.44
471.339	3686.44
471.558	3181.44
471.777	2885.44
471.997	2767.44
472.216	2664.44
472.435	2652.44
472.654	2594.44
472.873	2551.44
473.092	2592.44
473.311	2564.44
473.53	2607.44
473.749	2723.44
473.968	2751.44
474.187	2691.44
474.406	2610.44
474.625	2615.44
474.844	2614.44
475.063	2591.44
475.282	2606.44
475.501	2583.44
475.72	2645.44
475.939	2645.44
476.158	2693.44
476.377	2786.44
476.596	2761.44
476.814	2747.44
477.033	2689.44
477.252	2755.44
477.471	2819.44
477.69	2837.44
477.908	2872.44
478.127	2893.44
478.346	2947.44
478.564	2970.44
478.783	3007.44
479.002	3065.44
479.22	3129.44
479.439	3107.44
479.658	3125.44
479.876	3141.44
480.095	3127.44
480.313	3194.44
480.532	3219.44
480.751	3210.44
480.969	3143.44
481.188	3152.44
481.406	3121.44
481.624	3102.44
481.843	3172.44
482.061	3214.44
482.28	3130.44
482.498	3163.44
482.717	3187.44
482.935	3183.44
483.153	3163.44
483.372	3250.44
483.59	3264.44
483.808	3310.44
484.027	3449.44
484.245	3586.44
484.463	4026.44
484.681	4504.44
484.9	4125.44
485.118	3877.44
485.336	3745.44
485.554	3773.44
485.772	3969.44
485.99	4542.44
486.209	4831.44
486.427	4089.44
486.645	3661.44
486.863	3536.44
487.081	3422.44
487.299	3379.44
487.517	3316.44
487.735	3381.44
