Data from SnStandardFlinnAPT0064_LampEnergy5.5_LIBS07252019.E.O._I.C._HRD10591_15-17-22-492.txt Node
Date: Thu Jul 25 15:17:22 EDT 2019
User: cochatt
Spectrometer: HR+D1059
Trigger mode: 1
Integration Time (sec): 1.000000E-1
Scans to average: 1
Electric dark correction enabled: true
Nonlinearity correction enabled: false
Boxcar width: 0
XAxis mode: Wavelengths
Number of Pixels in Spectrum: 2048
>>>>>Begin Spectral Data<<<<<
223.165	-19.5
223.4	-19.5
223.635	-19.5
223.869	-13.5
224.104	-21.5
224.338	-6.5
224.573	-2.5
224.808	-23.5
225.042	-16.5
225.277	-5.5
225.511	2.5
225.746	3.5
225.98	6.5
226.215	5.5
226.449	18.5
226.683	20.5
226.918	21.5
227.152	30.5
227.387	23.5
227.621	35.5
227.856	46.5
228.09	65.5
228.324	51.5
228.559	52.5
228.793	87.5
229.027	167.5
229.262	168.5
229.496	154.5
229.73	173.5
229.964	161.5
230.199	169.5
230.433	175.5
230.667	179.5
230.901	155.5
231.136	171.5
231.37	207.5
231.604	189.5
231.838	223.5
232.072	266.5
232.306	279.5
232.541	249.5
232.775	208.5
233.009	213.5
233.243	221.5
233.477	230.5
233.711	281.5
233.945	308.5
234.179	278.5
234.413	236.5
234.647	234.5
234.881	239.5
235.115	250.5
235.349	306.5
235.583	390.5
235.817	492.5
236.051	473.5
236.285	331.5
236.519	272.5
236.753	257.5
236.987	267.5
237.221	276.5
237.455	271.5
237.689	211.5
237.922	235.5
238.156	230.5
238.39	246.5
238.624	264.5
238.858	240.5
239.091	232.5
239.325	249.5
239.559	247.5
239.793	246.5
240.027	271.5
240.26	257.5
240.494	273.5
240.728	285.5
240.961	307.5
241.195	305.5
241.429	330.5
241.662	317.5
241.896	352.5
242.13	423.5
242.363	571.5
242.597	745.5
242.83	691.5
243.064	694.5
243.298	821.5
243.531	689.5
243.765	453.5
243.998	371.5
244.232	339.5
244.465	319.5
244.699	318.5
244.932	323.5
245.166	315.5
245.399	326.5
245.633	312.5
245.866	341.5
246.099	305.5
246.333	292.5
246.566	302.5
246.8	316.5
247.033	320.5
247.266	301.5
247.5	307.5
247.733	332.5
247.966	305.5
248.2	339.5
248.433	390.5
248.666	443.5
248.899	418.5
249.133	388.5
249.366	386.5
249.599	437.5
249.832	487.5
250.066	474.5
250.299	391.5
250.532	375.5
250.765	348.5
250.998	357.5
251.231	355.5
251.465	370.5
251.698	355.5
251.931	363.5
252.164	342.5
252.397	362.5
252.63	362.5
252.863	391.5
253.096	355.5
253.329	364.5
253.562	375.5
253.795	357.5
254.028	387.5
254.261	371.5
254.494	418.5
254.727	471.5
254.96	549.5
255.193	539.5
255.426	428.5
255.659	409.5
255.892	389.5
256.124	414.5
256.357	414.5
256.59	418.5
256.823	443.5
257.056	507.5
257.289	564.5
257.521	654.5
257.754	519.5
257.987	453.5
258.22	428.5
258.452	407.5
258.685	434.5
258.918	430.5
259.151	469.5
259.383	497.5
259.616	559.5
259.849	588.5
260.081	514.5
260.314	453.5
260.547	443.5
260.779	459.5
261.012	454.5
261.244	450.5
261.477	478.5
261.71	488.5
261.942	470.5
262.175	469.5
262.407	471.5
262.64	498.5
262.872	495.5
263.105	538.5
263.337	562.5
263.57	596.5
263.802	602.5
264.035	600.5
264.267	599.5
264.499	644.5
264.732	665.5
264.964	686.5
265.197	677.5
265.429	673.5
265.661	695.5
265.894	729.5
266.126	802.5
266.358	874.5
266.591	834.5
266.823	732.5
267.055	665.5
267.287	638.5
267.52	636.5
267.752	605.5
267.984	596.5
268.216	572.5
268.448	597.5
268.681	582.5
268.913	579.5
269.145	575.5
269.377	571.5
269.609	586.5
269.841	591.5
270.073	627.5
270.306	723.5
270.538	959.5
270.77	1404.5
271.002	1769.5
271.234	1189.5
271.466	833.5
271.698	673.5
271.93	618.5
272.162	616.5
272.394	587.5
272.626	564.5
272.858	577.5
273.09	553.5
273.322	552.5
273.553	563.5
273.785	573.5
274.017	566.5
274.249	540.5
274.481	568.5
274.713	558.5
274.945	557.5
275.176	575.5
275.408	581.5
275.64	582.5
275.872	584.5
276.104	546.5
276.335	600.5
276.567	585.5
276.799	576.5
277.031	582.5
277.262	607.5
277.494	629.5
277.726	682.5
277.957	797.5
278.189	899.5
278.421	835.5
278.652	764.5
278.884	732.5
279.115	644.5
279.347	651.5
279.579	622.5
279.81	621.5
280.042	617.5
280.273	634.5
280.505	637.5
280.736	663.5
280.968	694.5
281.199	760.5
281.431	860.5
281.662	899.5
281.894	781.5
282.125	720.5
282.356	716.5
282.588	719.5
282.819	744.5
283.051	769.5
283.282	897.5
283.513	1105.5
283.745	1568.5
283.976	2556.5
284.207	3663.5
284.439	3166.5
284.67	1853.5
284.901	1500.5
285.132	1533.5
285.364	1449.5
285.595	1134.5
285.826	1037.5
286.057	1249.5
286.288	1687.5
286.52	2296.5
286.751	2106.5
286.982	1283.5
287.213	972.5
287.444	862.5
287.675	784.5
287.906	801.5
288.138	759.5
288.369	748.5
288.6	738.5
288.831	732.5
289.062	727.5
289.293	743.5
289.524	733.5
289.755	776.5
289.986	762.5
290.217	769.5
290.448	763.5
290.679	781.5
290.91	794.5
291.141	830.5
291.371	854.5
291.602	886.5
291.833	825.5
292.064	760.5
292.295	737.5
292.526	720.5
292.757	730.5
292.987	719.5
293.218	686.5
293.449	735.5
293.68	714.5
293.91	713.5
294.141	691.5
294.372	682.5
294.603	703.5
294.833	712.5
295.064	695.5
295.295	702.5
295.525	708.5
295.756	694.5
295.987	707.5
296.217	700.5
296.448	711.5
296.679	725.5
296.909	725.5
297.14	724.5
297.37	716.5
297.601	707.5
297.831	737.5
298.062	721.5
298.292	733.5
298.523	749.5
298.753	742.5
298.984	776.5
299.214	777.5
299.445	794.5
299.675	782.5
299.905	824.5
300.136	834.5
300.366	949.5
300.597	1218.5
300.827	1651.5
301.057	2223.5
301.288	2201.5
301.518	1419.5
301.748	1086.5
301.979	1005.5
302.209	967.5
302.439	989.5
302.669	1013.5
302.9	1284.5
303.13	1747.5
303.36	2625.5
303.59	3595.5
303.82	3058.5
304.051	1728.5
304.281	1270.5
304.511	1048.5
304.741	981.5
304.971	967.5
305.201	902.5
305.431	882.5
305.661	835.5
305.891	828.5
306.121	839.5
306.352	840.5
306.582	829.5
306.812	813.5
307.042	824.5
307.272	815.5
307.502	813.5
307.731	794.5
307.961	842.5
308.191	779.5
308.421	802.5
308.651	796.5
308.881	815.5
309.111	825.5
309.341	819.5
309.571	802.5
309.8	822.5
310.03	813.5
310.26	855.5
310.49	837.5
310.72	826.5
310.949	868.5
311.179	846.5
311.409	818.5
311.639	872.5
311.868	840.5
312.098	856.5
312.328	878.5
312.557	857.5
312.787	881.5
313.017	895.5
313.246	894.5
313.476	897.5
313.706	913.5
313.935	958.5
314.165	1027.5
314.394	1034.5
314.624	975.5
314.853	945.5
315.083	953.5
315.312	962.5
315.542	978.5
315.771	945.5
316.001	1004.5
316.23	998.5
316.46	1060.5
316.689	1152.5
316.919	1374.5
317.148	2061.5
317.377	3113.5
317.607	4727.5
317.836	4814.5
318.065	2716.5
318.295	1743.5
318.524	1383.5
318.753	1209.5
318.983	1151.5
319.212	1121.5
319.441	1098.5
319.67	1046.5
319.9	1036.5
320.129	1009.5
320.358	1011.5
320.587	993.5
320.816	1022.5
321.046	1007.5
321.275	1043.5
321.504	1037.5
321.733	1073.5
321.962	1092.5
322.191	1103.5
322.42	1097.5
322.649	1087.5
322.878	1111.5
323.108	1123.5
323.337	1103.5
323.566	1122.5
323.795	1149.5
324.024	1125.5
324.253	1196.5
324.482	1220.5
324.71	1292.5
324.939	1393.5
325.168	1357.5
325.397	1419.5
325.626	1695.5
325.855	2420.5
326.084	3733.5
326.313	5814.5
326.542	6136.5
326.77	3700.5
326.999	2361.5
327.228	1983.5
327.457	1901.5
327.686	1921.5
327.914	2029.5
328.143	2334.5
328.372	2769.5
328.6	2955.5
328.829	2701.5
329.058	2353.5
329.287	2071.5
329.515	1931.5
329.744	1777.5
329.972	1702.5
330.201	1613.5
330.43	1559.5
330.658	1550.5
330.887	1499.5
331.115	1471.5
331.344	1479.5
331.572	1452.5
331.801	1502.5
332.03	1489.5
332.258	1513.5
332.486	1606.5
332.715	1816.5
332.943	2222.5
333.172	2706.5
333.4	2665.5
333.629	2090.5
333.857	1857.5
334.085	1838.5
334.314	1937.5
334.542	2081.5
334.771	2392.5
334.999	2918.5
335.227	3557.5
335.455	4001.5
335.684	3600.5
335.912	3072.5
336.14	2623.5
336.369	2385.5
336.597	2170.5
336.825	2023.5
337.053	1885.5
337.281	1762.5
337.51	1737.5
337.738	1603.5
337.966	1590.5
338.194	1510.5
338.422	1489.5
338.65	1430.5
338.878	1442.5
339.106	1424.5
339.334	1405.5
339.562	1377.5
339.79	1339.5
340.018	1308.5
340.246	1322.5
340.474	1289.5
340.702	1315.5
340.93	1310.5
341.158	1323.5
341.386	1308.5
341.614	1276.5
341.842	1277.5
342.07	1227.5
342.298	1219.5
342.526	1222.5
342.754	1195.5
342.981	1200.5
343.209	1191.5
343.437	1205.5
343.665	1207.5
343.893	1258.5
344.12	1245.5
344.348	1218.5
344.576	1210.5
344.804	1208.5
345.031	1176.5
345.259	1141.5
345.487	1151.5
345.714	1114.5
345.942	1112.5
346.17	1096.5
346.397	1127.5
346.625	1129.5
346.853	1117.5
347.08	1132.5
347.308	1091.5
347.535	1109.5
347.763	1102.5
347.99	1122.5
348.218	1081.5
348.445	1103.5
348.673	1072.5
348.9	1075.5
349.128	1114.5
349.355	1069.5
349.583	1072.5
349.81	1114.5
350.037	1072.5
350.265	1086.5
350.492	1093.5
350.72	1053.5
350.947	1079.5
351.174	1068.5
351.402	1068.5
351.629	1070.5
351.856	1058.5
352.083	1073.5
352.311	1066.5
352.538	1042.5
352.765	1060.5
352.992	1054.5
353.22	1065.5
353.447	1053.5
353.674	1077.5
353.901	1062.5
354.128	1085.5
354.355	1093.5
354.583	1052.5
354.81	1069.5
355.037	1087.5
355.264	1079.5
355.491	1085.5
355.718	1095.5
355.945	1108.5
356.172	1108.5
356.399	1129.5
356.626	1078.5
356.853	1071.5
357.08	1113.5
357.307	1114.5
357.534	1109.5
357.761	1145.5
357.988	1120.5
358.215	1151.5
358.441	1105.5
358.668	1118.5
358.895	1156.5
359.122	1139.5
359.349	1142.5
359.576	1115.5
359.802	1134.5
360.029	1132.5
360.256	1149.5
360.483	1136.5
360.709	1176.5
360.936	1158.5
361.163	1128.5
361.39	1131.5
361.616	1113.5
361.843	1109.5
362.07	1131.5
362.296	1150.5
362.523	1157.5
362.749	1145.5
362.976	1145.5
363.203	1114.5
363.429	1124.5
363.656	1106.5
363.882	1114.5
364.109	1127.5
364.335	1116.5
364.562	1128.5
364.788	1150.5
365.015	1171.5
365.241	1163.5
365.468	1203.5
365.694	1246.5
365.92	1214.5
366.147	1170.5
366.373	1150.5
366.599	1149.5
366.826	1169.5
367.052	1160.5
367.278	1176.5
367.505	1171.5
367.731	1147.5
367.957	1164.5
368.184	1169.5
368.41	1120.5
368.636	1165.5
368.862	1179.5
369.089	1176.5
369.315	1142.5
369.541	1134.5
369.767	1173.5
369.993	1171.5
370.219	1140.5
370.445	1151.5
370.672	1155.5
370.898	1202.5
371.124	1172.5
371.35	1220.5
371.576	1221.5
371.802	1219.5
372.028	1226.5
372.254	1228.5
372.48	1238.5
372.706	1241.5
372.932	1222.5
373.158	1250.5
373.384	1246.5
373.61	1247.5
373.835	1240.5
374.061	1238.5
374.287	1235.5
374.513	1253.5
374.739	1271.5
374.965	1267.5
375.191	1243.5
375.416	1271.5
375.642	1258.5
375.868	1302.5
376.094	1207.5
376.319	1239.5
376.545	1252.5
376.771	1235.5
376.997	1225.5
377.222	1224.5
377.448	1213.5
377.674	1216.5
377.899	1189.5
378.125	1189.5
378.35	1226.5
378.576	1196.5
378.802	1265.5
379.027	1271.5
379.253	1301.5
379.478	1333.5
379.704	1533.5
379.929	2234.5
380.155	3393.5
380.38	3650.5
380.606	2162.5
380.831	1570.5
381.057	1390.5
381.282	1274.5
381.507	1249.5
381.733	1233.5
381.958	1209.5
382.184	1209.5
382.409	1193.5
382.634	1220.5
382.86	1191.5
383.085	1183.5
383.31	1175.5
383.535	1203.5
383.761	1229.5
383.986	1221.5
384.211	1219.5
384.436	1219.5
384.662	1253.5
384.887	1250.5
385.112	1221.5
385.337	1238.5
385.562	1259.5
385.787	1241.5
386.013	1262.5
386.238	1267.5
386.463	1253.5
386.688	1269.5
386.913	1201.5
387.138	1213.5
387.363	1206.5
387.588	1251.5
387.813	1242.5
388.038	1221.5
388.263	1222.5
388.488	1222.5
388.713	1240.5
388.938	1224.5
389.163	1238.5
389.387	1257.5
389.612	1231.5
389.837	1223.5
390.062	1244.5
390.287	1273.5
390.512	1293.5
390.736	1265.5
390.961	1300.5
391.186	1284.5
391.411	1293.5
391.636	1285.5
391.86	1324.5
392.085	1321.5
392.31	1297.5
392.534	1269.5
392.759	1269.5
392.984	1258.5
393.208	1276.5
393.433	1275.5
393.658	1286.5
393.882	1296.5
394.107	1255.5
394.331	1252.5
394.556	1239.5
394.78	1261.5
395.005	1262.5
395.229	1280.5
395.454	1291.5
395.678	1308.5
395.903	1306.5
396.127	1333.5
396.352	1270.5
396.576	1268.5
396.801	1296.5
397.025	1332.5
397.249	1324.5
397.474	1300.5
397.698	1299.5
397.922	1349.5
398.147	1331.5
398.371	1338.5
398.595	1404.5
398.82	1401.5
399.044	1421.5
399.268	1497.5
399.492	1619.5
399.717	1660.5
399.941	1656.5
400.165	1621.5
400.389	1542.5
400.613	1444.5
400.837	1411.5
401.062	1433.5
401.286	1387.5
401.51	1401.5
401.734	1382.5
401.958	1369.5
402.182	1410.5
402.406	1378.5
402.63	1387.5
402.854	1369.5
403.078	1380.5
403.302	1420.5
403.526	1396.5
403.75	1439.5
403.974	1431.5
404.198	1429.5
404.422	1496.5
404.645	1446.5
404.869	1465.5
405.093	1448.5
405.317	1404.5
405.541	1430.5
405.765	1464.5
405.988	1465.5
406.212	1448.5
406.436	1464.5
406.66	1499.5
406.883	1465.5
407.107	1532.5
407.331	1521.5
407.555	1533.5
407.778	1525.5
408.002	1530.5
408.226	1486.5
408.449	1513.5
408.673	1476.5
408.896	1499.5
409.12	1447.5
409.344	1451.5
409.567	1430.5
409.791	1442.5
410.014	1404.5
410.238	1429.5
410.461	1420.5
410.685	1423.5
410.908	1384.5
411.132	1372.5
411.355	1331.5
411.578	1367.5
411.802	1409.5
412.025	1399.5
412.249	1399.5
412.472	1368.5
412.695	1352.5
412.919	1372.5
413.142	1367.5
413.365	1333.5
413.589	1357.5
413.812	1346.5
414.035	1360.5
414.258	1326.5
414.482	1346.5
414.705	1361.5
414.928	1339.5
415.151	1336.5
415.374	1350.5
415.597	1349.5
415.821	1304.5
416.044	1289.5
416.267	1305.5
416.49	1295.5
416.713	1285.5
416.936	1330.5
417.159	1297.5
417.382	1304.5
417.605	1269.5
417.828	1295.5
418.051	1308.5
418.274	1301.5
418.497	1321.5
418.72	1362.5
418.943	1316.5
419.166	1368.5
419.389	1409.5
419.611	1446.5
419.834	1385.5
420.057	1362.5
420.28	1320.5
420.503	1305.5
420.726	1255.5
420.948	1317.5
421.171	1285.5
421.394	1286.5
421.617	1308.5
421.839	1329.5
422.062	1309.5
422.285	1279.5
422.507	1322.5
422.73	1317.5
422.953	1352.5
423.175	1374.5
423.398	1350.5
423.621	1268.5
423.843	1352.5
424.066	1333.5
424.288	1317.5
424.511	1285.5
424.733	1314.5
424.956	1273.5
425.178	1290.5
425.401	1262.5
425.623	1288.5
425.846	1259.5
426.068	1301.5
426.291	1264.5
426.513	1227.5
426.735	1233.5
426.958	1257.5
427.18	1258.5
427.402	1257.5
427.625	1249.5
427.847	1213.5
428.069	1205.5
428.292	1231.5
428.514	1203.5
428.736	1234.5
428.958	1226.5
429.181	1227.5
429.403	1182.5
429.625	1173.5
429.847	1195.5
430.069	1214.5
430.292	1277.5
430.514	1256.5
430.736	1311.5
430.958	1260.5
431.18	1209.5
431.402	1188.5
431.624	1196.5
431.846	1170.5
432.068	1166.5
432.29	1173.5
432.512	1186.5
432.734	1223.5
432.956	1190.5
433.178	1190.5
433.4	1204.5
433.622	1217.5
433.844	1222.5
434.066	1198.5
434.287	1207.5
434.509	1210.5
434.731	1215.5
434.953	1254.5
435.175	1251.5
435.397	1231.5
435.618	1206.5
435.84	1210.5
436.062	1205.5
436.284	1182.5
436.505	1194.5
436.727	1182.5
436.949	1219.5
437.17	1182.5
437.392	1177.5
437.614	1176.5
437.835	1141.5
438.057	1146.5
438.278	1140.5
438.5	1157.5
438.721	1149.5
438.943	1214.5
439.165	1234.5
439.386	1269.5
439.608	1284.5
439.829	1257.5
440.05	1267.5
440.272	1297.5
440.493	1250.5
440.715	1224.5
440.936	1254.5
441.158	1252.5
441.379	1286.5
441.6	1323.5
441.822	1335.5
442.043	1406.5
442.264	1431.5
442.486	1364.5
442.707	1336.5
442.928	1296.5
443.149	1323.5
443.371	1301.5
443.592	1302.5
443.813	1295.5
444.034	1300.5
444.255	1345.5
444.476	1365.5
444.698	1353.5
444.919	1402.5
445.14	1470.5
445.361	1390.5
445.582	1352.5
445.803	1349.5
446.024	1266.5
446.245	1275.5
446.466	1296.5
446.687	1268.5
446.908	1254.5
447.129	1232.5
447.35	1224.5
447.571	1230.5
447.792	1226.5
448.013	1221.5
448.234	1163.5
448.455	1182.5
448.675	1194.5
448.896	1237.5
449.117	1285.5
449.338	1355.5
449.559	1421.5
449.779	1277.5
450	1175.5
450.221	1196.5
450.442	1151.5
450.662	1169.5
450.883	1125.5
451.104	1140.5
451.324	1138.5
451.545	1154.5
451.766	1150.5
451.986	1159.5
452.207	1254.5
452.428	1535.5
452.648	2207.5
452.869	1852.5
453.089	1335.5
453.31	1266.5
453.53	1250.5
453.751	1326.5
453.971	1441.5
454.192	1405.5
454.412	1233.5
454.633	1133.5
454.853	1109.5
455.073	1103.5
455.294	1130.5
455.514	1078.5
455.734	1114.5
455.955	1120.5
456.175	1085.5
456.395	1070.5
456.616	1128.5
456.836	1118.5
457.056	1151.5
457.276	1123.5
457.497	1159.5
457.717	1198.5
457.937	1166.5
458.157	1156.5
458.377	1188.5
458.598	1171.5
458.818	1169.5
459.038	1182.5
459.258	1173.5
459.478	1189.5
459.698	1161.5
459.918	1208.5
460.138	1229.5
460.358	1249.5
460.578	1262.5
460.798	1292.5
461.018	1309.5
461.238	1301.5
461.458	1324.5
461.678	1310.5
461.898	1347.5
462.118	1312.5
462.338	1384.5
462.558	1399.5
462.777	1429.5
462.997	1462.5
463.217	1533.5
463.437	1545.5
463.657	1605.5
463.876	1557.5
464.096	1475.5
464.316	1451.5
464.536	1411.5
464.755	1398.5
464.975	1336.5
465.195	1351.5
465.414	1310.5
465.634	1243.5
465.854	1214.5
466.073	1226.5
466.293	1210.5
466.512	1193.5
466.732	1189.5
466.951	1311.5
467.171	1329.5
467.391	1340.5
467.61	1221.5
467.829	1209.5
468.049	1192.5
468.268	1180.5
468.488	1180.5
468.707	1169.5
468.927	1193.5
469.146	1186.5
469.365	1205.5
469.585	1198.5
469.804	1223.5
470.023	1246.5
470.243	1261.5
470.462	1313.5
470.681	1310.5
470.901	1481.5
471.12	1761.5
471.339	1774.5
471.558	1407.5
471.777	1301.5
471.997	1273.5
472.216	1219.5
472.435	1210.5
472.654	1206.5
472.873	1167.5
473.092	1145.5
473.311	1175.5
473.53	1194.5
473.749	1241.5
473.968	1221.5
474.187	1181.5
474.406	1186.5
474.625	1191.5
474.844	1173.5
475.063	1203.5
475.282	1205.5
475.501	1185.5
475.72	1217.5
475.939	1182.5
476.158	1255.5
476.377	1255.5
476.596	1254.5
476.814	1226.5
477.033	1243.5
477.252	1270.5
477.471	1291.5
477.69	1299.5
477.908	1286.5
478.127	1335.5
478.346	1370.5
478.564	1379.5
478.783	1394.5
479.002	1413.5
479.22	1369.5
479.439	1390.5
479.658	1391.5
479.876	1432.5
480.095	1415.5
480.313	1451.5
480.532	1454.5
480.751	1467.5
480.969	1428.5
481.188	1382.5
481.406	1419.5
481.624	1407.5
481.843	1406.5
482.061	1409.5
482.28	1413.5
482.498	1417.5
482.717	1413.5
482.935	1449.5
483.153	1390.5
483.372	1445.5
483.59	1493.5
483.808	1486.5
484.027	1541.5
484.245	1629.5
484.463	1804.5
484.681	2009.5
484.9	1789.5
485.118	1681.5
485.336	1640.5
485.554	1647.5
485.772	1750.5
485.99	2024.5
486.209	2209.5
486.427	1831.5
486.645	1605.5
486.863	1591.5
487.081	1531.5
487.299	1549.5
487.517	1498.5
487.735	1507.5
487.953	1519.5
488.171	1510.5
488.389	1496.5
488.607	1497.5
488.825	1454.5
489.043	1422.5
489.261	1441.5
489.479	1444.5
489.696	1514.5
489.914	1459.5
490.132	1472.5
490.35	1490.5
490.568	1505.5
490.786	1545.5
491.003	1543.5
491.221	1544.5
491.439	1508.5
491.657	1577.5
491.874	1551.5
492.092	1592.5
492.31	1642.5
492.527	1606.5
492.745	1562.5
492.963	1572.5
493.18	1576.5
493.398	1573.5
493.615	1543.5
493.833	1593.5
494.05	1580.5
494.268	1602.5
494.485	1565.5
494.703	1545.5
494.92	1578.5
495.138	1588.5
495.355	1563.5
495.573	1565.5
495.79	1569.5
496.008	1625.5
496.225	1572.5
496.442	1597.5
496.66	1641.5
496.877	1715.5
497.094	1721.5
497.312	1713.5
497.529	1680.5
497.746	1694.5
497.963	1685.5
498.181	1760.5
498.398	1793.5
498.615	1806.5
498.832	1906.5
499.049	1983.5
499.267	2134.5
499.484	2248.5
499.701	2277.5
499.918	2344.5
500.135	2455.5
500.352	2572.5
500.569	2618.5
500.786	2598.5
501.003	2579.5
501.22	2407.5
501.437	2270.5
501.654	2159.5
501.871	2079.5
502.088	1949.5
502.305	1908.5
502.522	1833.5
502.739	1805.5
502.956	1739.5
503.172	1710.5
503.389	1667.5
503.606	1659.5
503.823	1622.5
504.04	1597.5
504.256	1589.5
504.473	1585.5
504.69	1609.5
504.907	1606.5
505.123	1553.5
505.34	1507.5
505.557	1486.5
505.773	1468.5
505.99	1437.5
506.207	1440.5
506.423	1364.5
506.64	1380.5
506.856	1395.5
