Data from SnStandardFlinnAPT0064_LampEnergy5.5_LIBS07252019.E.O._I.C._HRD10591_15-15-37-491.txt Node
Date: Thu Jul 25 15:15:37 EDT 2019
User: cochatt
Spectrometer: HR+D1059
Trigger mode: 1
Integration Time (sec): 1.000000E-1
Scans to average: 1
Electric dark correction enabled: true
Nonlinearity correction enabled: false
Boxcar width: 0
XAxis mode: Wavelengths
Number of Pixels in Spectrum: 2048
>>>>>Begin Spectral Data<<<<<
223.165	-20.56
223.4	-20.56
223.635	-20.56
223.869	-18.56
224.104	-7.56
224.338	-17.56
224.573	-31.56
224.808	-12.56
225.042	3.44
225.277	-19.56
225.511	-0.56
225.746	16.44
225.98	5.44
226.215	10.44
226.449	13.44
226.683	25.44
226.918	20.44
227.152	33.44
227.387	39.44
227.621	31.44
227.856	31.44
228.09	58.44
228.324	53.44
228.559	63.44
228.793	88.44
229.027	140.44
229.262	164.44
229.496	157.44
229.73	151.44
229.964	150.44
230.199	144.44
230.433	153.44
230.667	161.44
230.901	182.44
231.136	163.44
231.37	164.44
231.604	185.44
231.838	182.44
232.072	223.44
232.306	226.44
232.541	207.44
232.775	186.44
233.009	194.44
233.243	204.44
233.477	200.44
233.711	225.44
233.945	226.44
234.179	236.44
234.413	203.44
234.647	202.44
234.881	215.44
235.115	239.44
235.349	252.44
235.583	291.44
235.817	356.44
236.051	375.44
236.285	267.44
236.519	232.44
236.753	218.44
236.987	219.44
237.221	222.44
237.455	229.44
237.689	209.44
237.922	199.44
238.156	230.44
238.39	228.44
238.624	214.44
238.858	209.44
239.091	202.44
239.325	194.44
239.559	230.44
239.793	216.44
240.027	221.44
240.26	226.44
240.494	249.44
240.728	262.44
240.961	262.44
241.195	280.44
241.429	264.44
241.662	277.44
241.896	295.44
242.13	359.44
242.363	455.44
242.597	566.44
242.83	553.44
243.064	545.44
243.298	634.44
243.531	539.44
243.765	360.44
243.998	310.44
244.232	306.44
244.465	284.44
244.699	266.44
244.932	303.44
245.166	296.44
245.399	288.44
245.633	287.44
245.866	287.44
246.099	294.44
246.333	279.44
246.566	269.44
246.8	254.44
247.033	264.44
247.266	275.44
247.5	274.44
247.733	282.44
247.966	294.44
248.2	313.44
248.433	352.44
248.666	395.44
248.899	375.44
249.133	352.44
249.366	337.44
249.599	368.44
249.832	403.44
250.066	413.44
250.299	336.44
250.532	326.44
250.765	331.44
250.998	294.44
251.231	301.44
251.465	300.44
251.698	319.44
251.931	319.44
252.164	312.44
252.397	326.44
252.63	318.44
252.863	326.44
253.096	334.44
253.329	328.44
253.562	353.44
253.795	333.44
254.028	332.44
254.261	349.44
254.494	348.44
254.727	414.44
254.96	479.44
255.193	468.44
255.426	376.44
255.659	358.44
255.892	373.44
256.124	354.44
256.357	352.44
256.59	364.44
256.823	375.44
257.056	422.44
257.289	513.44
257.521	516.44
257.754	441.44
257.987	402.44
258.22	392.44
258.452	377.44
258.685	376.44
258.918	407.44
259.151	418.44
259.383	429.44
259.616	472.44
259.849	479.44
260.081	422.44
260.314	403.44
260.547	380.44
260.779	392.44
261.012	418.44
261.244	422.44
261.477	429.44
261.71	424.44
261.942	423.44
262.175	415.44
262.407	445.44
262.64	451.44
262.872	484.44
263.105	491.44
263.337	507.44
263.57	536.44
263.802	535.44
264.035	550.44
264.267	550.44
264.499	577.44
264.732	600.44
264.964	602.44
265.197	610.44
265.429	594.44
265.661	617.44
265.894	629.44
266.126	689.44
266.358	773.44
266.591	765.44
266.823	635.44
267.055	620.44
267.287	576.44
267.52	547.44
267.752	557.44
267.984	551.44
268.216	547.44
268.448	521.44
268.681	520.44
268.913	533.44
269.145	533.44
269.377	512.44
269.609	537.44
269.841	526.44
270.073	559.44
270.306	610.44
270.538	796.44
270.77	1128.44
271.002	1316.44
271.234	991.44
271.466	693.44
271.698	589.44
271.93	561.44
272.162	546.44
272.394	530.44
272.626	526.44
272.858	482.44
273.09	494.44
273.322	485.44
273.553	503.44
273.785	508.44
274.017	513.44
274.249	502.44
274.481	509.44
274.713	500.44
274.945	497.44
275.176	484.44
275.408	519.44
275.64	512.44
275.872	513.44
276.104	535.44
276.335	536.44
276.567	523.44
276.799	497.44
277.031	541.44
277.262	519.44
277.494	543.44
277.726	605.44
277.957	666.44
278.189	727.44
278.421	723.44
278.652	650.44
278.884	614.44
279.115	573.44
279.347	564.44
279.579	548.44
279.81	529.44
280.042	537.44
280.273	565.44
280.505	580.44
280.736	588.44
280.968	629.44
281.199	659.44
281.431	719.44
281.662	737.44
281.894	658.44
282.125	615.44
282.356	631.44
282.588	663.44
282.819	654.44
283.051	703.44
283.282	763.44
283.513	897.44
283.745	1269.44
283.976	1942.44
284.207	2683.44
284.439	2445.44
284.67	1504.44
284.901	1241.44
285.132	1203.44
285.364	1120.44
285.595	977.44
285.826	883.44
286.057	1009.44
286.288	1333.44
286.52	1711.44
286.751	1613.44
286.982	1073.44
287.213	852.44
287.444	764.44
287.675	722.44
287.906	710.44
288.138	689.44
288.369	679.44
288.6	663.44
288.831	671.44
289.062	679.44
289.293	667.44
289.524	673.44
289.755	701.44
289.986	676.44
290.217	691.44
290.448	703.44
290.679	673.44
290.91	687.44
291.141	722.44
291.371	727.44
291.602	743.44
291.833	728.44
292.064	681.44
292.295	643.44
292.526	648.44
292.757	641.44
292.987	630.44
293.218	630.44
293.449	651.44
293.68	647.44
293.91	640.44
294.141	624.44
294.372	623.44
294.603	624.44
294.833	646.44
295.064	617.44
295.295	630.44
295.525	632.44
295.756	629.44
295.987	638.44
296.217	649.44
296.448	636.44
296.679	631.44
296.909	622.44
297.14	639.44
297.37	638.44
297.601	648.44
297.831	648.44
298.062	655.44
298.292	683.44
298.523	673.44
298.753	672.44
298.984	694.44
299.214	686.44
299.445	692.44
299.675	675.44
299.905	722.44
300.136	738.44
300.366	788.44
300.597	972.44
300.827	1324.44
301.057	1731.44
301.288	1673.44
301.518	1135.44
301.748	931.44
301.979	870.44
302.209	813.44
302.439	848.44
302.669	877.44
302.9	1023.44
303.13	1398.44
303.36	1947.44
303.59	2592.44
303.82	2251.44
304.051	1415.44
304.281	1103.44
304.511	939.44
304.741	879.44
304.971	834.44
305.201	799.44
305.431	759.44
305.661	754.44
305.891	758.44
306.121	737.44
306.352	739.44
306.582	724.44
306.812	721.44
307.042	742.44
307.272	702.44
307.502	739.44
307.731	725.44
307.961	729.44
308.191	712.44
308.421	747.44
308.651	704.44
308.881	736.44
309.111	738.44
309.341	711.44
309.571	729.44
309.8	711.44
310.03	713.44
310.26	729.44
310.49	759.44
310.72	763.44
310.949	751.44
311.179	752.44
311.409	773.44
311.639	751.44
311.868	777.44
312.098	771.44
312.328	765.44
312.557	765.44
312.787	768.44
313.017	783.44
313.246	801.44
313.476	813.44
313.706	822.44
313.935	851.44
314.165	877.44
314.394	893.44
314.624	865.44
314.853	858.44
315.083	827.44
315.312	835.44
315.542	851.44
315.771	883.44
316.001	889.44
316.23	928.44
316.46	906.44
316.689	978.44
316.919	1143.44
317.148	1606.44
317.377	2342.44
317.607	3439.44
317.836	3499.44
318.065	2165.44
318.295	1462.44
318.524	1197.44
318.753	1102.44
318.983	1040.44
319.212	969.44
319.441	967.44
319.67	947.44
319.9	942.44
320.129	918.44
320.358	897.44
320.587	917.44
320.816	900.44
321.046	911.44
321.275	939.44
321.504	925.44
321.733	917.44
321.962	961.44
322.191	937.44
322.42	962.44
322.649	973.44
322.878	941.44
323.108	974.44
323.337	987.44
323.566	999.44
323.795	1017.44
324.024	1039.44
324.253	1053.44
324.482	1075.44
324.71	1118.44
324.939	1145.44
325.168	1178.44
325.397	1216.44
325.626	1452.44
325.855	1949.44
326.084	2863.44
326.313	4169.44
326.542	4499.44
326.77	2980.44
326.999	2035.44
327.228	1745.44
327.457	1653.44
327.686	1687.44
327.914	1824.44
328.143	2044.44
328.372	2305.44
328.6	2521.44
328.829	2315.44
329.058	2050.44
329.287	1831.44
329.515	1717.44
329.744	1578.44
329.972	1553.44
330.201	1490.44
330.43	1427.44
330.658	1410.44
330.887	1362.44
331.115	1331.44
331.344	1344.44
331.572	1332.44
331.801	1341.44
332.03	1345.44
332.258	1349.44
332.486	1422.44
332.715	1512.44
332.943	1815.44
333.172	2177.44
333.4	2173.44
333.629	1797.44
333.857	1696.44
334.085	1655.44
334.314	1747.44
334.542	1844.44
334.771	2097.44
334.999	2510.44
335.227	3000.44
335.455	3390.44
335.684	3123.44
335.912	2710.44
336.14	2357.44
336.369	2078.44
336.597	1963.44
336.825	1848.44
337.053	1720.44
337.281	1607.44
337.51	1545.44
337.738	1487.44
337.966	1405.44
338.194	1402.44
338.422	1320.44
338.65	1327.44
338.878	1287.44
339.106	1269.44
339.334	1269.44
339.562	1256.44
339.79	1228.44
340.018	1211.44
340.246	1188.44
340.474	1176.44
340.702	1204.44
340.93	1181.44
341.158	1171.44
341.386	1149.44
341.614	1182.44
341.842	1159.44
342.07	1129.44
342.298	1111.44
342.526	1103.44
342.754	1100.44
342.981	1074.44
343.209	1058.44
343.437	1087.44
343.665	1091.44
343.893	1120.44
344.12	1127.44
344.348	1138.44
344.576	1104.44
344.804	1092.44
345.031	1061.44
345.259	1057.44
345.487	1004.44
345.714	1039.44
345.942	1016.44
346.17	1041.44
346.397	1009.44
346.625	1015.44
346.853	991.44
347.08	991.44
347.308	980.44
347.535	997.44
347.763	1023.44
347.99	987.44
348.218	988.44
348.445	989.44
348.673	983.44
348.9	994.44
349.128	990.44
349.355	972.44
349.583	969.44
349.81	997.44
350.037	983.44
350.265	958.44
350.492	986.44
350.72	952.44
350.947	941.44
351.174	973.44
351.402	962.44
351.629	953.44
351.856	988.44
352.083	925.44
352.311	949.44
352.538	921.44
352.765	969.44
352.992	989.44
353.22	933.44
353.447	956.44
353.674	969.44
353.901	973.44
354.128	951.44
354.355	959.44
354.583	957.44
354.81	951.44
355.037	997.44
355.264	970.44
355.491	971.44
355.718	955.44
355.945	1009.44
356.172	994.44
356.399	1013.44
356.626	989.44
356.853	995.44
357.08	993.44
357.307	988.44
357.534	1024.44
357.761	1021.44
357.988	1029.44
358.215	1009.44
358.441	1024.44
358.668	1031.44
358.895	1025.44
359.122	1003.44
359.349	1037.44
359.576	1028.44
359.802	1038.44
360.029	1035.44
360.256	1027.44
360.483	1012.44
360.709	1024.44
360.936	1011.44
361.163	1048.44
361.39	1032.44
361.616	1047.44
361.843	1063.44
362.07	1041.44
362.296	1044.44
362.523	1045.44
362.749	1040.44
362.976	1012.44
363.203	1045.44
363.429	1010.44
363.656	1028.44
363.882	1040.44
364.109	1029.44
364.335	1032.44
364.562	1015.44
364.788	1005.44
365.015	995.44
365.241	1057.44
365.468	1098.44
365.694	1121.44
365.92	1099.44
366.147	1071.44
366.373	1025.44
366.599	1035.44
366.826	1059.44
367.052	1049.44
367.278	1059.44
367.505	1041.44
367.731	1056.44
367.957	1069.44
368.184	1037.44
368.41	1083.44
368.636	1058.44
368.862	1095.44
369.089	1085.44
369.315	1083.44
369.541	1073.44
369.767	1035.44
369.993	1052.44
370.219	1074.44
370.445	1088.44
370.672	1095.44
370.898	1083.44
371.124	1112.44
371.35	1100.44
371.576	1092.44
371.802	1079.44
372.028	1139.44
372.254	1104.44
372.48	1152.44
372.706	1097.44
372.932	1118.44
373.158	1131.44
373.384	1118.44
373.61	1130.44
373.835	1121.44
374.061	1127.44
374.287	1135.44
374.513	1131.44
374.739	1159.44
374.965	1128.44
375.191	1155.44
375.416	1142.44
375.642	1115.44
375.868	1139.44
376.094	1125.44
376.319	1159.44
376.545	1131.44
376.771	1106.44
376.997	1081.44
377.222	1108.44
377.448	1128.44
377.674	1113.44
377.899	1090.44
378.125	1105.44
378.35	1115.44
378.576	1128.44
378.802	1092.44
379.027	1126.44
379.253	1140.44
379.478	1184.44
379.704	1375.44
379.929	1813.44
380.155	2557.44
380.38	2707.44
380.606	1799.44
380.831	1386.44
381.057	1255.44
381.282	1170.44
381.507	1158.44
381.733	1108.44
381.958	1136.44
382.184	1095.44
382.409	1096.44
382.634	1096.44
382.86	1079.44
383.085	1101.44
383.31	1106.44
383.535	1084.44
383.761	1061.44
383.986	1104.44
384.211	1111.44
384.436	1144.44
384.662	1131.44
384.887	1115.44
385.112	1133.44
385.337	1148.44
385.562	1133.44
385.787	1127.44
386.013	1150.44
386.238	1139.44
386.463	1141.44
386.688	1150.44
386.913	1103.44
387.138	1133.44
387.363	1140.44
387.588	1128.44
387.813	1119.44
388.038	1129.44
388.263	1127.44
388.488	1151.44
388.713	1111.44
388.938	1139.44
389.163	1127.44
389.387	1121.44
389.612	1147.44
389.837	1151.44
390.062	1130.44
390.287	1150.44
390.512	1140.44
390.736	1175.44
390.961	1188.44
391.186	1144.44
391.411	1181.44
391.636	1208.44
391.86	1215.44
392.085	1216.44
392.31	1189.44
392.534	1204.44
392.759	1144.44
392.984	1138.44
393.208	1153.44
393.433	1159.44
393.658	1123.44
393.882	1121.44
394.107	1168.44
394.331	1143.44
394.556	1151.44
394.78	1161.44
395.005	1172.44
395.229	1184.44
395.454	1177.44
395.678	1197.44
395.903	1195.44
396.127	1167.44
396.352	1161.44
396.576	1155.44
396.801	1183.44
397.025	1172.44
397.249	1173.44
397.474	1189.44
397.698	1220.44
397.922	1208.44
398.147	1218.44
398.371	1228.44
398.595	1240.44
398.82	1256.44
399.044	1305.44
399.268	1369.44
399.492	1453.44
399.717	1515.44
399.941	1520.44
400.165	1473.44
400.389	1376.44
400.613	1316.44
400.837	1309.44
401.062	1270.44
401.286	1284.44
401.51	1266.44
401.734	1247.44
401.958	1247.44
402.182	1276.44
402.406	1224.44
402.63	1254.44
402.854	1268.44
403.078	1307.44
403.302	1305.44
403.526	1295.44
403.75	1297.44
403.974	1320.44
404.198	1300.44
404.422	1329.44
404.645	1285.44
404.869	1307.44
405.093	1329.44
405.317	1307.44
405.541	1314.44
405.765	1345.44
405.988	1367.44
406.212	1332.44
406.436	1341.44
406.66	1332.44
406.883	1322.44
407.107	1371.44
407.331	1412.44
407.555	1435.44
407.778	1401.44
408.002	1391.44
408.226	1350.44
408.449	1383.44
408.673	1335.44
408.896	1345.44
409.12	1351.44
409.344	1346.44
409.567	1312.44
409.791	1329.44
410.014	1283.44
410.238	1292.44
410.461	1318.44
410.685	1271.44
410.908	1275.44
411.132	1276.44
411.355	1276.44
411.578	1270.44
411.802	1264.44
412.025	1251.44
412.249	1308.44
412.472	1282.44
412.695	1233.44
412.919	1237.44
413.142	1219.44
413.365	1203.44
413.589	1262.44
413.812	1222.44
414.035	1216.44
414.258	1260.44
414.482	1235.44
414.705	1267.44
414.928	1218.44
415.151	1223.44
415.374	1207.44
415.597	1215.44
415.821	1193.44
416.044	1191.44
416.267	1189.44
416.49	1165.44
416.713	1174.44
416.936	1173.44
417.159	1186.44
417.382	1178.44
417.605	1171.44
417.828	1195.44
418.051	1211.44
418.274	1170.44
418.497	1205.44
418.72	1241.44
418.943	1203.44
419.166	1250.44
419.389	1327.44
419.611	1293.44
419.834	1251.44
420.057	1248.44
420.28	1219.44
420.503	1182.44
420.726	1207.44
420.948	1163.44
421.171	1192.44
421.394	1182.44
421.617	1179.44
421.839	1192.44
422.062	1211.44
422.285	1189.44
422.507	1197.44
422.73	1194.44
422.953	1225.44
423.175	1213.44
423.398	1180.44
423.621	1150.44
423.843	1226.44
424.066	1226.44
424.288	1203.44
424.511	1202.44
424.733	1209.44
424.956	1204.44
425.178	1185.44
425.401	1196.44
425.623	1183.44
425.846	1183.44
426.068	1179.44
426.291	1158.44
426.513	1152.44
426.735	1176.44
426.958	1160.44
427.18	1111.44
427.402	1136.44
427.625	1124.44
427.847	1141.44
428.069	1117.44
428.292	1128.44
428.514	1111.44
428.736	1107.44
428.958	1121.44
429.181	1096.44
429.403	1080.44
429.625	1096.44
429.847	1091.44
430.069	1107.44
430.292	1133.44
430.514	1165.44
430.736	1151.44
430.958	1102.44
431.18	1085.44
431.402	1110.44
431.624	1104.44
431.846	1103.44
432.068	1097.44
432.29	1083.44
432.512	1061.44
432.734	1073.44
432.956	1109.44
433.178	1110.44
433.4	1092.44
433.622	1119.44
433.844	1118.44
434.066	1105.44
434.287	1099.44
434.509	1079.44
434.731	1109.44
434.953	1110.44
435.175	1138.44
435.397	1183.44
435.618	1093.44
435.84	1099.44
436.062	1072.44
436.284	1103.44
436.505	1101.44
436.727	1094.44
436.949	1106.44
437.17	1083.44
437.392	1102.44
437.614	1077.44
437.835	1035.44
438.057	1056.44
438.278	1061.44
438.5	1065.44
438.721	1108.44
438.943	1126.44
439.165	1145.44
439.386	1123.44
439.608	1157.44
439.829	1146.44
440.05	1171.44
440.272	1193.44
440.493	1121.44
440.715	1135.44
440.936	1123.44
441.158	1168.44
441.379	1151.44
441.6	1188.44
441.822	1230.44
442.043	1221.44
442.264	1287.44
442.486	1219.44
442.707	1186.44
442.928	1197.44
443.149	1171.44
443.371	1159.44
443.592	1171.44
443.813	1187.44
444.034	1200.44
444.255	1209.44
444.476	1212.44
444.698	1293.44
444.919	1264.44
445.14	1308.44
445.361	1280.44
445.582	1210.44
445.803	1195.44
446.024	1176.44
446.245	1197.44
446.466	1203.44
446.687	1159.44
446.908	1193.44
447.129	1145.44
447.35	1121.44
447.571	1132.44
447.792	1121.44
448.013	1077.44
448.234	1077.44
448.455	1095.44
448.675	1126.44
448.896	1123.44
449.117	1158.44
449.338	1212.44
449.559	1243.44
449.779	1162.44
450	1082.44
450.221	1054.44
450.442	1057.44
450.662	1051.44
450.883	1063.44
451.104	1032.44
451.324	1034.44
451.545	1050.44
451.766	1068.44
451.986	1071.44
452.207	1085.44
452.428	1287.44
452.648	1711.44
452.869	1502.44
453.089	1185.44
453.31	1135.44
453.53	1148.44
453.751	1175.44
453.971	1204.44
454.192	1226.44
454.412	1095.44
454.633	1050.44
454.853	1036.44
455.073	1040.44
455.294	1020.44
455.514	1005.44
455.734	996.44
455.955	998.44
456.175	984.44
456.395	1007.44
456.616	999.44
456.836	997.44
457.056	1042.44
457.276	1027.44
457.497	1071.44
457.717	1069.44
457.937	1074.44
458.157	1014.44
458.377	1081.44
458.598	1074.44
458.818	1062.44
459.038	1073.44
459.258	1076.44
459.478	1115.44
459.698	1106.44
459.918	1128.44
460.138	1140.44
460.358	1139.44
460.578	1156.44
460.798	1187.44
461.018	1172.44
461.238	1222.44
461.458	1191.44
461.678	1221.44
461.898	1246.44
462.118	1231.44
462.338	1244.44
462.558	1256.44
462.777	1250.44
462.997	1307.44
463.217	1373.44
463.437	1421.44
463.657	1383.44
463.876	1406.44
464.096	1318.44
464.316	1303.44
464.536	1324.44
464.755	1265.44
464.975	1264.44
465.195	1196.44
465.414	1159.44
465.634	1116.44
465.854	1123.44
466.073	1111.44
466.293	1097.44
466.512	1093.44
466.732	1111.44
466.951	1143.44
467.171	1201.44
467.391	1197.44
467.61	1125.44
467.829	1118.44
468.049	1102.44
468.268	1075.44
468.488	1081.44
468.707	1077.44
468.927	1081.44
469.146	1057.44
469.365	1095.44
469.585	1065.44
469.804	1085.44
470.023	1133.44
470.243	1144.44
470.462	1165.44
470.681	1204.44
470.901	1277.44
471.12	1461.44
471.339	1452.44
471.558	1298.44
471.777	1178.44
471.997	1133.44
472.216	1086.44
472.435	1057.44
472.654	1033.44
472.873	1057.44
473.092	1083.44
473.311	1080.44
473.53	1097.44
473.749	1120.44
473.968	1120.44
474.187	1094.44
474.406	1078.44
474.625	1096.44
474.844	1099.44
475.063	1109.44
475.282	1073.44
475.501	1085.44
475.72	1115.44
475.939	1112.44
476.158	1143.44
476.377	1153.44
476.596	1133.44
476.814	1146.44
477.033	1095.44
477.252	1138.44
477.471	1179.44
477.69	1198.44
477.908	1207.44
478.127	1226.44
478.346	1236.44
478.564	1253.44
478.783	1233.44
479.002	1286.44
479.22	1302.44
479.439	1311.44
479.658	1248.44
479.876	1258.44
480.095	1291.44
480.313	1305.44
480.532	1324.44
480.751	1325.44
480.969	1305.44
481.188	1263.44
481.406	1299.44
481.624	1293.44
481.843	1275.44
482.061	1268.44
482.28	1296.44
482.498	1259.44
482.717	1289.44
482.935	1285.44
483.153	1351.44
483.372	1349.44
483.59	1327.44
483.808	1357.44
484.027	1352.44
484.245	1459.44
484.463	1599.44
484.681	1724.44
484.9	1617.44
485.118	1495.44
485.336	1502.44
485.554	1507.44
485.772	1549.44
485.99	1711.44
486.209	1838.44
486.427	1569.44
486.645	1402.44
486.863	1433.44
487.081	1399.44
487.299	1363.44
487.517	1399.44
487.735	1407.44
487.953	1410.44
488.171	1425.44
488.389	1409.44
488.607	1380.44
488.825	1348.44
489.043	1336.44
489.261	1300.44
489.479	1328.44
489.696	1368.44
489.914	1327.44
490.132	1352.44
490.35	1363.44
490.568	1359.44
490.786	1385.44
491.003	1397.44
491.221	1416.44
491.439	1453.44
491.657	1393.44
