Data from SnStandardFlinnAPT0064_QswitchEnergy10_LIBS07252019.E.O._I.C._HRD10591_15-27-59-974.txt Node
Date: Thu Jul 25 15:27:59 EDT 2019
User: cochatt
Spectrometer: HR+D1059
Trigger mode: 1
Integration Time (sec): 1.000000E-1
Scans to average: 1
Electric dark correction enabled: true
Nonlinearity correction enabled: false
Boxcar width: 0
XAxis mode: Wavelengths
Number of Pixels in Spectrum: 2048
>>>>>Begin Spectral Data<<<<<
223.165	-8.38
223.4	-8.38
223.635	-8.38
223.869	-16.38
224.104	-17.38
224.338	-25.38
224.573	-26.38
224.808	-18.38
225.042	-12.38
225.277	-16.38
225.511	5.62
225.746	9.62
225.98	2.62
226.215	8.62
226.449	26.62
226.683	20.62
226.918	24.62
227.152	42.62
227.387	47.62
227.621	39.62
227.856	48.62
228.09	57.62
228.324	58.62
228.559	64.62
228.793	64.62
229.027	71.62
229.262	92.62
229.496	77.62
229.73	84.62
229.964	83.62
230.199	71.62
230.433	88.62
230.667	83.62
230.901	87.62
231.136	90.62
231.37	74.62
231.604	95.62
231.838	110.62
232.072	119.62
232.306	106.62
232.541	91.62
232.775	95.62
233.009	93.62
233.243	79.62
233.477	92.62
233.711	106.62
233.945	117.62
234.179	110.62
234.413	99.62
234.647	88.62
234.881	101.62
235.115	100.62
235.349	99.62
235.583	104.62
235.817	135.62
236.051	129.62
236.285	94.62
236.519	91.62
236.753	84.62
236.987	86.62
237.221	75.62
237.455	84.62
237.689	86.62
237.922	90.62
238.156	73.62
238.39	78.62
238.624	84.62
238.858	103.62
239.091	94.62
239.325	85.62
239.559	90.62
239.793	79.62
240.027	80.62
240.26	89.62
240.494	87.62
240.728	74.62
240.961	99.62
241.195	112.62
241.429	95.62
241.662	92.62
241.896	99.62
242.13	119.62
242.363	117.62
242.597	171.62
242.83	141.62
243.064	139.62
243.298	174.62
243.531	161.62
243.765	111.62
243.998	89.62
244.232	81.62
244.465	73.62
244.699	78.62
244.932	93.62
245.166	82.62
245.399	87.62
245.633	95.62
245.866	90.62
246.099	91.62
246.333	79.62
246.566	87.62
246.8	77.62
247.033	78.62
247.266	100.62
247.5	87.62
247.733	92.62
247.966	83.62
248.2	100.62
248.433	95.62
248.666	129.62
248.899	130.62
249.133	108.62
249.366	91.62
249.599	99.62
249.832	129.62
250.066	135.62
250.299	105.62
250.532	94.62
250.765	71.62
250.998	86.62
251.231	87.62
251.465	81.62
251.698	88.62
251.931	80.62
252.164	94.62
252.397	92.62
252.63	101.62
252.863	103.62
253.096	96.62
253.329	97.62
253.562	99.62
253.795	102.62
254.028	89.62
254.261	92.62
254.494	107.62
254.727	121.62
254.96	173.62
255.193	127.62
255.426	103.62
255.659	90.62
255.892	80.62
256.124	103.62
256.357	110.62
256.59	91.62
256.823	99.62
257.056	110.62
257.289	162.62
257.521	187.62
257.754	131.62
257.987	102.62
258.22	94.62
258.452	79.62
258.685	80.62
258.918	87.62
259.151	93.62
259.383	99.62
259.616	130.62
259.849	138.62
260.081	111.62
260.314	105.62
260.547	95.62
260.779	77.62
261.012	84.62
261.244	84.62
261.477	103.62
261.71	90.62
261.942	103.62
262.175	87.62
262.407	92.62
262.64	86.62
262.872	91.62
263.105	96.62
263.337	86.62
263.57	92.62
263.802	101.62
264.035	102.62
264.267	85.62
264.499	98.62
264.732	92.62
264.964	89.62
265.197	88.62
265.429	100.62
265.661	74.62
265.894	97.62
266.126	113.62
266.358	171.62
266.591	158.62
266.823	105.62
267.055	90.62
267.287	74.62
267.52	97.62
267.752	97.62
267.984	93.62
268.216	94.62
268.448	101.62
268.681	93.62
268.913	80.62
269.145	84.62
269.377	92.62
269.609	80.62
269.841	103.62
270.073	103.62
270.306	124.62
270.538	188.62
270.77	340.62
271.002	380.62
271.234	202.62
271.466	117.62
271.698	103.62
271.93	81.62
272.162	97.62
272.394	89.62
272.626	105.62
272.858	81.62
273.09	98.62
273.322	102.62
273.553	87.62
273.785	99.62
274.017	86.62
274.249	87.62
274.481	86.62
274.713	98.62
274.945	88.62
275.176	83.62
275.408	85.62
275.64	97.62
275.872	95.62
276.104	107.62
276.335	104.62
276.567	97.62
276.799	103.62
277.031	96.62
277.262	90.62
277.494	125.62
277.726	129.62
277.957	197.62
278.189	243.62
278.421	224.62
278.652	207.62
278.884	196.62
279.115	145.62
279.347	110.62
279.579	96.62
279.81	105.62
280.042	101.62
280.273	101.62
280.505	115.62
280.736	126.62
280.968	130.62
281.199	173.62
281.431	256.62
281.662	267.62
281.894	174.62
282.125	112.62
282.356	97.62
282.588	105.62
282.819	113.62
283.051	110.62
283.282	131.62
283.513	204.62
283.745	308.62
283.976	554.62
284.207	812.62
284.439	630.62
284.67	281.62
284.901	262.62
285.132	358.62
285.364	408.62
285.595	231.62
285.826	174.62
286.057	261.62
286.288	415.62
286.52	633.62
286.751	484.62
286.982	208.62
287.213	121.62
287.444	115.62
287.675	99.62
287.906	108.62
288.138	101.62
288.369	104.62
288.6	84.62
288.831	102.62
289.062	102.62
289.293	101.62
289.524	105.62
289.755	110.62
289.986	108.62
290.217	92.62
290.448	93.62
290.679	110.62
290.91	131.62
291.141	165.62
291.371	248.62
291.602	297.62
291.833	203.62
292.064	126.62
292.295	110.62
292.526	110.62
292.757	102.62
292.987	88.62
293.218	92.62
293.449	97.62
293.68	95.62
293.91	101.62
294.141	97.62
294.372	97.62
294.603	100.62
294.833	109.62
295.064	111.62
295.295	94.62
295.525	105.62
295.756	103.62
295.987	113.62
296.217	89.62
296.448	94.62
296.679	94.62
296.909	107.62
297.14	99.62
297.37	99.62
297.601	97.62
297.831	99.62
298.062	101.62
298.292	115.62
298.523	106.62
298.753	107.62
298.984	120.62
299.214	117.62
299.445	124.62
299.675	105.62
299.905	123.62
300.136	131.62
300.366	177.62
300.597	274.62
300.827	468.62
301.057	712.62
301.288	656.62
301.518	276.62
301.748	159.62
301.979	137.62
302.209	131.62
302.439	148.62
302.669	175.62
302.9	282.62
303.13	513.62
303.36	925.62
303.59	1226.62
303.82	848.62
304.051	317.62
304.281	170.62
304.511	131.62
304.741	119.62
304.971	122.62
305.201	119.62
305.431	93.62
305.661	118.62
305.891	110.62
306.121	110.62
306.352	107.62
306.582	111.62
306.812	113.62
307.042	123.62
307.272	117.62
307.502	111.62
307.731	107.62
307.961	98.62
308.191	116.62
308.421	108.62
308.651	98.62
308.881	120.62
309.111	108.62
309.341	102.62
309.571	116.62
309.8	112.62
310.03	121.62
310.26	119.62
310.49	108.62
310.72	117.62
310.949	115.62
311.179	109.62
311.409	108.62
311.639	124.62
311.868	125.62
312.098	112.62
312.328	116.62
312.557	91.62
312.787	110.62
313.017	117.62
313.246	122.62
313.476	118.62
313.706	140.62
313.935	153.62
314.165	202.62
314.394	241.62
314.624	176.62
314.853	144.62
315.083	132.62
315.312	138.62
315.542	131.62
315.771	141.62
316.001	149.62
316.23	157.62
316.46	145.62
316.689	185.62
316.919	285.62
317.148	511.62
317.377	937.62
317.607	1532.62
317.836	1437.62
318.065	549.62
318.295	228.62
318.524	151.62
318.753	149.62
318.983	141.62
319.212	136.62
319.441	126.62
319.67	128.62
319.9	112.62
320.129	124.62
320.358	121.62
320.587	131.62
320.816	115.62
321.046	134.62
321.275	127.62
321.504	136.62
321.733	137.62
321.962	171.62
322.191	169.62
322.42	141.62
322.649	139.62
322.878	147.62
323.108	133.62
323.337	138.62
323.566	125.62
323.795	141.62
324.024	127.62
324.253	149.62
324.482	199.62
324.71	243.62
324.939	298.62
325.168	246.62
325.397	176.62
325.626	285.62
325.855	509.62
326.084	960.62
326.313	1614.62
326.542	1585.62
326.77	621.62
326.999	275.62
327.228	223.62
327.457	239.62
327.686	243.62
327.914	169.62
328.143	140.62
328.372	134.62
328.6	137.62
328.829	118.62
329.058	104.62
329.287	115.62
329.515	105.62
329.744	135.62
329.972	127.62
330.201	124.62
330.43	123.62
330.658	117.62
330.887	123.62
331.115	115.62
331.344	114.62
331.572	105.62
331.801	122.62
332.03	133.62
332.258	136.62
332.486	191.62
332.715	303.62
332.943	520.62
333.172	778.62
333.4	677.62
333.629	259.62
333.857	158.62
334.085	143.62
334.314	126.62
334.542	138.62
334.771	120.62
334.999	121.62
335.227	126.62
335.455	138.62
335.684	128.62
335.912	96.62
336.14	128.62
336.369	121.62
336.597	115.62
336.825	116.62
337.053	125.62
337.281	110.62
337.51	119.62
337.738	127.62
337.966	106.62
338.194	97.62
338.422	108.62
338.65	106.62
338.878	126.62
339.106	125.62
339.334	124.62
339.562	122.62
339.79	112.62
340.018	122.62
340.246	119.62
340.474	119.62
340.702	119.62
340.93	119.62
341.158	109.62
341.386	131.62
341.614	119.62
341.842	131.62
342.07	126.62
342.298	109.62
342.526	117.62
342.754	115.62
342.981	118.62
343.209	116.62
343.437	111.62
343.665	104.62
343.893	110.62
344.12	110.62
344.348	119.62
344.576	123.62
344.804	120.62
345.031	113.62
345.259	110.62
345.487	101.62
345.714	123.62
345.942	121.62
346.17	131.62
346.397	123.62
346.625	105.62
346.853	115.62
347.08	97.62
347.308	116.62
347.535	126.62
347.763	95.62
347.99	106.62
348.218	99.62
348.445	106.62
348.673	112.62
348.9	119.62
349.128	139.62
349.355	128.62
349.583	125.62
349.81	128.62
350.037	112.62
350.265	117.62
350.492	99.62
350.72	104.62
350.947	121.62
351.174	113.62
351.402	131.62
351.629	122.62
351.856	121.62
352.083	111.62
352.311	113.62
352.538	122.62
352.765	123.62
352.992	111.62
353.22	117.62
353.447	125.62
353.674	116.62
353.901	106.62
354.128	101.62
354.355	105.62
354.583	123.62
354.81	118.62
355.037	103.62
355.264	98.62
355.491	111.62
355.718	112.62
355.945	104.62
356.172	108.62
356.399	117.62
356.626	116.62
356.853	110.62
357.08	123.62
357.307	107.62
357.534	126.62
357.761	112.62
357.988	91.62
358.215	111.62
358.441	116.62
358.668	112.62
358.895	118.62
359.122	127.62
359.349	124.62
359.576	124.62
359.802	128.62
360.029	103.62
360.256	120.62
360.483	121.62
360.709	120.62
360.936	125.62
361.163	111.62
361.39	106.62
361.616	109.62
361.843	123.62
362.07	99.62
362.296	117.62
362.523	115.62
362.749	94.62
362.976	120.62
363.203	102.62
363.429	100.62
363.656	106.62
363.882	104.62
364.109	130.62
364.335	131.62
364.562	107.62
364.788	89.62
365.015	110.62
365.241	151.62
365.468	197.62
365.694	260.62
365.92	215.62
366.147	112.62
366.373	92.62
366.599	105.62
366.826	95.62
367.052	115.62
367.278	104.62
367.505	98.62
367.731	109.62
367.957	115.62
368.184	120.62
368.41	124.62
368.636	127.62
368.862	108.62
369.089	101.62
369.315	113.62
369.541	115.62
369.767	115.62
369.993	115.62
370.219	96.62
370.445	101.62
370.672	94.62
370.898	111.62
371.124	110.62
371.35	116.62
371.576	107.62
371.802	115.62
372.028	121.62
372.254	121.62
372.48	132.62
372.706	111.62
372.932	119.62
373.158	115.62
373.384	107.62
373.61	110.62
373.835	104.62
374.061	107.62
374.287	113.62
374.513	103.62
374.739	120.62
374.965	107.62
375.191	110.62
375.416	112.62
375.642	99.62
375.868	105.62
376.094	118.62
376.319	118.62
376.545	117.62
376.771	126.62
376.997	102.62
377.222	107.62
377.448	120.62
377.674	115.62
377.899	97.62
378.125	113.62
378.35	107.62
378.576	117.62
378.802	133.62
379.027	134.62
379.253	147.62
379.478	180.62
379.704	320.62
379.929	790.62
380.155	1600.62
380.38	1668.62
380.606	554.62
380.831	208.62
381.057	147.62
381.282	124.62
381.507	116.62
381.733	121.62
381.958	109.62
382.184	112.62
382.409	114.62
382.634	131.62
382.86	96.62
383.085	102.62
383.31	115.62
383.535	125.62
383.761	103.62
383.986	104.62
384.211	105.62
384.436	114.62
384.662	110.62
384.887	109.62
385.112	105.62
385.337	109.62
385.562	116.62
385.787	95.62
386.013	109.62
386.238	97.62
386.463	104.62
386.688	105.62
386.913	117.62
387.138	119.62
387.363	115.62
387.588	133.62
387.813	112.62
388.038	87.62
388.263	108.62
388.488	128.62
388.713	99.62
388.938	109.62
389.163	107.62
389.387	107.62
389.612	102.62
389.837	123.62
390.062	115.62
390.287	96.62
390.512	89.62
390.736	118.62
390.961	118.62
391.186	95.62
391.411	113.62
391.636	104.62
391.86	110.62
392.085	91.62
392.31	104.62
392.534	89.62
392.759	100.62
392.984	103.62
393.208	131.62
393.433	137.62
393.658	139.62
393.882	96.62
394.107	112.62
394.331	104.62
394.556	101.62
394.78	94.62
395.005	120.62
395.229	119.62
395.454	112.62
395.678	97.62
395.903	88.62
396.127	94.62
396.352	125.62
396.576	108.62
396.801	128.62
397.025	128.62
397.249	121.62
397.474	96.62
397.698	95.62
397.922	87.62
398.147	100.62
398.371	95.62
398.595	104.62
398.82	104.62
399.044	97.62
399.268	127.62
399.492	101.62
399.717	97.62
399.941	101.62
400.165	100.62
400.389	102.62
400.613	94.62
400.837	103.62
401.062	103.62
401.286	98.62
401.51	102.62
401.734	110.62
401.958	106.62
402.182	100.62
402.406	92.62
402.63	102.62
402.854	103.62
403.078	102.62
403.302	114.62
403.526	104.62
403.75	96.62
403.974	102.62
404.198	108.62
404.422	99.62
404.645	99.62
404.869	95.62
405.093	113.62
405.317	111.62
405.541	120.62
405.765	137.62
405.988	153.62
406.212	121.62
406.436	98.62
406.66	106.62
406.883	111.62
407.107	107.62
407.331	109.62
407.555	116.62
407.778	91.62
408.002	104.62
408.226	108.62
408.449	94.62
408.673	117.62
408.896	121.62
409.12	108.62
409.344	101.62
409.567	115.62
409.791	100.62
410.014	103.62
410.238	110.62
410.461	102.62
410.685	84.62
410.908	93.62
411.132	106.62
411.355	120.62
411.578	106.62
411.802	101.62
412.025	105.62
412.249	106.62
412.472	110.62
412.695	111.62
412.919	95.62
413.142	110.62
413.365	120.62
413.589	120.62
413.812	103.62
414.035	99.62
414.258	111.62
414.482	107.62
414.705	135.62
414.928	114.62
415.151	98.62
415.374	105.62
415.597	117.62
415.821	96.62
416.044	89.62
416.267	113.62
416.49	111.62
416.713	110.62
416.936	93.62
417.159	109.62
417.382	99.62
417.605	102.62
417.828	95.62
418.051	103.62
418.274	91.62
418.497	102.62
418.72	117.62
418.943	104.62
419.166	122.62
419.389	121.62
419.611	125.62
419.834	105.62
420.057	104.62
420.28	113.62
420.503	99.62
420.726	100.62
420.948	100.62
421.171	99.62
421.394	86.62
421.617	84.62
421.839	104.62
422.062	101.62
422.285	103.62
422.507	98.62
422.73	127.62
422.953	129.62
423.175	116.62
423.398	98.62
423.621	103.62
423.843	98.62
424.066	92.62
424.288	99.62
424.511	112.62
424.733	91.62
424.956	96.62
425.178	108.62
425.401	116.62
425.623	85.62
425.846	108.62
426.068	112.62
426.291	107.62
426.513	95.62
426.735	107.62
426.958	104.62
427.18	107.62
427.402	106.62
427.625	103.62
427.847	94.62
428.069	108.62
428.292	93.62
428.514	122.62
428.736	104.62
428.958	100.62
429.181	101.62
429.403	104.62
429.625	110.62
429.847	104.62
430.069	103.62
430.292	118.62
430.514	96.62
430.736	112.62
430.958	123.62
431.18	88.62
431.402	102.62
431.624	111.62
431.846	78.62
432.068	104.62
432.29	90.62
432.512	104.62
432.734	115.62
432.956	99.62
433.178	95.62
433.4	101.62
433.622	86.62
433.844	86.62
434.066	99.62
434.287	94.62
434.509	95.62
434.731	93.62
434.953	116.62
435.175	95.62
435.397	102.62
435.618	87.62
435.84	96.62
436.062	90.62
436.284	83.62
436.505	99.62
436.727	82.62
436.949	95.62
437.17	97.62
437.392	99.62
437.614	100.62
437.835	95.62
438.057	86.62
438.278	100.62
438.5	108.62
438.721	97.62
438.943	115.62
439.165	121.62
439.386	115.62
439.608	103.62
439.829	104.62
440.05	101.62
440.272	122.62
440.493	114.62
440.715	103.62
440.936	100.62
441.158	101.62
441.379	93.62
441.6	99.62
441.822	112.62
442.043	105.62
442.264	142.62
442.486	126.62
442.707	104.62
442.928	93.62
443.149	114.62
443.371	98.62
443.592	93.62
443.813	107.62
444.034	97.62
444.255	89.62
444.476	110.62
444.698	93.62
444.919	96.62
445.14	199.62
445.361	149.62
445.582	104.62
445.803	109.62
446.024	91.62
446.245	100.62
446.466	103.62
446.687	121.62
446.908	103.62
447.129	112.62
447.35	98.62
447.571	110.62
447.792	91.62
448.013	109.62
448.234	108.62
448.455	101.62
448.675	93.62
448.896	106.62
449.117	117.62
449.338	122.62
449.559	150.62
449.779	137.62
450	116.62
450.221	102.62
450.442	118.62
450.662	127.62
450.883	120.62
451.104	128.62
451.324	124.62
451.545	122.62
451.766	120.62
451.986	138.62
452.207	227.62
452.428	596.62
452.648	1394.62
452.869	775.62
453.089	225.62
453.31	140.62
453.53	121.62
453.751	141.62
453.971	166.62
454.192	163.62
454.412	122.62
454.633	105.62
454.853	98.62
455.073	97.62
455.294	91.62
455.514	111.62
455.734	95.62
455.955	101.62
456.175	96.62
456.395	92.62
456.616	109.62
456.836	101.62
457.056	88.62
457.276	93.62
457.497	129.62
457.717	129.62
457.937	112.62
458.157	90.62
458.377	112.62
458.598	97.62
458.818	94.62
459.038	101.62
459.258	86.62
459.478	107.62
459.698	95.62
459.918	120.62
460.138	93.62
460.358	81.62
460.578	92.62
460.798	96.62
461.018	94.62
461.238	100.62
461.458	83.62
461.678	85.62
461.898	104.62
462.118	98.62
462.338	85.62
462.558	109.62
462.777	106.62
462.997	110.62
463.217	113.62
463.437	133.62
463.657	181.62
463.876	202.62
464.096	122.62
464.316	97.62
464.536	107.62
464.755	100.62
464.975	95.62
465.195	95.62
465.414	95.62
465.634	100.62
465.854	116.62
466.073	84.62
466.293	103.62
466.512	96.62
466.732	115.62
466.951	131.62
467.171	149.62
467.391	131.62
467.61	115.62
467.829	98.62
468.049	110.62
468.268	84.62
468.488	99.62
468.707	91.62
468.927	90.62
469.146	101.62
469.365	96.62
469.585	97.62
469.804	103.62
470.023	109.62
470.243	115.62
470.462	100.62
470.681	106.62
470.901	138.62
471.12	190.62
471.339	219.62
471.558	149.62
471.777	117.62
471.997	108.62
472.216	112.62
472.435	113.62
472.654	104.62
472.873	100.62
473.092	98.62
473.311	95.62
473.53	108.62
473.749	116.62
473.968	100.62
474.187	112.62
474.406	108.62
474.625	113.62
474.844	103.62
475.063	106.62
475.282	92.62
475.501	92.62
475.72	116.62
475.939	109.62
476.158	98.62
476.377	115.62
476.596	85.62
476.814	87.62
477.033	84.62
477.252	101.62
477.471	99.62
477.69	95.62
477.908	94.62
478.127	108.62
478.346	115.62
478.564	103.62
478.783	94.62
479.002	97.62
479.22	93.62
479.439	99.62
479.658	98.62
479.876	96.62
480.095	100.62
480.313	90.62
480.532	101.62
480.751	95.62
480.969	99.62
481.188	100.62
481.406	102.62
481.624	117.62
481.843	123.62
482.061	108.62
482.28	100.62
482.498	102.62
482.717	93.62
482.935	97.62
483.153	105.62
483.372	99.62
483.59	115.62
483.808	109.62
484.027	117.62
484.245	123.62
484.463	182.62
484.681	238.62
484.9	156.62
485.118	121.62
485.336	103.62
485.554	118.62
485.772	135.62
485.99	185.62
486.209	277.62
486.427	158.62
486.645	123.62
486.863	117.62
487.081	116.62
487.299	100.62
487.517	107.62
487.735	104.62
487.953	117.62
488.171	131.62
488.389	113.62
488.607	99.62
488.825	99.62
489.043	105.62
489.261	105.62
489.479	105.62
489.696	106.62
489.914	109.62
490.132	100.62
490.35	107.62
490.568	102.62
490.786	112.62
491.003	96.62
491.221	116.62
491.439	134.62
491.657	106.62
491.874	100.62
492.092	106.62
492.31	117.62
492.527	91.62
492.745	106.62
492.963	109.62
493.18	99.62
493.398	107.62
493.615	105.62
493.833	115.62
494.05	99.62
494.268	108.62
494.485	97.62
494.703	117.62
494.92	110.62
495.138	119.62
495.355	107.62
495.573	118.62
495.79	109.62
496.008	99.62
496.225	106.62
496.442	109.62
496.66	140.62
496.877	183.62
497.094	164.62
497.312	122.62
497.529	99.62
497.746	94.62
497.963	103.62
498.181	105.62
498.398	125.62
498.615	125.62
498.832	111.62
499.049	112.62
499.267	139.62
499.484	183.62
499.701	120.62
499.918	112.62
500.135	102.62
500.352	111.62
500.569	110.62
500.786	96.62
501.003	101.62
501.22	104.62
501.437	107.62
501.654	105.62
501.871	83.62
502.088	94.62
502.305	92.62
502.522	109.62
502.739	107.62
502.956	109.62
503.172	107.62
503.389	92.62
503.606	93.62
503.823	107.62
504.04	126.62
504.256	115.62
504.473	110.62
504.69	102.62
504.907	123.62
505.123	127.62
505.34	121.62
505.557	93.62
505.773	106.62
505.99	101.62
506.207	101.62
506.423	102.62
506.64	109.62
