Data from SnStandardFlinnAPT0064_LampEnergy5.5_LIBS07252019.E.O._I.C._HRD10591_15-15-23-491.txt Node
Date: Thu Jul 25 15:15:23 EDT 2019
User: cochatt
Spectrometer: HR+D1059
Trigger mode: 1
Integration Time (sec): 1.000000E-1
Scans to average: 1
Electric dark correction enabled: true
Nonlinearity correction enabled: false
Boxcar width: 0
XAxis mode: Wavelengths
Number of Pixels in Spectrum: 2048
>>>>>Begin Spectral Data<<<<<
223.165	-14.81
223.4	-14.81
223.635	-14.81
223.869	-23.81
224.104	-18.81
224.338	-6.81
224.573	-18.81
224.808	-16.81
225.042	-8.81
225.277	-8.81
225.511	-9.81
225.746	5.19
225.98	12.19
226.215	14.19
226.449	22.19
226.683	32.19
226.918	22.19
227.152	19.19
227.387	29.19
227.621	54.19
227.856	49.19
228.09	40.19
228.324	53.19
228.559	65.19
228.793	82.19
229.027	151.19
229.262	167.19
229.496	142.19
229.73	145.19
229.964	156.19
230.199	151.19
230.433	161.19
230.667	158.19
230.901	165.19
231.136	174.19
231.37	175.19
231.604	186.19
231.838	179.19
232.072	217.19
232.306	227.19
232.541	219.19
232.775	202.19
233.009	208.19
233.243	206.19
233.477	215.19
233.711	236.19
233.945	244.19
234.179	241.19
234.413	229.19
234.647	209.19
234.881	207.19
235.115	228.19
235.349	253.19
235.583	308.19
235.817	389.19
236.051	387.19
236.285	258.19
236.519	253.19
236.753	223.19
236.987	214.19
237.221	251.19
237.455	255.19
237.689	215.19
237.922	219.19
238.156	234.19
238.39	223.19
238.624	227.19
238.858	223.19
239.091	229.19
239.325	214.19
239.559	230.19
239.793	247.19
240.027	232.19
240.26	237.19
240.494	244.19
240.728	269.19
240.961	271.19
241.195	269.19
241.429	274.19
241.662	280.19
241.896	323.19
242.13	389.19
242.363	439.19
242.597	577.19
242.83	546.19
243.064	568.19
243.298	663.19
243.531	555.19
243.765	382.19
243.998	322.19
244.232	311.19
244.465	307.19
244.699	301.19
244.932	279.19
245.166	294.19
245.399	300.19
245.633	300.19
245.866	287.19
246.099	298.19
246.333	293.19
246.566	284.19
246.8	267.19
247.033	272.19
247.266	306.19
247.5	310.19
247.733	308.19
247.966	311.19
248.2	337.19
248.433	354.19
248.666	383.19
248.899	385.19
249.133	345.19
249.366	359.19
249.599	369.19
249.832	399.19
250.066	398.19
250.299	370.19
250.532	347.19
250.765	341.19
250.998	310.19
251.231	329.19
251.465	318.19
251.698	335.19
251.931	327.19
252.164	343.19
252.397	336.19
252.63	338.19
252.863	336.19
253.096	335.19
253.329	354.19
253.562	343.19
253.795	346.19
254.028	371.19
254.261	332.19
254.494	373.19
254.727	410.19
254.96	482.19
255.193	466.19
255.426	419.19
255.659	359.19
255.892	350.19
256.124	374.19
256.357	392.19
256.59	387.19
256.823	389.19
257.056	423.19
257.289	498.19
257.521	539.19
257.754	460.19
257.987	404.19
258.22	405.19
258.452	389.19
258.685	399.19
258.918	398.19
259.151	423.19
259.383	438.19
259.616	454.19
259.849	483.19
260.081	453.19
260.314	436.19
260.547	422.19
260.779	400.19
261.012	417.19
261.244	421.19
261.477	430.19
261.71	440.19
261.942	427.19
262.175	457.19
262.407	443.19
262.64	473.19
262.872	483.19
263.105	478.19
263.337	533.19
263.57	535.19
263.802	574.19
264.035	556.19
264.267	559.19
264.499	606.19
264.732	612.19
264.964	623.19
265.197	627.19
265.429	618.19
265.661	620.19
265.894	652.19
266.126	686.19
266.358	778.19
266.591	723.19
266.823	653.19
267.055	612.19
267.287	601.19
267.52	566.19
267.752	573.19
267.984	566.19
268.216	550.19
268.448	536.19
268.681	553.19
268.913	531.19
269.145	550.19
269.377	543.19
269.609	552.19
269.841	555.19
270.073	572.19
270.306	647.19
270.538	819.19
270.77	1138.19
271.002	1344.19
271.234	994.19
271.466	701.19
271.698	586.19
271.93	573.19
272.162	557.19
272.394	542.19
272.626	525.19
272.858	516.19
273.09	523.19
273.322	525.19
273.553	513.19
273.785	539.19
274.017	490.19
274.249	534.19
274.481	537.19
274.713	505.19
274.945	547.19
275.176	515.19
275.408	500.19
275.64	519.19
275.872	521.19
276.104	517.19
276.335	537.19
276.567	536.19
276.799	533.19
277.031	567.19
277.262	543.19
277.494	576.19
277.726	601.19
277.957	663.19
278.189	743.19
278.421	706.19
278.652	669.19
278.884	629.19
279.115	601.19
279.347	553.19
279.579	569.19
279.81	591.19
280.042	579.19
280.273	605.19
280.505	581.19
280.736	607.19
280.968	609.19
281.199	667.19
281.431	731.19
281.662	751.19
281.894	672.19
282.125	651.19
282.356	649.19
282.588	661.19
282.819	659.19
283.051	695.19
283.282	777.19
283.513	921.19
283.745	1278.19
283.976	1930.19
284.207	2704.19
284.439	2453.19
284.67	1574.19
284.901	1280.19
285.132	1215.19
285.364	1151.19
285.595	963.19
285.826	899.19
286.057	1026.19
286.288	1335.19
286.52	1739.19
286.751	1582.19
286.982	1098.19
287.213	843.19
287.444	791.19
287.675	743.19
287.906	713.19
288.138	684.19
288.369	696.19
288.6	692.19
288.831	689.19
289.062	688.19
289.293	698.19
289.524	691.19
289.755	692.19
289.986	701.19
290.217	722.19
290.448	701.19
290.679	700.19
290.91	741.19
291.141	729.19
291.371	766.19
291.602	761.19
291.833	723.19
292.064	716.19
292.295	681.19
292.526	672.19
292.757	678.19
292.987	680.19
293.218	663.19
293.449	652.19
293.68	682.19
293.91	678.19
294.141	656.19
294.372	643.19
294.603	646.19
294.833	659.19
295.064	665.19
295.295	647.19
295.525	661.19
295.756	682.19
295.987	648.19
296.217	668.19
296.448	658.19
296.679	655.19
296.909	652.19
297.14	673.19
297.37	687.19
297.601	685.19
297.831	673.19
298.062	682.19
298.292	697.19
298.523	711.19
298.753	678.19
298.984	706.19
299.214	694.19
299.445	705.19
299.675	714.19
299.905	719.19
300.136	770.19
300.366	847.19
300.597	1019.19
300.827	1311.19
301.057	1734.19
301.288	1726.19
301.518	1160.19
301.748	959.19
301.979	878.19
302.209	859.19
302.439	876.19
302.669	916.19
302.9	1081.19
303.13	1379.19
303.36	1977.19
303.59	2513.19
303.82	2282.19
304.051	1427.19
304.281	1097.19
304.511	938.19
304.741	877.19
304.971	871.19
305.201	805.19
305.431	799.19
305.661	765.19
305.891	767.19
306.121	742.19
306.352	765.19
306.582	773.19
306.812	753.19
307.042	769.19
307.272	757.19
307.502	773.19
307.731	753.19
307.961	768.19
308.191	747.19
308.421	765.19
308.651	745.19
308.881	777.19
309.111	754.19
309.341	747.19
309.571	771.19
309.8	763.19
310.03	778.19
310.26	794.19
310.49	784.19
310.72	764.19
310.949	802.19
311.179	791.19
311.409	772.19
311.639	784.19
311.868	800.19
312.098	815.19
312.328	814.19
312.557	819.19
312.787	807.19
313.017	802.19
313.246	842.19
313.476	815.19
313.706	823.19
313.935	841.19
314.165	881.19
314.394	923.19
314.624	911.19
314.853	864.19
315.083	878.19
315.312	862.19
315.542	908.19
315.771	890.19
316.001	898.19
316.23	903.19
316.46	942.19
316.689	995.19
316.919	1214.19
317.148	1618.19
317.377	2387.19
317.607	3410.19
317.836	3517.19
318.065	2137.19
318.295	1492.19
318.524	1219.19
318.753	1094.19
318.983	1046.19
319.212	1002.19
319.441	1021.19
319.67	987.19
319.9	955.19
320.129	945.19
320.358	933.19
320.587	934.19
320.816	929.19
321.046	960.19
321.275	955.19
321.504	959.19
321.733	953.19
321.962	978.19
322.191	1007.19
322.42	988.19
322.649	1025.19
322.878	997.19
323.108	998.19
323.337	987.19
323.566	1010.19
323.795	1013.19
324.024	1049.19
324.253	1067.19
324.482	1124.19
324.71	1139.19
324.939	1197.19
325.168	1218.19
325.397	1264.19
325.626	1458.19
325.855	1931.19
326.084	2906.19
326.313	4244.19
326.542	4411.19
326.77	2960.19
326.999	2081.19
327.228	1772.19
327.457	1707.19
327.686	1710.19
327.914	1828.19
328.143	2078.19
328.372	2338.19
328.6	2513.19
328.829	2366.19
329.058	2110.19
329.287	1860.19
329.515	1750.19
329.744	1613.19
329.972	1592.19
330.201	1498.19
330.43	1454.19
330.658	1421.19
330.887	1417.19
331.115	1393.19
331.344	1365.19
331.572	1369.19
331.801	1398.19
332.03	1357.19
332.258	1355.19
332.486	1423.19
332.715	1585.19
332.943	1880.19
333.172	2205.19
333.4	2198.19
333.629	1793.19
333.857	1705.19
334.085	1654.19
334.314	1774.19
334.542	1889.19
334.771	2123.19
334.999	2531.19
335.227	3017.19
335.455	3341.19
335.684	3177.19
335.912	2772.19
336.14	2408.19
336.369	2136.19
336.597	1987.19
336.825	1865.19
337.053	1777.19
337.281	1695.19
337.51	1581.19
337.738	1511.19
337.966	1477.19
338.194	1419.19
338.422	1375.19
338.65	1365.19
338.878	1334.19
339.106	1294.19
339.334	1283.19
339.562	1249.19
339.79	1227.19
340.018	1240.19
340.246	1252.19
340.474	1217.19
340.702	1230.19
340.93	1228.19
341.158	1188.19
341.386	1189.19
341.614	1221.19
341.842	1168.19
342.07	1130.19
342.298	1126.19
342.526	1142.19
342.754	1130.19
342.981	1103.19
343.209	1113.19
343.437	1145.19
343.665	1147.19
343.893	1178.19
344.12	1151.19
344.348	1137.19
344.576	1127.19
344.804	1125.19
345.031	1098.19
345.259	1052.19
345.487	1086.19
345.714	1054.19
345.942	1026.19
346.17	1059.19
346.397	1055.19
346.625	1023.19
346.853	1028.19
347.08	1022.19
347.308	1011.19
347.535	1041.19
347.763	1035.19
347.99	1046.19
348.218	1000.19
348.445	999.19
348.673	1002.19
348.9	1003.19
349.128	1013.19
349.355	999.19
349.583	1002.19
349.81	980.19
350.037	985.19
350.265	993.19
350.492	990.19
350.72	991.19
350.947	995.19
351.174	989.19
351.402	1013.19
351.629	998.19
351.856	997.19
352.083	973.19
352.311	981.19
352.538	994.19
352.765	1002.19
352.992	956.19
353.22	974.19
353.447	977.19
353.674	981.19
353.901	996.19
354.128	1009.19
354.355	993.19
354.583	974.19
354.81	1004.19
355.037	979.19
355.264	992.19
355.491	999.19
355.718	1018.19
355.945	987.19
356.172	1012.19
356.399	1021.19
356.626	1047.19
356.853	1045.19
357.08	1009.19
357.307	1014.19
357.534	1039.19
357.761	1049.19
357.988	1061.19
358.215	1027.19
358.441	1042.19
358.668	1017.19
358.895	1053.19
359.122	1049.19
359.349	1045.19
359.576	1025.19
359.802	1043.19
360.029	1065.19
360.256	1032.19
360.483	1074.19
360.709	1005.19
360.936	1051.19
361.163	1067.19
361.39	1079.19
361.616	1036.19
361.843	1049.19
362.07	1084.19
362.296	1063.19
362.523	1084.19
362.749	1074.19
362.976	1039.19
363.203	1050.19
363.429	1047.19
363.656	1032.19
363.882	1046.19
364.109	1060.19
364.335	1046.19
364.562	1046.19
364.788	1039.19
365.015	1057.19
365.241	1073.19
365.468	1124.19
365.694	1108.19
365.92	1099.19
366.147	1089.19
366.373	1059.19
366.599	1077.19
366.826	1053.19
367.052	1078.19
367.278	1070.19
367.505	1096.19
367.731	1057.19
367.957	1075.19
368.184	1103.19
368.41	1091.19
368.636	1073.19
368.862	1079.19
369.089	1094.19
369.315	1080.19
369.541	1087.19
369.767	1085.19
369.993	1079.19
370.219	1085.19
370.445	1109.19
370.672	1103.19
370.898	1110.19
371.124	1111.19
371.35	1111.19
371.576	1133.19
371.802	1133.19
372.028	1112.19
372.254	1143.19
372.48	1133.19
372.706	1159.19
372.932	1145.19
373.158	1156.19
373.384	1144.19
373.61	1160.19
373.835	1123.19
374.061	1111.19
374.287	1178.19
374.513	1156.19
374.739	1171.19
374.965	1203.19
375.191	1186.19
375.416	1198.19
375.642	1171.19
375.868	1173.19
376.094	1153.19
376.319	1139.19
376.545	1165.19
376.771	1157.19
376.997	1154.19
377.222	1125.19
377.448	1123.19
377.674	1149.19
377.899	1091.19
378.125	1118.19
378.35	1120.19
378.576	1147.19
378.802	1139.19
379.027	1153.19
379.253	1196.19
379.478	1246.19
379.704	1365.19
379.929	1815.19
380.155	2529.19
380.38	2678.19
380.606	1825.19
380.831	1359.19
381.057	1299.19
381.282	1206.19
381.507	1161.19
381.733	1127.19
381.958	1117.19
382.184	1130.19
382.409	1105.19
382.634	1113.19
382.86	1110.19
383.085	1095.19
383.31	1127.19
383.535	1140.19
383.761	1145.19
383.986	1144.19
384.211	1125.19
384.436	1177.19
384.662	1144.19
384.887	1143.19
385.112	1151.19
385.337	1193.19
385.562	1205.19
385.787	1162.19
386.013	1167.19
386.238	1183.19
386.463	1137.19
386.688	1172.19
386.913	1151.19
387.138	1167.19
387.363	1160.19
387.588	1143.19
387.813	1153.19
388.038	1150.19
388.263	1157.19
388.488	1150.19
388.713	1171.19
388.938	1139.19
389.163	1124.19
389.387	1168.19
389.612	1158.19
389.837	1171.19
390.062	1167.19
390.287	1177.19
390.512	1166.19
390.736	1205.19
390.961	1198.19
391.186	1198.19
391.411	1203.19
391.636	1216.19
391.86	1213.19
392.085	1251.19
392.31	1205.19
392.534	1208.19
392.759	1187.19
392.984	1161.19
393.208	1153.19
393.433	1168.19
393.658	1194.19
393.882	1172.19
394.107	1181.19
394.331	1165.19
394.556	1187.19
394.78	1193.19
395.005	1207.19
395.229	1179.19
395.454	1219.19
395.678	1219.19
395.903	1183.19
396.127	1235.19
396.352	1207.19
396.576	1201.19
396.801	1196.19
397.025	1195.19
397.249	1221.19
397.474	1234.19
397.698	1220.19
397.922	1238.19
398.147	1243.19
398.371	1227.19
398.595	1274.19
398.82	1311.19
399.044	1358.19
399.268	1407.19
399.492	1516.19
399.717	1545.19
399.941	1556.19
400.165	1488.19
400.389	1436.19
400.613	1408.19
400.837	1342.19
401.062	1324.19
401.286	1331.19
401.51	1317.19
401.734	1283.19
401.958	1303.19
402.182	1301.19
402.406	1317.19
402.63	1301.19
402.854	1290.19
403.078	1329.19
403.302	1324.19
403.526	1340.19
403.75	1338.19
403.974	1366.19
404.198	1314.19
404.422	1349.19
404.645	1381.19
404.869	1344.19
405.093	1362.19
405.317	1374.19
405.541	1357.19
405.765	1365.19
405.988	1385.19
406.212	1373.19
406.436	1341.19
406.66	1400.19
406.883	1417.19
407.107	1425.19
407.331	1431.19
407.555	1464.19
407.778	1448.19
408.002	1428.19
408.226	1411.19
408.449	1422.19
408.673	1382.19
408.896	1377.19
409.12	1368.19
409.344	1334.19
409.567	1335.19
409.791	1358.19
410.014	1319.19
410.238	1322.19
410.461	1353.19
410.685	1341.19
410.908	1304.19
411.132	1337.19
411.355	1288.19
411.578	1304.19
411.802	1286.19
412.025	1287.19
412.249	1291.19
412.472	1289.19
412.695	1300.19
412.919	1251.19
413.142	1257.19
413.365	1258.19
413.589	1315.19
413.812	1259.19
414.035	1274.19
414.258	1271.19
414.482	1260.19
414.705	1262.19
414.928	1285.19
415.151	1236.19
415.374	1265.19
415.597	1252.19
415.821	1213.19
416.044	1230.19
416.267	1220.19
416.49	1221.19
416.713	1206.19
416.936	1204.19
417.159	1206.19
417.382	1178.19
417.605	1215.19
417.828	1225.19
418.051	1245.19
418.274	1236.19
418.497	1234.19
418.72	1240.19
418.943	1236.19
419.166	1323.19
419.389	1342.19
419.611	1315.19
419.834	1299.19
420.057	1271.19
420.28	1233.19
420.503	1249.19
420.726	1215.19
420.948	1254.19
421.171	1219.19
421.394	1248.19
421.617	1245.19
421.839	1238.19
422.062	1231.19
422.285	1232.19
422.507	1225.19
422.73	1229.19
422.953	1246.19
423.175	1257.19
423.398	1250.19
423.621	1241.19
423.843	1248.19
424.066	1260.19
424.288	1226.19
424.511	1251.19
424.733	1225.19
424.956	1198.19
425.178	1230.19
425.401	1204.19
425.623	1242.19
425.846	1205.19
426.068	1187.19
426.291	1187.19
426.513	1196.19
426.735	1192.19
426.958	1197.19
427.18	1164.19
427.402	1165.19
427.625	1175.19
427.847	1155.19
428.069	1149.19
428.292	1161.19
428.514	1137.19
428.736	1174.19
428.958	1143.19
429.181	1113.19
429.403	1107.19
429.625	1153.19
429.847	1119.19
430.069	1144.19
430.292	1201.19
430.514	1231.19
430.736	1228.19
430.958	1168.19
431.18	1122.19
431.402	1123.19
431.624	1118.19
431.846	1113.19
432.068	1079.19
432.29	1106.19
432.512	1134.19
432.734	1151.19
432.956	1113.19
433.178	1126.19
433.4	1113.19
433.622	1173.19
433.844	1139.19
434.066	1126.19
434.287	1121.19
434.509	1131.19
434.731	1154.19
434.953	1189.19
435.175	1182.19
435.397	1201.19
435.618	1139.19
435.84	1153.19
436.062	1128.19
436.284	1122.19
436.505	1146.19
436.727	1128.19
436.949	1122.19
437.17	1121.19
437.392	1123.19
437.614	1078.19
437.835	1066.19
438.057	1087.19
438.278	1064.19
438.5	1139.19
438.721	1106.19
438.943	1145.19
439.165	1131.19
439.386	1165.19
439.608	1165.19
439.829	1174.19
440.05	1201.19
440.272	1216.19
440.493	1158.19
440.715	1170.19
440.936	1152.19
441.158	1187.19
441.379	1219.19
441.6	1255.19
441.822	1227.19
442.043	1278.19
442.264	1319.19
442.486	1262.19
442.707	1249.19
442.928	1213.19
443.149	1221.19
443.371	1229.19
443.592	1199.19
443.813	1226.19
444.034	1271.19
444.255	1273.19
444.476	1253.19
444.698	1299.19
444.919	1311.19
445.14	1394.19
445.361	1307.19
445.582	1258.19
445.803	1210.19
446.024	1240.19
446.245	1214.19
446.466	1205.19
446.687	1188.19
446.908	1212.19
447.129	1166.19
447.35	1162.19
447.571	1140.19
447.792	1148.19
448.013	1124.19
448.234	1126.19
448.455	1119.19
448.675	1123.19
448.896	1142.19
449.117	1155.19
449.338	1220.19
449.559	1243.19
449.779	1189.19
450	1109.19
450.221	1118.19
450.442	1091.19
450.662	1075.19
450.883	1045.19
451.104	1066.19
451.324	1065.19
451.545	1082.19
451.766	1067.19
451.986	1079.19
452.207	1160.19
452.428	1320.19
452.648	1718.19
452.869	1523.19
453.089	1217.19
453.31	1198.19
453.53	1167.19
453.751	1198.19
453.971	1245.19
454.192	1231.19
454.412	1089.19
454.633	1092.19
454.853	1058.19
455.073	1033.19
455.294	1044.19
455.514	1050.19
455.734	1018.19
455.955	1062.19
456.175	1014.19
456.395	1039.19
456.616	1050.19
456.836	1037.19
457.056	1049.19
457.276	1001.19
457.497	1096.19
457.717	1105.19
457.937	1073.19
458.157	1077.19
458.377	1090.19
458.598	1095.19
458.818	1126.19
459.038	1126.19
459.258	1112.19
459.478	1106.19
459.698	1162.19
459.918	1153.19
460.138	1170.19
460.358	1200.19
460.578	1205.19
460.798	1203.19
461.018	1238.19
461.238	1244.19
461.458	1241.19
461.678	1213.19
461.898	1220.19
462.118	1250.19
462.338	1316.19
462.558	1309.19
462.777	1332.19
462.997	1359.19
463.217	1406.19
463.437	1449.19
463.657	1434.19
463.876	1421.19
464.096	1375.19
464.316	1325.19
464.536	1329.19
464.755	1271.19
464.975	1279.19
465.195	1228.19
465.414	1193.19
465.634	1171.19
465.854	1147.19
466.073	1151.19
466.293	1137.19
466.512	1120.19
466.732	1155.19
466.951	1150.19
467.171	1206.19
467.391	1199.19
467.61	1126.19
467.829	1120.19
468.049	1149.19
468.268	1129.19
468.488	1085.19
468.707	1124.19
468.927	1110.19
469.146	1130.19
469.365	1121.19
469.585	1117.19
469.804	1150.19
470.023	1157.19
470.243	1175.19
470.462	1190.19
470.681	1223.19
470.901	1358.19
471.12	1523.19
471.339	1512.19
471.558	1283.19
471.777	1201.19
471.997	1171.19
472.216	1108.19
472.435	1121.19
472.654	1105.19
472.873	1104.19
473.092	1106.19
473.311	1089.19
473.53	1110.19
473.749	1179.19
473.968	1172.19
474.187	1140.19
474.406	1110.19
474.625	1118.19
474.844	1138.19
475.063	1130.19
475.282	1140.19
475.501	1111.19
475.72	1097.19
475.939	1148.19
476.158	1151.19
476.377	1172.19
476.596	1171.19
476.814	1159.19
477.033	1170.19
477.252	1176.19
477.471	1193.19
477.69	1255.19
477.908	1268.19
478.127	1283.19
478.346	1254.19
478.564	1291.19
478.783	1305.19
479.002	1345.19
479.22	1326.19
479.439	1323.19
479.658	1291.19
479.876	1319.19
480.095	1330.19
480.313	1354.19
480.532	1355.19
480.751	1350.19
480.969	1303.19
481.188	1322.19
481.406	1261.19
481.624	1290.19
481.843	1297.19
482.061	1342.19
482.28	1305.19
482.498	1301.19
482.717	1301.19
482.935	1326.19
483.153	1330.19
483.372	1354.19
483.59	1370.19
483.808	1402.19
484.027	1409.19
484.245	1463.19
484.463	1561.19
484.681	1732.19
484.9	1628.19
485.118	1556.19
485.336	1524.19
485.554	1508.19
485.772	1589.19
485.99	1736.19
486.209	1904.19
486.427	1623.19
486.645	1470.19
486.863	1482.19
487.081	1439.19
487.299	1435.19
487.517	1428.19
487.735	1447.19
487.953	1460.19
488.171	1475.19
488.389	1420.19
488.607	1389.19
488.825	1377.19
489.043	1350.19
489.261	1395.19
489.479	1391.19
489.696	1337.19
489.914	1394.19
490.132	1393.19
490.35	1416.19
490.568	1426.19
490.786	1403.19
491.003	1412.19
491.221	1450.19
