Data from SnStandardFlinnAPT0064_LampEnergy5.5_LIBS07252019.E.O._I.C._HRD10591_15-17-12-492.txt Node
Date: Thu Jul 25 15:17:12 EDT 2019
User: cochatt
Spectrometer: HR+D1059
Trigger mode: 1
Integration Time (sec): 1.000000E-1
Scans to average: 1
Electric dark correction enabled: true
Nonlinearity correction enabled: false
Boxcar width: 0
XAxis mode: Wavelengths
Number of Pixels in Spectrum: 2048
>>>>>Begin Spectral Data<<<<<
223.165	-9.56
223.4	-9.56
223.635	-9.56
223.869	-18.56
224.104	-17.56
224.338	-14.56
224.573	-8.56
224.808	-25.56
225.042	-3.56
225.277	-15.56
225.511	-4.56
225.746	7.44
225.98	-0.56
226.215	25.44
226.449	24.44
226.683	8.44
226.918	16.44
227.152	36.44
227.387	20.44
227.621	35.44
227.856	30.44
228.09	42.44
228.324	50.44
228.559	49.44
228.793	77.44
229.027	139.44
229.262	172.44
229.496	148.44
229.73	165.44
229.964	147.44
230.199	142.44
230.433	151.44
230.667	167.44
230.901	162.44
231.136	165.44
231.37	163.44
231.604	186.44
231.838	199.44
232.072	254.44
232.306	263.44
232.541	195.44
232.775	199.44
233.009	194.44
233.243	199.44
233.477	221.44
233.711	242.44
233.945	276.44
234.179	238.44
234.413	209.44
234.647	211.44
234.881	212.44
235.115	233.44
235.349	278.44
235.583	345.44
235.817	443.44
236.051	424.44
236.285	288.44
236.519	227.44
236.753	222.44
236.987	228.44
237.221	243.44
237.455	218.44
237.689	216.44
237.922	216.44
238.156	206.44
238.39	226.44
238.624	218.44
238.858	215.44
239.091	233.44
239.325	225.44
239.559	219.44
239.793	239.44
240.027	240.44
240.26	236.44
240.494	254.44
240.728	263.44
240.961	256.44
241.195	297.44
241.429	257.44
241.662	294.44
241.896	338.44
242.13	393.44
242.363	532.44
242.597	669.44
242.83	636.44
243.064	650.44
243.298	762.44
243.531	614.44
243.765	407.44
243.998	334.44
244.232	320.44
244.465	284.44
244.699	272.44
244.932	292.44
245.166	280.44
245.399	280.44
245.633	303.44
245.866	292.44
246.099	283.44
246.333	292.44
246.566	281.44
246.8	283.44
247.033	284.44
247.266	279.44
247.5	274.44
247.733	290.44
247.966	304.44
248.2	340.44
248.433	372.44
248.666	404.44
248.899	380.44
249.133	362.44
249.366	375.44
249.599	398.44
249.832	436.44
250.066	472.44
250.299	367.44
250.532	345.44
250.765	334.44
250.998	313.44
251.231	319.44
251.465	330.44
251.698	329.44
251.931	308.44
252.164	324.44
252.397	317.44
252.63	336.44
252.863	342.44
253.096	327.44
253.329	328.44
253.562	337.44
253.795	333.44
254.028	337.44
254.261	387.44
254.494	367.44
254.727	440.44
254.96	519.44
255.193	514.44
255.426	405.44
255.659	371.44
255.892	377.44
256.124	372.44
256.357	386.44
256.59	391.44
256.823	389.44
257.056	456.44
257.289	550.44
257.521	591.44
257.754	471.44
257.987	406.44
258.22	397.44
258.452	390.44
258.685	382.44
258.918	405.44
259.151	385.44
259.383	447.44
259.616	501.44
259.849	523.44
260.081	465.44
260.314	406.44
260.547	402.44
260.779	420.44
261.012	425.44
261.244	399.44
261.477	404.44
261.71	428.44
261.942	422.44
262.175	425.44
262.407	445.44
262.64	453.44
262.872	499.44
263.105	484.44
263.337	533.44
263.57	551.44
263.802	522.44
264.035	583.44
264.267	570.44
264.499	576.44
264.732	595.44
264.964	606.44
265.197	613.44
265.429	594.44
265.661	616.44
265.894	654.44
266.126	736.44
266.358	794.44
266.591	784.44
266.823	647.44
267.055	599.44
267.287	594.44
267.52	551.44
267.752	571.44
267.984	533.44
268.216	532.44
268.448	535.44
268.681	526.44
268.913	514.44
269.145	524.44
269.377	520.44
269.609	534.44
269.841	535.44
270.073	568.44
270.306	671.44
270.538	900.44
270.77	1322.44
271.002	1596.44
271.234	1096.44
271.466	710.44
271.698	623.44
271.93	570.44
272.162	545.44
272.394	547.44
272.626	537.44
272.858	488.44
273.09	513.44
273.322	508.44
273.553	498.44
273.785	501.44
274.017	507.44
274.249	521.44
274.481	520.44
274.713	532.44
274.945	496.44
275.176	516.44
275.408	517.44
275.64	524.44
275.872	516.44
276.104	533.44
276.335	522.44
276.567	516.44
276.799	537.44
277.031	543.44
277.262	537.44
277.494	569.44
277.726	634.44
277.957	737.44
278.189	826.44
278.421	805.44
278.652	707.44
278.884	661.44
279.115	590.44
279.347	580.44
279.579	580.44
279.81	569.44
280.042	566.44
280.273	577.44
280.505	619.44
280.736	596.44
280.968	620.44
281.199	700.44
281.431	805.44
281.662	815.44
281.894	696.44
282.125	664.44
282.356	640.44
282.588	681.44
282.819	704.44
283.051	716.44
283.282	786.44
283.513	1002.44
283.745	1468.44
283.976	2331.44
284.207	3367.44
284.439	2952.44
284.67	1690.44
284.901	1401.44
285.132	1406.44
285.364	1356.44
285.595	1065.44
285.826	920.44
286.057	1170.44
286.288	1575.44
286.52	2187.44
286.751	1999.44
286.982	1190.44
287.213	872.44
287.444	769.44
287.675	736.44
287.906	716.44
288.138	718.44
288.369	706.44
288.6	684.44
288.831	658.44
289.062	677.44
289.293	660.44
289.524	675.44
289.755	673.44
289.986	698.44
290.217	714.44
290.448	678.44
290.679	676.44
290.91	734.44
291.141	712.44
291.371	807.44
291.602	808.44
291.833	768.44
292.064	693.44
292.295	675.44
292.526	679.44
292.757	674.44
292.987	648.44
293.218	645.44
293.449	648.44
293.68	625.44
293.91	635.44
294.141	641.44
294.372	650.44
294.603	660.44
294.833	660.44
295.064	641.44
295.295	643.44
295.525	639.44
295.756	655.44
295.987	605.44
296.217	627.44
296.448	646.44
296.679	662.44
296.909	638.44
297.14	657.44
297.37	659.44
297.601	667.44
297.831	672.44
298.062	658.44
298.292	657.44
298.523	709.44
298.753	704.44
298.984	684.44
299.214	680.44
299.445	688.44
299.675	714.44
299.905	758.44
300.136	787.44
300.366	887.44
300.597	1092.44
300.827	1586.44
301.057	2156.44
301.288	2134.44
301.518	1324.44
301.748	974.44
301.979	895.44
302.209	899.44
302.439	914.44
302.669	928.44
302.9	1112.44
303.13	1649.44
303.36	2496.44
303.59	3386.44
303.82	2900.44
304.051	1578.44
304.281	1118.44
304.511	944.44
304.741	884.44
304.971	857.44
305.201	809.44
305.431	801.44
305.661	772.44
305.891	757.44
306.121	757.44
306.352	745.44
306.582	768.44
306.812	736.44
307.042	745.44
307.272	743.44
307.502	738.44
307.731	745.44
307.961	729.44
308.191	732.44
308.421	742.44
308.651	738.44
308.881	750.44
309.111	737.44
309.341	732.44
309.571	738.44
309.8	756.44
310.03	744.44
310.26	777.44
310.49	767.44
310.72	784.44
310.949	765.44
311.179	775.44
311.409	750.44
311.639	784.44
311.868	774.44
312.098	785.44
312.328	793.44
312.557	791.44
312.787	758.44
313.017	784.44
313.246	800.44
313.476	813.44
313.706	852.44
313.935	888.44
314.165	913.44
314.394	999.44
314.624	943.44
314.853	891.44
315.083	878.44
315.312	913.44
315.542	905.44
315.771	909.44
316.001	908.44
316.23	947.44
316.46	964.44
316.689	1054.44
316.919	1260.44
317.148	1837.44
317.377	2976.44
317.607	4478.44
317.836	4540.44
318.065	2503.44
318.295	1560.44
318.524	1232.44
318.753	1084.44
318.983	1070.44
319.212	997.44
319.441	999.44
319.67	969.44
319.9	947.44
320.129	928.44
320.358	937.44
320.587	921.44
320.816	915.44
321.046	934.44
321.275	940.44
321.504	951.44
321.733	986.44
321.962	995.44
322.191	983.44
322.42	1008.44
322.649	1038.44
322.878	1008.44
323.108	1001.44
323.337	1009.44
323.566	1053.44
323.795	1058.44
324.024	1049.44
324.253	1081.44
324.482	1128.44
324.71	1160.44
324.939	1261.44
325.168	1246.44
325.397	1330.44
325.626	1526.44
325.855	2212.44
326.084	3513.44
326.313	5374.44
326.542	5664.44
326.77	3394.44
326.999	2159.44
327.228	1828.44
327.457	1736.44
327.686	1736.44
327.914	1830.44
328.143	2110.44
328.372	2382.44
328.6	2624.44
328.829	2355.44
329.058	2092.44
329.287	1844.44
329.515	1721.44
329.744	1610.44
329.972	1517.44
330.201	1470.44
330.43	1422.44
330.658	1404.44
330.887	1380.44
331.115	1358.44
331.344	1365.44
331.572	1355.44
331.801	1376.44
332.03	1345.44
332.258	1364.44
332.486	1428.44
332.715	1676.44
332.943	2082.44
333.172	2568.44
333.4	2521.44
333.629	1877.44
333.857	1655.44
334.085	1662.44
334.314	1730.44
334.542	1891.44
334.771	2146.44
334.999	2532.44
335.227	3117.44
335.455	3424.44
335.684	3151.44
335.912	2676.44
336.14	2350.44
336.369	2116.44
336.597	1941.44
336.825	1842.44
337.053	1701.44
337.281	1636.44
337.51	1522.44
337.738	1492.44
337.966	1428.44
338.194	1429.44
338.422	1368.44
338.65	1340.44
338.878	1311.44
339.106	1293.44
339.334	1260.44
339.562	1225.44
339.79	1245.44
340.018	1280.44
340.246	1206.44
340.474	1210.44
340.702	1203.44
340.93	1190.44
341.158	1218.44
341.386	1198.44
341.614	1222.44
341.842	1148.44
342.07	1122.44
342.298	1124.44
342.526	1107.44
342.754	1095.44
342.981	1094.44
343.209	1141.44
343.437	1120.44
343.665	1125.44
343.893	1126.44
344.12	1159.44
344.348	1107.44
344.576	1086.44
344.804	1101.44
345.031	1077.44
345.259	1077.44
345.487	1049.44
345.714	1060.44
345.942	1032.44
346.17	1044.44
346.397	1039.44
346.625	1071.44
346.853	1000.44
347.08	1007.44
347.308	999.44
347.535	1040.44
347.763	1019.44
347.99	1032.44
348.218	999.44
348.445	1024.44
348.673	990.44
348.9	1005.44
349.128	989.44
349.355	979.44
349.583	980.44
349.81	1012.44
350.037	982.44
350.265	995.44
350.492	970.44
350.72	969.44
350.947	990.44
351.174	974.44
351.402	971.44
351.629	982.44
351.856	963.44
352.083	983.44
352.311	975.44
352.538	986.44
352.765	961.44
352.992	956.44
353.22	956.44
353.447	990.44
353.674	973.44
353.901	978.44
354.128	956.44
354.355	957.44
354.583	994.44
354.81	986.44
355.037	1011.44
355.264	993.44
355.491	1004.44
355.718	996.44
355.945	1038.44
356.172	990.44
356.399	1004.44
356.626	1012.44
356.853	992.44
357.08	1005.44
357.307	1029.44
357.534	1034.44
357.761	1046.44
357.988	1010.44
358.215	1031.44
358.441	1021.44
358.668	1020.44
358.895	1045.44
359.122	1018.44
359.349	1048.44
359.576	1020.44
359.802	1029.44
360.029	1044.44
360.256	1052.44
360.483	1037.44
360.709	1052.44
360.936	1037.44
361.163	1023.44
361.39	1040.44
361.616	1074.44
361.843	1052.44
362.07	1046.44
362.296	1055.44
362.523	1042.44
362.749	1042.44
362.976	1032.44
363.203	1035.44
363.429	1024.44
363.656	1043.44
363.882	1038.44
364.109	1043.44
364.335	1042.44
364.562	1040.44
364.788	1076.44
365.015	1061.44
365.241	1086.44
365.468	1123.44
365.694	1169.44
365.92	1136.44
366.147	1100.44
366.373	1076.44
366.599	1061.44
366.826	1057.44
367.052	1086.44
367.278	1060.44
367.505	1065.44
367.731	1081.44
367.957	1040.44
368.184	1069.44
368.41	1102.44
368.636	1094.44
368.862	1097.44
369.089	1084.44
369.315	1060.44
369.541	1087.44
369.767	1070.44
369.993	1092.44
370.219	1075.44
370.445	1100.44
370.672	1087.44
370.898	1087.44
371.124	1100.44
371.35	1105.44
371.576	1100.44
371.802	1112.44
372.028	1121.44
372.254	1129.44
372.48	1143.44
372.706	1128.44
372.932	1152.44
373.158	1168.44
373.384	1116.44
373.61	1126.44
373.835	1155.44
374.061	1150.44
374.287	1161.44
374.513	1153.44
374.739	1176.44
374.965	1200.44
375.191	1161.44
375.416	1192.44
375.642	1182.44
375.868	1177.44
376.094	1144.44
376.319	1166.44
376.545	1159.44
376.771	1133.44
376.997	1136.44
377.222	1125.44
377.448	1124.44
377.674	1132.44
377.899	1134.44
378.125	1145.44
378.35	1109.44
378.576	1119.44
378.802	1136.44
379.027	1138.44
379.253	1167.44
379.478	1232.44
379.704	1436.44
379.929	2117.44
380.155	3261.44
380.38	3512.44
380.606	2076.44
380.831	1456.44
381.057	1248.44
381.282	1164.44
381.507	1138.44
381.733	1143.44
381.958	1110.44
382.184	1119.44
382.409	1135.44
382.634	1123.44
382.86	1117.44
383.085	1121.44
383.31	1106.44
383.535	1119.44
383.761	1089.44
383.986	1118.44
384.211	1130.44
384.436	1158.44
384.662	1144.44
384.887	1132.44
385.112	1117.44
385.337	1158.44
385.562	1166.44
385.787	1110.44
386.013	1142.44
386.238	1145.44
386.463	1144.44
386.688	1130.44
386.913	1138.44
387.138	1136.44
387.363	1140.44
387.588	1154.44
387.813	1154.44
388.038	1161.44
388.263	1110.44
388.488	1153.44
388.713	1181.44
388.938	1161.44
389.163	1113.44
389.387	1143.44
389.612	1138.44
389.837	1162.44
390.062	1161.44
390.287	1131.44
390.512	1158.44
390.736	1160.44
390.961	1189.44
391.186	1175.44
391.411	1170.44
391.636	1209.44
391.86	1194.44
392.085	1197.44
392.31	1184.44
392.534	1163.44
392.759	1177.44
392.984	1184.44
393.208	1190.44
393.433	1257.44
393.658	1242.44
393.882	1189.44
394.107	1177.44
394.331	1182.44
394.556	1161.44
394.78	1168.44
395.005	1171.44
395.229	1176.44
395.454	1192.44
395.678	1201.44
395.903	1186.44
396.127	1205.44
396.352	1170.44
396.576	1212.44
396.801	1212.44
397.025	1248.44
397.249	1224.44
397.474	1188.44
397.698	1202.44
397.922	1208.44
398.147	1220.44
398.371	1234.44
398.595	1245.44
398.82	1296.44
399.044	1297.44
399.268	1344.44
399.492	1440.44
399.717	1504.44
399.941	1463.44
400.165	1446.44
400.389	1390.44
400.613	1313.44
400.837	1320.44
401.062	1332.44
401.286	1277.44
401.51	1240.44
401.734	1244.44
401.958	1256.44
402.182	1250.44
402.406	1249.44
402.63	1308.44
402.854	1234.44
403.078	1268.44
403.302	1280.44
403.526	1309.44
403.75	1276.44
403.974	1311.44
404.198	1267.44
404.422	1298.44
404.645	1294.44
404.869	1266.44
405.093	1293.44
405.317	1338.44
405.541	1346.44
405.765	1344.44
405.988	1341.44
406.212	1339.44
406.436	1325.44
406.66	1368.44
406.883	1321.44
407.107	1392.44
407.331	1366.44
407.555	1424.44
407.778	1385.44
408.002	1389.44
408.226	1359.44
408.449	1390.44
408.673	1336.44
408.896	1346.44
409.12	1331.44
409.344	1327.44
409.567	1277.44
409.791	1313.44
410.014	1311.44
410.238	1279.44
410.461	1290.44
410.685	1274.44
410.908	1294.44
411.132	1284.44
411.355	1257.44
411.578	1304.44
411.802	1268.44
412.025	1257.44
412.249	1274.44
412.472	1256.44
412.695	1287.44
412.919	1222.44
413.142	1225.44
413.365	1236.44
413.589	1241.44
413.812	1257.44
414.035	1229.44
414.258	1253.44
414.482	1255.44
414.705	1266.44
414.928	1262.44
415.151	1244.44
415.374	1264.44
415.597	1223.44
415.821	1236.44
416.044	1191.44
416.267	1200.44
416.49	1214.44
416.713	1204.44
416.936	1191.44
417.159	1185.44
417.382	1186.44
417.605	1157.44
417.828	1194.44
418.051	1199.44
418.274	1199.44
418.497	1216.44
418.72	1229.44
418.943	1217.44
419.166	1280.44
419.389	1344.44
419.611	1331.44
419.834	1270.44
420.057	1244.44
420.28	1174.44
420.503	1208.44
420.726	1204.44
420.948	1184.44
421.171	1200.44
421.394	1163.44
421.617	1175.44
421.839	1190.44
422.062	1214.44
422.285	1229.44
422.507	1206.44
422.73	1253.44
422.953	1258.44
423.175	1245.44
423.398	1238.44
423.621	1214.44
423.843	1192.44
424.066	1233.44
424.288	1206.44
424.511	1212.44
424.733	1212.44
424.956	1201.44
425.178	1181.44
425.401	1198.44
425.623	1162.44
425.846	1141.44
426.068	1177.44
426.291	1172.44
426.513	1145.44
426.735	1142.44
426.958	1162.44
427.18	1098.44
427.402	1167.44
427.625	1095.44
427.847	1117.44
428.069	1127.44
428.292	1136.44
428.514	1123.44
428.736	1124.44
428.958	1127.44
429.181	1105.44
429.403	1119.44
429.625	1136.44
429.847	1146.44
430.069	1140.44
430.292	1192.44
430.514	1174.44
430.736	1181.44
430.958	1139.44
431.18	1109.44
431.402	1105.44
431.624	1083.44
431.846	1080.44
432.068	1069.44
432.29	1107.44
432.512	1111.44
432.734	1093.44
432.956	1102.44
433.178	1105.44
433.4	1108.44
433.622	1097.44
433.844	1097.44
434.066	1119.44
434.287	1098.44
434.509	1124.44
434.731	1105.44
434.953	1146.44
435.175	1170.44
435.397	1168.44
435.618	1142.44
435.84	1125.44
436.062	1094.44
436.284	1081.44
436.505	1096.44
436.727	1133.44
436.949	1068.44
437.17	1116.44
437.392	1129.44
437.614	1100.44
437.835	1062.44
438.057	1055.44
438.278	1072.44
438.5	1082.44
438.721	1130.44
438.943	1147.44
439.165	1132.44
439.386	1160.44
439.608	1144.44
439.829	1178.44
440.05	1190.44
440.272	1217.44
440.493	1167.44
440.715	1148.44
440.936	1146.44
441.158	1141.44
441.379	1155.44
441.6	1196.44
441.822	1245.44
442.043	1258.44
442.264	1329.44
442.486	1260.44
442.707	1213.44
442.928	1166.44
443.149	1206.44
443.371	1172.44
443.592	1172.44
443.813	1213.44
444.034	1206.44
444.255	1204.44
444.476	1214.44
444.698	1254.44
444.919	1268.44
445.14	1350.44
445.361	1252.44
445.582	1222.44
445.803	1222.44
446.024	1188.44
446.245	1203.44
446.466	1209.44
446.687	1180.44
446.908	1182.44
447.129	1144.44
447.35	1160.44
447.571	1134.44
447.792	1117.44
448.013	1108.44
448.234	1119.44
448.455	1094.44
448.675	1118.44
448.896	1144.44
449.117	1150.44
449.338	1268.44
449.559	1368.44
449.779	1190.44
450	1114.44
450.221	1089.44
450.442	1084.44
450.662	1080.44
450.883	1081.44
451.104	1055.44
451.324	1053.44
451.545	1080.44
451.766	1105.44
451.986	1101.44
452.207	1167.44
452.428	1419.44
452.648	2105.44
452.869	1772.44
453.089	1269.44
453.31	1190.44
453.53	1182.44
453.751	1254.44
453.971	1314.44
454.192	1330.44
454.412	1141.44
454.633	1077.44
454.853	1046.44
455.073	1040.44
455.294	1035.44
455.514	979.44
455.734	1001.44
455.955	992.44
456.175	1006.44
456.395	1032.44
456.616	1024.44
456.836	1054.44
457.056	1036.44
457.276	1018.44
457.497	1108.44
457.717	1108.44
457.937	1066.44
458.157	1075.44
458.377	1056.44
458.598	1068.44
458.818	1090.44
459.038	1086.44
459.258	1082.44
459.478	1103.44
459.698	1129.44
459.918	1110.44
460.138	1142.44
460.358	1152.44
460.578	1152.44
460.798	1206.44
461.018	1207.44
461.238	1177.44
461.458	1177.44
461.678	1222.44
461.898	1220.44
462.118	1240.44
462.338	1262.44
462.558	1283.44
462.777	1303.44
462.997	1308.44
463.217	1370.44
463.437	1452.44
463.657	1475.44
463.876	1477.44
464.096	1383.44
464.316	1313.44
464.536	1313.44
464.755	1272.44
464.975	1238.44
465.195	1199.44
465.414	1167.44
465.634	1128.44
465.854	1174.44
466.073	1131.44
466.293	1122.44
466.512	1126.44
466.732	1117.44
466.951	1176.44
467.171	1286.44
467.391	1240.44
467.61	1157.44
467.829	1118.44
468.049	1086.44
468.268	1075.44
468.488	1069.44
468.707	1096.44
468.927	1120.44
469.146	1106.44
469.365	1127.44
469.585	1103.44
469.804	1145.44
470.023	1136.44
470.243	1180.44
470.462	1203.44
470.681	1257.44
470.901	1412.44
471.12	1612.44
471.339	1656.44
471.558	1310.44
471.777	1212.44
471.997	1160.44
472.216	1151.44
472.435	1121.44
472.654	1088.44
472.873	1039.44
473.092	1085.44
473.311	1092.44
473.53	1127.44
473.749	1151.44
473.968	1155.44
474.187	1096.44
474.406	1087.44
474.625	1108.44
474.844	1101.44
475.063	1129.44
475.282	1111.44
475.501	1116.44
475.72	1110.44
475.939	1108.44
476.158	1135.44
476.377	1158.44
476.596	1178.44
476.814	1172.44
477.033	1170.44
477.252	1187.44
477.471	1183.44
477.69	1204.44
477.908	1257.44
478.127	1275.44
478.346	1288.44
478.564	1266.44
478.783	1257.44
479.002	1280.44
479.22	1319.44
479.439	1299.44
479.658	1262.44
479.876	1265.44
480.095	1297.44
480.313	1329.44
480.532	1347.44
480.751	1340.44
480.969	1280.44
481.188	1303.44
481.406	1291.44
481.624	1274.44
481.843	1310.44
482.061	1302.44
482.28	1282.44
482.498	1301.44
482.717	1296.44
482.935	1322.44
483.153	1332.44
483.372	1364.44
483.59	1372.44
483.808	1394.44
484.027	1391.44
484.245	1425.44
484.463	1700.44
484.681	1884.44
484.9	1677.44
485.118	1538.44
485.336	1536.44
485.554	1518.44
485.772	1643.44
485.99	1844.44
486.209	2089.44
486.427	1687.44
486.645	1530.44
486.863	1464.44
487.081	1451.44
487.299	1404.44
487.517	1386.44
487.735	1440.44
487.953	1432.44
488.171	1410.44
488.389	1401.44
488.607	1382.44
488.825	1358.44
489.043	1341.44
489.261	1343.44
489.479	1369.44
489.696	1340.44
489.914	1325.44
490.132	1350.44
490.35	1399.44
490.568	1402.44
490.786	1418.44
491.003	1433.44
491.221	1445.44
491.439	1443.44
