Data from SnStandardFlinnAPT0064_QswitchEnergy10_LIBS07252019.E.O._I.C._HRD10591_15-27-25-973.txt Node
Date: Thu Jul 25 15:27:25 EDT 2019
User: cochatt
Spectrometer: HR+D1059
Trigger mode: 1
Integration Time (sec): 1.000000E-1
Scans to average: 1
Electric dark correction enabled: true
Nonlinearity correction enabled: false
Boxcar width: 0
XAxis mode: Wavelengths
Number of Pixels in Spectrum: 2048
>>>>>Begin Spectral Data<<<<<
223.165	-19.75
223.4	-19.75
223.635	-19.75
223.869	-9.75
224.104	-19.75
224.338	-8.75
224.573	-12.75
224.808	-10.75
225.042	-12.75
225.277	-3.75
225.511	-13.75
225.746	-7.75
225.98	5.25
226.215	17.25
226.449	14.25
226.683	19.25
226.918	24.25
227.152	39.25
227.387	43.25
227.621	46.25
227.856	35.25
228.09	46.25
228.324	62.25
228.559	62.25
228.793	70.25
229.027	68.25
229.262	100.25
229.496	69.25
229.73	78.25
229.964	75.25
230.199	75.25
230.433	88.25
230.667	94.25
230.901	83.25
231.136	69.25
231.37	86.25
231.604	99.25
231.838	90.25
232.072	111.25
232.306	132.25
232.541	85.25
232.775	83.25
233.009	94.25
233.243	82.25
233.477	91.25
233.711	90.25
233.945	110.25
234.179	83.25
234.413	97.25
234.647	85.25
234.881	86.25
235.115	91.25
235.349	95.25
235.583	94.25
235.817	112.25
236.051	126.25
236.285	94.25
236.519	84.25
236.753	73.25
236.987	83.25
237.221	80.25
237.455	84.25
237.689	76.25
237.922	90.25
238.156	80.25
238.39	83.25
238.624	79.25
238.858	78.25
239.091	102.25
239.325	82.25
239.559	79.25
239.793	77.25
240.027	78.25
240.26	85.25
240.494	87.25
240.728	83.25
240.961	86.25
241.195	95.25
241.429	89.25
241.662	94.25
241.896	79.25
242.13	103.25
242.363	141.25
242.597	177.25
242.83	140.25
243.064	135.25
243.298	160.25
243.531	141.25
243.765	99.25
243.998	92.25
244.232	92.25
244.465	76.25
244.699	90.25
244.932	85.25
245.166	86.25
245.399	80.25
245.633	82.25
245.866	79.25
246.099	79.25
246.333	87.25
246.566	83.25
246.8	87.25
247.033	77.25
247.266	90.25
247.5	91.25
247.733	72.25
247.966	100.25
248.2	88.25
248.433	103.25
248.666	124.25
248.899	125.25
249.133	97.25
249.366	95.25
249.599	108.25
249.832	120.25
250.066	122.25
250.299	86.25
250.532	78.25
250.765	82.25
250.998	85.25
251.231	79.25
251.465	85.25
251.698	83.25
251.931	92.25
252.164	72.25
252.397	81.25
252.63	103.25
252.863	102.25
253.096	90.25
253.329	93.25
253.562	98.25
253.795	94.25
254.028	109.25
254.261	88.25
254.494	88.25
254.727	102.25
254.96	151.25
255.193	136.25
255.426	100.25
255.659	104.25
255.892	106.25
256.124	91.25
256.357	106.25
256.59	97.25
256.823	94.25
257.056	107.25
257.289	147.25
257.521	184.25
257.754	124.25
257.987	92.25
258.22	95.25
258.452	93.25
258.685	84.25
258.918	95.25
259.151	90.25
259.383	121.25
259.616	115.25
259.849	137.25
260.081	89.25
260.314	102.25
260.547	85.25
260.779	98.25
261.012	87.25
261.244	97.25
261.477	97.25
261.71	87.25
261.942	94.25
262.175	94.25
262.407	107.25
262.64	89.25
262.872	87.25
263.105	97.25
263.337	89.25
263.57	94.25
263.802	78.25
264.035	87.25
264.267	79.25
264.499	85.25
264.732	85.25
264.964	78.25
265.197	93.25
265.429	87.25
265.661	77.25
265.894	105.25
266.126	142.25
266.358	155.25
266.591	136.25
266.823	92.25
267.055	113.25
267.287	95.25
267.52	95.25
267.752	98.25
267.984	89.25
268.216	94.25
268.448	84.25
268.681	92.25
268.913	82.25
269.145	107.25
269.377	84.25
269.609	83.25
269.841	102.25
270.073	105.25
270.306	127.25
270.538	174.25
270.77	310.25
271.002	377.25
271.234	196.25
271.466	113.25
271.698	101.25
271.93	96.25
272.162	104.25
272.394	82.25
272.626	84.25
272.858	97.25
273.09	94.25
273.322	82.25
273.553	93.25
273.785	101.25
274.017	75.25
274.249	92.25
274.481	82.25
274.713	64.25
274.945	83.25
275.176	99.25
275.408	94.25
275.64	84.25
275.872	105.25
276.104	105.25
276.335	111.25
276.567	102.25
276.799	89.25
277.031	93.25
277.262	93.25
277.494	95.25
277.726	130.25
277.957	173.25
278.189	246.25
278.421	231.25
278.652	186.25
278.884	181.25
279.115	128.25
279.347	117.25
279.579	87.25
279.81	105.25
280.042	110.25
280.273	115.25
280.505	108.25
280.736	119.25
280.968	113.25
281.199	159.25
281.431	238.25
281.662	235.25
281.894	152.25
282.125	117.25
282.356	121.25
282.588	109.25
282.819	114.25
283.051	110.25
283.282	129.25
283.513	179.25
283.745	282.25
283.976	509.25
284.207	756.25
284.439	579.25
284.67	267.25
284.901	247.25
285.132	333.25
285.364	383.25
285.595	203.25
285.826	168.25
286.057	241.25
286.288	389.25
286.52	584.25
286.751	466.25
286.982	207.25
287.213	127.25
287.444	115.25
287.675	122.25
287.906	109.25
288.138	97.25
288.369	97.25
288.6	93.25
288.831	91.25
289.062	110.25
289.293	104.25
289.524	107.25
289.755	94.25
289.986	99.25
290.217	101.25
290.448	105.25
290.679	92.25
290.91	123.25
291.141	173.25
291.371	226.25
291.602	273.25
291.833	184.25
292.064	117.25
292.295	100.25
292.526	116.25
292.757	110.25
292.987	94.25
293.218	97.25
293.449	101.25
293.68	98.25
293.91	101.25
294.141	88.25
294.372	88.25
294.603	91.25
294.833	97.25
295.064	105.25
295.295	108.25
295.525	100.25
295.756	96.25
295.987	78.25
296.217	99.25
296.448	96.25
296.679	106.25
296.909	97.25
297.14	108.25
297.37	108.25
297.601	102.25
297.831	99.25
298.062	112.25
298.292	102.25
298.523	98.25
298.753	89.25
298.984	104.25
299.214	114.25
299.445	117.25
299.675	109.25
299.905	119.25
300.136	151.25
300.366	161.25
300.597	249.25
300.827	428.25
301.057	669.25
301.288	603.25
301.518	257.25
301.748	145.25
301.979	121.25
302.209	132.25
302.439	139.25
302.669	168.25
302.9	268.25
303.13	481.25
303.36	849.25
303.59	1169.25
303.82	811.25
304.051	276.25
304.281	157.25
304.511	134.25
304.741	109.25
304.971	127.25
305.201	106.25
305.431	100.25
305.661	95.25
305.891	109.25
306.121	113.25
306.352	101.25
306.582	115.25
306.812	114.25
307.042	126.25
307.272	113.25
307.502	113.25
307.731	107.25
307.961	103.25
308.191	105.25
308.421	108.25
308.651	116.25
308.881	90.25
309.111	104.25
309.341	106.25
309.571	116.25
309.8	109.25
310.03	102.25
310.26	99.25
310.49	112.25
310.72	122.25
310.949	92.25
311.179	114.25
311.409	106.25
311.639	109.25
311.868	111.25
312.098	134.25
312.328	89.25
312.557	113.25
312.787	110.25
313.017	109.25
313.246	133.25
313.476	114.25
313.706	123.25
313.935	149.25
314.165	197.25
314.394	222.25
314.624	183.25
314.853	137.25
315.083	129.25
315.312	119.25
315.542	131.25
315.771	137.25
316.001	136.25
316.23	136.25
316.46	145.25
316.689	179.25
316.919	269.25
317.148	477.25
317.377	899.25
317.607	1427.25
317.836	1329.25
318.065	519.25
318.295	227.25
318.524	157.25
318.753	133.25
318.983	134.25
319.212	111.25
319.441	115.25
319.67	118.25
319.9	124.25
320.129	108.25
320.358	120.25
320.587	117.25
320.816	113.25
321.046	122.25
321.275	138.25
321.504	141.25
321.733	153.25
321.962	151.25
322.191	167.25
322.42	129.25
322.649	132.25
322.878	121.25
323.108	129.25
323.337	128.25
323.566	132.25
323.795	131.25
324.024	153.25
324.253	167.25
324.482	177.25
324.71	233.25
324.939	267.25
325.168	210.25
325.397	180.25
325.626	242.25
325.855	468.25
326.084	911.25
326.313	1479.25
326.542	1484.25
326.77	606.25
326.999	265.25
327.228	203.25
327.457	236.25
327.686	226.25
327.914	176.25
328.143	140.25
328.372	129.25
328.6	130.25
328.829	135.25
329.058	122.25
329.287	108.25
329.515	127.25
329.744	133.25
329.972	122.25
330.201	106.25
330.43	107.25
330.658	103.25
330.887	106.25
331.115	115.25
331.344	126.25
331.572	126.25
331.801	122.25
332.03	128.25
332.258	129.25
332.486	166.25
332.715	292.25
332.943	486.25
333.172	747.25
333.4	639.25
333.629	236.25
333.857	149.25
334.085	121.25
334.314	130.25
334.542	124.25
334.771	115.25
334.999	121.25
335.227	117.25
335.455	122.25
335.684	127.25
335.912	127.25
336.14	114.25
336.369	123.25
336.597	112.25
336.825	113.25
337.053	108.25
337.281	113.25
337.51	112.25
337.738	107.25
337.966	113.25
338.194	129.25
338.422	119.25
338.65	93.25
338.878	100.25
339.106	106.25
339.334	122.25
339.562	133.25
339.79	131.25
340.018	116.25
340.246	113.25
340.474	118.25
340.702	115.25
340.93	101.25
341.158	118.25
341.386	119.25
341.614	118.25
341.842	124.25
342.07	123.25
342.298	121.25
342.526	106.25
342.754	97.25
342.981	114.25
343.209	109.25
343.437	103.25
343.665	106.25
343.893	109.25
344.12	118.25
344.348	110.25
344.576	110.25
344.804	107.25
345.031	124.25
345.259	123.25
345.487	103.25
345.714	119.25
345.942	107.25
346.17	113.25
346.397	130.25
346.625	105.25
346.853	115.25
347.08	106.25
347.308	107.25
347.535	105.25
347.763	108.25
347.99	122.25
348.218	103.25
348.445	106.25
348.673	105.25
348.9	117.25
349.128	131.25
349.355	118.25
349.583	106.25
349.81	113.25
350.037	124.25
350.265	135.25
350.492	100.25
350.72	113.25
350.947	115.25
351.174	129.25
351.402	111.25
351.629	113.25
351.856	106.25
352.083	115.25
352.311	107.25
352.538	115.25
352.765	106.25
352.992	107.25
353.22	113.25
353.447	127.25
353.674	103.25
353.901	100.25
354.128	115.25
354.355	102.25
354.583	93.25
354.81	104.25
355.037	105.25
355.264	122.25
355.491	103.25
355.718	124.25
355.945	106.25
356.172	103.25
356.399	114.25
356.626	113.25
356.853	113.25
357.08	109.25
357.307	110.25
357.534	129.25
357.761	110.25
357.988	110.25
358.215	100.25
358.441	106.25
358.668	109.25
358.895	115.25
359.122	106.25
359.349	124.25
359.576	124.25
359.802	123.25
360.029	106.25
360.256	121.25
360.483	123.25
360.709	109.25
360.936	115.25
361.163	114.25
361.39	126.25
361.616	95.25
361.843	100.25
362.07	100.25
362.296	121.25
362.523	105.25
362.749	97.25
362.976	105.25
363.203	101.25
363.429	97.25
363.656	106.25
363.882	109.25
364.109	118.25
364.335	124.25
364.562	122.25
364.788	110.25
365.015	109.25
365.241	137.25
365.468	192.25
365.694	243.25
365.92	209.25
366.147	120.25
366.373	101.25
366.599	103.25
366.826	99.25
367.052	113.25
367.278	89.25
367.505	86.25
367.731	117.25
367.957	103.25
368.184	115.25
368.41	111.25
368.636	121.25
368.862	95.25
369.089	100.25
369.315	115.25
369.541	117.25
369.767	112.25
369.993	111.25
370.219	97.25
370.445	102.25
370.672	111.25
370.898	103.25
371.124	108.25
371.35	108.25
371.576	106.25
371.802	132.25
372.028	119.25
372.254	106.25
372.48	114.25
372.706	113.25
372.932	103.25
373.158	104.25
373.384	105.25
373.61	114.25
373.835	120.25
374.061	111.25
374.287	105.25
374.513	115.25
374.739	107.25
374.965	104.25
375.191	111.25
375.416	118.25
375.642	113.25
375.868	98.25
376.094	106.25
376.319	112.25
376.545	114.25
376.771	127.25
376.997	106.25
377.222	104.25
377.448	115.25
377.674	121.25
377.899	123.25
378.125	120.25
378.35	114.25
378.576	108.25
378.802	117.25
379.027	130.25
379.253	141.25
379.478	173.25
379.704	296.25
379.929	752.25
380.155	1476.25
380.38	1543.25
380.606	494.25
380.831	186.25
381.057	135.25
381.282	113.25
381.507	94.25
381.733	113.25
381.958	113.25
382.184	106.25
382.409	97.25
382.634	90.25
382.86	89.25
383.085	101.25
383.31	90.25
383.535	115.25
383.761	97.25
383.986	105.25
384.211	117.25
384.436	118.25
384.662	96.25
384.887	98.25
385.112	103.25
385.337	106.25
385.562	96.25
385.787	103.25
386.013	125.25
386.238	113.25
386.463	104.25
386.688	100.25
386.913	109.25
387.138	120.25
387.363	102.25
387.588	114.25
387.813	105.25
388.038	103.25
388.263	112.25
388.488	104.25
388.713	104.25
388.938	113.25
389.163	107.25
389.387	109.25
389.612	101.25
389.837	90.25
390.062	90.25
390.287	109.25
390.512	97.25
390.736	100.25
390.961	105.25
391.186	106.25
391.411	101.25
391.636	110.25
391.86	95.25
392.085	109.25
392.31	113.25
392.534	105.25
392.759	85.25
392.984	101.25
393.208	122.25
393.433	158.25
393.658	142.25
393.882	113.25
394.107	100.25
394.331	117.25
394.556	93.25
394.78	98.25
395.005	93.25
395.229	91.25
395.454	99.25
395.678	97.25
395.903	102.25
396.127	86.25
396.352	102.25
396.576	113.25
396.801	114.25
397.025	132.25
397.249	116.25
397.474	105.25
397.698	104.25
397.922	99.25
398.147	105.25
398.371	97.25
398.595	92.25
398.82	96.25
399.044	93.25
399.268	103.25
399.492	96.25
399.717	97.25
399.941	94.25
400.165	87.25
400.389	96.25
400.613	85.25
400.837	92.25
401.062	101.25
401.286	107.25
401.51	103.25
401.734	109.25
401.958	109.25
402.182	98.25
402.406	97.25
402.63	109.25
402.854	109.25
403.078	97.25
403.302	91.25
403.526	109.25
403.75	73.25
403.974	105.25
404.198	97.25
404.422	100.25
404.645	97.25
404.869	89.25
405.093	99.25
405.317	102.25
405.541	124.25
405.765	135.25
405.988	148.25
406.212	121.25
406.436	113.25
406.66	110.25
406.883	95.25
407.107	115.25
407.331	101.25
407.555	90.25
407.778	105.25
408.002	97.25
408.226	108.25
408.449	108.25
408.673	105.25
408.896	90.25
409.12	95.25
409.344	102.25
409.567	87.25
409.791	102.25
410.014	115.25
410.238	105.25
410.461	110.25
410.685	109.25
410.908	88.25
411.132	110.25
411.355	99.25
411.578	110.25
411.802	90.25
412.025	101.25
412.249	103.25
412.472	101.25
412.695	100.25
412.919	91.25
413.142	109.25
413.365	113.25
413.589	98.25
413.812	105.25
414.035	103.25
414.258	105.25
414.482	97.25
414.705	116.25
414.928	113.25
415.151	92.25
415.374	99.25
415.597	111.25
415.821	109.25
416.044	106.25
416.267	89.25
416.49	107.25
416.713	97.25
416.936	100.25
417.159	106.25
417.382	110.25
417.605	105.25
417.828	90.25
418.051	105.25
418.274	101.25
418.497	93.25
418.72	103.25
418.943	106.25
419.166	101.25
419.389	118.25
419.611	113.25
419.834	116.25
420.057	99.25
420.28	101.25
420.503	110.25
420.726	86.25
420.948	97.25
421.171	108.25
421.394	117.25
421.617	95.25
421.839	91.25
422.062	96.25
422.285	107.25
422.507	105.25
422.73	133.25
422.953	134.25
423.175	101.25
423.398	94.25
423.621	102.25
423.843	87.25
424.066	90.25
424.288	92.25
424.511	101.25
424.733	102.25
424.956	121.25
425.178	108.25
425.401	95.25
425.623	104.25
425.846	100.25
426.068	97.25
426.291	101.25
426.513	98.25
426.735	86.25
426.958	111.25
427.18	93.25
427.402	99.25
427.625	107.25
427.847	110.25
428.069	92.25
428.292	94.25
428.514	107.25
428.736	94.25
428.958	94.25
429.181	96.25
429.403	90.25
429.625	92.25
429.847	94.25
430.069	97.25
430.292	108.25
430.514	107.25
430.736	111.25
430.958	106.25
431.18	105.25
431.402	94.25
431.624	103.25
431.846	85.25
432.068	109.25
432.29	100.25
432.512	94.25
432.734	97.25
432.956	81.25
433.178	102.25
433.4	100.25
433.622	108.25
433.844	95.25
434.066	100.25
434.287	98.25
434.509	108.25
434.731	106.25
434.953	99.25
435.175	86.25
435.397	92.25
435.618	97.25
435.84	107.25
436.062	99.25
436.284	100.25
436.505	95.25
436.727	90.25
436.949	87.25
437.17	101.25
437.392	86.25
437.614	93.25
437.835	88.25
438.057	88.25
438.278	85.25
438.5	96.25
438.721	95.25
438.943	91.25
439.165	119.25
439.386	103.25
439.608	108.25
439.829	121.25
440.05	123.25
440.272	110.25
440.493	97.25
440.715	107.25
440.936	98.25
441.158	88.25
441.379	95.25
441.6	95.25
441.822	114.25
442.043	117.25
442.264	141.25
442.486	112.25
442.707	109.25
442.928	97.25
443.149	86.25
443.371	99.25
443.592	90.25
443.813	84.25
444.034	108.25
444.255	83.25
444.476	102.25
444.698	102.25
444.919	105.25
445.14	201.25
445.361	138.25
445.582	105.25
445.803	92.25
446.024	91.25
446.245	106.25
446.466	88.25
446.687	98.25
446.908	114.25
447.129	106.25
447.35	100.25
447.571	104.25
447.792	97.25
448.013	100.25
448.234	99.25
448.455	104.25
448.675	85.25
448.896	104.25
449.117	123.25
449.338	136.25
449.559	147.25
449.779	123.25
450	122.25
450.221	95.25
450.442	93.25
450.662	113.25
450.883	114.25
451.104	106.25
451.324	103.25
451.545	110.25
451.766	122.25
451.986	144.25
452.207	190.25
452.428	527.25
452.648	1287.25
452.869	747.25
453.089	199.25
453.31	116.25
453.53	118.25
453.751	161.25
453.971	154.25
454.192	165.25
454.412	108.25
454.633	96.25
454.853	95.25
455.073	97.25
455.294	97.25
455.514	101.25
455.734	99.25
455.955	76.25
456.175	94.25
456.395	103.25
456.616	96.25
456.836	109.25
457.056	103.25
457.276	101.25
457.497	110.25
457.717	125.25
457.937	101.25
458.157	99.25
458.377	98.25
458.598	94.25
458.818	99.25
459.038	92.25
459.258	85.25
459.478	90.25
459.698	97.25
459.918	91.25
460.138	88.25
460.358	79.25
460.578	90.25
460.798	93.25
461.018	92.25
461.238	92.25
461.458	95.25
461.678	85.25
461.898	89.25
462.118	99.25
462.338	93.25
462.558	86.25
462.777	100.25
462.997	97.25
463.217	122.25
463.437	139.25
463.657	186.25
463.876	193.25
464.096	119.25
464.316	104.25
464.536	96.25
464.755	111.25
464.975	90.25
465.195	97.25
465.414	95.25
465.634	96.25
465.854	86.25
466.073	98.25
466.293	92.25
466.512	102.25
466.732	98.25
466.951	103.25
467.171	144.25
467.391	120.25
467.61	94.25
467.829	101.25
468.049	99.25
468.268	88.25
468.488	89.25
468.707	105.25
468.927	91.25
469.146	92.25
469.365	120.25
469.585	98.25
469.804	119.25
470.023	104.25
470.243	97.25
470.462	113.25
470.681	117.25
470.901	137.25
471.12	185.25
471.339	218.25
471.558	141.25
471.777	109.25
471.997	121.25
472.216	101.25
472.435	103.25
472.654	97.25
472.873	95.25
473.092	101.25
473.311	116.25
473.53	103.25
473.749	94.25
473.968	109.25
474.187	92.25
474.406	95.25
474.625	100.25
474.844	93.25
475.063	90.25
475.282	90.25
475.501	90.25
475.72	97.25
475.939	102.25
476.158	97.25
476.377	110.25
476.596	107.25
476.814	90.25
477.033	95.25
477.252	85.25
477.471	100.25
477.69	96.25
477.908	97.25
478.127	120.25
478.346	103.25
478.564	102.25
478.783	105.25
479.002	86.25
479.22	82.25
479.439	113.25
479.658	93.25
479.876	94.25
480.095	98.25
480.313	103.25
480.532	113.25
480.751	89.25
480.969	102.25
481.188	110.25
481.406	105.25
481.624	102.25
481.843	118.25
482.061	108.25
482.28	91.25
482.498	88.25
482.717	89.25
482.935	98.25
483.153	121.25
483.372	119.25
483.59	116.25
483.808	123.25
484.027	123.25
484.245	136.25
484.463	177.25
484.681	234.25
484.9	143.25
485.118	102.25
485.336	121.25
485.554	119.25
485.772	129.25
485.99	171.25
486.209	251.25
486.427	165.25
486.645	121.25
486.863	101.25
487.081	109.25
487.299	104.25
487.517	91.25
487.735	99.25
487.953	119.25
488.171	105.25
488.389	113.25
488.607	105.25
488.825	83.25
489.043	89.25
489.261	98.25
489.479	119.25
489.696	117.25
489.914	118.25
490.132	105.25
490.35	101.25
490.568	102.25
490.786	100.25
491.003	116.25
491.221	127.25
491.439	103.25
491.657	100.25
491.874	108.25
492.092	121.25
492.31	94.25
492.527	122.25
492.745	104.25
492.963	112.25
493.18	110.25
493.398	96.25
493.615	101.25
493.833	123.25
494.05	118.25
494.268	106.25
494.485	110.25
494.703	108.25
494.92	103.25
495.138	113.25
495.355	104.25
495.573	104.25
495.79	109.25
496.008	117.25
496.225	99.25
496.442	118.25
496.66	117.25
496.877	143.25
497.094	159.25
497.312	116.25
497.529	113.25
497.746	107.25
497.963	108.25
498.181	103.25
498.398	102.25
498.615	101.25
498.832	92.25
499.049	113.25
499.267	141.25
499.484	173.25
499.701	124.25
499.918	97.25
500.135	99.25
500.352	114.25
500.569	94.25
500.786	99.25
501.003	105.25
501.22	115.25
501.437	128.25
501.654	98.25
501.871	96.25
502.088	107.25
502.305	112.25
502.522	107.25
502.739	93.25
502.956	95.25
503.172	102.25
503.389	108.25
503.606	104.25
503.823	103.25
504.04	94.25
504.256	110.25
504.473	113.25
504.69	105.25
504.907	107.25
505.123	126.25
505.34	113.25
505.557	87.25
505.773	113.25
505.99	103.25
506.207	104.25
506.423	101.25
506.64	105.25
506.856	94.25
507.073	100.25
507.289	110.25
