Data from SnStandardFlinnAPT0064_LampEnergy10_LIBS07252019.E.O._I.C._HRD10591_15-20-29-493.txt Node
Date: Thu Jul 25 15:20:29 EDT 2019
User: cochatt
Spectrometer: HR+D1059
Trigger mode: 1
Integration Time (sec): 1.000000E-1
Scans to average: 1
Electric dark correction enabled: true
Nonlinearity correction enabled: false
Boxcar width: 0
XAxis mode: Wavelengths
Number of Pixels in Spectrum: 2048
>>>>>Begin Spectral Data<<<<<
223.165	-30.75
223.4	-30.75
223.635	-30.75
223.869	-19.75
224.104	-16.75
224.338	-8.75
224.573	-6.75
224.808	-10.75
225.042	2.25
225.277	-8.75
225.511	-8.75
225.746	-5.75
225.98	16.25
226.215	6.25
226.449	19.25
226.683	22.25
226.918	31.25
227.152	19.25
227.387	40.25
227.621	31.25
227.856	31.25
228.09	53.25
228.324	49.25
228.559	61.25
228.793	130.25
229.027	303.25
229.262	333.25
229.496	317.25
229.73	287.25
229.964	281.25
230.199	306.25
230.433	293.25
230.667	324.25
230.901	336.25
231.136	358.25
231.37	353.25
231.604	399.25
231.838	453.25
232.072	543.25
232.306	593.25
232.541	466.25
232.775	428.25
233.009	440.25
233.243	415.25
233.477	452.25
233.711	519.25
233.945	611.25
234.179	517.25
234.413	446.25
234.647	442.25
234.881	476.25
235.115	539.25
235.349	634.25
235.583	802.25
235.817	1041.25
236.051	987.25
236.285	657.25
236.519	521.25
236.753	500.25
236.987	485.25
237.221	541.25
237.455	515.25
237.689	443.25
237.922	453.25
238.156	474.25
238.39	506.25
238.624	503.25
238.858	466.25
239.091	487.25
239.325	485.25
239.559	505.25
239.793	525.25
240.027	512.25
240.26	521.25
240.494	556.25
240.728	591.25
240.961	607.25
241.195	641.25
241.429	678.25
241.662	705.25
241.896	812.25
242.13	973.25
242.363	1280.25
242.597	1709.25
242.83	1576.25
243.064	1577.25
243.298	1891.25
243.531	1540.25
243.765	947.25
243.998	783.25
244.232	695.25
244.465	684.25
244.699	645.25
244.932	647.25
245.166	659.25
245.399	697.25
245.633	696.25
245.866	675.25
246.099	654.25
246.333	646.25
246.566	663.25
246.8	633.25
247.033	625.25
247.266	636.25
247.5	656.25
247.733	679.25
247.966	711.25
248.2	763.25
248.433	874.25
248.666	1015.25
248.899	983.25
249.133	860.25
249.366	883.25
249.599	949.25
249.832	1128.25
250.066	1077.25
250.299	868.25
250.532	783.25
250.765	758.25
250.998	742.25
251.231	739.25
251.465	745.25
251.698	737.25
251.931	714.25
252.164	730.25
252.397	761.25
252.63	781.25
252.863	794.25
253.096	799.25
253.329	785.25
253.562	785.25
253.795	786.25
254.028	797.25
254.261	819.25
254.494	893.25
254.727	1037.25
254.96	1242.25
255.193	1227.25
255.426	965.25
255.659	889.25
255.892	868.25
256.124	865.25
256.357	887.25
256.59	899.25
256.823	954.25
257.056	1123.25
257.289	1365.25
257.521	1513.25
257.754	1221.25
257.987	967.25
258.22	923.25
258.452	907.25
258.685	903.25
258.918	940.25
259.151	1002.25
259.383	1085.25
259.616	1224.25
259.849	1285.25
260.081	1080.25
260.314	985.25
260.547	946.25
260.779	941.25
261.012	935.25
261.244	961.25
261.477	961.25
261.71	991.25
261.942	965.25
262.175	1000.25
262.407	1037.25
262.64	1025.25
262.872	1075.25
263.105	1114.25
263.337	1169.25
263.57	1233.25
263.802	1261.25
264.035	1263.25
264.267	1282.25
264.499	1344.25
264.732	1384.25
264.964	1414.25
265.197	1395.25
265.429	1396.25
265.661	1436.25
265.894	1541.25
266.126	1727.25
266.358	1953.25
266.591	1917.25
266.823	1604.25
267.055	1425.25
267.287	1363.25
267.52	1273.25
267.752	1302.25
267.984	1261.25
268.216	1231.25
268.448	1220.25
268.681	1222.25
268.913	1202.25
269.145	1227.25
269.377	1227.25
269.609	1259.25
269.841	1289.25
270.073	1374.25
270.306	1578.25
270.538	2168.25
270.77	3279.25
271.002	4087.25
271.234	2780.25
271.466	1868.25
271.698	1540.25
271.93	1394.25
272.162	1321.25
272.394	1281.25
272.626	1252.25
272.858	1247.25
273.09	1201.25
273.322	1213.25
273.553	1196.25
273.785	1192.25
274.017	1223.25
274.249	1188.25
274.481	1178.25
274.713	1190.25
274.945	1203.25
275.176	1223.25
275.408	1215.25
275.64	1193.25
275.872	1216.25
276.104	1224.25
276.335	1251.25
276.567	1269.25
276.799	1279.25
277.031	1299.25
277.262	1304.25
277.494	1407.25
277.726	1569.25
277.957	1845.25
278.189	2130.25
278.421	1987.25
278.652	1751.25
278.884	1689.25
279.115	1480.25
279.347	1381.25
279.579	1405.25
279.81	1374.25
280.042	1380.25
280.273	1392.25
280.505	1419.25
280.736	1473.25
280.968	1561.25
281.199	1799.25
281.431	2084.25
281.662	2120.25
281.894	1804.25
282.125	1616.25
282.356	1606.25
282.588	1673.25
282.819	1693.25
283.051	1819.25
283.282	1985.25
283.513	2501.25
283.745	3668.25
283.976	5820.25
284.207	8316.25
284.439	7652.25
284.67	4580.25
284.901	3765.25
285.132	3846.25
285.364	3652.25
285.595	2733.25
285.826	2443.25
286.057	2885.25
286.288	3975.25
286.52	5485.25
286.751	5045.25
286.982	3082.25
287.213	2314.25
287.444	2021.25
287.675	1872.25
287.906	1793.25
288.138	1721.25
288.369	1694.25
288.6	1705.25
288.831	1653.25
289.062	1660.25
289.293	1639.25
289.524	1654.25
289.755	1729.25
289.986	1683.25
290.217	1699.25
290.448	1707.25
290.679	1699.25
290.91	1750.25
291.141	1842.25
291.371	2034.25
291.602	2107.25
291.833	1943.25
292.064	1750.25
292.295	1679.25
292.526	1638.25
292.757	1592.25
292.987	1577.25
293.218	1583.25
293.449	1587.25
293.68	1569.25
293.91	1607.25
294.141	1619.25
294.372	1570.25
294.603	1598.25
294.833	1589.25
295.064	1546.25
295.295	1540.25
295.525	1493.25
295.756	1496.25
295.987	1535.25
296.217	1577.25
296.448	1569.25
296.679	1595.25
296.909	1548.25
297.14	1560.25
297.37	1609.25
297.601	1627.25
297.831	1587.25
298.062	1596.25
298.292	1649.25
298.523	1691.25
298.753	1724.25
298.984	1705.25
299.214	1737.25
299.445	1713.25
299.675	1755.25
299.905	1819.25
300.136	1881.25
300.366	2143.25
300.597	2792.25
300.827	3920.25
301.057	5494.25
301.288	5420.25
301.518	3469.25
301.748	2584.25
301.979	2359.25
302.209	2278.25
302.439	2341.25
302.669	2426.25
302.9	2949.25
303.13	4195.25
303.36	6434.25
303.59	8582.25
303.82	7469.25
304.051	4305.25
304.281	3062.25
304.511	2549.25
304.741	2319.25
304.971	2218.25
305.201	2126.25
305.431	1969.25
305.661	1931.25
305.891	1939.25
306.121	1830.25
306.352	1841.25
306.582	1823.25
306.812	1840.25
307.042	1819.25
307.272	1840.25
307.502	1789.25
307.731	1810.25
307.961	1800.25
308.191	1775.25
308.421	1778.25
308.651	1795.25
308.881	1769.25
309.111	1795.25
309.341	1765.25
309.571	1829.25
309.8	1825.25
310.03	1835.25
310.26	1849.25
310.49	1847.25
310.72	1852.25
310.949	1825.25
311.179	1871.25
311.409	1849.25
311.639	1927.25
311.868	1925.25
312.098	1940.25
312.328	1899.25
312.557	1916.25
312.787	1907.25
313.017	1948.25
313.246	1986.25
313.476	2033.25
313.706	2108.25
313.935	2148.25
314.165	2335.25
314.394	2465.25
314.624	2343.25
314.853	2165.25
315.083	2166.25
315.312	2126.25
315.542	2172.25
315.771	2210.25
316.001	2231.25
316.23	2314.25
316.46	2451.25
316.689	2695.25
316.919	3247.25
317.148	4662.25
317.377	7365.25
317.607	10888.25
317.836	11208.25
318.065	6776.25
318.295	4336.25
318.524	3424.25
318.753	2970.25
318.983	2732.25
319.212	2591.25
319.441	2503.25
319.67	2429.25
319.9	2351.25
320.129	2383.25
320.358	2406.25
320.587	2307.25
320.816	2325.25
321.046	2346.25
321.275	2355.25
321.504	2329.25
321.733	2400.25
321.962	2458.25
322.191	2496.25
322.42	2467.25
322.649	2487.25
322.878	2435.25
323.108	2463.25
323.337	2518.25
323.566	2493.25
323.795	2603.25
324.024	2682.25
324.253	2689.25
324.482	2812.25
324.71	3015.25
324.939	3233.25
325.168	3308.25
325.397	3422.25
325.626	4074.25
325.855	5727.25
326.084	9029.25
326.313	13046.25
326.542	13709.25
326.77	9214.25
326.999	5966.25
327.228	4969.25
327.457	4773.25
327.686	4806.25
327.914	5185.25
328.143	5987.25
328.372	7105.25
328.6	7817.25
328.829	6961.25
329.058	5848.25
329.287	5094.25
329.515	4617.25
329.744	4295.25
329.972	4041.25
330.201	3809.25
330.43	3685.25
330.658	3562.25
330.887	3560.25
331.115	3416.25
331.344	3477.25
331.572	3435.25
331.801	3461.25
332.03	3455.25
332.258	3468.25
332.486	3710.25
332.715	4318.25
332.943	5388.25
333.172	6724.25
333.4	6610.25
333.629	5005.25
333.857	4459.25
334.085	4472.25
334.314	4719.25
334.542	5071.25
334.771	5955.25
334.999	7487.25
335.227	9353.25
335.455	10468.25
335.684	9415.25
335.912	7603.25
336.14	6483.25
336.369	5585.25
336.597	5177.25
336.825	4779.25
337.053	4463.25
337.281	4243.25
337.51	3947.25
337.738	3842.25
337.966	3616.25
338.194	3570.25
338.422	3468.25
338.65	3338.25
338.878	3269.25
339.106	3220.25
339.334	3154.25
339.562	3123.25
339.79	3041.25
340.018	3055.25
340.246	2989.25
340.474	3007.25
340.702	2943.25
340.93	3009.25
341.158	3002.25
341.386	2916.25
341.614	2937.25
341.842	2871.25
342.07	2833.25
342.298	2752.25
342.526	2740.25
342.754	2715.25
342.981	2676.25
343.209	2705.25
343.437	2757.25
343.665	2765.25
343.893	2803.25
344.12	2772.25
344.348	2749.25
344.576	2707.25
344.804	2657.25
345.031	2601.25
345.259	2588.25
345.487	2608.25
345.714	2544.25
345.942	2532.25
346.17	2535.25
346.397	2487.25
346.625	2482.25
346.853	2483.25
347.08	2487.25
347.308	2457.25
347.535	2497.25
347.763	2504.25
347.99	2493.25
348.218	2453.25
348.445	2428.25
348.673	2435.25
348.9	2434.25
349.128	2373.25
349.355	2405.25
349.583	2387.25
349.81	2381.25
350.037	2397.25
350.265	2384.25
350.492	2348.25
350.72	2388.25
350.947	2366.25
351.174	2385.25
351.402	2399.25
351.629	2337.25
351.856	2358.25
352.083	2344.25
352.311	2371.25
352.538	2339.25
352.765	2402.25
352.992	2321.25
353.22	2307.25
353.447	2338.25
353.674	2352.25
353.901	2373.25
354.128	2384.25
354.355	2396.25
354.583	2388.25
354.81	2392.25
355.037	2415.25
355.264	2396.25
355.491	2437.25
355.718	2377.25
355.945	2421.25
356.172	2449.25
356.399	2477.25
356.626	2404.25
356.853	2488.25
357.08	2489.25
357.307	2521.25
357.534	2523.25
357.761	2507.25
357.988	2598.25
358.215	2517.25
358.441	2524.25
358.668	2522.25
358.895	2482.25
359.122	2519.25
359.349	2575.25
359.576	2479.25
359.802	2500.25
360.029	2471.25
360.256	2503.25
360.483	2505.25
360.709	2545.25
360.936	2490.25
361.163	2518.25
361.39	2529.25
361.616	2504.25
361.843	2529.25
362.07	2568.25
362.296	2502.25
362.523	2532.25
362.749	2504.25
362.976	2512.25
363.203	2502.25
363.429	2463.25
363.656	2507.25
363.882	2519.25
364.109	2544.25
364.335	2489.25
364.562	2544.25
364.788	2544.25
365.015	2537.25
365.241	2624.25
365.468	2755.25
365.694	2895.25
365.92	2825.25
366.147	2631.25
366.373	2582.25
366.599	2569.25
366.826	2543.25
367.052	2532.25
367.278	2543.25
367.505	2602.25
367.731	2587.25
367.957	2549.25
368.184	2535.25
368.41	2615.25
368.636	2704.25
368.862	2654.25
369.089	2648.25
369.315	2566.25
369.541	2627.25
369.767	2547.25
369.993	2573.25
370.219	2621.25
370.445	2644.25
370.672	2609.25
370.898	2611.25
371.124	2645.25
371.35	2717.25
371.576	2707.25
371.802	2672.25
372.028	2709.25
372.254	2715.25
372.48	2728.25
372.706	2746.25
372.932	2744.25
373.158	2765.25
373.384	2775.25
373.61	2747.25
373.835	2775.25
374.061	2774.25
374.287	2783.25
374.513	2778.25
374.739	2815.25
374.965	2825.25
375.191	2891.25
375.416	2868.25
375.642	2843.25
375.868	2822.25
376.094	2755.25
376.319	2717.25
376.545	2707.25
376.771	2747.25
376.997	2730.25
377.222	2705.25
377.448	2689.25
377.674	2681.25
377.899	2685.25
378.125	2683.25
378.35	2684.25
378.576	2761.25
378.802	2755.25
379.027	2803.25
379.253	2839.25
379.478	3012.25
379.704	3539.25
379.929	5211.25
380.155	8143.25
380.38	8826.25
380.606	5344.25
380.831	3702.25
381.057	3176.25
381.282	2942.25
381.507	2824.25
381.733	2795.25
381.958	2735.25
382.184	2669.25
382.409	2700.25
382.634	2654.25
382.86	2650.25
383.085	2660.25
383.31	2696.25
383.535	2671.25
383.761	2656.25
383.986	2657.25
384.211	2708.25
384.436	2717.25
384.662	2746.25
384.887	2757.25
385.112	2718.25
385.337	2755.25
385.562	2731.25
385.787	2727.25
386.013	2783.25
386.238	2747.25
386.463	2769.25
386.688	2751.25
386.913	2703.25
387.138	2740.25
387.363	2725.25
387.588	2725.25
387.813	2705.25
388.038	2770.25
388.263	2728.25
388.488	2780.25
388.713	2754.25
388.938	2759.25
389.163	2687.25
389.387	2781.25
389.612	2695.25
389.837	2714.25
390.062	2715.25
390.287	2804.25
390.512	2768.25
390.736	2799.25
390.961	2839.25
391.186	2803.25
391.411	2844.25
391.636	2851.25
391.86	2935.25
392.085	2900.25
392.31	2799.25
392.534	2868.25
392.759	2835.25
392.984	2806.25
393.208	2795.25
393.433	2816.25
393.658	2795.25
393.882	2732.25
394.107	2777.25
394.331	2765.25
394.556	2776.25
394.78	2796.25
395.005	2815.25
395.229	2773.25
395.454	2823.25
395.678	2844.25
395.903	2858.25
396.127	2847.25
396.352	2840.25
396.576	2845.25
396.801	2874.25
397.025	2841.25
397.249	2884.25
397.474	2841.25
397.698	2932.25
397.922	2924.25
398.147	2887.25
398.371	2922.25
398.595	2963.25
398.82	3017.25
399.044	3183.25
399.268	3325.25
399.492	3491.25
399.717	3595.25
399.941	3637.25
400.165	3480.25
400.389	3329.25
400.613	3279.25
400.837	3113.25
401.062	3066.25
401.286	3033.25
401.51	3020.25
401.734	3004.25
401.958	3003.25
402.182	3017.25
402.406	3016.25
402.63	2971.25
402.854	3071.25
403.078	3061.25
403.302	3079.25
403.526	3139.25
403.75	3148.25
403.974	3133.25
404.198	3099.25
404.422	3108.25
404.645	3097.25
404.869	3115.25
405.093	3115.25
405.317	3139.25
405.541	3197.25
405.765	3195.25
405.988	3225.25
406.212	3237.25
406.436	3206.25
406.66	3251.25
406.883	3217.25
407.107	3296.25
407.331	3352.25
407.555	3443.25
407.778	3424.25
408.002	3375.25
408.226	3347.25
408.449	3380.25
408.673	3254.25
408.896	3235.25
409.12	3205.25
409.344	3210.25
409.567	3155.25
409.791	3155.25
410.014	3147.25
410.238	3107.25
410.461	3139.25
410.685	3087.25
410.908	2999.25
411.132	3064.25
411.355	2999.25
411.578	3077.25
411.802	3055.25
412.025	3004.25
412.249	3038.25
412.472	3079.25
412.695	2995.25
412.919	2945.25
413.142	3015.25
413.365	2967.25
413.589	3024.25
413.812	2951.25
414.035	2937.25
414.258	2970.25
414.482	3005.25
414.705	2979.25
414.928	2977.25
415.151	2965.25
415.374	2919.25
415.597	2918.25
415.821	2835.25
416.044	2861.25
416.267	2835.25
416.49	2844.25
416.713	2812.25
416.936	2787.25
417.159	2769.25
417.382	2802.25
417.605	2787.25
417.828	2795.25
418.051	2842.25
418.274	2880.25
418.497	2823.25
418.72	2929.25
418.943	2872.25
419.166	3004.25
419.389	3152.25
419.611	3195.25
419.834	3020.25
420.057	2916.25
420.28	2885.25
420.503	2795.25
420.726	2841.25
420.948	2845.25
421.171	2834.25
421.394	2834.25
421.617	2844.25
421.839	2815.25
422.062	2871.25
422.285	2784.25
422.507	2899.25
422.73	2899.25
422.953	2943.25
423.175	2994.25
423.398	2921.25
423.621	2827.25
423.843	2875.25
424.066	2847.25
424.288	2851.25
424.511	2835.25
424.733	2874.25
424.956	2793.25
425.178	2784.25
425.401	2825.25
425.623	2821.25
425.846	2751.25
426.068	2767.25
426.291	2733.25
426.513	2720.25
426.735	2666.25
426.958	2750.25
427.18	2665.25
427.402	2664.25
427.625	2724.25
427.847	2655.25
428.069	2639.25
428.292	2645.25
428.514	2592.25
428.736	2627.25
428.958	2610.25
429.181	2594.25
429.403	2578.25
429.625	2575.25
429.847	2610.25
430.069	2676.25
430.292	2770.25
430.514	2797.25
430.736	2841.25
430.958	2662.25
431.18	2595.25
431.402	2621.25
431.624	2618.25
431.846	2563.25
432.068	2614.25
432.29	2578.25
432.512	2605.25
432.734	2638.25
432.956	2610.25
433.178	2624.25
433.4	2644.25
433.622	2621.25
433.844	2663.25
434.066	2629.25
434.287	2612.25
434.509	2617.25
434.731	2696.25
434.953	2717.25
435.175	2681.25
435.397	2711.25
435.618	2639.25
435.84	2641.25
436.062	2602.25
436.284	2618.25
436.505	2541.25
436.727	2595.25
436.949	2627.25
437.17	2561.25
437.392	2534.25
437.614	2539.25
437.835	2464.25
438.057	2552.25
438.278	2484.25
438.5	2553.25
438.721	2588.25
438.943	2642.25
439.165	2709.25
439.386	2742.25
439.608	2683.25
439.829	2711.25
440.05	2784.25
440.272	2799.25
440.493	2711.25
440.715	2689.25
440.936	2699.25
441.158	2707.25
441.379	2719.25
441.6	2847.25
441.822	2892.25
442.043	3095.25
442.264	3164.25
442.486	2964.25
442.707	2853.25
442.928	2806.25
443.149	2823.25
443.371	2772.25
443.592	2819.25
443.813	2786.25
444.034	2839.25
444.255	2877.25
444.476	2824.25
444.698	2931.25
444.919	3065.25
445.14	3005.25
445.361	2930.25
445.582	2901.25
445.803	2804.25
446.024	2787.25
446.245	2800.25
446.466	2802.25
446.687	2738.25
446.908	2738.25
447.129	2608.25
447.35	2637.25
447.571	2617.25
447.792	2586.25
448.013	2548.25
448.234	2528.25
448.455	2554.25
448.675	2606.25
448.896	2668.25
449.117	2730.25
449.338	3026.25
449.559	3163.25
449.779	2812.25
450	2553.25
450.221	2567.25
450.442	2547.25
450.662	2502.25
450.883	2519.25
451.104	2475.25
451.324	2523.25
451.545	2548.25
451.766	2570.25
451.986	2589.25
452.207	2803.25
452.428	3634.25
452.648	5470.25
452.869	4567.25
453.089	3141.25
453.31	2954.25
453.53	2987.25
453.751	3025.25
453.971	3189.25
454.192	3116.25
454.412	2695.25
454.633	2523.25
454.853	2483.25
455.073	2420.25
455.294	2423.25
455.514	2402.25
455.734	2394.25
455.955	2377.25
456.175	2379.25
456.395	2406.25
456.616	2422.25
456.836	2426.25
457.056	2459.25
457.276	2471.25
457.497	2631.25
457.717	2627.25
457.937	2567.25
458.157	2521.25
458.377	2541.25
458.598	2540.25
458.818	2560.25
459.038	2593.25
459.258	2591.25
459.478	2615.25
459.698	2649.25
459.918	2728.25
460.138	2707.25
460.358	2751.25
460.578	2791.25
460.798	2788.25
461.018	2837.25
461.238	2860.25
461.458	2903.25
461.678	2897.25
461.898	2965.25
462.118	2976.25
462.338	3042.25
462.558	3066.25
462.777	3138.25
462.997	3216.25
463.217	3317.25
463.437	3511.25
463.657	3557.25
463.876	3554.25
464.096	3337.25
464.316	3163.25
464.536	3125.25
464.755	3103.25
464.975	2964.25
465.195	2886.25
465.414	2789.25
465.634	2753.25
465.854	2743.25
466.073	2618.25
466.293	2597.25
466.512	2629.25
466.732	2676.25
466.951	2768.25
467.171	3038.25
467.391	2936.25
467.61	2723.25
467.829	2613.25
468.049	2581.25
468.268	2550.25
468.488	2572.25
468.707	2515.25
468.927	2564.25
469.146	2520.25
469.365	2609.25
469.585	2642.25
469.804	2659.25
470.023	2716.25
470.243	2776.25
470.462	2835.25
470.681	2935.25
470.901	3321.25
471.12	3791.25
471.339	3820.25
471.558	3154.25
471.777	2877.25
471.997	2761.25
472.216	2696.25
472.435	2621.25
472.654	2581.25
472.873	2577.25
473.092	2572.25
473.311	2563.25
473.53	2577.25
473.749	2700.25
473.968	2794.25
474.187	2641.25
474.406	2595.25
474.625	2564.25
474.844	2578.25
475.063	2595.25
475.282	2562.25
475.501	2548.25
475.72	2640.25
475.939	2673.25
476.158	2655.25
476.377	2735.25
476.596	2703.25
476.814	2699.25
477.033	2676.25
477.252	2763.25
477.471	2811.25
477.69	2881.25
477.908	2921.25
478.127	2931.25
478.346	2936.25
478.564	2966.25
478.783	3007.25
479.002	3032.25
479.22	3077.25
479.439	3059.25
479.658	3091.25
479.876	3089.25
480.095	3107.25
480.313	3153.25
480.532	3220.25
480.751	3171.25
480.969	3121.25
481.188	3087.25
481.406	3061.25
481.624	3043.25
481.843	3185.25
482.061	3148.25
482.28	3140.25
482.498	3047.25
482.717	3107.25
482.935	3145.25
483.153	3188.25
483.372	3268.25
483.59	3266.25
483.808	3349.25
484.027	3418.25
484.245	3643.25
484.463	4091.25
484.681	4595.25
484.9	4144.25
485.118	3826.25
485.336	3684.25
485.554	3731.25
485.772	4006.25
485.99	4543.25
486.209	4933.25
486.427	4133.25
486.645	3647.25
486.863	3477.25
487.081	3396.25
487.299	3363.25
487.517	3329.25
487.735	3356.25
