Data from SnStandardFlinnAPT0064_LampEnergy5.5_LIBS07252019.E.O._I.C._HRD10591_15-15-58-491.txt Node
Date: Thu Jul 25 15:15:58 EDT 2019
User: cochatt
Spectrometer: HR+D1059
Trigger mode: 1
Integration Time (sec): 1.000000E-1
Scans to average: 1
Electric dark correction enabled: true
Nonlinearity correction enabled: false
Boxcar width: 0
XAxis mode: Wavelengths
Number of Pixels in Spectrum: 2048
>>>>>Begin Spectral Data<<<<<
223.165	-0.5
223.4	-0.5
223.635	-0.5
223.869	-21.5
224.104	-21.5
224.338	-11.5
224.573	-14.5
224.808	-15.5
225.042	-3.5
225.277	3.5
225.511	3.5
225.746	-3.5
225.98	8.5
226.215	10.5
226.449	12.5
226.683	-2.5
226.918	22.5
227.152	33.5
227.387	36.5
227.621	46.5
227.856	57.5
228.09	21.5
228.324	38.5
228.559	52.5
228.793	76.5
229.027	144.5
229.262	145.5
229.496	137.5
229.73	155.5
229.964	169.5
230.199	160.5
230.433	172.5
230.667	158.5
230.901	177.5
231.136	189.5
231.37	181.5
231.604	178.5
231.838	192.5
232.072	231.5
232.306	246.5
232.541	213.5
232.775	200.5
233.009	208.5
233.243	194.5
233.477	217.5
233.711	216.5
233.945	269.5
234.179	242.5
234.413	224.5
234.647	226.5
234.881	231.5
235.115	237.5
235.349	284.5
235.583	339.5
235.817	417.5
236.051	399.5
236.285	291.5
236.519	260.5
236.753	225.5
236.987	217.5
237.221	261.5
237.455	232.5
237.689	238.5
237.922	227.5
238.156	234.5
238.39	225.5
238.624	258.5
238.858	244.5
239.091	230.5
239.325	234.5
239.559	227.5
239.793	233.5
240.027	243.5
240.26	246.5
240.494	247.5
240.728	253.5
240.961	271.5
241.195	291.5
241.429	296.5
241.662	296.5
241.896	331.5
242.13	377.5
242.363	471.5
242.597	612.5
242.83	592.5
243.064	603.5
243.298	701.5
243.531	605.5
243.765	385.5
243.998	349.5
244.232	305.5
244.465	302.5
244.699	297.5
244.932	293.5
245.166	283.5
245.399	304.5
245.633	301.5
245.866	309.5
246.099	299.5
246.333	295.5
246.566	261.5
246.8	292.5
247.033	298.5
247.266	283.5
247.5	280.5
247.733	307.5
247.966	303.5
248.2	315.5
248.433	365.5
248.666	384.5
248.899	399.5
249.133	370.5
249.366	388.5
249.599	391.5
249.832	429.5
250.066	441.5
250.299	371.5
250.532	340.5
250.765	334.5
250.998	344.5
251.231	333.5
251.465	328.5
251.698	338.5
251.931	347.5
252.164	336.5
252.397	330.5
252.63	345.5
252.863	358.5
253.096	335.5
253.329	360.5
253.562	351.5
253.795	347.5
254.028	361.5
254.261	343.5
254.494	376.5
254.727	421.5
254.96	491.5
255.193	477.5
255.426	401.5
255.659	381.5
255.892	367.5
256.124	381.5
256.357	393.5
256.59	387.5
256.823	392.5
257.056	453.5
257.289	518.5
257.521	571.5
257.754	455.5
257.987	413.5
258.22	400.5
258.452	394.5
258.685	396.5
258.918	397.5
259.151	429.5
259.383	459.5
259.616	470.5
259.849	523.5
260.081	468.5
260.314	419.5
260.547	419.5
260.779	421.5
261.012	438.5
261.244	432.5
261.477	419.5
261.71	449.5
261.942	457.5
262.175	430.5
262.407	467.5
262.64	465.5
262.872	488.5
263.105	494.5
263.337	521.5
263.57	552.5
263.802	557.5
264.035	575.5
264.267	588.5
264.499	610.5
264.732	625.5
264.964	630.5
265.197	599.5
265.429	630.5
265.661	660.5
265.894	676.5
266.126	750.5
266.358	769.5
266.591	770.5
266.823	690.5
267.055	614.5
267.287	607.5
267.52	571.5
267.752	561.5
267.984	550.5
268.216	552.5
268.448	552.5
268.681	539.5
268.913	538.5
269.145	545.5
269.377	539.5
269.609	543.5
269.841	557.5
270.073	596.5
270.306	669.5
270.538	864.5
270.77	1227.5
271.002	1463.5
271.234	1056.5
271.466	726.5
271.698	626.5
271.93	586.5
272.162	561.5
272.394	530.5
272.626	542.5
272.858	542.5
273.09	534.5
273.322	522.5
273.553	523.5
273.785	541.5
274.017	531.5
274.249	527.5
274.481	522.5
274.713	526.5
274.945	512.5
275.176	507.5
275.408	560.5
275.64	526.5
275.872	541.5
276.104	539.5
276.335	538.5
276.567	548.5
276.799	559.5
277.031	571.5
277.262	574.5
277.494	562.5
277.726	625.5
277.957	707.5
278.189	742.5
278.421	750.5
278.652	693.5
278.884	637.5
279.115	608.5
279.347	594.5
279.579	579.5
279.81	600.5
280.042	597.5
280.273	589.5
280.505	617.5
280.736	622.5
280.968	624.5
281.199	698.5
281.431	769.5
281.662	755.5
281.894	706.5
282.125	656.5
282.356	658.5
282.588	681.5
282.819	699.5
283.051	726.5
283.282	771.5
283.513	957.5
283.745	1351.5
283.976	2126.5
284.207	2999.5
284.439	2701.5
284.67	1652.5
284.901	1316.5
285.132	1299.5
285.364	1223.5
285.595	986.5
285.826	939.5
286.057	1080.5
286.288	1440.5
286.52	1873.5
286.751	1766.5
286.982	1128.5
287.213	880.5
287.444	805.5
287.675	740.5
287.906	732.5
288.138	699.5
288.369	716.5
288.6	711.5
288.831	709.5
289.062	692.5
289.293	710.5
289.524	692.5
289.755	723.5
289.986	716.5
290.217	704.5
290.448	685.5
290.679	726.5
290.91	748.5
291.141	733.5
291.371	749.5
291.602	792.5
291.833	745.5
292.064	704.5
292.295	709.5
292.526	704.5
292.757	665.5
292.987	685.5
293.218	678.5
293.449	685.5
293.68	661.5
293.91	681.5
294.141	663.5
294.372	648.5
294.603	687.5
294.833	667.5
295.064	663.5
295.295	658.5
295.525	659.5
295.756	664.5
295.987	645.5
296.217	640.5
296.448	649.5
296.679	666.5
296.909	669.5
297.14	672.5
297.37	658.5
297.601	652.5
297.831	680.5
298.062	665.5
298.292	681.5
298.523	723.5
298.753	711.5
298.984	696.5
299.214	722.5
299.445	717.5
299.675	746.5
299.905	739.5
300.136	792.5
300.366	847.5
300.597	1060.5
300.827	1465.5
301.057	1905.5
301.288	1865.5
301.518	1277.5
301.748	1000.5
301.979	898.5
302.209	896.5
302.439	901.5
302.669	952.5
302.9	1116.5
303.13	1492.5
303.36	2211.5
303.59	2933.5
303.82	2526.5
304.051	1487.5
304.281	1157.5
304.511	986.5
304.741	895.5
304.971	879.5
305.201	825.5
305.431	805.5
305.661	785.5
305.891	764.5
306.121	773.5
306.352	787.5
306.582	733.5
306.812	751.5
307.042	764.5
307.272	782.5
307.502	755.5
307.731	765.5
307.961	774.5
308.191	746.5
308.421	754.5
308.651	735.5
308.881	740.5
309.111	783.5
309.341	755.5
309.571	788.5
309.8	797.5
310.03	785.5
310.26	783.5
310.49	786.5
310.72	791.5
310.949	766.5
311.179	791.5
311.409	799.5
311.639	821.5
311.868	785.5
312.098	802.5
312.328	834.5
312.557	825.5
312.787	850.5
313.017	823.5
313.246	825.5
313.476	846.5
313.706	864.5
313.935	901.5
314.165	953.5
314.394	952.5
314.624	929.5
314.853	877.5
315.083	881.5
315.312	887.5
315.542	899.5
315.771	917.5
316.001	898.5
316.23	925.5
316.46	959.5
316.689	1060.5
316.919	1249.5
317.148	1710.5
317.377	2624.5
317.607	3849.5
317.836	3922.5
318.065	2367.5
318.295	1538.5
318.524	1286.5
318.753	1155.5
318.983	1067.5
319.212	1034.5
319.441	1003.5
319.67	990.5
319.9	964.5
320.129	977.5
320.358	965.5
320.587	958.5
320.816	971.5
321.046	974.5
321.275	965.5
321.504	941.5
321.733	980.5
321.962	1009.5
322.191	1018.5
322.42	1017.5
322.649	1015.5
322.878	988.5
323.108	1027.5
323.337	1021.5
323.566	1032.5
323.795	1043.5
324.024	1053.5
324.253	1104.5
324.482	1106.5
324.71	1127.5
324.939	1217.5
325.168	1268.5
325.397	1324.5
325.626	1525.5
325.855	2059.5
326.084	3241.5
326.313	4656.5
326.542	4993.5
326.77	3151.5
326.999	2162.5
327.228	1797.5
327.457	1742.5
327.686	1751.5
327.914	1877.5
328.143	2134.5
328.372	2472.5
328.6	2683.5
328.829	2518.5
329.058	2166.5
329.287	1927.5
329.515	1818.5
329.744	1655.5
329.972	1614.5
330.201	1506.5
330.43	1495.5
330.658	1484.5
330.887	1457.5
331.115	1409.5
331.344	1415.5
331.572	1355.5
331.801	1363.5
332.03	1413.5
332.258	1392.5
332.486	1496.5
332.715	1705.5
332.943	1918.5
333.172	2326.5
333.4	2371.5
333.629	1863.5
333.857	1732.5
334.085	1737.5
334.314	1862.5
334.542	1981.5
334.771	2230.5
334.999	2645.5
335.227	3233.5
335.455	3559.5
335.684	3265.5
335.912	2819.5
336.14	2505.5
336.369	2222.5
336.597	2079.5
336.825	1889.5
337.053	1795.5
337.281	1667.5
337.51	1626.5
337.738	1542.5
337.966	1483.5
338.194	1416.5
338.422	1380.5
338.65	1358.5
338.878	1352.5
339.106	1330.5
339.334	1304.5
339.562	1274.5
339.79	1254.5
340.018	1240.5
340.246	1255.5
340.474	1241.5
340.702	1226.5
340.93	1233.5
341.158	1239.5
341.386	1244.5
341.614	1238.5
341.842	1197.5
342.07	1188.5
342.298	1167.5
342.526	1113.5
342.754	1114.5
342.981	1153.5
343.209	1125.5
343.437	1123.5
343.665	1181.5
343.893	1178.5
344.12	1181.5
344.348	1157.5
344.576	1109.5
344.804	1135.5
345.031	1102.5
345.259	1089.5
345.487	1071.5
345.714	1066.5
345.942	1027.5
346.17	1074.5
346.397	1066.5
346.625	1046.5
346.853	1049.5
347.08	1035.5
347.308	1045.5
347.535	1062.5
347.763	1062.5
347.99	1058.5
348.218	1035.5
348.445	1028.5
348.673	1027.5
348.9	1029.5
349.128	1036.5
349.355	1023.5
349.583	1044.5
349.81	1007.5
350.037	1015.5
350.265	1006.5
350.492	985.5
350.72	1021.5
350.947	1030.5
351.174	994.5
351.402	1022.5
351.629	987.5
351.856	977.5
352.083	998.5
352.311	1011.5
352.538	1009.5
352.765	973.5
352.992	995.5
353.22	1002.5
353.447	990.5
353.674	1003.5
353.901	1011.5
354.128	998.5
354.355	1033.5
354.583	981.5
354.81	1021.5
355.037	962.5
355.264	1028.5
355.491	1014.5
355.718	997.5
355.945	1003.5
356.172	1008.5
356.399	1027.5
356.626	1027.5
356.853	1062.5
357.08	1040.5
357.307	1046.5
357.534	1079.5
357.761	1064.5
357.988	1076.5
358.215	1053.5
358.441	1035.5
358.668	1070.5
358.895	1046.5
359.122	1049.5
359.349	1063.5
359.576	1040.5
359.802	1029.5
360.029	1050.5
360.256	1056.5
360.483	1064.5
360.709	1099.5
360.936	1046.5
361.163	1056.5
361.39	1075.5
361.616	1071.5
361.843	1064.5
362.07	1060.5
362.296	1095.5
362.523	1064.5
362.749	1066.5
362.976	1061.5
363.203	1046.5
363.429	1035.5
363.656	1064.5
363.882	1066.5
364.109	1072.5
364.335	1055.5
364.562	1049.5
364.788	1049.5
365.015	1073.5
365.241	1085.5
365.468	1118.5
365.694	1195.5
365.92	1131.5
366.147	1078.5
366.373	1102.5
366.599	1064.5
366.826	1070.5
367.052	1052.5
367.278	1095.5
367.505	1089.5
367.731	1103.5
367.957	1079.5
368.184	1095.5
368.41	1121.5
368.636	1104.5
368.862	1107.5
369.089	1090.5
369.315	1113.5
369.541	1114.5
369.767	1106.5
369.993	1094.5
370.219	1104.5
370.445	1113.5
370.672	1121.5
370.898	1098.5
371.124	1107.5
371.35	1133.5
371.576	1153.5
371.802	1147.5
372.028	1150.5
372.254	1151.5
372.48	1146.5
372.706	1158.5
372.932	1165.5
373.158	1163.5
373.384	1161.5
373.61	1150.5
373.835	1198.5
374.061	1184.5
374.287	1168.5
374.513	1214.5
374.739	1217.5
374.965	1203.5
375.191	1225.5
375.416	1215.5
375.642	1163.5
375.868	1204.5
376.094	1202.5
376.319	1151.5
376.545	1182.5
376.771	1148.5
376.997	1155.5
377.222	1178.5
377.448	1156.5
377.674	1164.5
377.899	1145.5
378.125	1177.5
378.35	1173.5
378.576	1164.5
378.802	1155.5
379.027	1181.5
379.253	1177.5
379.478	1248.5
379.704	1407.5
379.929	1941.5
380.155	2778.5
380.38	2974.5
380.606	1893.5
380.831	1437.5
381.057	1287.5
381.282	1199.5
381.507	1171.5
381.733	1186.5
381.958	1138.5
382.184	1160.5
382.409	1176.5
382.634	1126.5
382.86	1163.5
383.085	1138.5
383.31	1176.5
383.535	1161.5
383.761	1139.5
383.986	1145.5
384.211	1148.5
384.436	1153.5
384.662	1138.5
384.887	1173.5
385.112	1181.5
385.337	1201.5
385.562	1173.5
385.787	1159.5
386.013	1197.5
386.238	1171.5
386.463	1178.5
386.688	1180.5
386.913	1162.5
387.138	1171.5
387.363	1171.5
387.588	1150.5
387.813	1165.5
388.038	1187.5
388.263	1183.5
388.488	1154.5
388.713	1177.5
388.938	1185.5
389.163	1163.5
389.387	1159.5
389.612	1158.5
389.837	1178.5
390.062	1170.5
390.287	1192.5
390.512	1180.5
390.736	1233.5
390.961	1229.5
391.186	1213.5
391.411	1224.5
391.636	1239.5
391.86	1252.5
392.085	1235.5
392.31	1222.5
392.534	1237.5
392.759	1200.5
392.984	1175.5
393.208	1209.5
393.433	1213.5
393.658	1218.5
393.882	1203.5
394.107	1194.5
394.331	1206.5
394.556	1194.5
394.78	1222.5
395.005	1205.5
395.229	1203.5
395.454	1210.5
395.678	1213.5
395.903	1212.5
396.127	1193.5
396.352	1215.5
396.576	1227.5
396.801	1237.5
397.025	1252.5
397.249	1229.5
397.474	1229.5
397.698	1244.5
397.922	1276.5
398.147	1223.5
398.371	1248.5
398.595	1280.5
398.82	1281.5
399.044	1384.5
399.268	1414.5
399.492	1512.5
399.717	1574.5
399.941	1559.5
400.165	1474.5
400.389	1411.5
400.613	1397.5
400.837	1341.5
401.062	1324.5
401.286	1307.5
401.51	1329.5
401.734	1316.5
401.958	1329.5
402.182	1307.5
402.406	1287.5
402.63	1284.5
402.854	1313.5
403.078	1341.5
403.302	1339.5
403.526	1368.5
403.75	1333.5
403.974	1380.5
404.198	1352.5
404.422	1336.5
404.645	1342.5
404.869	1383.5
405.093	1345.5
405.317	1350.5
405.541	1362.5
405.765	1386.5
405.988	1375.5
406.212	1385.5
406.436	1371.5
406.66	1415.5
406.883	1383.5
407.107	1425.5
407.331	1469.5
407.555	1466.5
407.778	1478.5
408.002	1426.5
408.226	1410.5
408.449	1408.5
408.673	1406.5
408.896	1376.5
409.12	1370.5
409.344	1398.5
409.567	1355.5
409.791	1353.5
410.014	1319.5
410.238	1341.5
410.461	1328.5
410.685	1304.5
410.908	1316.5
411.132	1325.5
411.355	1300.5
411.578	1287.5
411.802	1284.5
412.025	1313.5
412.249	1303.5
412.472	1279.5
412.695	1288.5
412.919	1278.5
413.142	1262.5
413.365	1299.5
413.589	1294.5
413.812	1256.5
414.035	1265.5
414.258	1281.5
414.482	1244.5
414.705	1289.5
414.928	1247.5
415.151	1258.5
415.374	1265.5
415.597	1249.5
415.821	1230.5
416.044	1231.5
416.267	1209.5
416.49	1217.5
416.713	1221.5
416.936	1241.5
417.159	1208.5
417.382	1241.5
417.605	1204.5
417.828	1253.5
418.051	1223.5
418.274	1240.5
418.497	1238.5
418.72	1262.5
418.943	1226.5
419.166	1329.5
419.389	1358.5
419.611	1330.5
419.834	1284.5
420.057	1251.5
420.28	1277.5
420.503	1236.5
420.726	1212.5
420.948	1214.5
421.171	1195.5
421.394	1248.5
421.617	1236.5
421.839	1268.5
422.062	1250.5
422.285	1211.5
422.507	1284.5
422.73	1243.5
422.953	1259.5
423.175	1275.5
423.398	1252.5
423.621	1256.5
423.843	1282.5
424.066	1277.5
424.288	1261.5
424.511	1226.5
424.733	1238.5
424.956	1226.5
425.178	1218.5
425.401	1242.5
425.623	1236.5
425.846	1237.5
426.068	1242.5
426.291	1181.5
426.513	1215.5
426.735	1186.5
426.958	1193.5
427.18	1160.5
427.402	1194.5
427.625	1193.5
427.847	1148.5
428.069	1128.5
428.292	1156.5
428.514	1159.5
428.736	1154.5
428.958	1167.5
429.181	1115.5
429.403	1119.5
429.625	1138.5
429.847	1134.5
430.069	1145.5
430.292	1210.5
430.514	1211.5
430.736	1203.5
430.958	1170.5
431.18	1157.5
431.402	1166.5
431.624	1111.5
431.846	1125.5
432.068	1117.5
432.29	1114.5
432.512	1122.5
432.734	1147.5
432.956	1137.5
433.178	1170.5
433.4	1148.5
433.622	1146.5
433.844	1151.5
434.066	1129.5
434.287	1120.5
434.509	1141.5
434.731	1145.5
434.953	1139.5
435.175	1198.5
435.397	1190.5
435.618	1133.5
435.84	1138.5
436.062	1102.5
436.284	1142.5
436.505	1105.5
436.727	1124.5
436.949	1136.5
437.17	1137.5
437.392	1098.5
437.614	1106.5
437.835	1077.5
438.057	1087.5
438.278	1097.5
438.5	1096.5
438.721	1127.5
438.943	1160.5
439.165	1176.5
439.386	1181.5
439.608	1138.5
439.829	1167.5
440.05	1249.5
440.272	1235.5
440.493	1179.5
440.715	1203.5
440.936	1163.5
441.158	1198.5
441.379	1214.5
441.6	1225.5
441.822	1220.5
442.043	1326.5
442.264	1312.5
442.486	1288.5
442.707	1243.5
442.928	1195.5
443.149	1231.5
443.371	1221.5
443.592	1219.5
443.813	1241.5
444.034	1235.5
444.255	1254.5
444.476	1252.5
444.698	1289.5
444.919	1330.5
445.14	1396.5
445.361	1330.5
445.582	1262.5
445.803	1242.5
446.024	1207.5
446.245	1243.5
446.466	1230.5
446.687	1194.5
446.908	1192.5
447.129	1133.5
447.35	1175.5
447.571	1150.5
447.792	1113.5
448.013	1109.5
448.234	1106.5
448.455	1105.5
448.675	1152.5
448.896	1124.5
449.117	1183.5
449.338	1275.5
449.559	1323.5
449.779	1179.5
450	1103.5
450.221	1096.5
450.442	1116.5
450.662	1090.5
450.883	1102.5
451.104	1079.5
451.324	1083.5
451.545	1054.5
451.766	1081.5
451.986	1125.5
452.207	1145.5
452.428	1379.5
452.648	1848.5
452.869	1596.5
453.089	1220.5
453.31	1190.5
453.53	1185.5
453.751	1185.5
453.971	1282.5
454.192	1245.5
454.412	1124.5
454.633	1065.5
454.853	1070.5
455.073	1065.5
455.294	1061.5
455.514	1043.5
455.734	1047.5
455.955	1023.5
456.175	1023.5
456.395	1014.5
456.616	1050.5
456.836	1047.5
457.056	1073.5
457.276	1034.5
457.497	1099.5
457.717	1112.5
457.937	1065.5
458.157	1105.5
458.377	1096.5
458.598	1097.5
458.818	1125.5
459.038	1058.5
459.258	1128.5
459.478	1130.5
459.698	1119.5
459.918	1129.5
460.138	1154.5
460.358	1193.5
460.578	1204.5
460.798	1235.5
461.018	1231.5
461.238	1189.5
461.458	1254.5
461.678	1211.5
461.898	1286.5
462.118	1248.5
462.338	1307.5
462.558	1287.5
462.777	1360.5
462.997	1411.5
463.217	1442.5
463.437	1472.5
463.657	1478.5
463.876	1442.5
464.096	1392.5
464.316	1341.5
464.536	1325.5
464.755	1304.5
464.975	1282.5
465.195	1257.5
465.414	1224.5
465.634	1142.5
465.854	1175.5
466.073	1158.5
466.293	1141.5
466.512	1119.5
466.732	1157.5
466.951	1198.5
467.171	1244.5
467.391	1236.5
467.61	1169.5
467.829	1139.5
468.049	1140.5
468.268	1127.5
468.488	1130.5
468.707	1113.5
468.927	1095.5
469.146	1081.5
469.365	1126.5
469.585	1175.5
469.804	1150.5
470.023	1155.5
470.243	1167.5
470.462	1217.5
470.681	1264.5
470.901	1363.5
471.12	1521.5
471.339	1565.5
471.558	1305.5
471.777	1219.5
471.997	1175.5
472.216	1138.5
472.435	1157.5
472.654	1103.5
472.873	1113.5
473.092	1147.5
473.311	1115.5
473.53	1122.5
473.749	1146.5
473.968	1171.5
474.187	1127.5
474.406	1117.5
474.625	1147.5
474.844	1135.5
475.063	1143.5
475.282	1151.5
475.501	1150.5
475.72	1161.5
475.939	1130.5
476.158	1172.5
476.377	1185.5
476.596	1169.5
476.814	1154.5
477.033	1141.5
477.252	1176.5
477.471	1207.5
477.69	1248.5
477.908	1249.5
478.127	1248.5
478.346	1257.5
478.564	1309.5
478.783	1316.5
479.002	1329.5
479.22	1333.5
479.439	1309.5
479.658	1345.5
479.876	1312.5
480.095	1315.5
480.313	1354.5
480.532	1371.5
480.751	1348.5
480.969	1339.5
481.188	1316.5
481.406	1357.5
481.624	1306.5
481.843	1326.5
482.061	1350.5
482.28	1323.5
482.498	1327.5
482.717	1326.5
482.935	1341.5
483.153	1390.5
483.372	1381.5
483.59	1420.5
483.808	1411.5
484.027	1448.5
484.245	1489.5
484.463	1623.5
484.681	1797.5
484.9	1681.5
485.118	1555.5
485.336	1543.5
485.554	1537.5
485.772	1621.5
485.99	1833.5
486.209	1958.5
486.427	1681.5
486.645	1517.5
486.863	1455.5
487.081	1457.5
487.299	1429.5
487.517	1409.5
487.735	1431.5
487.953	1497.5
488.171	1455.5
488.389	1423.5
488.607	1415.5
488.825	1416.5
489.043	1376.5
489.261	1374.5
489.479	1370.5
489.696	1377.5
489.914	1402.5
490.132	1408.5
490.35	1416.5
490.568	1403.5
490.786	1466.5
491.003	1430.5
491.221	1438.5
491.439	1479.5
491.657	1455.5
491.874	1455.5
492.092	1504.5
492.31	1535.5
492.527	1511.5
492.745	1531.5
492.963	1509.5
493.18	1486.5
493.398	1500.5
493.615	1490.5
493.833	1498.5
494.05	1499.5
494.268	1480.5
494.485	1485.5
494.703	1438.5
494.92	1498.5
495.138	1473.5
495.355	1474.5
495.573	1489.5
495.79	1480.5
496.008	1491.5
496.225	1465.5
496.442	1493.5
496.66	1553.5
496.877	1589.5
497.094	1643.5
497.312	1562.5
497.529	1592.5
497.746	1621.5
497.963	1635.5
498.181	1651.5
498.398	1659.5
498.615	1717.5
498.832	1793.5
499.049	1826.5
499.267	1971.5
499.484	2100.5
499.701	2142.5
499.918	2192.5
500.135	2353.5
500.352	2474.5
500.569	2500.5
500.786	2502.5
501.003	2440.5
501.22	2312.5
501.437	2157.5
501.654	2059.5
501.871	1973.5
502.088	1897.5
502.305	1787.5
502.522	1718.5
502.739	1708.5
502.956	1654.5
503.172	1617.5
503.389	1592.5
503.606	1582.5
503.823	1531.5
504.04	1512.5
504.256	1531.5
504.473	1569.5
504.69	1525.5
504.907	1487.5
505.123	1447.5
505.34	1433.5
505.557	1394.5
505.773	1407.5
505.99	1350.5
506.207	1359.5
506.423	1319.5
506.64	1351.5
506.856	1302.5
507.073	1309.5
507.289	1312.5
