Data from SnStandardFlinnAPT0064_QswitchEnergy10_LIBS07252019.E.O._I.C._HRD10591_15-26-05-973.txt Node
Date: Thu Jul 25 15:26:05 EDT 2019
User: cochatt
Spectrometer: HR+D1059
Trigger mode: 1
Integration Time (sec): 1.000000E-1
Scans to average: 1
Electric dark correction enabled: true
Nonlinearity correction enabled: false
Boxcar width: 0
XAxis mode: Wavelengths
Number of Pixels in Spectrum: 2048
>>>>>Begin Spectral Data<<<<<
223.165	-19.19
223.4	-19.19
223.635	-19.19
223.869	-27.19
224.104	-19.19
224.338	-7.19
224.573	-20.19
224.808	-14.19
225.042	-6.19
225.277	-9.19
225.511	-3.19
225.746	6.81
225.98	21.81
226.215	17.81
226.449	16.81
226.683	19.81
226.918	15.81
227.152	26.81
227.387	18.81
227.621	34.81
227.856	41.81
228.09	38.81
228.324	48.81
228.559	57.81
228.793	77.81
229.027	75.81
229.262	65.81
229.496	66.81
229.73	69.81
229.964	87.81
230.199	86.81
230.433	58.81
230.667	74.81
230.901	70.81
231.136	85.81
231.37	78.81
231.604	73.81
231.838	92.81
232.072	114.81
232.306	126.81
232.541	81.81
232.775	85.81
233.009	70.81
233.243	82.81
233.477	85.81
233.711	83.81
233.945	100.81
234.179	92.81
234.413	76.81
234.647	84.81
234.881	80.81
235.115	85.81
235.349	86.81
235.583	98.81
235.817	131.81
236.051	134.81
236.285	83.81
236.519	90.81
236.753	70.81
236.987	89.81
237.221	87.81
237.455	68.81
237.689	84.81
237.922	62.81
238.156	83.81
238.39	79.81
238.624	86.81
238.858	69.81
239.091	77.81
239.325	84.81
239.559	76.81
239.793	69.81
240.027	71.81
240.26	78.81
240.494	74.81
240.728	67.81
240.961	83.81
241.195	86.81
241.429	85.81
241.662	79.81
241.896	80.81
242.13	89.81
242.363	129.81
242.597	154.81
242.83	126.81
243.064	121.81
243.298	174.81
243.531	162.81
243.765	100.81
243.998	75.81
244.232	75.81
244.465	88.81
244.699	71.81
244.932	80.81
245.166	66.81
245.399	86.81
245.633	66.81
245.866	68.81
246.099	75.81
246.333	73.81
246.566	78.81
246.8	86.81
247.033	81.81
247.266	79.81
247.5	81.81
247.733	89.81
247.966	77.81
248.2	90.81
248.433	94.81
248.666	131.81
248.899	93.81
249.133	96.81
249.366	96.81
249.599	108.81
249.832	116.81
250.066	120.81
250.299	78.81
250.532	84.81
250.765	69.81
250.998	84.81
251.231	77.81
251.465	69.81
251.698	82.81
251.931	83.81
252.164	70.81
252.397	86.81
252.63	86.81
252.863	85.81
253.096	99.81
253.329	89.81
253.562	81.81
253.795	88.81
254.028	80.81
254.261	79.81
254.494	94.81
254.727	102.81
254.96	129.81
255.193	134.81
255.426	104.81
255.659	78.81
255.892	94.81
256.124	89.81
256.357	81.81
256.59	82.81
256.823	90.81
257.056	99.81
257.289	139.81
257.521	165.81
257.754	113.81
257.987	81.81
258.22	96.81
258.452	70.81
258.685	81.81
258.918	79.81
259.151	96.81
259.383	110.81
259.616	125.81
259.849	145.81
260.081	113.81
260.314	71.81
260.547	75.81
260.779	81.81
261.012	91.81
261.244	70.81
261.477	80.81
261.71	67.81
261.942	85.81
262.175	75.81
262.407	81.81
262.64	66.81
262.872	73.81
263.105	70.81
263.337	67.81
263.57	91.81
263.802	82.81
264.035	76.81
264.267	62.81
264.499	90.81
264.732	79.81
264.964	94.81
265.197	72.81
265.429	76.81
265.661	84.81
265.894	87.81
266.126	111.81
266.358	156.81
266.591	147.81
266.823	108.81
267.055	75.81
267.287	79.81
267.52	76.81
267.752	86.81
267.984	95.81
268.216	76.81
268.448	86.81
268.681	80.81
268.913	79.81
269.145	89.81
269.377	75.81
269.609	71.81
269.841	97.81
270.073	84.81
270.306	113.81
270.538	177.81
270.77	286.81
271.002	349.81
271.234	184.81
271.466	122.81
271.698	80.81
271.93	88.81
272.162	83.81
272.394	78.81
272.626	80.81
272.858	90.81
273.09	73.81
273.322	85.81
273.553	83.81
273.785	71.81
274.017	71.81
274.249	83.81
274.481	88.81
274.713	79.81
274.945	95.81
275.176	85.81
275.408	85.81
275.64	90.81
275.872	84.81
276.104	95.81
276.335	95.81
276.567	98.81
276.799	79.81
277.031	85.81
277.262	90.81
277.494	108.81
277.726	130.81
277.957	164.81
278.189	254.81
278.421	226.81
278.652	201.81
278.884	198.81
279.115	136.81
279.347	110.81
279.579	82.81
279.81	93.81
280.042	100.81
280.273	100.81
280.505	102.81
280.736	97.81
280.968	104.81
281.199	170.81
281.431	239.81
281.662	274.81
281.894	155.81
282.125	101.81
282.356	87.81
282.588	108.81
282.819	113.81
283.051	108.81
283.282	125.81
283.513	167.81
283.745	318.81
283.976	519.81
284.207	754.81
284.439	576.81
284.67	249.81
284.901	242.81
285.132	306.81
285.364	383.81
285.595	221.81
285.826	163.81
286.057	232.81
286.288	382.81
286.52	601.81
286.751	475.81
286.982	198.81
287.213	131.81
287.444	100.81
287.675	106.81
287.906	97.81
288.138	97.81
288.369	86.81
288.6	88.81
288.831	96.81
289.062	99.81
289.293	88.81
289.524	82.81
289.755	105.81
289.986	87.81
290.217	80.81
290.448	90.81
290.679	111.81
290.91	108.81
291.141	152.81
291.371	235.81
291.602	284.81
291.833	195.81
292.064	104.81
292.295	86.81
292.526	94.81
292.757	81.81
292.987	89.81
293.218	77.81
293.449	93.81
293.68	98.81
293.91	94.81
294.141	91.81
294.372	108.81
294.603	84.81
294.833	87.81
295.064	91.81
295.295	91.81
295.525	89.81
295.756	87.81
295.987	84.81
296.217	81.81
296.448	113.81
296.679	92.81
296.909	84.81
297.14	106.81
297.37	84.81
297.601	98.81
297.831	82.81
298.062	75.81
298.292	98.81
298.523	95.81
298.753	101.81
298.984	106.81
299.214	97.81
299.445	93.81
299.675	106.81
299.905	97.81
300.136	113.81
300.366	157.81
300.597	257.81
300.827	432.81
301.057	664.81
301.288	613.81
301.518	245.81
301.748	148.81
301.979	115.81
302.209	122.81
302.439	129.81
302.669	162.81
302.9	264.81
303.13	488.81
303.36	884.81
303.59	1223.81
303.82	802.81
304.051	286.81
304.281	133.81
304.511	120.81
304.741	114.81
304.971	111.81
305.201	107.81
305.431	106.81
305.661	100.81
305.891	90.81
306.121	101.81
306.352	112.81
306.582	106.81
306.812	108.81
307.042	102.81
307.272	103.81
307.502	94.81
307.731	101.81
307.961	91.81
308.191	90.81
308.421	88.81
308.651	104.81
308.881	93.81
309.111	101.81
309.341	93.81
309.571	100.81
309.8	104.81
310.03	110.81
310.26	111.81
310.49	103.81
310.72	106.81
310.949	94.81
311.179	105.81
311.409	88.81
311.639	93.81
311.868	102.81
312.098	96.81
312.328	106.81
312.557	117.81
312.787	116.81
313.017	110.81
313.246	111.81
313.476	116.81
313.706	121.81
313.935	150.81
314.165	182.81
314.394	245.81
314.624	173.81
314.853	129.81
315.083	113.81
315.312	121.81
315.542	132.81
315.771	130.81
316.001	138.81
316.23	131.81
316.46	148.81
316.689	173.81
316.919	267.81
317.148	466.81
317.377	861.81
317.607	1448.81
317.836	1328.81
318.065	511.81
318.295	216.81
318.524	146.81
318.753	135.81
318.983	125.81
319.212	104.81
319.441	110.81
319.67	114.81
319.9	86.81
320.129	111.81
320.358	116.81
320.587	109.81
320.816	133.81
321.046	127.81
321.275	123.81
321.504	127.81
321.733	141.81
321.962	162.81
322.191	146.81
322.42	129.81
322.649	120.81
322.878	126.81
323.108	130.81
323.337	120.81
323.566	116.81
323.795	110.81
324.024	129.81
324.253	130.81
324.482	168.81
324.71	221.81
324.939	282.81
325.168	228.81
325.397	170.81
325.626	252.81
325.855	471.81
326.084	901.81
326.313	1539.81
326.542	1514.81
326.77	609.81
326.999	270.81
327.228	206.81
327.457	218.81
327.686	233.81
327.914	141.81
328.143	129.81
328.372	128.81
328.6	118.81
328.829	122.81
329.058	96.81
329.287	109.81
329.515	120.81
329.744	112.81
329.972	120.81
330.201	110.81
330.43	101.81
330.658	99.81
330.887	114.81
331.115	109.81
331.344	113.81
331.572	126.81
331.801	120.81
332.03	124.81
332.258	121.81
332.486	148.81
332.715	274.81
332.943	479.81
333.172	727.81
333.4	645.81
333.629	250.81
333.857	132.81
334.085	121.81
334.314	115.81
334.542	112.81
334.771	125.81
334.999	120.81
335.227	103.81
335.455	117.81
335.684	116.81
335.912	114.81
336.14	110.81
336.369	107.81
336.597	111.81
336.825	109.81
337.053	124.81
337.281	97.81
337.51	105.81
337.738	105.81
337.966	113.81
338.194	117.81
338.422	99.81
338.65	106.81
338.878	100.81
339.106	106.81
339.334	112.81
339.562	121.81
339.79	117.81
340.018	107.81
340.246	113.81
340.474	100.81
340.702	96.81
340.93	115.81
341.158	109.81
341.386	120.81
341.614	115.81
341.842	99.81
342.07	107.81
342.298	107.81
342.526	107.81
342.754	100.81
342.981	120.81
343.209	100.81
343.437	96.81
343.665	107.81
343.893	100.81
344.12	101.81
344.348	106.81
344.576	112.81
344.804	116.81
345.031	113.81
345.259	91.81
345.487	102.81
345.714	101.81
345.942	99.81
346.17	101.81
346.397	99.81
346.625	92.81
346.853	88.81
347.08	106.81
347.308	114.81
347.535	96.81
347.763	97.81
347.99	98.81
348.218	108.81
348.445	97.81
348.673	113.81
348.9	106.81
349.128	133.81
349.355	111.81
349.583	109.81
349.81	126.81
350.037	119.81
350.265	91.81
350.492	106.81
350.72	114.81
350.947	101.81
351.174	120.81
351.402	107.81
351.629	110.81
351.856	100.81
352.083	100.81
352.311	101.81
352.538	112.81
352.765	112.81
352.992	101.81
353.22	87.81
353.447	109.81
353.674	102.81
353.901	92.81
354.128	92.81
354.355	107.81
354.583	98.81
354.81	82.81
355.037	118.81
355.264	86.81
355.491	97.81
355.718	106.81
355.945	92.81
356.172	89.81
356.399	109.81
356.626	107.81
356.853	102.81
357.08	123.81
357.307	104.81
357.534	106.81
357.761	81.81
357.988	107.81
358.215	102.81
358.441	108.81
358.668	105.81
358.895	118.81
359.122	107.81
359.349	117.81
359.576	109.81
359.802	104.81
360.029	115.81
360.256	106.81
360.483	94.81
360.709	104.81
360.936	95.81
361.163	108.81
361.39	109.81
361.616	109.81
361.843	101.81
362.07	106.81
362.296	111.81
362.523	111.81
362.749	85.81
362.976	94.81
363.203	111.81
363.429	104.81
363.656	111.81
363.882	120.81
364.109	118.81
364.335	106.81
364.562	98.81
364.788	89.81
365.015	121.81
365.241	138.81
365.468	170.81
365.694	251.81
365.92	221.81
366.147	124.81
366.373	92.81
366.599	90.81
366.826	93.81
367.052	88.81
367.278	92.81
367.505	96.81
367.731	110.81
367.957	99.81
368.184	105.81
368.41	104.81
368.636	113.81
368.862	90.81
369.089	104.81
369.315	82.81
369.541	98.81
369.767	99.81
369.993	105.81
370.219	113.81
370.445	108.81
370.672	97.81
370.898	87.81
371.124	111.81
371.35	94.81
371.576	97.81
371.802	99.81
372.028	104.81
372.254	99.81
372.48	98.81
372.706	91.81
372.932	97.81
373.158	125.81
373.384	129.81
373.61	114.81
373.835	123.81
374.061	107.81
374.287	107.81
374.513	113.81
374.739	116.81
374.965	104.81
375.191	106.81
375.416	111.81
375.642	100.81
375.868	94.81
376.094	95.81
376.319	85.81
376.545	97.81
376.771	90.81
376.997	101.81
377.222	106.81
377.448	97.81
377.674	95.81
377.899	113.81
378.125	86.81
378.35	104.81
378.576	103.81
378.802	118.81
379.027	117.81
379.253	137.81
379.478	178.81
379.704	306.81
379.929	749.81
380.155	1505.81
380.38	1584.81
380.606	514.81
380.831	179.81
381.057	135.81
381.282	113.81
381.507	116.81
381.733	102.81
381.958	101.81
382.184	97.81
382.409	104.81
382.634	112.81
382.86	113.81
383.085	112.81
383.31	97.81
383.535	104.81
383.761	102.81
383.986	99.81
384.211	109.81
384.436	92.81
384.662	84.81
384.887	104.81
385.112	104.81
385.337	92.81
385.562	98.81
385.787	109.81
386.013	112.81
386.238	93.81
386.463	99.81
386.688	101.81
386.913	114.81
387.138	106.81
387.363	94.81
387.588	88.81
387.813	72.81
388.038	83.81
388.263	95.81
388.488	99.81
388.713	92.81
388.938	98.81
389.163	97.81
389.387	100.81
389.612	95.81
389.837	73.81
390.062	90.81
390.287	91.81
390.512	101.81
390.736	100.81
390.961	97.81
391.186	94.81
391.411	89.81
391.636	99.81
391.86	102.81
392.085	98.81
392.31	100.81
392.534	94.81
392.759	101.81
392.984	104.81
393.208	117.81
393.433	129.81
393.658	130.81
393.882	95.81
394.107	85.81
394.331	86.81
394.556	102.81
394.78	97.81
395.005	99.81
395.229	95.81
395.454	83.81
395.678	93.81
395.903	92.81
396.127	79.81
396.352	101.81
396.576	89.81
396.801	111.81
397.025	111.81
397.249	97.81
397.474	89.81
397.698	98.81
397.922	88.81
398.147	92.81
398.371	97.81
398.595	93.81
398.82	99.81
399.044	88.81
399.268	88.81
399.492	95.81
399.717	93.81
399.941	94.81
400.165	89.81
400.389	102.81
400.613	94.81
400.837	79.81
401.062	85.81
401.286	93.81
401.51	95.81
401.734	95.81
401.958	92.81
402.182	99.81
402.406	93.81
402.63	95.81
402.854	93.81
403.078	94.81
403.302	91.81
403.526	94.81
403.75	88.81
403.974	96.81
404.198	107.81
404.422	97.81
404.645	89.81
404.869	95.81
405.093	88.81
405.317	91.81
405.541	101.81
405.765	136.81
405.988	135.81
406.212	109.81
406.436	92.81
406.66	98.81
406.883	96.81
407.107	99.81
407.331	89.81
407.555	92.81
407.778	87.81
408.002	85.81
408.226	88.81
408.449	100.81
408.673	95.81
408.896	92.81
409.12	101.81
409.344	104.81
409.567	93.81
409.791	102.81
410.014	105.81
410.238	90.81
410.461	100.81
410.685	90.81
410.908	83.81
411.132	100.81
411.355	91.81
411.578	83.81
411.802	115.81
412.025	93.81
412.249	91.81
412.472	89.81
412.695	87.81
412.919	99.81
413.142	93.81
413.365	93.81
413.589	93.81
413.812	89.81
414.035	102.81
414.258	93.81
414.482	93.81
414.705	96.81
414.928	91.81
415.151	85.81
415.374	96.81
415.597	90.81
415.821	106.81
416.044	101.81
416.267	93.81
416.49	97.81
416.713	92.81
416.936	95.81
417.159	87.81
417.382	88.81
417.605	88.81
417.828	88.81
418.051	95.81
418.274	83.81
418.497	101.81
418.72	101.81
418.943	89.81
419.166	100.81
419.389	100.81
419.611	101.81
419.834	86.81
420.057	104.81
420.28	102.81
420.503	110.81
420.726	110.81
420.948	94.81
421.171	82.81
421.394	91.81
421.617	97.81
421.839	88.81
422.062	90.81
422.285	104.81
422.507	120.81
422.73	117.81
422.953	128.81
423.175	111.81
423.398	88.81
423.621	89.81
423.843	84.81
424.066	106.81
424.288	84.81
424.511	95.81
424.733	90.81
424.956	89.81
425.178	91.81
425.401	92.81
425.623	89.81
425.846	75.81
426.068	93.81
426.291	89.81
426.513	92.81
426.735	105.81
426.958	87.81
427.18	89.81
427.402	98.81
427.625	93.81
427.847	79.81
428.069	82.81
428.292	90.81
428.514	114.81
428.736	94.81
428.958	80.81
429.181	89.81
429.403	88.81
429.625	90.81
429.847	100.81
430.069	98.81
430.292	108.81
430.514	91.81
430.736	105.81
430.958	81.81
431.18	85.81
431.402	96.81
431.624	95.81
431.846	94.81
432.068	82.81
432.29	82.81
432.512	98.81
432.734	90.81
432.956	89.81
433.178	75.81
433.4	79.81
433.622	88.81
433.844	92.81
434.066	91.81
434.287	96.81
434.509	82.81
434.731	91.81
434.953	84.81
435.175	89.81
435.397	91.81
435.618	93.81
435.84	86.81
436.062	78.81
436.284	88.81
436.505	97.81
436.727	97.81
436.949	99.81
437.17	88.81
437.392	87.81
437.614	80.81
437.835	89.81
438.057	82.81
438.278	88.81
438.5	90.81
438.721	86.81
438.943	91.81
439.165	98.81
439.386	100.81
439.608	97.81
439.829	89.81
440.05	119.81
440.272	114.81
440.493	95.81
440.715	99.81
440.936	93.81
441.158	101.81
441.379	95.81
441.6	97.81
441.822	96.81
442.043	117.81
442.264	117.81
442.486	127.81
442.707	100.81
442.928	82.81
443.149	99.81
443.371	87.81
443.592	87.81
443.813	81.81
444.034	86.81
444.255	104.81
444.476	75.81
444.698	96.81
444.919	94.81
445.14	217.81
445.361	148.81
445.582	99.81
445.803	107.81
446.024	100.81
446.245	86.81
446.466	89.81
446.687	108.81
446.908	97.81
447.129	72.81
447.35	85.81
447.571	94.81
447.792	80.81
448.013	77.81
448.234	74.81
448.455	93.81
448.675	97.81
448.896	103.81
449.117	112.81
449.338	125.81
449.559	146.81
449.779	108.81
450	100.81
450.221	112.81
450.442	95.81
450.662	120.81
450.883	113.81
451.104	118.81
451.324	114.81
451.545	113.81
451.766	107.81
451.986	135.81
452.207	211.81
452.428	543.81
452.648	1388.81
452.869	788.81
453.089	194.81
453.31	114.81
453.53	122.81
453.751	154.81
453.971	156.81
454.192	151.81
454.412	112.81
454.633	86.81
454.853	98.81
455.073	92.81
455.294	78.81
455.514	92.81
455.734	97.81
455.955	108.81
456.175	88.81
456.395	89.81
456.616	97.81
456.836	87.81
457.056	94.81
457.276	97.81
457.497	99.81
457.717	104.81
457.937	88.81
458.157	89.81
458.377	83.81
458.598	84.81
458.818	81.81
459.038	79.81
459.258	85.81
459.478	78.81
459.698	86.81
459.918	79.81
460.138	80.81
460.358	93.81
460.578	92.81
460.798	97.81
461.018	84.81
461.238	81.81
461.458	88.81
461.678	97.81
461.898	85.81
462.118	101.81
462.338	88.81
462.558	80.81
462.777	81.81
462.997	84.81
463.217	88.81
463.437	131.81
463.657	163.81
463.876	180.81
464.096	124.81
464.316	90.81
464.536	90.81
464.755	100.81
464.975	97.81
465.195	86.81
465.414	71.81
465.634	91.81
465.854	83.81
466.073	78.81
466.293	90.81
466.512	86.81
466.732	98.81
466.951	117.81
467.171	152.81
467.391	118.81
467.61	112.81
467.829	96.81
468.049	96.81
468.268	100.81
468.488	78.81
468.707	93.81
468.927	105.81
469.146	86.81
469.365	95.81
469.585	80.81
469.804	92.81
470.023	93.81
470.243	97.81
470.462	99.81
470.681	92.81
470.901	140.81
471.12	180.81
471.339	201.81
471.558	139.81
471.777	97.81
471.997	90.81
472.216	94.81
472.435	87.81
472.654	84.81
472.873	89.81
473.092	95.81
473.311	101.81
473.53	95.81
473.749	86.81
473.968	84.81
474.187	85.81
474.406	91.81
474.625	88.81
474.844	105.81
475.063	107.81
475.282	100.81
475.501	85.81
475.72	84.81
475.939	99.81
476.158	98.81
476.377	100.81
476.596	98.81
476.814	98.81
477.033	81.81
477.252	81.81
477.471	104.81
477.69	97.81
477.908	92.81
478.127	89.81
478.346	93.81
478.564	90.81
478.783	80.81
479.002	88.81
479.22	82.81
479.439	99.81
479.658	91.81
479.876	92.81
480.095	91.81
480.313	97.81
480.532	90.81
480.751	86.81
480.969	94.81
481.188	80.81
481.406	94.81
481.624	92.81
481.843	110.81
482.061	129.81
482.28	92.81
482.498	106.81
482.717	86.81
482.935	104.81
483.153	99.81
483.372	90.81
483.59	99.81
483.808	100.81
484.027	106.81
484.245	121.81
484.463	179.81
484.681	216.81
484.9	134.81
485.118	104.81
485.336	109.81
485.554	128.81
485.772	122.81
485.99	179.81
486.209	252.81
486.427	173.81
486.645	113.81
486.863	102.81
487.081	101.81
487.299	95.81
487.517	110.81
487.735	111.81
487.953	95.81
488.171	99.81
488.389	99.81
488.607	87.81
488.825	106.81
489.043	98.81
489.261	102.81
489.479	92.81
489.696	97.81
489.914	104.81
490.132	86.81
490.35	94.81
490.568	89.81
490.786	82.81
491.003	92.81
491.221	110.81
491.439	90.81
491.657	90.81
491.874	97.81
492.092	94.81
492.31	104.81
492.527	106.81
492.745	107.81
492.963	98.81
493.18	101.81
493.398	107.81
493.615	105.81
493.833	100.81
494.05	98.81
494.268	92.81
494.485	85.81
494.703	107.81
494.92	84.81
495.138	102.81
495.355	90.81
495.573	96.81
495.79	93.81
496.008	106.81
496.225	86.81
496.442	96.81
496.66	105.81
496.877	148.81
497.094	148.81
497.312	114.81
497.529	107.81
497.746	95.81
497.963	114.81
498.181	98.81
498.398	103.81
498.615	91.81
498.832	108.81
499.049	115.81
499.267	123.81
499.484	162.81
499.701	122.81
499.918	97.81
500.135	93.81
500.352	102.81
500.569	84.81
500.786	106.81
501.003	93.81
501.22	102.81
501.437	104.81
501.654	104.81
501.871	82.81
502.088	84.81
502.305	82.81
502.522	94.81
502.739	96.81
502.956	95.81
503.172	107.81
503.389	93.81
503.606	88.81
503.823	104.81
504.04	93.81
504.256	101.81
504.473	86.81
504.69	100.81
504.907	100.81
505.123	123.81
505.34	109.81
505.557	92.81
505.773	108.81
505.99	97.81
506.207	84.81
506.423	93.81
506.64	111.81
506.856	106.81
507.073	86.81
507.289	114.81
507.506	102.81
507.722	79.81
507.939	94.81
508.155	84.81
508.372	97.81
508.588	91.81
508.805	92.81
509.021	102.81
509.238	110.81
509.454	141.81
509.67	148.81
509.887	106.81
510.103	98.81
510.319	90.81
510.536	103.81
510.752	110.81
510.968	96.81
