Data from SnStandardFlinnAPT0064_QswitchEnergy10_LIBS07252019.E.O._I.C._HRD10591_15-26-09-973.txt Node
Date: Thu Jul 25 15:26:09 EDT 2019
User: cochatt
Spectrometer: HR+D1059
Trigger mode: 1
Integration Time (sec): 1.000000E-1
Scans to average: 1
Electric dark correction enabled: true
Nonlinearity correction enabled: false
Boxcar width: 0
XAxis mode: Wavelengths
Number of Pixels in Spectrum: 2048
>>>>>Begin Spectral Data<<<<<
223.165	-8.56
223.4	-8.56
223.635	-8.56
223.869	-12.56
224.104	-7.56
224.338	-22.56
224.573	-16.56
224.808	-17.56
225.042	0.44
225.277	-1.56
225.511	12.44
225.746	-6.56
225.98	9.44
226.215	-3.56
226.449	21.44
226.683	15.44
226.918	23.44
227.152	14.44
227.387	24.44
227.621	43.44
227.856	55.44
228.09	42.44
228.324	57.44
228.559	65.44
228.793	52.44
229.027	65.44
229.262	61.44
229.496	70.44
229.73	72.44
229.964	77.44
230.199	76.44
230.433	64.44
230.667	90.44
230.901	84.44
231.136	87.44
231.37	96.44
231.604	91.44
231.838	93.44
232.072	113.44
232.306	112.44
232.541	91.44
232.775	84.44
233.009	99.44
233.243	93.44
233.477	109.44
233.711	112.44
233.945	112.44
234.179	90.44
234.413	76.44
234.647	82.44
234.881	78.44
235.115	72.44
235.349	82.44
235.583	98.44
235.817	120.44
236.051	131.44
236.285	88.44
236.519	82.44
236.753	83.44
236.987	77.44
237.221	89.44
237.455	82.44
237.689	76.44
237.922	77.44
238.156	78.44
238.39	83.44
238.624	95.44
238.858	73.44
239.091	84.44
239.325	90.44
239.559	72.44
239.793	91.44
240.027	99.44
240.26	83.44
240.494	94.44
240.728	79.44
240.961	73.44
241.195	84.44
241.429	89.44
241.662	82.44
241.896	86.44
242.13	102.44
242.363	142.44
242.597	157.44
242.83	132.44
243.064	123.44
243.298	179.44
243.531	130.44
243.765	92.44
243.998	98.44
244.232	88.44
244.465	91.44
244.699	92.44
244.932	81.44
245.166	83.44
245.399	70.44
245.633	86.44
245.866	83.44
246.099	97.44
246.333	86.44
246.566	81.44
246.8	93.44
247.033	97.44
247.266	86.44
247.5	109.44
247.733	97.44
247.966	60.44
248.2	88.44
248.433	117.44
248.666	126.44
248.899	116.44
249.133	69.44
249.366	93.44
249.599	123.44
249.832	114.44
250.066	108.44
250.299	100.44
250.532	97.44
250.765	86.44
250.998	90.44
251.231	82.44
251.465	84.44
251.698	83.44
251.931	69.44
252.164	95.44
252.397	86.44
252.63	95.44
252.863	106.44
253.096	99.44
253.329	104.44
253.562	92.44
253.795	99.44
254.028	97.44
254.261	81.44
254.494	101.44
254.727	138.44
254.96	142.44
255.193	126.44
255.426	100.44
255.659	95.44
255.892	99.44
256.124	102.44
256.357	98.44
256.59	93.44
256.823	85.44
257.056	108.44
257.289	140.44
257.521	158.44
257.754	119.44
257.987	98.44
258.22	86.44
258.452	102.44
258.685	77.44
258.918	85.44
259.151	70.44
259.383	115.44
259.616	128.44
259.849	159.44
260.081	121.44
260.314	82.44
260.547	82.44
260.779	90.44
261.012	89.44
261.244	94.44
261.477	96.44
261.71	93.44
261.942	92.44
262.175	72.44
262.407	81.44
262.64	76.44
262.872	77.44
263.105	87.44
263.337	71.44
263.57	85.44
263.802	88.44
264.035	97.44
264.267	95.44
264.499	93.44
264.732	91.44
264.964	100.44
265.197	94.44
265.429	95.44
265.661	101.44
265.894	91.44
266.126	125.44
266.358	156.44
266.591	137.44
266.823	100.44
267.055	74.44
267.287	90.44
267.52	103.44
267.752	75.44
267.984	96.44
268.216	88.44
268.448	89.44
268.681	81.44
268.913	89.44
269.145	86.44
269.377	98.44
269.609	101.44
269.841	95.44
270.073	100.44
270.306	140.44
270.538	184.44
270.77	286.44
271.002	354.44
271.234	192.44
271.466	112.44
271.698	73.44
271.93	82.44
272.162	86.44
272.394	103.44
272.626	75.44
272.858	95.44
273.09	84.44
273.322	78.44
273.553	84.44
273.785	92.44
274.017	95.44
274.249	88.44
274.481	84.44
274.713	89.44
274.945	78.44
275.176	79.44
275.408	88.44
275.64	100.44
275.872	98.44
276.104	101.44
276.335	109.44
276.567	96.44
276.799	93.44
277.031	92.44
277.262	96.44
277.494	100.44
277.726	136.44
277.957	166.44
278.189	228.44
278.421	225.44
278.652	184.44
278.884	168.44
279.115	139.44
279.347	106.44
279.579	98.44
279.81	99.44
280.042	99.44
280.273	106.44
280.505	104.44
280.736	120.44
280.968	125.44
281.199	167.44
281.431	224.44
281.662	245.44
281.894	146.44
282.125	108.44
282.356	110.44
282.588	117.44
282.819	106.44
283.051	122.44
283.282	122.44
283.513	190.44
283.745	308.44
283.976	497.44
284.207	694.44
284.439	546.44
284.67	264.44
284.901	227.44
285.132	319.44
285.364	356.44
285.595	220.44
285.826	150.44
286.057	229.44
286.288	385.44
286.52	520.44
286.751	442.44
286.982	196.44
287.213	107.44
287.444	95.44
287.675	116.44
287.906	118.44
288.138	97.44
288.369	93.44
288.6	91.44
288.831	105.44
289.062	102.44
289.293	99.44
289.524	102.44
289.755	104.44
289.986	70.44
290.217	92.44
290.448	99.44
290.679	100.44
290.91	125.44
291.141	162.44
291.371	225.44
291.602	267.44
291.833	203.44
292.064	104.44
292.295	113.44
292.526	96.44
292.757	89.44
292.987	106.44
293.218	98.44
293.449	100.44
293.68	86.44
293.91	102.44
294.141	100.44
294.372	94.44
294.603	91.44
294.833	108.44
295.064	90.44
295.295	97.44
295.525	83.44
295.756	93.44
295.987	104.44
296.217	85.44
296.448	91.44
296.679	106.44
296.909	98.44
297.14	95.44
297.37	95.44
297.601	99.44
297.831	104.44
298.062	100.44
298.292	90.44
298.523	106.44
298.753	97.44
298.984	99.44
299.214	114.44
299.445	105.44
299.675	99.44
299.905	119.44
300.136	134.44
300.366	147.44
300.597	254.44
300.827	420.44
301.057	629.44
301.288	573.44
301.518	226.44
301.748	136.44
301.979	139.44
302.209	139.44
302.439	120.44
302.669	166.44
302.9	245.44
303.13	457.44
303.36	813.44
303.59	1108.44
303.82	760.44
304.051	284.44
304.281	154.44
304.511	111.44
304.741	118.44
304.971	110.44
305.201	104.44
305.431	97.44
305.661	91.44
305.891	104.44
306.121	104.44
306.352	90.44
306.582	109.44
306.812	115.44
307.042	103.44
307.272	96.44
307.502	107.44
307.731	104.44
307.961	109.44
308.191	107.44
308.421	105.44
308.651	109.44
308.881	124.44
309.111	108.44
309.341	113.44
309.571	106.44
309.8	102.44
310.03	108.44
310.26	103.44
310.49	113.44
310.72	105.44
310.949	118.44
311.179	117.44
311.409	109.44
311.639	103.44
311.868	105.44
312.098	103.44
312.328	99.44
312.557	103.44
312.787	112.44
313.017	118.44
313.246	117.44
313.476	105.44
313.706	122.44
313.935	146.44
314.165	190.44
314.394	233.44
314.624	178.44
314.853	135.44
315.083	107.44
315.312	124.44
315.542	118.44
315.771	119.44
316.001	143.44
316.23	135.44
316.46	138.44
316.689	163.44
316.919	242.44
317.148	445.44
317.377	837.44
317.607	1364.44
317.836	1237.44
318.065	489.44
318.295	208.44
318.524	147.44
318.753	137.44
318.983	132.44
319.212	129.44
319.441	136.44
319.67	112.44
319.9	113.44
320.129	112.44
320.358	115.44
320.587	124.44
320.816	118.44
321.046	121.44
321.275	116.44
321.504	132.44
321.733	153.44
321.962	159.44
322.191	150.44
322.42	133.44
322.649	129.44
322.878	135.44
323.108	122.44
323.337	119.44
323.566	142.44
323.795	126.44
324.024	121.44
324.253	151.44
324.482	169.44
324.71	205.44
324.939	267.44
325.168	231.44
325.397	188.44
325.626	241.44
325.855	463.44
326.084	843.44
326.313	1444.44
326.542	1437.44
326.77	562.44
326.999	243.44
327.228	197.44
327.457	224.44
327.686	224.44
327.914	153.44
328.143	134.44
328.372	132.44
328.6	128.44
328.829	113.44
329.058	122.44
329.287	129.44
329.515	112.44
329.744	112.44
329.972	113.44
330.201	120.44
330.43	114.44
330.658	114.44
330.887	115.44
331.115	120.44
331.344	108.44
331.572	125.44
331.801	117.44
332.03	122.44
332.258	142.44
332.486	169.44
332.715	273.44
332.943	446.44
333.172	708.44
333.4	619.44
333.629	217.44
333.857	154.44
334.085	134.44
334.314	118.44
334.542	135.44
334.771	121.44
334.999	114.44
335.227	123.44
335.455	112.44
335.684	128.44
335.912	116.44
336.14	117.44
336.369	109.44
336.597	110.44
336.825	106.44
337.053	123.44
337.281	115.44
337.51	106.44
337.738	108.44
337.966	116.44
338.194	109.44
338.422	112.44
338.65	116.44
338.878	123.44
339.106	119.44
339.334	124.44
339.562	109.44
339.79	109.44
340.018	101.44
340.246	100.44
340.474	108.44
340.702	123.44
340.93	104.44
341.158	104.44
341.386	103.44
341.614	122.44
341.842	118.44
342.07	112.44
342.298	113.44
342.526	112.44
342.754	105.44
342.981	116.44
343.209	94.44
343.437	118.44
343.665	102.44
343.893	114.44
344.12	102.44
344.348	109.44
344.576	115.44
344.804	122.44
345.031	96.44
345.259	96.44
345.487	93.44
345.714	112.44
345.942	112.44
346.17	119.44
346.397	108.44
346.625	101.44
346.853	112.44
347.08	100.44
347.308	106.44
347.535	117.44
347.763	98.44
347.99	109.44
348.218	120.44
348.445	103.44
348.673	114.44
348.9	107.44
349.128	130.44
349.355	114.44
349.583	105.44
349.81	154.44
350.037	125.44
350.265	116.44
350.492	114.44
350.72	120.44
350.947	98.44
351.174	117.44
351.402	109.44
351.629	116.44
351.856	110.44
352.083	109.44
352.311	99.44
352.538	104.44
352.765	103.44
352.992	113.44
353.22	120.44
353.447	95.44
353.674	116.44
353.901	103.44
354.128	105.44
354.355	90.44
354.583	97.44
354.81	96.44
355.037	95.44
355.264	97.44
355.491	102.44
355.718	96.44
355.945	108.44
356.172	106.44
356.399	100.44
356.626	107.44
356.853	107.44
357.08	110.44
357.307	103.44
357.534	114.44
357.761	104.44
357.988	114.44
358.215	96.44
358.441	106.44
358.668	114.44
358.895	116.44
359.122	114.44
359.349	134.44
359.576	103.44
359.802	113.44
360.029	101.44
360.256	118.44
360.483	116.44
360.709	107.44
360.936	116.44
361.163	110.44
361.39	98.44
361.616	106.44
361.843	115.44
362.07	114.44
362.296	106.44
362.523	108.44
362.749	108.44
362.976	93.44
363.203	93.44
363.429	95.44
363.656	97.44
363.882	107.44
364.109	125.44
364.335	118.44
364.562	104.44
364.788	101.44
365.015	108.44
365.241	125.44
365.468	189.44
365.694	235.44
365.92	205.44
366.147	110.44
366.373	97.44
366.599	96.44
366.826	105.44
367.052	96.44
367.278	102.44
367.505	99.44
367.731	90.44
367.957	104.44
368.184	92.44
368.41	113.44
368.636	104.44
368.862	110.44
369.089	94.44
369.315	109.44
369.541	104.44
369.767	107.44
369.993	107.44
370.219	84.44
370.445	102.44
370.672	117.44
370.898	118.44
371.124	124.44
371.35	96.44
371.576	108.44
371.802	104.44
372.028	108.44
372.254	107.44
372.48	110.44
372.706	93.44
372.932	94.44
373.158	109.44
373.384	115.44
373.61	133.44
373.835	126.44
374.061	109.44
374.287	99.44
374.513	93.44
374.739	102.44
374.965	117.44
375.191	108.44
375.416	97.44
375.642	107.44
375.868	114.44
376.094	104.44
376.319	112.44
376.545	115.44
376.771	99.44
376.997	100.44
377.222	89.44
377.448	97.44
377.674	114.44
377.899	126.44
378.125	109.44
378.35	119.44
378.576	110.44
378.802	112.44
379.027	118.44
379.253	124.44
379.478	157.44
379.704	285.44
379.929	720.44
380.155	1438.44
380.38	1494.44
380.606	477.44
380.831	178.44
381.057	132.44
381.282	105.44
381.507	110.44
381.733	109.44
381.958	99.44
382.184	103.44
382.409	100.44
382.634	108.44
382.86	109.44
383.085	101.44
383.31	113.44
383.535	112.44
383.761	116.44
383.986	88.44
384.211	105.44
384.436	90.44
384.662	84.44
384.887	101.44
385.112	82.44
385.337	110.44
385.562	106.44
385.787	113.44
386.013	105.44
386.238	97.44
386.463	101.44
386.688	105.44
386.913	107.44
387.138	111.44
387.363	113.44
387.588	94.44
387.813	113.44
388.038	103.44
388.263	106.44
388.488	114.44
388.713	107.44
388.938	109.44
389.163	78.44
389.387	104.44
389.612	96.44
389.837	113.44
390.062	112.44
390.287	105.44
390.512	106.44
390.736	112.44
390.961	100.44
391.186	109.44
391.411	115.44
391.636	94.44
391.86	104.44
392.085	116.44
392.31	88.44
392.534	102.44
392.759	99.44
392.984	112.44
393.208	118.44
393.433	135.44
393.658	153.44
393.882	94.44
394.107	106.44
394.331	97.44
394.556	94.44
394.78	88.44
395.005	121.44
395.229	105.44
395.454	102.44
395.678	104.44
395.903	119.44
396.127	107.44
396.352	118.44
396.576	112.44
396.801	119.44
397.025	126.44
397.249	108.44
397.474	115.44
397.698	105.44
397.922	108.44
398.147	93.44
398.371	88.44
398.595	88.44
398.82	96.44
399.044	96.44
399.268	104.44
399.492	96.44
399.717	102.44
399.941	92.44
400.165	101.44
400.389	108.44
400.613	101.44
400.837	88.44
401.062	93.44
401.286	102.44
401.51	104.44
401.734	109.44
401.958	100.44
402.182	121.44
402.406	102.44
402.63	94.44
402.854	87.44
403.078	96.44
403.302	93.44
403.526	97.44
403.75	97.44
403.974	93.44
404.198	90.44
404.422	104.44
404.645	103.44
404.869	87.44
405.093	107.44
405.317	99.44
405.541	103.44
405.765	116.44
405.988	119.44
406.212	118.44
406.436	117.44
406.66	92.44
406.883	89.44
407.107	96.44
407.331	103.44
407.555	104.44
407.778	105.44
408.002	102.44
408.226	103.44
408.449	89.44
408.673	92.44
408.896	87.44
409.12	95.44
409.344	107.44
409.567	108.44
409.791	105.44
410.014	106.44
410.238	114.44
410.461	100.44
410.685	109.44
410.908	97.44
411.132	97.44
411.355	105.44
411.578	100.44
411.802	103.44
412.025	104.44
412.249	93.44
412.472	89.44
412.695	102.44
412.919	93.44
413.142	112.44
413.365	97.44
413.589	97.44
413.812	116.44
414.035	121.44
414.258	109.44
414.482	104.44
414.705	98.44
414.928	101.44
415.151	109.44
415.374	102.44
415.597	102.44
415.821	95.44
416.044	107.44
416.267	96.44
416.49	89.44
416.713	88.44
416.936	91.44
417.159	100.44
417.382	93.44
417.605	93.44
417.828	87.44
418.051	110.44
418.274	116.44
418.497	96.44
418.72	89.44
418.943	112.44
419.166	115.44
419.389	120.44
419.611	110.44
419.834	112.44
420.057	120.44
420.28	93.44
420.503	118.44
420.726	83.44
420.948	85.44
421.171	84.44
421.394	93.44
421.617	104.44
421.839	93.44
422.062	91.44
422.285	106.44
422.507	102.44
422.73	124.44
422.953	122.44
423.175	98.44
423.398	108.44
423.621	97.44
423.843	89.44
424.066	93.44
424.288	88.44
424.511	82.44
424.733	98.44
424.956	111.44
425.178	86.44
425.401	90.44
425.623	106.44
425.846	85.44
426.068	102.44
426.291	96.44
426.513	94.44
426.735	93.44
426.958	100.44
427.18	99.44
427.402	94.44
427.625	93.44
427.847	94.44
428.069	102.44
428.292	102.44
428.514	109.44
428.736	106.44
428.958	91.44
429.181	112.44
429.403	102.44
429.625	102.44
429.847	113.44
430.069	118.44
430.292	92.44
430.514	103.44
430.736	107.44
430.958	98.44
431.18	89.44
431.402	97.44
431.624	97.44
431.846	99.44
432.068	100.44
432.29	90.44
432.512	96.44
432.734	106.44
432.956	102.44
433.178	89.44
433.4	107.44
433.622	99.44
433.844	92.44
434.066	106.44
434.287	93.44
434.509	90.44
434.731	98.44
434.953	102.44
435.175	81.44
435.397	103.44
435.618	104.44
435.84	92.44
436.062	105.44
436.284	94.44
436.505	91.44
436.727	104.44
436.949	93.44
437.17	93.44
437.392	95.44
437.614	98.44
437.835	97.44
438.057	88.44
438.278	108.44
438.5	91.44
438.721	88.44
438.943	129.44
439.165	108.44
439.386	108.44
439.608	99.44
439.829	106.44
440.05	128.44
440.272	122.44
440.493	99.44
440.715	84.44
440.936	109.44
441.158	107.44
441.379	98.44
441.6	107.44
441.822	101.44
442.043	109.44
442.264	120.44
442.486	117.44
442.707	101.44
442.928	89.44
443.149	98.44
443.371	116.44
443.592	96.44
443.813	79.44
444.034	90.44
444.255	100.44
444.476	95.44
444.698	85.44
444.919	86.44
445.14	209.44
445.361	169.44
445.582	103.44
445.803	100.44
446.024	82.44
446.245	107.44
446.466	106.44
446.687	104.44
446.908	103.44
447.129	102.44
447.35	85.44
447.571	104.44
447.792	107.44
448.013	96.44
448.234	107.44
448.455	86.44
448.675	97.44
448.896	104.44
449.117	100.44
449.338	118.44
449.559	146.44
449.779	118.44
450	109.44
450.221	120.44
450.442	123.44
450.662	122.44
450.883	108.44
451.104	93.44
451.324	136.44
451.545	109.44
451.766	119.44
451.986	132.44
452.207	206.44
452.428	512.44
452.648	1298.44
452.869	727.44
453.089	194.44
453.31	140.44
453.53	116.44
453.751	138.44
453.971	141.44
454.192	150.44
454.412	119.44
454.633	112.44
454.853	100.44
455.073	98.44
455.294	102.44
455.514	113.44
455.734	103.44
455.955	97.44
456.175	93.44
456.395	92.44
456.616	104.44
456.836	92.44
457.056	97.44
457.276	104.44
457.497	115.44
457.717	122.44
457.937	106.44
458.157	105.44
458.377	81.44
458.598	91.44
458.818	106.44
459.038	93.44
459.258	96.44
459.478	92.44
459.698	100.44
459.918	85.44
460.138	83.44
460.358	93.44
460.578	98.44
460.798	91.44
461.018	92.44
461.238	104.44
461.458	98.44
461.678	113.44
461.898	90.44
462.118	87.44
462.338	91.44
462.558	94.44
462.777	92.44
462.997	100.44
463.217	105.44
463.437	133.44
463.657	174.44
463.876	168.44
464.096	134.44
464.316	97.44
464.536	104.44
464.755	116.44
464.975	90.44
465.195	104.44
465.414	104.44
465.634	107.44
465.854	83.44
466.073	91.44
466.293	106.44
466.512	94.44
466.732	103.44
466.951	116.44
467.171	136.44
467.391	132.44
467.61	105.44
467.829	97.44
468.049	85.44
468.268	94.44
468.488	95.44
468.707	118.44
468.927	96.44
469.146	102.44
469.365	93.44
469.585	112.44
469.804	89.44
470.023	94.44
470.243	107.44
470.462	101.44
470.681	107.44
470.901	132.44
471.12	172.44
471.339	176.44
471.558	134.44
471.777	112.44
471.997	100.44
472.216	118.44
472.435	98.44
472.654	84.44
472.873	95.44
473.092	96.44
473.311	100.44
473.53	85.44
473.749	93.44
473.968	100.44
474.187	101.44
474.406	97.44
474.625	106.44
474.844	99.44
475.063	88.44
475.282	100.44
475.501	106.44
475.72	102.44
475.939	103.44
476.158	97.44
476.377	105.44
476.596	109.44
476.814	97.44
477.033	109.44
477.252	103.44
477.471	105.44
477.69	106.44
477.908	91.44
478.127	104.44
478.346	98.44
478.564	87.44
478.783	97.44
479.002	102.44
479.22	91.44
479.439	110.44
479.658	94.44
479.876	112.44
480.095	102.44
480.313	91.44
480.532	96.44
480.751	105.44
480.969	86.44
481.188	89.44
481.406	97.44
481.624	119.44
481.843	123.44
482.061	105.44
482.28	103.44
482.498	95.44
482.717	90.44
482.935	116.44
483.153	88.44
483.372	96.44
483.59	97.44
483.808	97.44
484.027	109.44
484.245	115.44
484.463	163.44
484.681	207.44
484.9	160.44
485.118	110.44
485.336	102.44
485.554	104.44
485.772	123.44
485.99	171.44
486.209	229.44
486.427	163.44
486.645	106.44
486.863	99.44
487.081	98.44
487.299	103.44
487.517	105.44
487.735	107.44
487.953	112.44
488.171	114.44
488.389	111.44
488.607	104.44
488.825	106.44
489.043	109.44
489.261	88.44
489.479	110.44
489.696	90.44
489.914	101.44
490.132	104.44
490.35	102.44
490.568	105.44
490.786	107.44
491.003	121.44
491.221	100.44
491.439	116.44
491.657	106.44
491.874	106.44
492.092	112.44
492.31	116.44
492.527	117.44
492.745	112.44
492.963	119.44
493.18	114.44
493.398	115.44
493.615	85.44
493.833	98.44
494.05	105.44
494.268	110.44
494.485	105.44
494.703	107.44
494.92	93.44
495.138	95.44
495.355	95.44
495.573	110.44
495.79	101.44
496.008	102.44
496.225	95.44
496.442	112.44
496.66	122.44
496.877	162.44
497.094	150.44
497.312	106.44
497.529	90.44
497.746	98.44
497.963	99.44
498.181	107.44
498.398	105.44
498.615	104.44
498.832	103.44
499.049	108.44
499.267	126.44
499.484	152.44
499.701	114.44
499.918	104.44
500.135	95.44
500.352	97.44
500.569	121.44
500.786	107.44
501.003	112.44
501.22	123.44
501.437	107.44
501.654	120.44
501.871	108.44
502.088	113.44
502.305	101.44
502.522	114.44
502.739	81.44
502.956	112.44
503.172	121.44
503.389	112.44
503.606	99.44
503.823	105.44
504.04	94.44
504.256	98.44
504.473	105.44
504.69	104.44
504.907	116.44
505.123	113.44
505.34	103.44
505.557	97.44
505.773	94.44
505.99	112.44
506.207	108.44
506.423	104.44
506.64	99.44
506.856	106.44
507.073	96.44
507.289	97.44
507.506	101.44
507.722	103.44
