Data from SnStandardFlinnAPT0064_LampEnergy5.5_LIBS07252019.E.O._I.C._HRD10591_15-16-19-491.txt Node
Date: Thu Jul 25 15:16:19 EDT 2019
User: cochatt
Spectrometer: HR+D1059
Trigger mode: 1
Integration Time (sec): 1.000000E-1
Scans to average: 1
Electric dark correction enabled: true
Nonlinearity correction enabled: false
Boxcar width: 0
XAxis mode: Wavelengths
Number of Pixels in Spectrum: 2048
>>>>>Begin Spectral Data<<<<<
223.165	-21.88
223.4	-21.88
223.635	-21.88
223.869	-22.88
224.104	-14.88
224.338	0.12
224.573	-14.88
224.808	-14.88
225.042	-10.88
225.277	-7.88
225.511	0.12
225.746	4.12
225.98	7.12
226.215	3.12
226.449	14.12
226.683	17.12
226.918	24.12
227.152	38.12
227.387	32.12
227.621	40.12
227.856	49.12
228.09	61.12
228.324	52.12
228.559	61.12
228.793	63.12
229.027	133.12
229.262	161.12
229.496	157.12
229.73	162.12
229.964	160.12
230.199	153.12
230.433	167.12
230.667	153.12
230.901	167.12
231.136	166.12
231.37	172.12
231.604	173.12
231.838	203.12
232.072	235.12
232.306	238.12
232.541	221.12
232.775	182.12
233.009	189.12
233.243	194.12
233.477	222.12
233.711	231.12
233.945	264.12
234.179	222.12
234.413	218.12
234.647	205.12
234.881	214.12
235.115	230.12
235.349	261.12
235.583	342.12
235.817	409.12
236.051	403.12
236.285	291.12
236.519	239.12
236.753	220.12
236.987	229.12
237.221	232.12
237.455	219.12
237.689	218.12
237.922	205.12
238.156	209.12
238.39	227.12
238.624	227.12
238.858	229.12
239.091	233.12
239.325	241.12
239.559	224.12
239.793	225.12
240.027	233.12
240.26	253.12
240.494	248.12
240.728	266.12
240.961	273.12
241.195	266.12
241.429	287.12
241.662	315.12
241.896	322.12
242.13	387.12
242.363	513.12
242.597	605.12
242.83	594.12
243.064	615.12
243.298	692.12
243.531	573.12
243.765	370.12
243.998	320.12
244.232	296.12
244.465	299.12
244.699	296.12
244.932	294.12
245.166	302.12
245.399	295.12
245.633	303.12
245.866	294.12
246.099	294.12
246.333	298.12
246.566	282.12
246.8	287.12
247.033	303.12
247.266	274.12
247.5	303.12
247.733	299.12
247.966	293.12
248.2	341.12
248.433	362.12
248.666	390.12
248.899	405.12
249.133	365.12
249.366	348.12
249.599	395.12
249.832	452.12
250.066	425.12
250.299	367.12
250.532	344.12
250.765	333.12
250.998	335.12
251.231	323.12
251.465	314.12
251.698	325.12
251.931	323.12
252.164	316.12
252.397	338.12
252.63	345.12
252.863	362.12
253.096	358.12
253.329	342.12
253.562	356.12
253.795	334.12
254.028	345.12
254.261	361.12
254.494	380.12
254.727	422.12
254.96	496.12
255.193	484.12
255.426	397.12
255.659	367.12
255.892	385.12
256.124	373.12
256.357	395.12
256.59	380.12
256.823	401.12
257.056	453.12
257.289	541.12
257.521	578.12
257.754	465.12
257.987	390.12
258.22	403.12
258.452	407.12
258.685	399.12
258.918	395.12
259.151	416.12
259.383	448.12
259.616	467.12
259.849	502.12
260.081	435.12
260.314	423.12
260.547	405.12
260.779	431.12
261.012	418.12
261.244	433.12
261.477	427.12
261.71	423.12
261.942	441.12
262.175	449.12
262.407	453.12
262.64	456.12
262.872	464.12
263.105	514.12
263.337	536.12
263.57	530.12
263.802	576.12
264.035	561.12
264.267	585.12
264.499	585.12
264.732	604.12
264.964	628.12
265.197	633.12
265.429	612.12
265.661	639.12
265.894	645.12
266.126	739.12
266.358	785.12
266.591	742.12
266.823	681.12
267.055	622.12
267.287	587.12
267.52	571.12
267.752	570.12
267.984	554.12
268.216	543.12
268.448	537.12
268.681	539.12
268.913	528.12
269.145	531.12
269.377	538.12
269.609	557.12
269.841	531.12
270.073	564.12
270.306	673.12
270.538	842.12
270.77	1181.12
271.002	1431.12
271.234	1005.12
271.466	736.12
271.698	595.12
271.93	588.12
272.162	541.12
272.394	540.12
272.626	512.12
272.858	529.12
273.09	511.12
273.322	513.12
273.553	514.12
273.785	527.12
274.017	522.12
274.249	517.12
274.481	521.12
274.713	512.12
274.945	527.12
275.176	504.12
275.408	524.12
275.64	500.12
275.872	515.12
276.104	532.12
276.335	546.12
276.567	550.12
276.799	537.12
277.031	545.12
277.262	542.12
277.494	573.12
277.726	617.12
277.957	703.12
278.189	772.12
278.421	725.12
278.652	670.12
278.884	632.12
279.115	611.12
279.347	597.12
279.579	584.12
279.81	600.12
280.042	574.12
280.273	594.12
280.505	593.12
280.736	599.12
280.968	636.12
281.199	703.12
281.431	727.12
281.662	758.12
281.894	679.12
282.125	651.12
282.356	672.12
282.588	661.12
282.819	655.12
283.051	720.12
283.282	806.12
283.513	964.12
283.745	1362.12
283.976	2122.12
284.207	2971.12
284.439	2603.12
284.67	1589.12
284.901	1335.12
285.132	1282.12
285.364	1239.12
285.595	1011.12
285.826	903.12
286.057	1073.12
286.288	1425.12
286.52	1924.12
286.751	1745.12
286.982	1108.12
287.213	886.12
287.444	776.12
287.675	730.12
287.906	730.12
288.138	701.12
288.369	689.12
288.6	705.12
288.831	690.12
289.062	686.12
289.293	679.12
289.524	704.12
289.755	705.12
289.986	716.12
290.217	709.12
290.448	691.12
290.679	721.12
290.91	705.12
291.141	732.12
291.371	768.12
291.602	757.12
291.833	766.12
292.064	694.12
292.295	687.12
292.526	697.12
292.757	677.12
292.987	665.12
293.218	654.12
293.449	667.12
293.68	645.12
293.91	653.12
294.141	646.12
294.372	639.12
294.603	679.12
294.833	664.12
295.064	642.12
295.295	667.12
295.525	661.12
295.756	661.12
295.987	658.12
296.217	662.12
296.448	662.12
296.679	661.12
296.909	663.12
297.14	648.12
297.37	689.12
297.601	690.12
297.831	665.12
298.062	663.12
298.292	682.12
298.523	694.12
298.753	714.12
298.984	687.12
299.214	671.12
299.445	717.12
299.675	714.12
299.905	737.12
300.136	777.12
300.366	840.12
300.597	1053.12
300.827	1429.12
301.057	1882.12
301.288	1865.12
301.518	1227.12
301.748	965.12
301.979	913.12
302.209	863.12
302.439	897.12
302.669	970.12
302.9	1099.12
303.13	1524.12
303.36	2228.12
303.59	2913.12
303.82	2485.12
304.051	1507.12
304.281	1117.12
304.511	954.12
304.741	889.12
304.971	857.12
305.201	822.12
305.431	802.12
305.661	790.12
305.891	762.12
306.121	788.12
306.352	759.12
306.582	781.12
306.812	744.12
307.042	765.12
307.272	751.12
307.502	741.12
307.731	750.12
307.961	733.12
308.191	742.12
308.421	759.12
308.651	746.12
308.881	742.12
309.111	741.12
309.341	766.12
309.571	753.12
309.8	756.12
310.03	746.12
310.26	793.12
310.49	765.12
310.72	766.12
310.949	755.12
311.179	770.12
311.409	771.12
311.639	791.12
311.868	780.12
312.098	767.12
312.328	792.12
312.557	835.12
312.787	805.12
313.017	817.12
313.246	793.12
313.476	821.12
313.706	867.12
313.935	896.12
314.165	912.12
314.394	932.12
314.624	931.12
314.853	871.12
315.083	879.12
315.312	893.12
315.542	884.12
315.771	904.12
316.001	887.12
316.23	917.12
316.46	938.12
316.689	1041.12
316.919	1223.12
317.148	1738.12
317.377	2641.12
317.607	3818.12
317.836	3891.12
318.065	2333.12
318.295	1520.12
318.524	1258.12
318.753	1119.12
318.983	1073.12
319.212	1020.12
319.441	968.12
319.67	949.12
319.9	958.12
320.129	972.12
320.358	963.12
320.587	944.12
320.816	950.12
321.046	961.12
321.275	972.12
321.504	944.12
321.733	954.12
321.962	1007.12
322.191	997.12
322.42	982.12
322.649	1002.12
322.878	994.12
323.108	957.12
323.337	1010.12
323.566	1020.12
323.795	1025.12
324.024	1049.12
324.253	1070.12
324.482	1105.12
324.71	1168.12
324.939	1217.12
325.168	1242.12
325.397	1320.12
325.626	1508.12
325.855	2078.12
326.084	3178.12
326.313	4650.12
326.542	4915.12
326.77	3197.12
326.999	2133.12
327.228	1786.12
327.457	1725.12
327.686	1749.12
327.914	1875.12
328.143	2081.12
328.372	2406.12
328.6	2631.12
328.829	2388.12
329.058	2150.12
329.287	1953.12
329.515	1742.12
329.744	1646.12
329.972	1579.12
330.201	1535.12
330.43	1437.12
330.658	1408.12
330.887	1398.12
331.115	1380.12
331.344	1384.12
331.572	1380.12
331.801	1360.12
332.03	1381.12
332.258	1429.12
332.486	1460.12
332.715	1614.12
332.943	1965.12
333.172	2295.12
333.4	2313.12
333.629	1836.12
333.857	1730.12
334.085	1700.12
334.314	1839.12
334.542	1901.12
334.771	2219.12
334.999	2659.12
335.227	3141.12
335.455	3494.12
335.684	3291.12
335.912	2810.12
336.14	2461.12
336.369	2163.12
336.597	1995.12
336.825	1855.12
337.053	1759.12
337.281	1617.12
337.51	1573.12
337.738	1517.12
337.966	1451.12
338.194	1415.12
338.422	1372.12
338.65	1313.12
338.878	1315.12
339.106	1326.12
339.334	1295.12
339.562	1281.12
339.79	1191.12
340.018	1224.12
340.246	1225.12
340.474	1184.12
340.702	1208.12
340.93	1226.12
341.158	1224.12
341.386	1213.12
341.614	1215.12
341.842	1178.12
342.07	1146.12
342.298	1154.12
342.526	1121.12
342.754	1087.12
342.981	1108.12
343.209	1113.12
343.437	1140.12
343.665	1160.12
343.893	1148.12
344.12	1174.12
344.348	1133.12
344.576	1098.12
344.804	1142.12
345.031	1102.12
345.259	1114.12
345.487	1070.12
345.714	1081.12
345.942	1035.12
346.17	1054.12
346.397	1039.12
346.625	1029.12
346.853	1031.12
347.08	1024.12
347.308	1042.12
347.535	1030.12
347.763	1043.12
347.99	1055.12
348.218	1004.12
348.445	1033.12
348.673	1023.12
348.9	1030.12
349.128	995.12
349.355	1029.12
349.583	995.12
349.81	996.12
350.037	998.12
350.265	972.12
350.492	1001.12
350.72	1013.12
350.947	1008.12
351.174	1008.12
351.402	1025.12
351.629	1015.12
351.856	997.12
352.083	991.12
352.311	983.12
352.538	982.12
352.765	1015.12
352.992	989.12
353.22	1002.12
353.447	981.12
353.674	1003.12
353.901	979.12
354.128	969.12
354.355	975.12
354.583	984.12
354.81	1014.12
355.037	999.12
355.264	1023.12
355.491	1038.12
355.718	1000.12
355.945	985.12
356.172	1019.12
356.399	1024.12
356.626	1004.12
356.853	1030.12
357.08	1025.12
357.307	1016.12
357.534	1046.12
357.761	1050.12
357.988	1046.12
358.215	1064.12
358.441	1043.12
358.668	1047.12
358.895	1051.12
359.122	1069.12
359.349	1046.12
359.576	1049.12
359.802	1046.12
360.029	1033.12
360.256	1046.12
360.483	1036.12
360.709	1059.12
360.936	1059.12
361.163	1046.12
361.39	1041.12
361.616	1043.12
361.843	1081.12
362.07	1075.12
362.296	1064.12
362.523	1029.12
362.749	1093.12
362.976	1062.12
363.203	1055.12
363.429	1050.12
363.656	1030.12
363.882	1059.12
364.109	1049.12
364.335	1053.12
364.562	1041.12
364.788	1027.12
365.015	1051.12
365.241	1061.12
365.468	1104.12
365.694	1139.12
365.92	1147.12
366.147	1105.12
366.373	1071.12
366.599	1073.12
366.826	1103.12
367.052	1095.12
367.278	1096.12
367.505	1071.12
367.731	1109.12
367.957	1092.12
368.184	1095.12
368.41	1098.12
368.636	1131.12
368.862	1100.12
369.089	1097.12
369.315	1109.12
369.541	1105.12
369.767	1069.12
369.993	1057.12
370.219	1107.12
370.445	1095.12
370.672	1089.12
370.898	1118.12
371.124	1125.12
371.35	1127.12
371.576	1146.12
371.802	1131.12
372.028	1127.12
372.254	1161.12
372.48	1126.12
372.706	1138.12
372.932	1139.12
373.158	1166.12
373.384	1145.12
373.61	1144.12
373.835	1179.12
374.061	1172.12
374.287	1191.12
374.513	1179.12
374.739	1176.12
374.965	1208.12
375.191	1191.12
375.416	1193.12
375.642	1189.12
375.868	1194.12
376.094	1156.12
376.319	1150.12
376.545	1161.12
376.771	1109.12
376.997	1141.12
377.222	1165.12
377.448	1148.12
377.674	1118.12
377.899	1122.12
378.125	1125.12
378.35	1118.12
378.576	1127.12
378.802	1133.12
379.027	1215.12
379.253	1182.12
379.478	1241.12
379.704	1412.12
379.929	1902.12
380.155	2797.12
380.38	2991.12
380.606	1923.12
380.831	1419.12
381.057	1277.12
381.282	1191.12
381.507	1193.12
381.733	1130.12
381.958	1119.12
382.184	1106.12
382.409	1100.12
382.634	1105.12
382.86	1113.12
383.085	1097.12
383.31	1125.12
383.535	1123.12
383.761	1151.12
383.986	1134.12
384.211	1163.12
384.436	1192.12
384.662	1178.12
384.887	1148.12
385.112	1147.12
385.337	1175.12
385.562	1164.12
385.787	1149.12
386.013	1186.12
386.238	1171.12
386.463	1126.12
386.688	1179.12
386.913	1175.12
387.138	1128.12
387.363	1151.12
387.588	1166.12
387.813	1127.12
388.038	1169.12
388.263	1153.12
388.488	1156.12
388.713	1125.12
388.938	1169.12
389.163	1178.12
389.387	1153.12
389.612	1155.12
389.837	1163.12
390.062	1191.12
390.287	1151.12
390.512	1181.12
390.736	1183.12
390.961	1186.12
391.186	1200.12
391.411	1238.12
391.636	1209.12
391.86	1216.12
392.085	1254.12
392.31	1237.12
392.534	1232.12
392.759	1212.12
392.984	1172.12
393.208	1226.12
393.433	1227.12
393.658	1237.12
393.882	1204.12
394.107	1211.12
394.331	1192.12
394.556	1180.12
394.78	1214.12
395.005	1183.12
395.229	1177.12
395.454	1170.12
395.678	1232.12
395.903	1193.12
396.127	1230.12
396.352	1203.12
396.576	1220.12
396.801	1231.12
397.025	1252.12
397.249	1236.12
397.474	1221.12
397.698	1199.12
397.922	1252.12
398.147	1209.12
398.371	1242.12
398.595	1259.12
398.82	1299.12
399.044	1353.12
399.268	1420.12
399.492	1473.12
399.717	1485.12
399.941	1517.12
400.165	1491.12
400.389	1399.12
400.613	1366.12
400.837	1331.12
401.062	1297.12
401.286	1320.12
401.51	1305.12
401.734	1255.12
401.958	1322.12
402.182	1306.12
402.406	1300.12
402.63	1306.12
402.854	1322.12
403.078	1313.12
403.302	1347.12
403.526	1321.12
403.75	1355.12
403.974	1334.12
404.198	1320.12
404.422	1312.12
404.645	1330.12
404.869	1339.12
405.093	1310.12
405.317	1322.12
405.541	1361.12
405.765	1359.12
405.988	1374.12
406.212	1398.12
406.436	1361.12
406.66	1380.12
406.883	1402.12
407.107	1417.12
407.331	1432.12
407.555	1435.12
407.778	1442.12
408.002	1407.12
408.226	1393.12
408.449	1413.12
408.673	1385.12
408.896	1321.12
409.12	1345.12
409.344	1365.12
409.567	1305.12
409.791	1355.12
410.014	1322.12
410.238	1325.12
410.461	1329.12
410.685	1318.12
410.908	1303.12
411.132	1299.12
411.355	1295.12
411.578	1293.12
411.802	1298.12
412.025	1273.12
412.249	1275.12
412.472	1306.12
412.695	1265.12
412.919	1244.12
413.142	1268.12
413.365	1242.12
413.589	1283.12
413.812	1259.12
414.035	1275.12
414.258	1256.12
414.482	1271.12
414.705	1271.12
414.928	1258.12
415.151	1253.12
415.374	1251.12
415.597	1231.12
415.821	1217.12
416.044	1188.12
416.267	1209.12
416.49	1225.12
416.713	1183.12
416.936	1229.12
417.159	1174.12
417.382	1206.12
417.605	1195.12
417.828	1211.12
418.051	1228.12
418.274	1257.12
418.497	1246.12
418.72	1235.12
418.943	1242.12
419.166	1281.12
419.389	1320.12
419.611	1349.12
419.834	1307.12
420.057	1261.12
420.28	1211.12
420.503	1241.12
420.726	1214.12
420.948	1181.12
421.171	1215.12
421.394	1214.12
421.617	1222.12
421.839	1242.12
422.062	1245.12
422.285	1184.12
422.507	1243.12
422.73	1263.12
422.953	1266.12
423.175	1291.12
423.398	1249.12
423.621	1236.12
423.843	1205.12
424.066	1253.12
424.288	1229.12
424.511	1238.12
424.733	1224.12
424.956	1251.12
425.178	1202.12
425.401	1202.12
425.623	1233.12
425.846	1190.12
426.068	1200.12
426.291	1202.12
426.513	1183.12
426.735	1162.12
426.958	1166.12
427.18	1163.12
427.402	1153.12
427.625	1159.12
427.847	1130.12
428.069	1104.12
428.292	1111.12
428.514	1125.12
428.736	1133.12
428.958	1137.12
429.181	1115.12
429.403	1115.12
429.625	1149.12
429.847	1091.12
430.069	1141.12
430.292	1157.12
430.514	1188.12
430.736	1178.12
430.958	1123.12
431.18	1112.12
431.402	1147.12
431.624	1109.12
431.846	1086.12
432.068	1095.12
432.29	1116.12
432.512	1113.12
432.734	1127.12
432.956	1137.12
433.178	1128.12
433.4	1129.12
433.622	1130.12
433.844	1129.12
434.066	1125.12
434.287	1116.12
434.509	1151.12
434.731	1139.12
434.953	1154.12
435.175	1145.12
435.397	1183.12
435.618	1111.12
435.84	1122.12
436.062	1098.12
436.284	1125.12
436.505	1117.12
436.727	1104.12
436.949	1130.12
437.17	1079.12
437.392	1089.12
437.614	1094.12
437.835	1052.12
438.057	1089.12
438.278	1087.12
438.5	1064.12
438.721	1103.12
438.943	1128.12
439.165	1163.12
439.386	1155.12
439.608	1145.12
439.829	1149.12
440.05	1206.12
440.272	1211.12
440.493	1161.12
440.715	1153.12
440.936	1162.12
441.158	1176.12
441.379	1183.12
441.6	1222.12
441.822	1236.12
442.043	1314.12
442.264	1304.12
442.486	1238.12
442.707	1209.12
442.928	1197.12
443.149	1184.12
443.371	1213.12
443.592	1238.12
443.813	1224.12
444.034	1207.12
444.255	1250.12
444.476	1247.12
444.698	1308.12
444.919	1339.12
445.14	1354.12
445.361	1297.12
445.582	1216.12
445.803	1211.12
446.024	1184.12
446.245	1198.12
446.466	1226.12
446.687	1171.12
446.908	1179.12
447.129	1131.12
447.35	1135.12
447.571	1124.12
447.792	1131.12
448.013	1121.12
448.234	1105.12
448.455	1093.12
448.675	1110.12
448.896	1145.12
449.117	1153.12
449.338	1247.12
449.559	1302.12
449.779	1171.12
450	1097.12
450.221	1093.12
450.442	1079.12
450.662	1100.12
450.883	1071.12
451.104	1085.12
451.324	1071.12
451.545	1055.12
451.766	1081.12
451.986	1077.12
452.207	1165.12
452.428	1372.12
452.648	1886.12
452.869	1621.12
453.089	1226.12
453.31	1196.12
453.53	1177.12
453.751	1194.12
453.971	1262.12
454.192	1256.12
454.412	1108.12
454.633	1079.12
454.853	1049.12
455.073	1035.12
455.294	1071.12
455.514	1055.12
455.734	1033.12
455.955	1024.12
456.175	1025.12
456.395	1018.12
456.616	1020.12
456.836	1044.12
457.056	1029.12
457.276	1047.12
457.497	1106.12
457.717	1101.12
457.937	1079.12
458.157	1060.12
458.377	1114.12
458.598	1112.12
458.818	1088.12
459.038	1093.12
459.258	1119.12
459.478	1107.12
459.698	1118.12
459.918	1163.12
460.138	1174.12
460.358	1205.12
460.578	1172.12
460.798	1199.12
461.018	1210.12
461.238	1209.12
461.458	1251.12
461.678	1221.12
461.898	1237.12
462.118	1273.12
462.338	1295.12
462.558	1282.12
462.777	1313.12
462.997	1346.12
463.217	1414.12
463.437	1437.12
463.657	1458.12
463.876	1430.12
464.096	1360.12
464.316	1331.12
464.536	1314.12
464.755	1293.12
464.975	1268.12
465.195	1191.12
465.414	1226.12
465.634	1174.12
465.854	1149.12
466.073	1179.12
466.293	1134.12
466.512	1139.12
466.732	1134.12
466.951	1189.12
467.171	1251.12
467.391	1234.12
467.61	1138.12
467.829	1103.12
468.049	1120.12
468.268	1116.12
468.488	1114.12
468.707	1120.12
468.927	1082.12
469.146	1105.12
469.365	1140.12
469.585	1126.12
469.804	1159.12
470.023	1169.12
470.243	1179.12
470.462	1202.12
470.681	1230.12
470.901	1359.12
471.12	1543.12
471.339	1539.12
471.558	1293.12
471.777	1198.12
471.997	1184.12
472.216	1150.12
472.435	1117.12
472.654	1088.12
472.873	1114.12
473.092	1107.12
473.311	1099.12
473.53	1124.12
473.749	1138.12
473.968	1147.12
474.187	1120.12
474.406	1096.12
474.625	1141.12
474.844	1084.12
475.063	1112.12
475.282	1101.12
475.501	1120.12
475.72	1138.12
475.939	1141.12
476.158	1151.12
476.377	1152.12
476.596	1182.12
476.814	1139.12
477.033	1183.12
477.252	1203.12
477.471	1185.12
477.69	1241.12
477.908	1231.12
478.127	1263.12
478.346	1242.12
478.564	1258.12
478.783	1267.12
479.002	1320.12
479.22	1318.12
479.439	1319.12
479.658	1309.12
479.876	1306.12
480.095	1311.12
480.313	1354.12
480.532	1351.12
480.751	1347.12
480.969	1332.12
481.188	1319.12
481.406	1330.12
481.624	1311.12
481.843	1279.12
482.061	1314.12
482.28	1295.12
482.498	1326.12
482.717	1291.12
482.935	1333.12
483.153	1369.12
483.372	1371.12
483.59	1386.12
483.808	1376.12
484.027	1444.12
484.245	1473.12
484.463	1619.12
484.681	1789.12
484.9	1662.12
485.118	1517.12
485.336	1520.12
485.554	1542.12
485.772	1602.12
485.99	1801.12
486.209	2002.12
486.427	1665.12
486.645	1511.12
486.863	1490.12
487.081	1476.12
487.299	1409.12
487.517	1446.12
487.735	1439.12
487.953	1471.12
488.171	1432.12
488.389	1433.12
488.607	1406.12
488.825	1377.12
489.043	1346.12
489.261	1347.12
489.479	1380.12
489.696	1379.12
489.914	1353.12
490.132	1382.12
490.35	1343.12
490.568	1394.12
490.786	1450.12
491.003	1402.12
491.221	1444.12
