Data from SnStandardFlinnAPT0064_LampEnergy5.5_LIBS07252019.E.O._I.C._HRD10591_15-14-33-491.txt Node
Date: Thu Jul 25 15:14:33 EDT 2019
User: cochatt
Spectrometer: HR+D1059
Trigger mode: 1
Integration Time (sec): 1.000000E-1
Scans to average: 1
Electric dark correction enabled: true
Nonlinearity correction enabled: false
Boxcar width: 0
XAxis mode: Wavelengths
Number of Pixels in Spectrum: 2048
>>>>>Begin Spectral Data<<<<<
223.165	-24.25
223.4	-24.25
223.635	-24.25
223.869	-24.25
224.104	-25.25
224.338	-16.25
224.573	-11.25
224.808	-23.25
225.042	1.75
225.277	-12.25
225.511	1.75
225.746	5.75
225.98	9.75
226.215	9.75
226.449	10.75
226.683	19.75
226.918	34.75
227.152	42.75
227.387	36.75
227.621	34.75
227.856	42.75
228.09	36.75
228.324	54.75
228.559	58.75
228.793	83.75
229.027	135.75
229.262	153.75
229.496	147.75
229.73	158.75
229.964	143.75
230.199	145.75
230.433	154.75
230.667	152.75
230.901	159.75
231.136	155.75
231.37	174.75
231.604	170.75
231.838	193.75
232.072	222.75
232.306	224.75
232.541	200.75
232.775	189.75
233.009	196.75
233.243	203.75
233.477	194.75
233.711	227.75
233.945	235.75
234.179	233.75
234.413	189.75
234.647	217.75
234.881	209.75
235.115	233.75
235.349	245.75
235.583	309.75
235.817	354.75
236.051	341.75
236.285	260.75
236.519	234.75
236.753	213.75
236.987	217.75
237.221	233.75
237.455	218.75
237.689	205.75
237.922	206.75
238.156	217.75
238.39	222.75
238.624	222.75
238.858	219.75
239.091	203.75
239.325	219.75
239.559	218.75
239.793	221.75
240.027	232.75
240.26	241.75
240.494	237.75
240.728	233.75
240.961	246.75
241.195	261.75
241.429	294.75
241.662	290.75
241.896	293.75
242.13	358.75
242.363	455.75
242.597	570.75
242.83	521.75
243.064	522.75
243.298	613.75
243.531	519.75
243.765	382.75
243.998	313.75
244.232	300.75
244.465	283.75
244.699	270.75
244.932	279.75
245.166	282.75
245.399	293.75
245.633	286.75
245.866	298.75
246.099	282.75
246.333	286.75
246.566	286.75
246.8	293.75
247.033	290.75
247.266	278.75
247.5	298.75
247.733	310.75
247.966	291.75
248.2	286.75
248.433	331.75
248.666	353.75
248.899	351.75
249.133	331.75
249.366	342.75
249.599	373.75
249.832	399.75
250.066	382.75
250.299	346.75
250.532	323.75
250.765	332.75
250.998	307.75
251.231	311.75
251.465	322.75
251.698	324.75
251.931	320.75
252.164	318.75
252.397	325.75
252.63	328.75
252.863	323.75
253.096	328.75
253.329	326.75
253.562	331.75
253.795	334.75
254.028	347.75
254.261	343.75
254.494	356.75
254.727	408.75
254.96	449.75
255.193	445.75
255.426	365.75
255.659	354.75
255.892	363.75
256.124	354.75
256.357	363.75
256.59	373.75
256.823	389.75
257.056	414.75
257.289	478.75
257.521	490.75
257.754	446.75
257.987	378.75
258.22	387.75
258.452	387.75
258.685	405.75
258.918	397.75
259.151	385.75
259.383	402.75
259.616	459.75
259.849	469.75
260.081	440.75
260.314	411.75
260.547	414.75
260.779	388.75
261.012	416.75
261.244	413.75
261.477	421.75
261.71	425.75
261.942	424.75
262.175	419.75
262.407	445.75
262.64	425.75
262.872	460.75
263.105	488.75
263.337	521.75
263.57	529.75
263.802	530.75
264.035	541.75
264.267	546.75
264.499	581.75
264.732	595.75
264.964	599.75
265.197	589.75
265.429	611.75
265.661	625.75
265.894	616.75
266.126	693.75
266.358	714.75
266.591	721.75
266.823	652.75
267.055	600.75
267.287	569.75
267.52	551.75
267.752	573.75
267.984	517.75
268.216	514.75
268.448	512.75
268.681	522.75
268.913	495.75
269.145	511.75
269.377	513.75
269.609	502.75
269.841	520.75
270.073	526.75
270.306	610.75
270.538	763.75
270.77	1059.75
271.002	1261.75
271.234	935.75
271.466	685.75
271.698	597.75
271.93	561.75
272.162	523.75
272.394	535.75
272.626	529.75
272.858	523.75
273.09	507.75
273.322	486.75
273.553	468.75
273.785	517.75
274.017	520.75
274.249	493.75
274.481	506.75
274.713	505.75
274.945	495.75
275.176	493.75
275.408	503.75
275.64	501.75
275.872	507.75
276.104	528.75
276.335	509.75
276.567	522.75
276.799	500.75
277.031	539.75
277.262	538.75
277.494	544.75
277.726	561.75
277.957	646.75
278.189	736.75
278.421	679.75
278.652	639.75
278.884	576.75
279.115	567.75
279.347	545.75
279.579	550.75
279.81	536.75
280.042	526.75
280.273	553.75
280.505	585.75
280.736	576.75
280.968	625.75
281.199	635.75
281.431	700.75
281.662	735.75
281.894	664.75
282.125	638.75
282.356	643.75
282.588	636.75
282.819	657.75
283.051	687.75
283.282	718.75
283.513	891.75
283.745	1231.75
283.976	1817.75
284.207	2511.75
284.439	2250.75
284.67	1468.75
284.901	1226.75
285.132	1187.75
285.364	1148.75
285.595	907.75
285.826	883.75
286.057	1001.75
286.288	1259.75
286.52	1686.75
286.751	1533.75
286.982	1051.75
287.213	827.75
287.444	740.75
287.675	713.75
287.906	695.75
288.138	669.75
288.369	670.75
288.6	653.75
288.831	691.75
289.062	655.75
289.293	657.75
289.524	652.75
289.755	666.75
289.986	670.75
290.217	694.75
290.448	673.75
290.679	671.75
290.91	703.75
291.141	697.75
291.371	725.75
291.602	739.75
291.833	719.75
292.064	632.75
292.295	644.75
292.526	672.75
292.757	643.75
292.987	679.75
293.218	634.75
293.449	645.75
293.68	637.75
293.91	607.75
294.141	638.75
294.372	627.75
294.603	617.75
294.833	639.75
295.064	642.75
295.295	628.75
295.525	611.75
295.756	629.75
295.987	617.75
296.217	621.75
296.448	643.75
296.679	628.75
296.909	614.75
297.14	625.75
297.37	627.75
297.601	633.75
297.831	637.75
298.062	631.75
298.292	649.75
298.523	654.75
298.753	678.75
298.984	701.75
299.214	683.75
299.445	696.75
299.675	685.75
299.905	704.75
300.136	742.75
300.366	793.75
300.597	975.75
300.827	1270.75
301.057	1647.75
301.288	1625.75
301.518	1110.75
301.748	909.75
301.979	852.75
302.209	831.75
302.439	855.75
302.669	875.75
302.9	997.75
303.13	1390.75
303.36	1866.75
303.59	2424.75
303.82	2167.75
304.051	1384.75
304.281	1053.75
304.511	909.75
304.741	885.75
304.971	823.75
305.201	787.75
305.431	758.75
305.661	754.75
305.891	751.75
306.121	756.75
306.352	724.75
306.582	741.75
306.812	711.75
307.042	721.75
307.272	720.75
307.502	715.75
307.731	729.75
307.961	736.75
308.191	723.75
308.421	705.75
308.651	718.75
308.881	720.75
309.111	730.75
309.341	726.75
309.571	753.75
309.8	730.75
310.03	727.75
310.26	733.75
310.49	753.75
310.72	729.75
310.949	742.75
311.179	736.75
311.409	723.75
311.639	759.75
311.868	765.75
312.098	778.75
312.328	764.75
312.557	795.75
312.787	796.75
313.017	794.75
313.246	790.75
313.476	790.75
313.706	810.75
313.935	824.75
314.165	873.75
314.394	864.75
314.624	879.75
314.853	841.75
315.083	841.75
315.312	865.75
315.542	849.75
315.771	849.75
316.001	875.75
316.23	893.75
316.46	905.75
316.689	978.75
316.919	1135.75
317.148	1520.75
317.377	2249.75
317.607	3203.75
317.836	3344.75
318.065	2096.75
318.295	1425.75
318.524	1196.75
318.753	1073.75
318.983	1024.75
319.212	972.75
319.441	927.75
319.67	935.75
319.9	914.75
320.129	904.75
320.358	890.75
320.587	898.75
320.816	906.75
321.046	910.75
321.275	891.75
321.504	930.75
321.733	913.75
321.962	956.75
322.191	977.75
322.42	980.75
322.649	952.75
322.878	955.75
323.108	979.75
323.337	951.75
323.566	959.75
323.795	980.75
324.024	1031.75
324.253	1039.75
324.482	1065.75
324.71	1096.75
324.939	1190.75
325.168	1173.75
325.397	1223.75
325.626	1398.75
325.855	1882.75
326.084	2745.75
326.313	3991.75
326.542	4197.75
326.77	2848.75
326.999	1981.75
327.228	1741.75
327.457	1623.75
327.686	1666.75
327.914	1750.75
328.143	1998.75
328.372	2277.75
328.6	2397.75
328.829	2271.75
329.058	2010.75
329.287	1853.75
329.515	1713.75
329.744	1596.75
329.972	1533.75
330.201	1421.75
330.43	1409.75
330.658	1358.75
330.887	1373.75
331.115	1329.75
331.344	1300.75
331.572	1311.75
331.801	1318.75
332.03	1346.75
332.258	1360.75
332.486	1384.75
332.715	1503.75
332.943	1785.75
333.172	2106.75
333.4	2063.75
333.629	1709.75
333.857	1647.75
334.085	1635.75
334.314	1702.75
334.542	1837.75
334.771	2074.75
334.999	2457.75
335.227	2935.75
335.455	3214.75
335.684	3042.75
335.912	2639.75
336.14	2327.75
336.369	2107.75
336.597	1924.75
336.825	1779.75
337.053	1702.75
337.281	1607.75
337.51	1513.75
337.738	1409.75
337.966	1399.75
338.194	1374.75
338.422	1325.75
338.65	1326.75
338.878	1266.75
339.106	1255.75
339.334	1247.75
339.562	1245.75
339.79	1193.75
340.018	1164.75
340.246	1151.75
340.474	1190.75
340.702	1193.75
340.93	1187.75
341.158	1167.75
341.386	1165.75
341.614	1195.75
341.842	1142.75
342.07	1128.75
342.298	1111.75
342.526	1065.75
342.754	1062.75
342.981	1078.75
343.209	1109.75
343.437	1106.75
343.665	1106.75
343.893	1080.75
344.12	1117.75
344.348	1087.75
344.576	1078.75
344.804	1056.75
345.031	1045.75
345.259	1028.75
345.487	1013.75
345.714	990.75
345.942	1007.75
346.17	1002.75
346.397	981.75
346.625	998.75
346.853	989.75
347.08	951.75
347.308	981.75
347.535	987.75
347.763	961.75
347.99	989.75
348.218	959.75
348.445	985.75
348.673	957.75
348.9	969.75
349.128	985.75
349.355	958.75
349.583	964.75
349.81	967.75
350.037	945.75
350.265	967.75
350.492	944.75
350.72	952.75
350.947	953.75
351.174	942.75
351.402	961.75
351.629	935.75
351.856	939.75
352.083	945.75
352.311	949.75
352.538	948.75
352.765	947.75
352.992	933.75
353.22	921.75
353.447	925.75
353.674	952.75
353.901	907.75
354.128	987.75
354.355	942.75
354.583	957.75
354.81	957.75
355.037	964.75
355.264	971.75
355.491	938.75
355.718	986.75
355.945	961.75
356.172	970.75
356.399	958.75
356.626	960.75
356.853	998.75
357.08	990.75
357.307	995.75
357.534	995.75
357.761	983.75
357.988	1002.75
358.215	1019.75
358.441	1000.75
358.668	999.75
358.895	986.75
359.122	1028.75
359.349	993.75
359.576	996.75
359.802	1006.75
360.029	1014.75
360.256	990.75
360.483	1000.75
360.709	968.75
360.936	1000.75
361.163	993.75
361.39	1005.75
361.616	1032.75
361.843	1020.75
362.07	1025.75
362.296	998.75
362.523	986.75
362.749	992.75
362.976	1019.75
363.203	1005.75
363.429	1031.75
363.656	984.75
363.882	1000.75
364.109	1001.75
364.335	1032.75
364.562	1026.75
364.788	995.75
365.015	1002.75
365.241	1000.75
365.468	1072.75
365.694	1076.75
365.92	1112.75
366.147	1026.75
366.373	1056.75
366.599	1016.75
366.826	1038.75
367.052	1033.75
367.278	1041.75
367.505	1053.75
367.731	1066.75
367.957	1045.75
368.184	1039.75
368.41	1050.75
368.636	1074.75
368.862	1051.75
369.089	1086.75
369.315	1077.75
369.541	1056.75
369.767	1020.75
369.993	1042.75
370.219	1050.75
370.445	1038.75
370.672	1044.75
370.898	1054.75
371.124	1089.75
371.35	1079.75
371.576	1092.75
371.802	1077.75
372.028	1107.75
372.254	1071.75
372.48	1099.75
372.706	1122.75
372.932	1088.75
373.158	1065.75
373.384	1096.75
373.61	1125.75
373.835	1139.75
374.061	1121.75
374.287	1127.75
374.513	1090.75
374.739	1118.75
374.965	1147.75
375.191	1146.75
375.416	1139.75
375.642	1127.75
375.868	1135.75
376.094	1143.75
376.319	1139.75
376.545	1118.75
376.771	1125.75
376.997	1093.75
377.222	1099.75
377.448	1089.75
377.674	1073.75
377.899	1078.75
378.125	1116.75
378.35	1084.75
378.576	1088.75
378.802	1094.75
379.027	1142.75
379.253	1142.75
379.478	1184.75
379.704	1301.75
379.929	1721.75
380.155	2421.75
380.38	2604.75
380.606	1751.75
380.831	1325.75
381.057	1238.75
381.282	1169.75
381.507	1121.75
381.733	1112.75
381.958	1097.75
382.184	1092.75
382.409	1079.75
382.634	1067.75
382.86	1089.75
383.085	1099.75
383.31	1089.75
383.535	1104.75
383.761	1126.75
383.986	1081.75
384.211	1094.75
384.436	1091.75
384.662	1105.75
384.887	1114.75
385.112	1117.75
385.337	1123.75
385.562	1124.75
385.787	1130.75
386.013	1155.75
386.238	1126.75
386.463	1100.75
386.688	1135.75
386.913	1087.75
387.138	1123.75
387.363	1140.75
387.588	1138.75
387.813	1117.75
388.038	1114.75
388.263	1107.75
388.488	1106.75
388.713	1121.75
388.938	1150.75
389.163	1096.75
389.387	1130.75
389.612	1118.75
389.837	1117.75
390.062	1109.75
390.287	1128.75
390.512	1137.75
390.736	1135.75
390.961	1146.75
391.186	1144.75
391.411	1185.75
391.636	1188.75
391.86	1178.75
392.085	1183.75
392.31	1184.75
392.534	1157.75
392.759	1153.75
392.984	1145.75
393.208	1141.75
393.433	1139.75
393.658	1134.75
393.882	1139.75
394.107	1152.75
394.331	1174.75
394.556	1134.75
394.78	1109.75
395.005	1141.75
395.229	1173.75
395.454	1163.75
395.678	1145.75
395.903	1178.75
396.127	1183.75
396.352	1158.75
396.576	1159.75
396.801	1140.75
397.025	1156.75
397.249	1171.75
397.474	1202.75
397.698	1158.75
397.922	1163.75
398.147	1199.75
398.371	1167.75
398.595	1194.75
398.82	1241.75
399.044	1301.75
399.268	1336.75
399.492	1440.75
399.717	1481.75
399.941	1502.75
400.165	1462.75
400.389	1370.75
400.613	1321.75
400.837	1285.75
401.062	1258.75
401.286	1210.75
401.51	1251.75
401.734	1234.75
401.958	1253.75
402.182	1276.75
402.406	1236.75
402.63	1262.75
402.854	1273.75
403.078	1271.75
403.302	1299.75
403.526	1277.75
403.75	1307.75
403.974	1296.75
404.198	1275.75
404.422	1293.75
404.645	1300.75
404.869	1284.75
405.093	1314.75
405.317	1280.75
405.541	1323.75
405.765	1312.75
405.988	1325.75
406.212	1351.75
406.436	1317.75
406.66	1344.75
406.883	1315.75
407.107	1312.75
407.331	1373.75
407.555	1419.75
407.778	1423.75
408.002	1354.75
408.226	1341.75
408.449	1383.75
408.673	1332.75
408.896	1303.75
409.12	1304.75
409.344	1279.75
409.567	1289.75
409.791	1286.75
410.014	1247.75
410.238	1287.75
410.461	1301.75
410.685	1266.75
410.908	1276.75
411.132	1275.75
411.355	1221.75
411.578	1247.75
411.802	1237.75
412.025	1273.75
412.249	1248.75
412.472	1261.75
412.695	1254.75
412.919	1219.75
413.142	1216.75
413.365	1237.75
413.589	1259.75
413.812	1197.75
414.035	1222.75
414.258	1209.75
414.482	1208.75
414.705	1192.75
414.928	1200.75
415.151	1203.75
415.374	1226.75
415.597	1197.75
415.821	1204.75
416.044	1181.75
416.267	1178.75
416.49	1132.75
416.713	1173.75
416.936	1167.75
417.159	1157.75
417.382	1151.75
417.605	1133.75
417.828	1159.75
418.051	1182.75
418.274	1145.75
418.497	1167.75
418.72	1190.75
418.943	1205.75
419.166	1218.75
419.389	1301.75
419.611	1302.75
419.834	1239.75
420.057	1253.75
420.28	1171.75
420.503	1188.75
420.726	1187.75
420.948	1161.75
421.171	1188.75
421.394	1157.75
421.617	1225.75
421.839	1194.75
422.062	1203.75
422.285	1158.75
422.507	1187.75
422.73	1175.75
422.953	1191.75
423.175	1194.75
423.398	1197.75
423.621	1180.75
423.843	1205.75
424.066	1205.75
424.288	1168.75
424.511	1166.75
424.733	1186.75
424.956	1180.75
425.178	1191.75
425.401	1166.75
425.623	1192.75
425.846	1138.75
426.068	1167.75
426.291	1133.75
426.513	1124.75
426.735	1123.75
426.958	1149.75
427.18	1111.75
427.402	1096.75
427.625	1100.75
427.847	1088.75
428.069	1089.75
428.292	1101.75
428.514	1090.75
428.736	1118.75
428.958	1095.75
429.181	1077.75
429.403	1091.75
429.625	1062.75
429.847	1091.75
430.069	1122.75
430.292	1133.75
430.514	1151.75
430.736	1145.75
430.958	1097.75
431.18	1108.75
431.402	1071.75
431.624	1061.75
431.846	1072.75
432.068	1047.75
432.29	1075.75
432.512	1067.75
432.734	1092.75
432.956	1094.75
433.178	1103.75
433.4	1097.75
433.622	1086.75
433.844	1125.75
434.066	1070.75
434.287	1084.75
434.509	1089.75
434.731	1071.75
434.953	1110.75
435.175	1113.75
435.397	1139.75
435.618	1092.75
435.84	1094.75
436.062	1034.75
436.284	1067.75
436.505	1086.75
436.727	1087.75
436.949	1090.75
437.17	1081.75
437.392	1029.75
437.614	1065.75
437.835	1039.75
438.057	1025.75
438.278	1057.75
438.5	1064.75
438.721	1095.75
438.943	1107.75
439.165	1114.75
439.386	1105.75
439.608	1151.75
439.829	1145.75
440.05	1127.75
440.272	1145.75
440.493	1141.75
440.715	1111.75
440.936	1102.75
441.158	1138.75
441.379	1139.75
441.6	1176.75
441.822	1177.75
442.043	1229.75
442.264	1262.75
442.486	1218.75
442.707	1184.75
442.928	1187.75
443.149	1167.75
443.371	1172.75
443.592	1190.75
443.813	1186.75
444.034	1150.75
444.255	1213.75
444.476	1238.75
444.698	1229.75
444.919	1264.75
445.14	1323.75
445.361	1252.75
445.582	1225.75
445.803	1154.75
446.024	1138.75
446.245	1116.75
446.466	1167.75
446.687	1146.75
446.908	1137.75
447.129	1114.75
447.35	1094.75
447.571	1100.75
447.792	1081.75
448.013	1086.75
448.234	1087.75
448.455	1060.75
448.675	1071.75
448.896	1106.75
449.117	1121.75
449.338	1181.75
449.559	1213.75
449.779	1131.75
450	1050.75
450.221	1095.75
450.442	1065.75
450.662	1046.75
450.883	1026.75
451.104	1039.75
451.324	1038.75
451.545	1030.75
451.766	1073.75
451.986	1058.75
452.207	1085.75
452.428	1264.75
452.648	1701.75
452.869	1482.75
453.089	1153.75
453.31	1095.75
453.53	1111.75
453.751	1151.75
453.971	1187.75
454.192	1166.75
454.412	1063.75
454.633	1063.75
454.853	1036.75
455.073	1011.75
455.294	978.75
455.514	1017.75
455.734	983.75
455.955	1001.75
456.175	964.75
456.395	1007.75
456.616	982.75
456.836	1027.75
457.056	1009.75
457.276	1023.75
457.497	1037.75
457.717	1053.75
457.937	1021.75
458.157	1022.75
458.377	1027.75
458.598	1057.75
458.818	1061.75
459.038	1071.75
459.258	1085.75
459.478	1074.75
459.698	1075.75
459.918	1101.75
460.138	1134.75
460.358	1147.75
460.578	1158.75
460.798	1200.75
461.018	1175.75
461.238	1157.75
461.458	1152.75
461.678	1166.75
461.898	1205.75
462.118	1218.75
462.338	1265.75
462.558	1248.75
462.777	1240.75
462.997	1300.75
463.217	1362.75
463.437	1348.75
463.657	1369.75
463.876	1370.75
464.096	1331.75
464.316	1271.75
464.536	1257.75
464.755	1256.75
464.975	1237.75
465.195	1168.75
465.414	1159.75
465.634	1132.75
465.854	1111.75
466.073	1079.75
466.293	1111.75
466.512	1106.75
466.732	1087.75
466.951	1142.75
467.171	1200.75
467.391	1202.75
467.61	1129.75
467.829	1089.75
468.049	1087.75
468.268	1061.75
468.488	1088.75
468.707	1057.75
468.927	1066.75
469.146	1041.75
469.365	1074.75
469.585	1087.75
469.804	1078.75
470.023	1111.75
470.243	1127.75
470.462	1158.75
470.681	1190.75
470.901	1305.75
471.12	1409.75
471.339	1425.75
471.558	1238.75
471.777	1147.75
471.997	1144.75
472.216	1083.75
472.435	1073.75
472.654	1054.75
472.873	1033.75
473.092	1053.75
473.311	1035.75
473.53	1097.75
473.749	1100.75
473.968	1145.75
474.187	1082.75
474.406	1071.75
474.625	1057.75
474.844	1089.75
475.063	1090.75
475.282	1058.75
475.501	1087.75
475.72	1075.75
475.939	1099.75
476.158	1120.75
476.377	1142.75
476.596	1113.75
476.814	1154.75
477.033	1109.75
477.252	1140.75
477.471	1162.75
477.69	1184.75
477.908	1215.75
478.127	1235.75
478.346	1231.75
478.564	1264.75
478.783	1258.75
479.002	1284.75
479.22	1261.75
479.439	1262.75
479.658	1276.75
479.876	1246.75
480.095	1287.75
480.313	1279.75
480.532	1303.75
480.751	1289.75
480.969	1282.75
481.188	1262.75
481.406	1253.75
481.624	1226.75
481.843	1264.75
482.061	1277.75
482.28	1264.75
482.498	1283.75
482.717	1293.75
482.935	1296.75
483.153	1322.75
483.372	1337.75
483.59	1338.75
483.808	1353.75
484.027	1349.75
484.245	1405.75
484.463	1544.75
484.681	1671.75
484.9	1583.75
485.118	1472.75
485.336	1462.75
485.554	1446.75
485.772	1540.75
485.99	1698.75
486.209	1795.75
486.427	1543.75
486.645	1450.75
486.863	1405.75
487.081	1390.75
487.299	1365.75
487.517	1337.75
487.735	1406.75
487.953	1419.75
488.171	1395.75
488.389	1394.75
488.607	1334.75
488.825	1322.75
489.043	1350.75
489.261	1334.75
489.479	1344.75
489.696	1307.75
489.914	1333.75
490.132	1300.75
490.35	1329.75
490.568	1351.75
490.786	1401.75
491.003	1366.75
491.221	1431.75
491.439	1402.75
491.657	1431.75
491.874	1434.75
492.092	1428.75
