Data from SnStandardFlinnAPT0064_LampEnergy5.5_LIBS07252019.E.O._I.C._HRD10591_15-15-33-491.txt Node
Date: Thu Jul 25 15:15:33 EDT 2019
User: cochatt
Spectrometer: HR+D1059
Trigger mode: 1
Integration Time (sec): 1.000000E-1
Scans to average: 1
Electric dark correction enabled: true
Nonlinearity correction enabled: false
Boxcar width: 0
XAxis mode: Wavelengths
Number of Pixels in Spectrum: 2048
>>>>>Begin Spectral Data<<<<<
223.165	-24.44
223.4	-24.44
223.635	-24.44
223.869	-7.44
224.104	-3.44
224.338	-22.44
224.573	-28.44
224.808	-20.44
225.042	-14.44
225.277	-3.44
225.511	-8.44
225.746	2.56
225.98	-2.44
226.215	10.56
226.449	19.56
226.683	31.56
226.918	34.56
227.152	36.56
227.387	39.56
227.621	28.56
227.856	49.56
228.09	58.56
228.324	53.56
228.559	57.56
228.793	83.56
229.027	135.56
229.262	153.56
229.496	161.56
229.73	143.56
229.964	156.56
230.199	164.56
230.433	151.56
230.667	175.56
230.901	153.56
231.136	162.56
231.37	171.56
231.604	192.56
231.838	202.56
232.072	220.56
232.306	210.56
232.541	230.56
232.775	195.56
233.009	197.56
233.243	194.56
233.477	211.56
233.711	230.56
233.945	255.56
234.179	247.56
234.413	220.56
234.647	217.56
234.881	204.56
235.115	228.56
235.349	243.56
235.583	320.56
235.817	380.56
236.051	403.56
236.285	284.56
236.519	220.56
236.753	227.56
236.987	211.56
237.221	246.56
237.455	226.56
237.689	207.56
237.922	231.56
238.156	228.56
238.39	234.56
238.624	219.56
238.858	224.56
239.091	213.56
239.325	209.56
239.559	235.56
239.793	232.56
240.027	226.56
240.26	238.56
240.494	251.56
240.728	262.56
240.961	265.56
241.195	262.56
241.429	275.56
241.662	283.56
241.896	326.56
242.13	362.56
242.363	474.56
242.597	576.56
242.83	573.56
243.064	590.56
243.298	670.56
243.531	551.56
243.765	392.56
243.998	332.56
244.232	311.56
244.465	286.56
244.699	295.56
244.932	284.56
245.166	291.56
245.399	296.56
245.633	284.56
245.866	278.56
246.099	291.56
246.333	306.56
246.566	281.56
246.8	289.56
247.033	301.56
247.266	292.56
247.5	308.56
247.733	306.56
247.966	304.56
248.2	328.56
248.433	359.56
248.666	381.56
248.899	376.56
249.133	334.56
249.366	364.56
249.599	387.56
249.832	416.56
250.066	413.56
250.299	371.56
250.532	326.56
250.765	326.56
250.998	333.56
251.231	323.56
251.465	351.56
251.698	331.56
251.931	328.56
252.164	335.56
252.397	357.56
252.63	335.56
252.863	355.56
253.096	340.56
253.329	326.56
253.562	343.56
253.795	349.56
254.028	350.56
254.261	378.56
254.494	367.56
254.727	421.56
254.96	481.56
255.193	462.56
255.426	365.56
255.659	371.56
255.892	371.56
256.124	367.56
256.357	367.56
256.59	385.56
256.823	391.56
257.056	437.56
257.289	498.56
257.521	523.56
257.754	455.56
257.987	409.56
258.22	390.56
258.452	389.56
258.685	412.56
258.918	405.56
259.151	411.56
259.383	450.56
259.616	473.56
259.849	502.56
260.081	463.56
260.314	434.56
260.547	413.56
260.779	423.56
261.012	417.56
261.244	445.56
261.477	439.56
261.71	420.56
261.942	433.56
262.175	456.56
262.407	465.56
262.64	464.56
262.872	481.56
263.105	516.56
263.337	521.56
263.57	529.56
263.802	554.56
264.035	571.56
264.267	563.56
264.499	603.56
264.732	609.56
264.964	618.56
265.197	616.56
265.429	618.56
265.661	648.56
265.894	677.56
266.126	725.56
266.358	776.56
266.591	753.56
266.823	672.56
267.055	596.56
267.287	595.56
267.52	552.56
267.752	559.56
267.984	540.56
268.216	537.56
268.448	539.56
268.681	532.56
268.913	529.56
269.145	540.56
269.377	534.56
269.609	529.56
269.841	548.56
270.073	594.56
270.306	647.56
270.538	823.56
270.77	1151.56
271.002	1365.56
271.234	1039.56
271.466	702.56
271.698	615.56
271.93	565.56
272.162	558.56
272.394	542.56
272.626	526.56
272.858	524.56
273.09	537.56
273.322	526.56
273.553	533.56
273.785	528.56
274.017	496.56
274.249	515.56
274.481	523.56
274.713	520.56
274.945	529.56
275.176	542.56
275.408	520.56
275.64	523.56
275.872	527.56
276.104	537.56
276.335	510.56
276.567	536.56
276.799	544.56
277.031	571.56
277.262	556.56
277.494	576.56
277.726	633.56
277.957	662.56
278.189	748.56
278.421	702.56
278.652	663.56
278.884	641.56
279.115	598.56
279.347	590.56
279.579	573.56
279.81	563.56
280.042	579.56
280.273	602.56
280.505	599.56
280.736	613.56
280.968	623.56
281.199	660.56
281.431	724.56
281.662	765.56
281.894	678.56
282.125	667.56
282.356	664.56
282.588	667.56
282.819	685.56
283.051	710.56
283.282	767.56
283.513	926.56
283.745	1291.56
283.976	1977.56
284.207	2751.56
284.439	2505.56
284.67	1598.56
284.901	1227.56
285.132	1239.56
285.364	1189.56
285.595	995.56
285.826	901.56
286.057	1045.56
286.288	1353.56
286.52	1765.56
286.751	1676.56
286.982	1093.56
287.213	865.56
287.444	786.56
287.675	733.56
287.906	723.56
288.138	707.56
288.369	706.56
288.6	697.56
288.831	676.56
289.062	696.56
289.293	699.56
289.524	685.56
289.755	706.56
289.986	708.56
290.217	678.56
290.448	680.56
290.679	687.56
290.91	701.56
291.141	724.56
291.371	773.56
291.602	773.56
291.833	732.56
292.064	687.56
292.295	703.56
292.526	677.56
292.757	657.56
292.987	683.56
293.218	644.56
293.449	656.56
293.68	692.56
293.91	664.56
294.141	635.56
294.372	653.56
294.603	658.56
294.833	655.56
295.064	667.56
295.295	646.56
295.525	653.56
295.756	662.56
295.987	639.56
296.217	661.56
296.448	632.56
296.679	645.56
296.909	669.56
297.14	667.56
297.37	662.56
297.601	679.56
297.831	697.56
298.062	664.56
298.292	666.56
298.523	704.56
298.753	682.56
298.984	701.56
299.214	705.56
299.445	723.56
299.675	713.56
299.905	721.56
300.136	773.56
300.366	831.56
300.597	1054.56
300.827	1385.56
301.057	1774.56
301.288	1801.56
301.518	1168.56
301.748	961.56
301.979	901.56
302.209	880.56
302.439	876.56
302.669	952.56
302.9	1074.56
303.13	1440.56
303.36	2012.56
303.59	2660.56
303.82	2375.56
304.051	1467.56
304.281	1099.56
304.511	933.56
304.741	889.56
304.971	868.56
305.201	831.56
305.431	805.56
305.661	776.56
305.891	761.56
306.121	770.56
306.352	769.56
306.582	773.56
306.812	757.56
307.042	769.56
307.272	769.56
307.502	736.56
307.731	760.56
307.961	753.56
308.191	753.56
308.421	759.56
308.651	743.56
308.881	765.56
309.111	748.56
309.341	748.56
309.571	744.56
309.8	736.56
310.03	783.56
310.26	784.56
310.49	786.56
310.72	792.56
310.949	769.56
311.179	793.56
311.409	775.56
311.639	811.56
311.868	800.56
312.098	797.56
312.328	815.56
312.557	815.56
312.787	824.56
313.017	833.56
313.246	837.56
313.476	818.56
313.706	844.56
313.935	859.56
314.165	917.56
314.394	935.56
314.624	920.56
314.853	876.56
315.083	866.56
315.312	885.56
315.542	910.56
315.771	903.56
316.001	922.56
316.23	920.56
316.46	950.56
316.689	1008.56
316.919	1185.56
317.148	1677.56
317.377	2459.56
317.607	3552.56
317.836	3645.56
318.065	2252.56
318.295	1521.56
318.524	1245.56
318.753	1128.56
318.983	1059.56
319.212	978.56
319.441	986.56
319.67	975.56
319.9	986.56
320.129	963.56
320.358	943.56
320.587	932.56
320.816	965.56
321.046	953.56
321.275	970.56
321.504	985.56
321.733	979.56
321.962	991.56
322.191	983.56
322.42	988.56
322.649	991.56
322.878	980.56
323.108	1027.56
323.337	1025.56
323.566	998.56
323.795	1029.56
324.024	1068.56
324.253	1076.56
324.482	1124.56
324.71	1154.56
324.939	1243.56
325.168	1204.56
325.397	1255.56
325.626	1459.56
325.855	1975.56
326.084	3023.56
326.313	4365.56
326.542	4633.56
326.77	3036.56
326.999	2074.56
327.228	1799.56
327.457	1737.56
327.686	1739.56
327.914	1865.56
328.143	2111.56
328.372	2431.56
328.6	2567.56
328.829	2406.56
329.058	2125.56
329.287	1924.56
329.515	1751.56
329.744	1667.56
329.972	1621.56
330.201	1492.56
330.43	1440.56
330.658	1407.56
330.887	1414.56
331.115	1388.56
331.344	1347.56
331.572	1355.56
331.801	1392.56
332.03	1372.56
332.258	1358.56
332.486	1467.56
332.715	1641.56
332.943	1876.56
333.172	2284.56
333.4	2268.56
333.629	1849.56
333.857	1700.56
334.085	1737.56
334.314	1831.56
334.542	1979.56
334.771	2244.56
334.999	2577.56
335.227	3095.56
335.455	3493.56
335.684	3223.56
335.912	2787.56
336.14	2479.56
336.369	2207.56
336.597	2038.56
336.825	1886.56
337.053	1755.56
337.281	1674.56
337.51	1573.56
337.738	1520.56
337.966	1442.56
338.194	1425.56
338.422	1398.56
338.65	1357.56
338.878	1333.56
339.106	1305.56
339.334	1319.56
339.562	1229.56
339.79	1230.56
340.018	1279.56
340.246	1249.56
340.474	1205.56
340.702	1232.56
340.93	1229.56
341.158	1255.56
341.386	1211.56
341.614	1221.56
341.842	1180.56
342.07	1171.56
342.298	1139.56
342.526	1155.56
342.754	1150.56
342.981	1129.56
343.209	1108.56
343.437	1147.56
343.665	1123.56
343.893	1163.56
344.12	1148.56
344.348	1160.56
344.576	1138.56
344.804	1120.56
345.031	1079.56
345.259	1077.56
345.487	1059.56
345.714	1068.56
345.942	1047.56
346.17	1051.56
346.397	1030.56
346.625	1074.56
346.853	1025.56
347.08	1069.56
347.308	1047.56
347.535	1037.56
347.763	1035.56
347.99	1030.56
348.218	1026.56
348.445	1016.56
348.673	1012.56
348.9	990.56
349.128	1027.56
349.355	995.56
349.583	1027.56
349.81	1009.56
350.037	1000.56
350.265	1007.56
350.492	1004.56
350.72	1007.56
350.947	1000.56
351.174	999.56
351.402	969.56
351.629	993.56
351.856	989.56
352.083	986.56
352.311	996.56
352.538	977.56
352.765	975.56
352.992	998.56
353.22	995.56
353.447	1024.56
353.674	969.56
353.901	973.56
354.128	995.56
354.355	998.56
354.583	1012.56
354.81	1021.56
355.037	998.56
355.264	1010.56
355.491	993.56
355.718	1014.56
355.945	1023.56
356.172	1031.56
356.399	1023.56
356.626	1002.56
356.853	1033.56
357.08	1026.56
357.307	1044.56
357.534	1035.56
357.761	1045.56
357.988	1035.56
358.215	1040.56
358.441	1037.56
358.668	1054.56
358.895	1073.56
359.122	1044.56
359.349	1048.56
359.576	1060.56
359.802	1041.56
360.029	1039.56
360.256	1053.56
360.483	1094.56
360.709	1058.56
360.936	1043.56
361.163	1050.56
361.39	1066.56
361.616	1093.56
361.843	1059.56
362.07	1050.56
362.296	1025.56
362.523	1033.56
362.749	1058.56
362.976	1047.56
363.203	1043.56
363.429	1073.56
363.656	1029.56
363.882	1050.56
364.109	1065.56
364.335	1023.56
364.562	1079.56
364.788	1073.56
365.015	1050.56
365.241	1086.56
365.468	1087.56
365.694	1131.56
365.92	1145.56
366.147	1108.56
366.373	1063.56
366.599	1097.56
366.826	1076.56
367.052	1055.56
367.278	1093.56
367.505	1106.56
367.731	1065.56
367.957	1067.56
368.184	1075.56
368.41	1082.56
368.636	1073.56
368.862	1115.56
369.089	1054.56
369.315	1087.56
369.541	1110.56
369.767	1097.56
369.993	1065.56
370.219	1105.56
370.445	1089.56
370.672	1092.56
370.898	1120.56
371.124	1097.56
371.35	1133.56
371.576	1141.56
371.802	1138.56
372.028	1165.56
372.254	1161.56
372.48	1156.56
372.706	1168.56
372.932	1144.56
373.158	1156.56
373.384	1176.56
373.61	1170.56
373.835	1177.56
374.061	1148.56
374.287	1157.56
374.513	1169.56
374.739	1201.56
374.965	1209.56
375.191	1216.56
375.416	1214.56
375.642	1183.56
375.868	1153.56
376.094	1128.56
376.319	1179.56
376.545	1145.56
376.771	1148.56
376.997	1121.56
377.222	1155.56
377.448	1109.56
377.674	1148.56
377.899	1140.56
378.125	1131.56
378.35	1135.56
378.576	1142.56
378.802	1124.56
379.027	1156.56
379.253	1173.56
379.478	1206.56
379.704	1362.56
379.929	1868.56
380.155	2661.56
380.38	2783.56
380.606	1848.56
380.831	1386.56
381.057	1253.56
381.282	1201.56
381.507	1169.56
381.733	1146.56
381.958	1089.56
382.184	1141.56
382.409	1147.56
382.634	1129.56
382.86	1144.56
383.085	1097.56
383.31	1127.56
383.535	1150.56
383.761	1143.56
383.986	1183.56
384.211	1153.56
384.436	1142.56
384.662	1144.56
384.887	1153.56
385.112	1155.56
385.337	1176.56
385.562	1176.56
385.787	1159.56
386.013	1153.56
386.238	1175.56
386.463	1167.56
386.688	1205.56
386.913	1146.56
387.138	1181.56
387.363	1198.56
387.588	1186.56
387.813	1169.56
388.038	1171.56
388.263	1157.56
388.488	1197.56
388.713	1152.56
388.938	1143.56
389.163	1131.56
389.387	1177.56
389.612	1157.56
389.837	1157.56
390.062	1160.56
390.287	1172.56
390.512	1163.56
390.736	1219.56
390.961	1209.56
391.186	1160.56
391.411	1233.56
391.636	1220.56
391.86	1235.56
392.085	1232.56
392.31	1213.56
392.534	1213.56
392.759	1228.56
392.984	1174.56
393.208	1188.56
393.433	1182.56
393.658	1166.56
393.882	1186.56
394.107	1177.56
394.331	1139.56
394.556	1194.56
394.78	1188.56
395.005	1197.56
395.229	1178.56
395.454	1233.56
395.678	1230.56
395.903	1217.56
396.127	1178.56
396.352	1195.56
396.576	1189.56
396.801	1230.56
397.025	1199.56
397.249	1235.56
397.474	1234.56
397.698	1221.56
397.922	1215.56
398.147	1237.56
398.371	1263.56
398.595	1265.56
398.82	1313.56
399.044	1360.56
399.268	1383.56
399.492	1455.56
399.717	1564.56
399.941	1559.56
400.165	1481.56
400.389	1447.56
400.613	1384.56
400.837	1356.56
401.062	1334.56
401.286	1294.56
401.51	1282.56
401.734	1271.56
401.958	1307.56
402.182	1304.56
402.406	1284.56
402.63	1328.56
402.854	1329.56
403.078	1319.56
403.302	1351.56
403.526	1364.56
403.75	1383.56
403.974	1368.56
404.198	1333.56
404.422	1367.56
404.645	1347.56
404.869	1314.56
405.093	1380.56
405.317	1395.56
405.541	1379.56
405.765	1363.56
405.988	1355.56
406.212	1363.56
406.436	1376.56
406.66	1399.56
406.883	1382.56
407.107	1421.56
407.331	1419.56
407.555	1451.56
407.778	1439.56
408.002	1445.56
408.226	1441.56
408.449	1440.56
408.673	1369.56
408.896	1385.56
409.12	1345.56
409.344	1378.56
409.567	1344.56
409.791	1348.56
410.014	1340.56
410.238	1348.56
410.461	1313.56
410.685	1328.56
410.908	1325.56
411.132	1281.56
411.355	1289.56
411.578	1320.56
411.802	1307.56
412.025	1306.56
412.249	1288.56
412.472	1297.56
412.695	1274.56
412.919	1295.56
413.142	1269.56
413.365	1271.56
413.589	1303.56
413.812	1289.56
414.035	1266.56
414.258	1287.56
414.482	1303.56
414.705	1293.56
414.928	1274.56
415.151	1268.56
415.374	1254.56
415.597	1252.56
415.821	1224.56
416.044	1196.56
416.267	1216.56
416.49	1239.56
416.713	1207.56
416.936	1218.56
417.159	1205.56
417.382	1207.56
417.605	1233.56
417.828	1238.56
418.051	1229.56
418.274	1227.56
418.497	1234.56
418.72	1268.56
418.943	1236.56
419.166	1318.56
419.389	1365.56
419.611	1332.56
419.834	1283.56
420.057	1252.56
420.28	1251.56
420.503	1227.56
420.726	1211.56
420.948	1212.56
421.171	1230.56
421.394	1215.56
421.617	1237.56
421.839	1247.56
422.062	1251.56
422.285	1244.56
422.507	1248.56
422.73	1258.56
422.953	1249.56
423.175	1294.56
423.398	1258.56
423.621	1221.56
423.843	1225.56
424.066	1263.56
424.288	1237.56
424.511	1233.56
424.733	1219.56
424.956	1244.56
425.178	1211.56
425.401	1252.56
425.623	1231.56
425.846	1183.56
426.068	1203.56
426.291	1175.56
426.513	1161.56
426.735	1189.56
426.958	1191.56
427.18	1155.56
427.402	1178.56
427.625	1187.56
427.847	1205.56
428.069	1155.56
428.292	1177.56
428.514	1140.56
428.736	1128.56
428.958	1162.56
429.181	1139.56
429.403	1109.56
429.625	1133.56
429.847	1137.56
430.069	1142.56
430.292	1199.56
430.514	1169.56
430.736	1187.56
430.958	1118.56
431.18	1130.56
431.402	1134.56
431.624	1108.56
431.846	1123.56
432.068	1121.56
432.29	1103.56
432.512	1097.56
432.734	1121.56
432.956	1146.56
433.178	1139.56
433.4	1139.56
433.622	1162.56
433.844	1162.56
434.066	1140.56
434.287	1134.56
434.509	1142.56
434.731	1140.56
434.953	1168.56
435.175	1176.56
435.397	1177.56
435.618	1139.56
435.84	1148.56
436.062	1148.56
436.284	1148.56
436.505	1115.56
436.727	1109.56
436.949	1125.56
437.17	1148.56
437.392	1117.56
437.614	1101.56
437.835	1082.56
438.057	1053.56
438.278	1102.56
438.5	1105.56
438.721	1112.56
438.943	1133.56
439.165	1151.56
439.386	1163.56
439.608	1159.56
439.829	1153.56
440.05	1179.56
440.272	1238.56
440.493	1194.56
440.715	1153.56
440.936	1163.56
441.158	1194.56
441.379	1187.56
441.6	1233.56
441.822	1250.56
442.043	1308.56
442.264	1339.56
442.486	1253.56
442.707	1215.56
442.928	1218.56
443.149	1234.56
443.371	1199.56
443.592	1244.56
443.813	1214.56
444.034	1238.56
444.255	1219.56
444.476	1278.56
444.698	1307.56
444.919	1305.56
445.14	1394.56
445.361	1316.56
445.582	1245.56
445.803	1211.56
446.024	1220.56
446.245	1227.56
446.466	1189.56
446.687	1185.56
446.908	1194.56
447.129	1154.56
447.35	1145.56
447.571	1157.56
447.792	1140.56
448.013	1147.56
448.234	1107.56
448.455	1116.56
448.675	1141.56
448.896	1139.56
449.117	1202.56
449.338	1229.56
449.559	1299.56
449.779	1208.56
450	1130.56
450.221	1089.56
450.442	1098.56
450.662	1078.56
450.883	1096.56
451.104	1043.56
451.324	1107.56
451.545	1060.56
451.766	1063.56
451.986	1090.56
452.207	1136.56
452.428	1341.56
452.648	1828.56
452.869	1551.56
453.089	1231.56
453.31	1169.56
453.53	1146.56
453.751	1180.56
453.971	1240.56
454.192	1230.56
454.412	1095.56
454.633	1074.56
454.853	1068.56
455.073	1020.56
455.294	1072.56
455.514	1028.56
455.734	1050.56
455.955	1047.56
456.175	1035.56
456.395	1008.56
456.616	1040.56
456.836	996.56
457.056	1030.56
457.276	1038.56
457.497	1059.56
457.717	1121.56
457.937	1095.56
458.157	1082.56
458.377	1112.56
458.598	1096.56
458.818	1129.56
459.038	1105.56
459.258	1094.56
459.478	1126.56
459.698	1137.56
459.918	1147.56
460.138	1161.56
460.358	1191.56
460.578	1215.56
460.798	1235.56
461.018	1236.56
461.238	1233.56
461.458	1250.56
461.678	1235.56
461.898	1259.56
462.118	1257.56
462.338	1297.56
462.558	1311.56
462.777	1337.56
462.997	1422.56
463.217	1381.56
463.437	1443.56
463.657	1429.56
463.876	1448.56
464.096	1383.56
464.316	1361.56
464.536	1319.56
464.755	1352.56
464.975	1267.56
465.195	1232.56
465.414	1203.56
465.634	1174.56
465.854	1168.56
466.073	1165.56
466.293	1174.56
466.512	1135.56
466.732	1142.56
466.951	1175.56
467.171	1201.56
467.391	1215.56
467.61	1146.56
467.829	1139.56
468.049	1131.56
468.268	1088.56
468.488	1081.56
468.707	1079.56
468.927	1104.56
469.146	1141.56
469.365	1149.56
469.585	1144.56
469.804	1159.56
470.023	1170.56
470.243	1180.56
470.462	1192.56
470.681	1247.56
470.901	1334.56
471.12	1505.56
471.339	1493.56
471.558	1323.56
471.777	1183.56
471.997	1175.56
472.216	1125.56
472.435	1131.56
472.654	1122.56
472.873	1121.56
473.092	1092.56
473.311	1119.56
473.53	1127.56
473.749	1152.56
473.968	1155.56
474.187	1124.56
474.406	1098.56
474.625	1103.56
474.844	1075.56
475.063	1108.56
475.282	1123.56
475.501	1075.56
475.72	1148.56
475.939	1143.56
476.158	1172.56
476.377	1151.56
476.596	1150.56
476.814	1183.56
477.033	1194.56
477.252	1184.56
477.471	1214.56
477.69	1219.56
477.908	1253.56
478.127	1279.56
478.346	1231.56
478.564	1291.56
478.783	1301.56
479.002	1319.56
479.22	1363.56
479.439	1328.56
479.658	1329.56
479.876	1350.56
480.095	1335.56
480.313	1378.56
480.532	1364.56
480.751	1324.56
480.969	1338.56
481.188	1305.56
481.406	1318.56
481.624	1306.56
481.843	1316.56
482.061	1281.56
482.28	1354.56
482.498	1293.56
482.717	1342.56
482.935	1356.56
483.153	1353.56
483.372	1359.56
483.59	1355.56
483.808	1401.56
484.027	1403.56
484.245	1476.56
484.463	1609.56
484.681	1756.56
484.9	1627.56
485.118	1577.56
485.336	1509.56
485.554	1550.56
485.772	1605.56
485.99	1799.56
486.209	1913.56
486.427	1656.56
486.645	1468.56
486.863	1465.56
487.081	1430.56
487.299	1421.56
487.517	1410.56
487.735	1460.56
487.953	1460.56
488.171	1450.56
488.389	1396.56
488.607	1425.56
488.825	1375.56
489.043	1371.56
489.261	1392.56
489.479	1389.56
489.696	1375.56
489.914	1350.56
490.132	1399.56
490.35	1439.56
490.568	1425.56
490.786	1449.56
491.003	1427.56
491.221	1491.56
