Data from SnStandardFlinnAPT0064_LampEnergy10_LIBS07252019.E.O._I.C._HRD10591_15-20-30-493.txt Node
Date: Thu Jul 25 15:20:30 EDT 2019
User: cochatt
Spectrometer: HR+D1059
Trigger mode: 1
Integration Time (sec): 1.000000E-1
Scans to average: 1
Electric dark correction enabled: true
Nonlinearity correction enabled: false
Boxcar width: 0
XAxis mode: Wavelengths
Number of Pixels in Spectrum: 2048
>>>>>Begin Spectral Data<<<<<
223.165	-16.62
223.4	-16.62
223.635	-16.62
223.869	-15.62
224.104	-11.62
224.338	-9.62
224.573	-23.62
224.808	-19.62
225.042	-18.62
225.277	-12.62
225.511	12.38
225.746	11.38
225.98	6.38
226.215	1.38
226.449	19.38
226.683	22.38
226.918	30.38
227.152	24.38
227.387	36.38
227.621	50.38
227.856	32.38
228.09	38.38
228.324	55.38
228.559	44.38
228.793	121.38
229.027	298.38
229.262	347.38
229.496	304.38
229.73	286.38
229.964	301.38
230.199	311.38
230.433	298.38
230.667	309.38
230.901	331.38
231.136	317.38
231.37	364.38
231.604	396.38
231.838	447.38
232.072	544.38
232.306	578.38
232.541	467.38
232.775	426.38
233.009	412.38
233.243	418.38
233.477	472.38
233.711	520.38
233.945	599.38
234.179	531.38
234.413	460.38
234.647	444.38
234.881	485.38
235.115	510.38
235.349	625.38
235.583	774.38
235.817	1021.38
236.051	1002.38
236.285	641.38
236.519	528.38
236.753	532.38
236.987	503.38
237.221	539.38
237.455	526.38
237.689	471.38
237.922	459.38
238.156	472.38
238.39	490.38
238.624	468.38
238.858	469.38
239.091	471.38
239.325	499.38
239.559	498.38
239.793	510.38
240.027	530.38
240.26	529.38
240.494	559.38
240.728	571.38
240.961	601.38
241.195	641.38
241.429	688.38
241.662	692.38
241.896	785.38
242.13	953.38
242.363	1302.38
242.597	1678.38
242.83	1588.38
243.064	1586.38
243.298	1898.38
243.531	1561.38
243.765	964.38
243.998	805.38
244.232	702.38
244.465	646.38
244.699	644.38
244.932	655.38
245.166	648.38
245.399	690.38
245.633	690.38
245.866	675.38
246.099	662.38
246.333	645.38
246.566	630.38
246.8	641.38
247.033	613.38
247.266	632.38
247.5	619.38
247.733	676.38
247.966	719.38
248.2	765.38
248.433	869.38
248.666	967.38
248.899	943.38
249.133	859.38
249.366	871.38
249.599	993.38
249.832	1109.38
250.066	1100.38
250.299	865.38
250.532	762.38
250.765	737.38
250.998	726.38
251.231	713.38
251.465	718.38
251.698	742.38
251.931	729.38
252.164	742.38
252.397	774.38
252.63	784.38
252.863	806.38
253.096	814.38
253.329	791.38
253.562	793.38
253.795	764.38
254.028	792.38
254.261	822.38
254.494	876.38
254.727	1018.38
254.96	1230.38
255.193	1223.38
255.426	963.38
255.659	868.38
255.892	843.38
256.124	861.38
256.357	880.38
256.59	927.38
256.823	967.38
257.056	1128.38
257.289	1362.38
257.521	1487.38
257.754	1174.38
257.987	977.38
258.22	935.38
258.452	898.38
258.685	926.38
258.918	960.38
259.151	1024.38
259.383	1056.38
259.616	1257.38
259.849	1294.38
260.081	1057.38
260.314	970.38
260.547	920.38
260.779	908.38
261.012	944.38
261.244	966.38
261.477	966.38
261.71	987.38
261.942	970.38
262.175	990.38
262.407	1014.38
262.64	1046.38
262.872	1074.38
263.105	1118.38
263.337	1182.38
263.57	1223.38
263.802	1292.38
264.035	1259.38
264.267	1309.38
264.499	1384.38
264.732	1381.38
264.964	1436.38
265.197	1414.38
265.429	1458.38
265.661	1413.38
265.894	1544.38
266.126	1717.38
266.358	1946.38
266.591	1903.38
266.823	1558.38
267.055	1393.38
267.287	1354.38
267.52	1302.38
267.752	1285.38
267.984	1258.38
268.216	1246.38
268.448	1221.38
268.681	1240.38
268.913	1198.38
269.145	1205.38
269.377	1213.38
269.609	1278.38
269.841	1251.38
270.073	1363.38
270.306	1622.38
270.538	2194.38
270.77	3268.38
271.002	4015.38
271.234	2791.38
271.466	1865.38
271.698	1499.38
271.93	1392.38
272.162	1344.38
272.394	1286.38
272.626	1205.38
272.858	1218.38
273.09	1206.38
273.322	1210.38
273.553	1176.38
273.785	1207.38
274.017	1204.38
274.249	1183.38
274.481	1181.38
274.713	1170.38
274.945	1203.38
275.176	1207.38
275.408	1168.38
275.64	1226.38
275.872	1254.38
276.104	1235.38
276.335	1266.38
276.567	1273.38
276.799	1281.38
277.031	1278.38
277.262	1289.38
277.494	1400.38
277.726	1570.38
277.957	1833.38
278.189	2102.38
278.421	1967.38
278.652	1712.38
278.884	1659.38
279.115	1506.38
279.347	1410.38
279.579	1377.38
279.81	1406.38
280.042	1371.38
280.273	1417.38
280.505	1430.38
280.736	1472.38
280.968	1565.38
281.199	1776.38
281.431	1998.38
281.662	2096.38
281.894	1762.38
282.125	1640.38
282.356	1603.38
282.588	1609.38
282.819	1671.38
283.051	1820.38
283.282	2048.38
283.513	2467.38
283.745	3716.38
283.976	5856.38
284.207	8444.38
284.439	7521.38
284.67	4590.38
284.901	3756.38
285.132	3759.38
285.364	3621.38
285.595	2771.38
285.826	2446.38
286.057	2942.38
286.288	3914.38
286.52	5362.38
286.751	4935.38
286.982	3056.38
287.213	2289.38
287.444	1998.38
287.675	1876.38
287.906	1764.38
288.138	1732.38
288.369	1708.38
288.6	1670.38
288.831	1637.38
289.062	1654.38
289.293	1625.38
289.524	1679.38
289.755	1678.38
289.986	1680.38
290.217	1671.38
290.448	1718.38
290.679	1746.38
290.91	1737.38
291.141	1866.38
291.371	2006.38
291.602	2094.38
291.833	1909.38
292.064	1778.38
292.295	1667.38
292.526	1620.38
292.757	1582.38
292.987	1604.38
293.218	1561.38
293.449	1597.38
293.68	1593.38
293.91	1558.38
294.141	1557.38
294.372	1543.38
294.603	1556.38
294.833	1571.38
295.064	1569.38
295.295	1571.38
295.525	1546.38
295.756	1551.38
295.987	1518.38
296.217	1588.38
296.448	1552.38
296.679	1534.38
296.909	1511.38
297.14	1549.38
297.37	1564.38
297.601	1625.38
297.831	1602.38
298.062	1650.38
298.292	1626.38
298.523	1682.38
298.753	1707.38
298.984	1665.38
299.214	1724.38
299.445	1712.38
299.675	1774.38
299.905	1820.38
300.136	1948.38
300.366	2170.38
300.597	2755.38
300.827	3902.38
301.057	5363.38
301.288	5401.38
301.518	3452.38
301.748	2596.38
301.979	2394.38
302.209	2278.38
302.439	2321.38
302.669	2465.38
302.9	2983.38
303.13	4226.38
303.36	6309.38
303.59	8505.38
303.82	7304.38
304.051	4291.38
304.281	3004.38
304.511	2562.38
304.741	2352.38
304.971	2136.38
305.201	2068.38
305.431	1987.38
305.661	1970.38
305.891	1882.38
306.121	1843.38
306.352	1880.38
306.582	1821.38
306.812	1832.38
307.042	1781.38
307.272	1830.38
307.502	1758.38
307.731	1776.38
307.961	1794.38
308.191	1735.38
308.421	1774.38
308.651	1750.38
308.881	1780.38
309.111	1800.38
309.341	1788.38
309.571	1801.38
309.8	1854.38
310.03	1844.38
310.26	1840.38
310.49	1841.38
310.72	1878.38
310.949	1830.38
311.179	1912.38
311.409	1873.38
311.639	1908.38
311.868	1903.38
312.098	1855.38
312.328	1914.38
312.557	1894.38
312.787	1940.38
313.017	1976.38
313.246	2015.38
313.476	1992.38
313.706	2089.38
313.935	2163.38
314.165	2333.38
314.394	2476.38
314.624	2398.38
314.853	2163.38
315.083	2112.38
315.312	2143.38
315.542	2171.38
315.771	2140.38
316.001	2214.38
316.23	2248.38
316.46	2414.38
316.689	2648.38
316.919	3201.38
317.148	4672.38
317.377	7280.38
317.607	10782.38
317.836	11151.38
318.065	6734.38
318.295	4326.38
318.524	3444.38
318.753	3010.38
318.983	2754.38
319.212	2532.38
319.441	2469.38
319.67	2430.38
319.9	2338.38
320.129	2374.38
320.358	2311.38
320.587	2310.38
320.816	2309.38
321.046	2279.38
321.275	2348.38
321.504	2340.38
321.733	2385.38
321.962	2452.38
322.191	2557.38
322.42	2460.38
322.649	2442.38
322.878	2469.38
323.108	2451.38
323.337	2487.38
323.566	2558.38
323.795	2604.38
324.024	2659.38
324.253	2708.38
324.482	2820.38
324.71	2975.38
324.939	3196.38
325.168	3261.38
325.397	3394.38
325.626	4073.38
325.855	5661.38
326.084	9036.38
326.313	12950.38
326.542	13697.38
326.77	9235.38
326.999	6004.38
327.228	4955.38
327.457	4750.38
327.686	4815.38
327.914	5184.38
328.143	6141.38
328.372	7238.38
328.6	7974.38
328.829	7050.38
329.058	5884.38
329.287	5067.38
329.515	4655.38
329.744	4191.38
329.972	4016.38
330.201	3810.38
330.43	3704.38
330.658	3562.38
330.887	3492.38
331.115	3453.38
331.344	3432.38
331.572	3384.38
331.801	3422.38
332.03	3497.38
332.258	3482.38
332.486	3744.38
332.715	4292.38
332.943	5266.38
333.172	6642.38
333.4	6634.38
333.629	4869.38
333.857	4478.38
334.085	4448.38
334.314	4691.38
334.542	5101.38
334.771	6105.38
334.999	7591.38
335.227	9550.38
335.455	10733.38
335.684	9559.38
335.912	7795.38
336.14	6472.38
336.369	5740.38
336.597	5187.38
336.825	4800.38
337.053	4434.38
337.281	4214.38
337.51	4044.38
337.738	3797.38
337.966	3695.38
338.194	3516.38
338.422	3419.38
338.65	3296.38
338.878	3222.38
339.106	3190.38
339.334	3157.38
339.562	3100.38
339.79	3037.38
340.018	3030.38
340.246	2977.38
340.474	2924.38
340.702	2982.38
340.93	3024.38
341.158	2978.38
341.386	2986.38
341.614	2918.38
341.842	2848.38
342.07	2806.38
342.298	2776.38
342.526	2694.38
342.754	2672.38
342.981	2672.38
343.209	2699.38
343.437	2729.38
343.665	2782.38
343.893	2759.38
344.12	2804.38
344.348	2726.38
344.576	2673.38
344.804	2689.38
345.031	2600.38
345.259	2597.38
345.487	2512.38
345.714	2529.38
345.942	2494.38
346.17	2492.38
346.397	2466.38
346.625	2500.38
346.853	2438.38
347.08	2447.38
347.308	2478.38
347.535	2493.38
347.763	2505.38
347.99	2481.38
348.218	2416.38
348.445	2421.38
348.673	2429.38
348.9	2387.38
349.128	2388.38
349.355	2405.38
349.583	2380.38
349.81	2426.38
350.037	2370.38
350.265	2334.38
350.492	2375.38
350.72	2316.38
350.947	2387.38
351.174	2408.38
351.402	2386.38
351.629	2362.38
351.856	2336.38
352.083	2308.38
352.311	2341.38
352.538	2358.38
352.765	2362.38
352.992	2290.38
353.22	2336.38
353.447	2371.38
353.674	2348.38
353.901	2331.38
354.128	2322.38
354.355	2374.38
354.583	2374.38
354.81	2351.38
355.037	2420.38
355.264	2425.38
355.491	2410.38
355.718	2363.38
355.945	2449.38
356.172	2452.38
356.399	2416.38
356.626	2434.38
356.853	2452.38
357.08	2503.38
357.307	2506.38
357.534	2571.38
357.761	2515.38
357.988	2557.38
358.215	2537.38
358.441	2526.38
358.668	2463.38
358.895	2486.38
359.122	2484.38
359.349	2476.38
359.576	2503.38
359.802	2490.38
360.029	2478.38
360.256	2505.38
360.483	2522.38
360.709	2484.38
360.936	2522.38
361.163	2502.38
361.39	2484.38
361.616	2530.38
361.843	2486.38
362.07	2482.38
362.296	2546.38
362.523	2481.38
362.749	2536.38
362.976	2512.38
363.203	2528.38
363.429	2484.38
363.656	2533.38
363.882	2515.38
364.109	2534.38
364.335	2479.38
364.562	2493.38
364.788	2507.38
365.015	2582.38
365.241	2624.38
365.468	2712.38
365.694	2912.38
365.92	2816.38
366.147	2594.38
366.373	2544.38
366.599	2574.38
366.826	2583.38
367.052	2610.38
367.278	2548.38
367.505	2569.38
367.731	2558.38
367.957	2594.38
368.184	2598.38
368.41	2621.38
368.636	2604.38
368.862	2650.38
369.089	2561.38
369.315	2617.38
369.541	2599.38
369.767	2619.38
369.993	2594.38
370.219	2634.38
370.445	2628.38
370.672	2630.38
370.898	2581.38
371.124	2607.38
371.35	2668.38
371.576	2673.38
371.802	2686.38
372.028	2724.38
372.254	2700.38
372.48	2702.38
372.706	2740.38
372.932	2780.38
373.158	2726.38
373.384	2713.38
373.61	2727.38
373.835	2787.38
374.061	2770.38
374.287	2811.38
374.513	2788.38
374.739	2878.38
374.965	2829.38
375.191	2876.38
375.416	2863.38
375.642	2768.38
375.868	2836.38
376.094	2803.38
376.319	2724.38
376.545	2744.38
376.771	2723.38
376.997	2695.38
377.222	2689.38
377.448	2666.38
377.674	2644.38
377.899	2678.38
378.125	2709.38
378.35	2719.38
378.576	2702.38
378.802	2687.38
379.027	2760.38
379.253	2805.38
379.478	3016.38
379.704	3544.38
379.929	5168.38
380.155	7990.38
380.38	8736.38
380.606	5240.38
380.831	3648.38
381.057	3169.38
381.282	2964.38
381.507	2815.38
381.733	2780.38
381.958	2670.38
382.184	2710.38
382.409	2670.38
382.634	2624.38
382.86	2688.38
383.085	2663.38
383.31	2667.38
383.535	2668.38
383.761	2663.38
383.986	2660.38
384.211	2696.38
384.436	2764.38
384.662	2712.38
384.887	2755.38
385.112	2727.38
385.337	2700.38
385.562	2744.38
385.787	2693.38
386.013	2750.38
386.238	2743.38
386.463	2753.38
386.688	2734.38
386.913	2728.38
387.138	2707.38
387.363	2755.38
387.588	2660.38
387.813	2719.38
388.038	2740.38
388.263	2696.38
388.488	2723.38
388.713	2724.38
388.938	2735.38
389.163	2701.38
389.387	2728.38
389.612	2680.38
389.837	2696.38
390.062	2730.38
390.287	2781.38
390.512	2705.38
390.736	2784.38
390.961	2823.38
391.186	2836.38
391.411	2865.38
391.636	2876.38
391.86	2860.38
392.085	2852.38
392.31	2807.38
392.534	2813.38
392.759	2800.38
392.984	2832.38
393.208	2804.38
393.433	2776.38
393.658	2816.38
393.882	2709.38
394.107	2778.38
394.331	2773.38
394.556	2754.38
394.78	2781.38
395.005	2788.38
395.229	2780.38
395.454	2816.38
395.678	2789.38
395.903	2804.38
396.127	2834.38
396.352	2826.38
396.576	2776.38
396.801	2807.38
397.025	2873.38
397.249	2866.38
397.474	2889.38
397.698	2872.38
397.922	2924.38
398.147	2888.38
398.371	2919.38
398.595	3024.38
398.82	3052.38
399.044	3169.38
399.268	3286.38
399.492	3470.38
399.717	3641.38
399.941	3633.38
400.165	3492.38
400.389	3295.38
400.613	3171.38
400.837	3078.38
401.062	3057.38
401.286	3013.38
401.51	2997.38
401.734	2926.38
401.958	3057.38
402.182	3015.38
402.406	2988.38
402.63	3028.38
402.854	3038.38
403.078	3023.38
403.302	3038.38
403.526	3108.38
403.75	3090.38
403.974	3135.38
404.198	3121.38
404.422	3138.38
404.645	3063.38
404.869	3102.38
405.093	3104.38
405.317	3154.38
405.541	3106.38
405.765	3189.38
405.988	3236.38
406.212	3212.38
406.436	3228.38
406.66	3248.38
406.883	3172.38
407.107	3263.38
407.331	3344.38
407.555	3397.38
407.778	3358.38
408.002	3324.38
408.226	3380.38
408.449	3388.38
408.673	3259.38
408.896	3226.38
409.12	3230.38
409.344	3176.38
409.567	3121.38
409.791	3125.38
410.014	3061.38
410.238	3092.38
410.461	3070.38
410.685	3084.38
410.908	3063.38
411.132	3070.38
411.355	3020.38
411.578	3036.38
411.802	3018.38
412.025	2954.38
412.249	2971.38
412.472	2968.38
412.695	2920.38
412.919	2938.38
413.142	2924.38
413.365	2937.38
413.589	2918.38
413.812	2933.38
414.035	2970.38
414.258	2966.38
414.482	2896.38
414.705	2964.38
414.928	3012.38
415.151	2914.38
415.374	2900.38
415.597	2844.38
415.821	2805.38
416.044	2887.38
416.267	2784.38
416.49	2812.38
416.713	2832.38
416.936	2833.38
417.159	2736.38
417.382	2821.38
417.605	2806.38
417.828	2793.38
418.051	2850.38
418.274	2847.38
418.497	2921.38
418.72	2908.38
418.943	2894.38
419.166	2970.38
419.389	3170.38
419.611	3128.38
419.834	2979.38
420.057	2912.38
420.28	2869.38
420.503	2744.38
420.726	2836.38
420.948	2805.38
421.171	2838.38
421.394	2880.38
421.617	2775.38
421.839	2812.38
422.062	2810.38
422.285	2821.38
422.507	2898.38
422.73	2874.38
422.953	2913.38
423.175	2937.38
423.398	2925.38
423.621	2825.38
423.843	2827.38
424.066	2866.38
424.288	2827.38
424.511	2783.38
424.733	2832.38
424.956	2776.38
425.178	2768.38
425.401	2775.38
425.623	2770.38
425.846	2705.38
426.068	2756.38
426.291	2750.38
426.513	2686.38
426.735	2686.38
426.958	2705.38
427.18	2604.38
427.402	2646.38
427.625	2723.38
427.847	2640.38
428.069	2648.38
428.292	2697.38
428.514	2634.38
428.736	2592.38
428.958	2624.38
429.181	2581.38
429.403	2549.38
429.625	2564.38
429.847	2619.38
430.069	2678.38
430.292	2748.38
430.514	2812.38
430.736	2839.38
430.958	2679.38
431.18	2621.38
431.402	2553.38
431.624	2565.38
431.846	2590.38
432.068	2581.38
432.29	2608.38
432.512	2596.38
432.734	2615.38
432.956	2588.38
433.178	2612.38
433.4	2578.38
433.622	2662.38
433.844	2640.38
434.066	2642.38
434.287	2643.38
434.509	2653.38
434.731	2662.38
434.953	2657.38
435.175	2744.38
435.397	2693.38
435.618	2580.38
435.84	2580.38
436.062	2573.38
436.284	2594.38
436.505	2587.38
436.727	2574.38
436.949	2602.38
437.17	2565.38
437.392	2554.38
437.614	2528.38
437.835	2471.38
438.057	2510.38
438.278	2523.38
438.5	2527.38
438.721	2596.38
438.943	2642.38
439.165	2680.38
439.386	2693.38
439.608	2627.38
439.829	2703.38
440.05	2832.38
440.272	2844.38
440.493	2666.38
440.715	2688.38
440.936	2674.38
441.158	2709.38
441.379	2707.38
441.6	2860.38
441.822	2922.38
442.043	3061.38
442.264	3150.38
442.486	2962.38
442.707	2800.38
442.928	2755.38
443.149	2745.38
443.371	2750.38
443.592	2790.38
443.813	2796.38
444.034	2791.38
444.255	2868.38
444.476	2883.38
444.698	2937.38
444.919	2952.38
445.14	2997.38
445.361	2939.38
445.582	2876.38
445.803	2816.38
446.024	2757.38
446.245	2780.38
446.466	2778.38
446.687	2729.38
446.908	2674.38
447.129	2721.38
447.35	2633.38
447.571	2646.38
447.792	2565.38
448.013	2578.38
448.234	2551.38
448.455	2580.38
448.675	2608.38
448.896	2627.38
449.117	2789.38
449.338	3010.38
449.559	3126.38
449.779	2748.38
450	2568.38
450.221	2534.38
450.442	2549.38
450.662	2490.38
450.883	2469.38
451.104	2503.38
451.324	2490.38
451.545	2530.38
451.766	2520.38
451.986	2638.38
452.207	2775.38
452.428	3560.38
452.648	5522.38
452.869	4538.38
453.089	3082.38
453.31	2918.38
453.53	2941.38
453.751	3015.38
453.971	3196.38
454.192	3103.38
454.412	2648.38
454.633	2513.38
454.853	2466.38
455.073	2426.38
455.294	2429.38
455.514	2426.38
455.734	2383.38
455.955	2396.38
456.175	2370.38
456.395	2344.38
456.616	2385.38
456.836	2432.38
457.056	2411.38
457.276	2447.38
457.497	2612.38
457.717	2591.38
457.937	2543.38
458.157	2519.38
458.377	2522.38
458.598	2531.38
458.818	2541.38
459.038	2562.38
459.258	2538.38
459.478	2584.38
459.698	2641.38
459.918	2672.38
460.138	2654.38
460.358	2756.38
460.578	2728.38
460.798	2824.38
461.018	2830.38
461.238	2847.38
461.458	2834.38
461.678	2885.38
461.898	2936.38
462.118	2921.38
462.338	3015.38
462.558	2964.38
462.777	3072.38
462.997	3235.38
463.217	3420.38
463.437	3448.38
463.657	3545.38
463.876	3495.38
464.096	3348.38
464.316	3146.38
464.536	3112.38
464.755	3112.38
464.975	2956.38
465.195	2863.38
465.414	2744.38
465.634	2727.38
465.854	2690.38
466.073	2655.38
466.293	2668.38
466.512	2602.38
466.732	2680.38
466.951	2760.38
467.171	2965.38
467.391	2919.38
467.61	2640.38
467.829	2561.38
468.049	2581.38
468.268	2512.38
468.488	2545.38
468.707	2543.38
468.927	2521.38
469.146	2506.38
469.365	2564.38
469.585	2579.38
469.804	2631.38
470.023	2685.38
470.243	2719.38
470.462	2770.38
470.681	3017.38
470.901	3314.38
471.12	3760.38
471.339	3868.38
471.558	3105.38
471.777	2902.38
471.997	2727.38
472.216	2708.38
472.435	2626.38
472.654	2534.38
472.873	2570.38
473.092	2550.38
473.311	2570.38
473.53	2557.38
473.749	2680.38
473.968	2770.38
474.187	2642.38
474.406	2582.38
474.625	2534.38
474.844	2591.38
475.063	2576.38
475.282	2599.38
475.501	2621.38
475.72	2588.38
475.939	2576.38
476.158	2646.38
476.377	2735.38
476.596	2712.38
476.814	2737.38
477.033	2724.38
477.252	2781.38
477.471	2773.38
477.69	2828.38
477.908	2889.38
478.127	2872.38
478.346	2931.38
478.564	2994.38
478.783	2961.38
479.002	3005.38
479.22	3034.38
479.439	3073.38
479.658	3126.38
479.876	3051.38
480.095	3054.38
480.313	3212.38
480.532	3170.38
480.751	3190.38
480.969	3170.38
481.188	3100.38
481.406	3099.38
481.624	3097.38
481.843	3170.38
482.061	3116.38
482.28	3102.38
482.498	3130.38
482.717	3123.38
482.935	3101.38
483.153	3158.38
483.372	3223.38
483.59	3262.38
483.808	3308.38
484.027	3389.38
484.245	3614.38
484.463	4066.38
484.681	4508.38
484.9	4142.38
485.118	3771.38
485.336	3655.38
485.554	3787.38
485.772	3994.38
485.99	4578.38
486.209	4900.38
486.427	4136.38
486.645	3646.38
486.863	3509.38
487.081	3375.38
487.299	3325.38
487.517	3334.38
487.735	3366.38
