Data from SnStandardFlinnAPT0064_LampEnergy5.5_LIBS07252019.E.O._I.C._HRD10591_15-17-33-492.txt Node
Date: Thu Jul 25 15:17:33 EDT 2019
User: cochatt
Spectrometer: HR+D1059
Trigger mode: 1
Integration Time (sec): 1.000000E-1
Scans to average: 1
Electric dark correction enabled: true
Nonlinearity correction enabled: false
Boxcar width: 0
XAxis mode: Wavelengths
Number of Pixels in Spectrum: 2048
>>>>>Begin Spectral Data<<<<<
223.165	-13.81
223.4	-13.81
223.635	-13.81
223.869	-14.81
224.104	-14.81
224.338	-17.81
224.573	-21.81
224.808	-5.81
225.042	-20.81
225.277	-0.81
225.511	-11.81
225.746	20.19
225.98	17.19
226.215	19.19
226.449	18.19
226.683	11.19
226.918	16.19
227.152	20.19
227.387	38.19
227.621	42.19
227.856	39.19
228.09	38.19
228.324	59.19
228.559	70.19
228.793	82.19
229.027	158.19
229.262	170.19
229.496	160.19
229.73	156.19
229.964	175.19
230.199	168.19
230.433	164.19
230.667	166.19
230.901	177.19
231.136	160.19
231.37	184.19
231.604	199.19
231.838	230.19
232.072	265.19
232.306	270.19
232.541	228.19
232.775	217.19
233.009	204.19
233.243	213.19
233.477	240.19
233.711	256.19
233.945	283.19
234.179	246.19
234.413	222.19
234.647	216.19
234.881	223.19
235.115	259.19
235.349	311.19
235.583	372.19
235.817	470.19
236.051	471.19
236.285	318.19
236.519	265.19
236.753	235.19
236.987	240.19
237.221	264.19
237.455	266.19
237.689	221.19
237.922	240.19
238.156	222.19
238.39	242.19
238.624	231.19
238.858	234.19
239.091	238.19
239.325	254.19
239.559	234.19
239.793	262.19
240.027	262.19
240.26	260.19
240.494	255.19
240.728	262.19
240.961	294.19
241.195	311.19
241.429	312.19
241.662	318.19
241.896	361.19
242.13	435.19
242.363	558.19
242.597	739.19
242.83	678.19
243.064	695.19
243.298	836.19
243.531	683.19
243.765	419.19
243.998	358.19
244.232	327.19
244.465	297.19
244.699	315.19
244.932	303.19
245.166	306.19
245.399	303.19
245.633	331.19
245.866	330.19
246.099	321.19
246.333	308.19
246.566	302.19
246.8	307.19
247.033	316.19
247.266	313.19
247.5	324.19
247.733	336.19
247.966	331.19
248.2	355.19
248.433	402.19
248.666	460.19
248.899	414.19
249.133	381.19
249.366	394.19
249.599	428.19
249.832	467.19
250.066	478.19
250.299	393.19
250.532	367.19
250.765	345.19
250.998	368.19
251.231	349.19
251.465	332.19
251.698	347.19
251.931	359.19
252.164	362.19
252.397	332.19
252.63	373.19
252.863	384.19
253.096	364.19
253.329	365.19
253.562	375.19
253.795	361.19
254.028	366.19
254.261	392.19
254.494	406.19
254.727	455.19
254.96	553.19
255.193	560.19
255.426	444.19
255.659	397.19
255.892	398.19
256.124	389.19
256.357	399.19
256.59	424.19
256.823	447.19
257.056	482.19
257.289	575.19
257.521	667.19
257.754	518.19
257.987	456.19
258.22	420.19
258.452	414.19
258.685	441.19
258.918	440.19
259.151	437.19
259.383	489.19
259.616	525.19
259.849	550.19
260.081	487.19
260.314	452.19
260.547	463.19
260.779	443.19
261.012	453.19
261.244	458.19
261.477	466.19
261.71	451.19
261.942	470.19
262.175	477.19
262.407	490.19
262.64	500.19
262.872	502.19
263.105	532.19
263.337	558.19
263.57	564.19
263.802	618.19
264.035	626.19
264.267	624.19
264.499	632.19
264.732	654.19
264.964	670.19
265.197	668.19
265.429	662.19
265.661	690.19
265.894	736.19
266.126	784.19
266.358	874.19
266.591	832.19
266.823	731.19
267.055	667.19
267.287	651.19
267.52	619.19
267.752	605.19
267.984	595.19
268.216	588.19
268.448	583.19
268.681	570.19
268.913	574.19
269.145	579.19
269.377	591.19
269.609	578.19
269.841	589.19
270.073	633.19
270.306	731.19
270.538	947.19
270.77	1456.19
271.002	1756.19
271.234	1218.19
271.466	822.19
271.698	667.19
271.93	623.19
272.162	578.19
272.394	573.19
272.626	569.19
272.858	576.19
273.09	592.19
273.322	552.19
273.553	538.19
273.785	560.19
274.017	555.19
274.249	560.19
274.481	560.19
274.713	547.19
274.945	578.19
275.176	544.19
275.408	564.19
275.64	580.19
275.872	568.19
276.104	551.19
276.335	585.19
276.567	571.19
276.799	571.19
277.031	589.19
277.262	583.19
277.494	615.19
277.726	676.19
277.957	766.19
278.189	891.19
278.421	836.19
278.652	752.19
278.884	702.19
279.115	647.19
279.347	640.19
279.579	615.19
279.81	645.19
280.042	647.19
280.273	651.19
280.505	653.19
280.736	692.19
280.968	698.19
281.199	734.19
281.431	858.19
281.662	859.19
281.894	770.19
282.125	702.19
282.356	723.19
282.588	720.19
282.819	743.19
283.051	783.19
283.282	859.19
283.513	1060.19
283.745	1576.19
283.976	2608.19
284.207	3626.19
284.439	3212.19
284.67	1860.19
284.901	1520.19
285.132	1464.19
285.364	1454.19
285.595	1115.19
285.826	1055.19
286.057	1253.19
286.288	1703.19
286.52	2290.19
286.751	2099.19
286.982	1259.19
287.213	920.19
287.444	866.19
287.675	789.19
287.906	777.19
288.138	778.19
288.369	746.19
288.6	742.19
288.831	744.19
289.062	740.19
289.293	752.19
289.524	743.19
289.755	751.19
289.986	766.19
290.217	742.19
290.448	766.19
290.679	773.19
290.91	798.19
291.141	803.19
291.371	878.19
291.602	894.19
291.833	827.19
292.064	770.19
292.295	720.19
292.526	742.19
292.757	714.19
292.987	712.19
293.218	697.19
293.449	718.19
293.68	720.19
293.91	717.19
294.141	696.19
294.372	705.19
294.603	699.19
294.833	710.19
295.064	704.19
295.295	694.19
295.525	702.19
295.756	713.19
295.987	659.19
296.217	701.19
296.448	705.19
296.679	713.19
296.909	706.19
297.14	711.19
297.37	726.19
297.601	751.19
297.831	734.19
298.062	748.19
298.292	743.19
298.523	740.19
298.753	742.19
298.984	728.19
299.214	779.19
299.445	748.19
299.675	778.19
299.905	811.19
300.136	843.19
300.366	929.19
300.597	1200.19
300.827	1678.19
301.057	2232.19
301.288	2261.19
301.518	1394.19
301.748	1084.19
301.979	1015.19
302.209	954.19
302.439	956.19
302.669	1039.19
302.9	1246.19
303.13	1766.19
303.36	2661.19
303.59	3563.19
303.82	3076.19
304.051	1742.19
304.281	1258.19
304.511	1060.19
304.741	960.19
304.971	899.19
305.201	892.19
305.431	866.19
305.661	868.19
305.891	851.19
306.121	809.19
306.352	835.19
306.582	823.19
306.812	797.19
307.042	828.19
307.272	821.19
307.502	789.19
307.731	802.19
307.961	776.19
308.191	818.19
308.421	796.19
308.651	824.19
308.881	833.19
309.111	824.19
309.341	818.19
309.571	816.19
309.8	844.19
310.03	824.19
310.26	835.19
310.49	842.19
310.72	875.19
310.949	844.19
311.179	840.19
311.409	826.19
311.639	846.19
311.868	870.19
312.098	859.19
312.328	861.19
312.557	890.19
312.787	888.19
313.017	896.19
313.246	904.19
313.476	892.19
313.706	895.19
313.935	945.19
314.165	1006.19
314.394	1087.19
314.624	994.19
314.853	953.19
315.083	964.19
315.312	949.19
315.542	936.19
315.771	965.19
316.001	987.19
316.23	1005.19
316.46	1056.19
316.689	1126.19
316.919	1364.19
317.148	2008.19
317.377	3114.19
317.607	4674.19
317.836	4811.19
318.065	2711.19
318.295	1738.19
318.524	1410.19
318.753	1233.19
318.983	1139.19
319.212	1110.19
319.441	1054.19
319.67	1010.19
319.9	1035.19
320.129	1027.19
320.358	1026.19
320.587	1010.19
320.816	1012.19
321.046	1048.19
321.275	1031.19
321.504	1024.19
321.733	1070.19
321.962	1090.19
322.191	1100.19
322.42	1073.19
322.649	1099.19
322.878	1064.19
323.108	1092.19
323.337	1106.19
323.566	1082.19
323.795	1129.19
324.024	1128.19
324.253	1175.19
324.482	1217.19
324.71	1297.19
324.939	1364.19
325.168	1386.19
325.397	1414.19
325.626	1681.19
325.855	2369.19
326.084	3786.19
326.313	5702.19
326.542	6012.19
326.77	3730.19
326.999	2360.19
327.228	1983.19
327.457	1883.19
327.686	1929.19
327.914	2015.19
328.143	2336.19
328.372	2710.19
328.6	2938.19
328.829	2680.19
329.058	2365.19
329.287	2086.19
329.515	1917.19
329.744	1798.19
329.972	1718.19
330.201	1615.19
330.43	1538.19
330.658	1546.19
330.887	1534.19
331.115	1519.19
331.344	1472.19
331.572	1445.19
331.801	1461.19
332.03	1475.19
332.258	1514.19
332.486	1584.19
332.715	1810.19
332.943	2210.19
333.172	2720.19
333.4	2694.19
333.629	2069.19
333.857	1857.19
334.085	1884.19
334.314	1912.19
334.542	2066.19
334.771	2428.19
334.999	2929.19
335.227	3570.19
335.455	3920.19
335.684	3714.19
335.912	3098.19
336.14	2634.19
336.369	2382.19
336.597	2194.19
336.825	1988.19
337.053	1876.19
337.281	1759.19
337.51	1716.19
337.738	1621.19
337.966	1579.19
338.194	1515.19
338.422	1474.19
338.65	1480.19
338.878	1437.19
339.106	1397.19
339.334	1405.19
339.562	1365.19
339.79	1315.19
340.018	1295.19
340.246	1322.19
340.474	1304.19
340.702	1282.19
340.93	1318.19
341.158	1324.19
341.386	1295.19
341.614	1294.19
341.842	1281.19
342.07	1253.19
342.298	1242.19
342.526	1224.19
342.754	1173.19
342.981	1210.19
343.209	1197.19
343.437	1201.19
343.665	1242.19
343.893	1249.19
344.12	1221.19
344.348	1204.19
344.576	1215.19
344.804	1183.19
345.031	1194.19
345.259	1149.19
345.487	1142.19
345.714	1148.19
345.942	1130.19
346.17	1107.19
346.397	1099.19
346.625	1104.19
346.853	1099.19
347.08	1093.19
347.308	1131.19
347.535	1132.19
347.763	1096.19
347.99	1080.19
348.218	1076.19
348.445	1084.19
348.673	1053.19
348.9	1099.19
349.128	1099.19
349.355	1088.19
349.583	1064.19
349.81	1083.19
350.037	1052.19
350.265	1059.19
350.492	1107.19
350.72	1067.19
350.947	1097.19
351.174	1050.19
351.402	1091.19
351.629	1055.19
351.856	1082.19
352.083	1080.19
352.311	1055.19
352.538	1062.19
352.765	1078.19
352.992	1067.19
353.22	1014.19
353.447	1028.19
353.674	1047.19
353.901	1086.19
354.128	1045.19
354.355	1052.19
354.583	1076.19
354.81	1094.19
355.037	1067.19
355.264	1073.19
355.491	1088.19
355.718	1070.19
355.945	1066.19
356.172	1102.19
356.399	1084.19
356.626	1093.19
356.853	1101.19
357.08	1115.19
357.307	1108.19
357.534	1121.19
357.761	1135.19
357.988	1113.19
358.215	1097.19
358.441	1106.19
358.668	1121.19
358.895	1113.19
359.122	1119.19
359.349	1125.19
359.576	1070.19
359.802	1102.19
360.029	1095.19
360.256	1120.19
360.483	1121.19
360.709	1119.19
360.936	1142.19
361.163	1129.19
361.39	1129.19
361.616	1144.19
361.843	1136.19
362.07	1134.19
362.296	1156.19
362.523	1136.19
362.749	1145.19
362.976	1122.19
363.203	1140.19
363.429	1110.19
363.656	1115.19
363.882	1108.19
364.109	1113.19
364.335	1115.19
364.562	1119.19
364.788	1114.19
365.015	1128.19
365.241	1163.19
365.468	1240.19
365.694	1284.19
365.92	1225.19
366.147	1166.19
366.373	1190.19
366.599	1156.19
366.826	1146.19
367.052	1145.19
367.278	1147.19
367.505	1168.19
367.731	1153.19
367.957	1144.19
368.184	1158.19
368.41	1180.19
368.636	1176.19
368.862	1182.19
369.089	1188.19
369.315	1166.19
369.541	1161.19
369.767	1189.19
369.993	1169.19
370.219	1164.19
370.445	1190.19
370.672	1218.19
370.898	1206.19
371.124	1181.19
371.35	1196.19
371.576	1226.19
371.802	1188.19
372.028	1211.19
372.254	1226.19
372.48	1248.19
372.706	1243.19
372.932	1203.19
373.158	1228.19
373.384	1242.19
373.61	1212.19
373.835	1241.19
374.061	1227.19
374.287	1276.19
374.513	1234.19
374.739	1252.19
374.965	1294.19
375.191	1258.19
375.416	1265.19
375.642	1279.19
375.868	1270.19
376.094	1286.19
376.319	1232.19
376.545	1207.19
376.771	1225.19
376.997	1227.19
377.222	1263.19
377.448	1181.19
377.674	1218.19
377.899	1202.19
378.125	1192.19
378.35	1203.19
378.576	1222.19
378.802	1228.19
379.027	1223.19
379.253	1282.19
379.478	1369.19
379.704	1550.19
379.929	2248.19
380.155	3369.19
380.38	3702.19
380.606	2226.19
380.831	1593.19
381.057	1386.19
381.282	1264.19
381.507	1257.19
381.733	1239.19
381.958	1205.19
382.184	1228.19
382.409	1228.19
382.634	1224.19
382.86	1201.19
383.085	1176.19
383.31	1196.19
383.535	1183.19
383.761	1196.19
383.986	1184.19
384.211	1224.19
384.436	1247.19
384.662	1251.19
384.887	1273.19
385.112	1259.19
385.337	1224.19
385.562	1217.19
385.787	1212.19
386.013	1260.19
386.238	1242.19
386.463	1274.19
386.688	1250.19
386.913	1212.19
387.138	1233.19
387.363	1234.19
387.588	1233.19
387.813	1242.19
388.038	1233.19
388.263	1223.19
388.488	1248.19
388.713	1249.19
388.938	1262.19
389.163	1239.19
389.387	1235.19
389.612	1228.19
389.837	1231.19
390.062	1240.19
390.287	1255.19
390.512	1279.19
390.736	1260.19
390.961	1271.19
391.186	1267.19
391.411	1312.19
391.636	1287.19
391.86	1298.19
392.085	1319.19
392.31	1298.19
392.534	1290.19
392.759	1284.19
392.984	1265.19
393.208	1292.19
393.433	1278.19
393.658	1290.19
393.882	1259.19
394.107	1255.19
394.331	1268.19
394.556	1244.19
394.78	1282.19
395.005	1267.19
395.229	1278.19
395.454	1310.19
395.678	1319.19
395.903	1282.19
396.127	1299.19
396.352	1268.19
396.576	1306.19
396.801	1288.19
397.025	1312.19
397.249	1326.19
397.474	1285.19
397.698	1284.19
397.922	1321.19
398.147	1289.19
398.371	1353.19
398.595	1367.19
398.82	1363.19
399.044	1447.19
399.268	1503.19
399.492	1567.19
399.717	1620.19
399.941	1638.19
400.165	1604.19
400.389	1525.19
400.613	1456.19
400.837	1410.19
401.062	1414.19
401.286	1390.19
401.51	1349.19
401.734	1330.19
401.958	1377.19
402.182	1350.19
402.406	1354.19
402.63	1403.19
402.854	1434.19
403.078	1409.19
403.302	1417.19
403.526	1400.19
403.75	1407.19
403.974	1423.19
404.198	1420.19
404.422	1428.19
404.645	1444.19
404.869	1402.19
405.093	1419.19
405.317	1421.19
405.541	1438.19
405.765	1455.19
405.988	1458.19
406.212	1439.19
406.436	1423.19
406.66	1456.19
406.883	1459.19
407.107	1512.19
407.331	1520.19
407.555	1563.19
407.778	1532.19
408.002	1499.19
408.226	1494.19
408.449	1484.19
408.673	1470.19
408.896	1451.19
409.12	1424.19
409.344	1442.19
409.567	1426.19
409.791	1421.19
410.014	1415.19
410.238	1410.19
410.461	1391.19
410.685	1392.19
410.908	1390.19
411.132	1371.19
411.355	1356.19
411.578	1356.19
411.802	1396.19
412.025	1378.19
412.249	1354.19
412.472	1370.19
412.695	1336.19
412.919	1343.19
413.142	1338.19
413.365	1371.19
413.589	1349.19
413.812	1308.19
414.035	1334.19
414.258	1355.19
414.482	1338.19
414.705	1351.19
414.928	1331.19
415.151	1348.19
415.374	1326.19
415.597	1343.19
415.821	1293.19
416.044	1292.19
416.267	1302.19
416.49	1328.19
416.713	1258.19
416.936	1298.19
417.159	1288.19
417.382	1264.19
417.605	1289.19
417.828	1322.19
418.051	1293.19
418.274	1315.19
418.497	1322.19
418.72	1342.19
418.943	1311.19
419.166	1333.19
419.389	1446.19
419.611	1438.19
419.834	1387.19
420.057	1342.19
420.28	1328.19
420.503	1295.19
420.726	1287.19
420.948	1270.19
421.171	1294.19
421.394	1314.19
421.617	1310.19
421.839	1298.19
422.062	1332.19
422.285	1275.19
422.507	1314.19
422.73	1313.19
422.953	1329.19
423.175	1329.19
423.398	1289.19
423.621	1279.19
423.843	1313.19
424.066	1296.19
424.288	1302.19
424.511	1319.19
424.733	1307.19
424.956	1300.19
425.178	1282.19
425.401	1258.19
425.623	1286.19
425.846	1264.19
426.068	1275.19
426.291	1266.19
426.513	1263.19
426.735	1252.19
426.958	1244.19
427.18	1209.19
427.402	1252.19
427.625	1226.19
427.847	1188.19
428.069	1183.19
428.292	1237.19
428.514	1198.19
428.736	1186.19
428.958	1209.19
429.181	1164.19
429.403	1200.19
429.625	1186.19
429.847	1213.19
430.069	1227.19
430.292	1273.19
430.514	1292.19
430.736	1293.19
430.958	1224.19
431.18	1223.19
431.402	1225.19
431.624	1170.19
431.846	1163.19
432.068	1187.19
432.29	1174.19
432.512	1166.19
432.734	1211.19
432.956	1202.19
433.178	1204.19
433.4	1219.19
433.622	1214.19
433.844	1202.19
434.066	1201.19
434.287	1210.19
434.509	1194.19
434.731	1225.19
434.953	1239.19
435.175	1222.19
435.397	1252.19
435.618	1206.19
435.84	1224.19
436.062	1172.19
436.284	1214.19
436.505	1169.19
436.727	1164.19
436.949	1171.19
437.17	1193.19
437.392	1136.19
437.614	1192.19
437.835	1146.19
438.057	1115.19
438.278	1140.19
438.5	1177.19
438.721	1169.19
438.943	1221.19
439.165	1222.19
439.386	1250.19
439.608	1233.19
439.829	1254.19
440.05	1291.19
440.272	1282.19
440.493	1235.19
440.715	1247.19
440.936	1251.19
441.158	1253.19
441.379	1266.19
441.6	1321.19
441.822	1336.19
442.043	1404.19
442.264	1463.19
442.486	1356.19
442.707	1294.19
442.928	1259.19
443.149	1300.19
443.371	1276.19
443.592	1292.19
443.813	1323.19
444.034	1303.19
444.255	1282.19
444.476	1336.19
444.698	1324.19
444.919	1383.19
445.14	1442.19
445.361	1390.19
445.582	1307.19
445.803	1319.19
446.024	1290.19
446.245	1295.19
446.466	1282.19
446.687	1259.19
446.908	1267.19
447.129	1199.19
447.35	1208.19
447.571	1258.19
447.792	1187.19
448.013	1183.19
448.234	1196.19
448.455	1192.19
448.675	1189.19
448.896	1211.19
449.117	1276.19
449.338	1379.19
449.559	1414.19
449.779	1296.19
450	1179.19
450.221	1157.19
450.442	1161.19
450.662	1148.19
450.883	1146.19
451.104	1125.19
451.324	1115.19
451.545	1130.19
451.766	1154.19
451.986	1168.19
452.207	1243.19
452.428	1529.19
452.648	2196.19
452.869	1880.19
453.089	1350.19
453.31	1289.19
453.53	1259.19
453.751	1288.19
453.971	1416.19
454.192	1404.19
454.412	1210.19
454.633	1141.19
454.853	1117.19
455.073	1104.19
455.294	1115.19
455.514	1077.19
455.734	1106.19
455.955	1059.19
456.175	1070.19
456.395	1099.19
456.616	1101.19
456.836	1123.19
457.056	1136.19
457.276	1104.19
457.497	1166.19
457.717	1229.19
457.937	1145.19
458.157	1143.19
458.377	1157.19
458.598	1179.19
458.818	1195.19
459.038	1144.19
459.258	1147.19
459.478	1228.19
459.698	1184.19
459.918	1210.19
460.138	1222.19
460.358	1279.19
460.578	1265.19
460.798	1283.19
461.018	1255.19
461.238	1316.19
461.458	1337.19
461.678	1305.19
461.898	1353.19
462.118	1378.19
462.338	1384.19
462.558	1364.19
462.777	1417.19
462.997	1442.19
463.217	1487.19
463.437	1526.19
463.657	1592.19
463.876	1615.19
464.096	1505.19
464.316	1421.19
464.536	1410.19
464.755	1388.19
464.975	1358.19
465.195	1299.19
465.414	1268.19
465.634	1242.19
465.854	1234.19
466.073	1242.19
466.293	1219.19
466.512	1213.19
466.732	1218.19
466.951	1287.19
467.171	1353.19
467.391	1294.19
467.61	1220.19
467.829	1200.19
468.049	1144.19
468.268	1169.19
468.488	1146.19
468.707	1180.19
468.927	1188.19
469.146	1175.19
469.365	1195.19
469.585	1224.19
469.804	1235.19
470.023	1236.19
470.243	1267.19
470.462	1294.19
470.681	1332.19
470.901	1457.19
471.12	1696.19
471.339	1749.19
471.558	1401.19
471.777	1314.19
471.997	1255.19
472.216	1200.19
472.435	1213.19
472.654	1176.19
472.873	1156.19
473.092	1154.19
473.311	1169.19
473.53	1172.19
473.749	1194.19
473.968	1253.19
474.187	1174.19
474.406	1192.19
474.625	1217.19
474.844	1182.19
475.063	1210.19
475.282	1172.19
475.501	1173.19
475.72	1200.19
475.939	1217.19
476.158	1250.19
476.377	1240.19
476.596	1257.19
476.814	1254.19
477.033	1258.19
477.252	1240.19
477.471	1286.19
477.69	1320.19
477.908	1310.19
478.127	1359.19
478.346	1347.19
478.564	1355.19
478.783	1397.19
479.002	1390.19
479.22	1411.19
479.439	1402.19
479.658	1412.19
479.876	1367.19
480.095	1406.19
480.313	1416.19
480.532	1439.19
480.751	1434.19
480.969	1400.19
481.188	1392.19
481.406	1369.19
481.624	1390.19
481.843	1418.19
482.061	1408.19
482.28	1387.19
482.498	1430.19
482.717	1374.19
482.935	1397.19
483.153	1418.19
483.372	1451.19
483.59	1480.19
483.808	1464.19
484.027	1511.19
484.245	1588.19
484.463	1790.19
484.681	2010.19
484.9	1836.19
485.118	1649.19
485.336	1654.19
485.554	1643.19
485.772	1739.19
485.99	1987.19
486.209	2178.19
486.427	1815.19
486.645	1618.19
486.863	1576.19
487.081	1523.19
487.299	1481.19
487.517	1503.19
487.735	1499.19
487.953	1526.19
488.171	1542.19
488.389	1509.19
488.607	1534.19
488.825	1462.19
489.043	1441.19
489.261	1446.19
489.479	1421.19
489.696	1434.19
489.914	1454.19
490.132	1467.19
490.35	1477.19
490.568	1473.19
