Data from SnStandardFlinnAPT0064_QswitchEnergy10_LIBS07252019.E.O._I.C._HRD10591_15-28-55-974.txt Node
Date: Thu Jul 25 15:28:55 EDT 2019
User: cochatt
Spectrometer: HR+D1059
Trigger mode: 1
Integration Time (sec): 1.000000E-1
Scans to average: 1
Electric dark correction enabled: true
Nonlinearity correction enabled: false
Boxcar width: 0
XAxis mode: Wavelengths
Number of Pixels in Spectrum: 2048
>>>>>Begin Spectral Data<<<<<
223.165	-20.81
223.4	-20.81
223.635	-20.81
223.869	-23.81
224.104	-9.81
224.338	-9.81
224.573	-2.81
224.808	-11.81
225.042	-11.81
225.277	-19.81
225.511	-4.81
225.746	5.19
225.98	13.19
226.215	22.19
226.449	11.19
226.683	14.19
226.918	22.19
227.152	27.19
227.387	31.19
227.621	42.19
227.856	31.19
228.09	38.19
228.324	42.19
228.559	50.19
228.793	50.19
229.027	46.19
229.262	60.19
229.496	74.19
229.73	64.19
229.964	69.19
230.199	66.19
230.433	75.19
230.667	81.19
230.901	89.19
231.136	79.19
231.37	87.19
231.604	89.19
231.838	90.19
232.072	98.19
232.306	110.19
232.541	90.19
232.775	74.19
233.009	79.19
233.243	86.19
233.477	90.19
233.711	86.19
233.945	107.19
234.179	92.19
234.413	76.19
234.647	78.19
234.881	85.19
235.115	81.19
235.349	85.19
235.583	95.19
235.817	128.19
236.051	120.19
236.285	90.19
236.519	90.19
236.753	95.19
236.987	88.19
237.221	77.19
237.455	71.19
237.689	65.19
237.922	78.19
238.156	72.19
238.39	69.19
238.624	75.19
238.858	60.19
239.091	66.19
239.325	79.19
239.559	69.19
239.793	82.19
240.027	83.19
240.26	80.19
240.494	74.19
240.728	78.19
240.961	78.19
241.195	96.19
241.429	95.19
241.662	78.19
241.896	87.19
242.13	108.19
242.363	152.19
242.597	147.19
242.83	149.19
243.064	126.19
243.298	177.19
243.531	156.19
243.765	104.19
243.998	85.19
244.232	98.19
244.465	83.19
244.699	83.19
244.932	80.19
245.166	65.19
245.399	76.19
245.633	79.19
245.866	87.19
246.099	82.19
246.333	60.19
246.566	67.19
246.8	79.19
247.033	94.19
247.266	70.19
247.5	70.19
247.733	72.19
247.966	71.19
248.2	85.19
248.433	107.19
248.666	120.19
248.899	124.19
249.133	99.19
249.366	103.19
249.599	100.19
249.832	135.19
250.066	121.19
250.299	96.19
250.532	85.19
250.765	86.19
250.998	86.19
251.231	83.19
251.465	69.19
251.698	58.19
251.931	68.19
252.164	78.19
252.397	88.19
252.63	105.19
252.863	112.19
253.096	98.19
253.329	79.19
253.562	83.19
253.795	85.19
254.028	76.19
254.261	86.19
254.494	96.19
254.727	129.19
254.96	158.19
255.193	145.19
255.426	90.19
255.659	89.19
255.892	88.19
256.124	88.19
256.357	90.19
256.59	95.19
256.823	84.19
257.056	114.19
257.289	143.19
257.521	180.19
257.754	118.19
257.987	85.19
258.22	81.19
258.452	90.19
258.685	76.19
258.918	96.19
259.151	94.19
259.383	114.19
259.616	135.19
259.849	156.19
260.081	91.19
260.314	95.19
260.547	82.19
260.779	74.19
261.012	87.19
261.244	64.19
261.477	87.19
261.71	81.19
261.942	69.19
262.175	79.19
262.407	87.19
262.64	76.19
262.872	75.19
263.105	79.19
263.337	92.19
263.57	85.19
263.802	83.19
264.035	92.19
264.267	69.19
264.499	84.19
264.732	78.19
264.964	94.19
265.197	84.19
265.429	86.19
265.661	86.19
265.894	82.19
266.126	146.19
266.358	162.19
266.591	148.19
266.823	83.19
267.055	89.19
267.287	85.19
267.52	85.19
267.752	87.19
267.984	81.19
268.216	88.19
268.448	94.19
268.681	87.19
268.913	86.19
269.145	83.19
269.377	78.19
269.609	95.19
269.841	92.19
270.073	100.19
270.306	134.19
270.538	201.19
270.77	322.19
271.002	383.19
271.234	208.19
271.466	114.19
271.698	102.19
271.93	106.19
272.162	99.19
272.394	82.19
272.626	90.19
272.858	86.19
273.09	93.19
273.322	89.19
273.553	79.19
273.785	97.19
274.017	82.19
274.249	78.19
274.481	86.19
274.713	70.19
274.945	77.19
275.176	91.19
275.408	98.19
275.64	102.19
275.872	87.19
276.104	94.19
276.335	105.19
276.567	112.19
276.799	91.19
277.031	79.19
277.262	96.19
277.494	102.19
277.726	136.19
277.957	184.19
278.189	256.19
278.421	246.19
278.652	204.19
278.884	191.19
279.115	155.19
279.347	117.19
279.579	89.19
279.81	88.19
280.042	108.19
280.273	110.19
280.505	101.19
280.736	106.19
280.968	118.19
281.199	165.19
281.431	269.19
281.662	280.19
281.894	171.19
282.125	112.19
282.356	116.19
282.588	109.19
282.819	116.19
283.051	123.19
283.282	138.19
283.513	207.19
283.745	323.19
283.976	572.19
284.207	810.19
284.439	646.19
284.67	293.19
284.901	272.19
285.132	371.19
285.364	410.19
285.595	231.19
285.826	176.19
286.057	265.19
286.288	421.19
286.52	624.19
286.751	522.19
286.982	218.19
287.213	112.19
287.444	99.19
287.675	98.19
287.906	94.19
288.138	93.19
288.369	90.19
288.6	93.19
288.831	92.19
289.062	87.19
289.293	110.19
289.524	99.19
289.755	87.19
289.986	93.19
290.217	93.19
290.448	85.19
290.679	106.19
290.91	120.19
291.141	187.19
291.371	254.19
291.602	332.19
291.833	199.19
292.064	122.19
292.295	99.19
292.526	87.19
292.757	85.19
292.987	81.19
293.218	96.19
293.449	90.19
293.68	95.19
293.91	86.19
294.141	82.19
294.372	86.19
294.603	98.19
294.833	94.19
295.064	88.19
295.295	84.19
295.525	103.19
295.756	97.19
295.987	74.19
296.217	93.19
296.448	91.19
296.679	93.19
296.909	100.19
297.14	100.19
297.37	104.19
297.601	92.19
297.831	92.19
298.062	92.19
298.292	104.19
298.523	111.19
298.753	96.19
298.984	78.19
299.214	104.19
299.445	108.19
299.675	121.19
299.905	140.19
300.136	119.19
300.366	164.19
300.597	293.19
300.827	462.19
301.057	722.19
301.288	667.19
301.518	263.19
301.748	160.19
301.979	132.19
302.209	135.19
302.439	142.19
302.669	184.19
302.9	291.19
303.13	527.19
303.36	954.19
303.59	1348.19
303.82	893.19
304.051	311.19
304.281	164.19
304.511	135.19
304.741	118.19
304.971	108.19
305.201	110.19
305.431	97.19
305.661	111.19
305.891	120.19
306.121	103.19
306.352	100.19
306.582	91.19
306.812	104.19
307.042	120.19
307.272	117.19
307.502	110.19
307.731	108.19
307.961	91.19
308.191	117.19
308.421	93.19
308.651	112.19
308.881	109.19
309.111	94.19
309.341	111.19
309.571	106.19
309.8	111.19
310.03	103.19
310.26	120.19
310.49	100.19
310.72	117.19
310.949	98.19
311.179	118.19
311.409	111.19
311.639	106.19
311.868	98.19
312.098	126.19
312.328	126.19
312.557	125.19
312.787	117.19
313.017	103.19
313.246	117.19
313.476	106.19
313.706	147.19
313.935	163.19
314.165	217.19
314.394	239.19
314.624	207.19
314.853	134.19
315.083	113.19
315.312	117.19
315.542	157.19
315.771	141.19
316.001	134.19
316.23	130.19
316.46	149.19
316.689	168.19
316.919	273.19
317.148	534.19
317.377	947.19
317.607	1592.19
317.836	1495.19
318.065	552.19
318.295	237.19
318.524	174.19
318.753	135.19
318.983	132.19
319.212	116.19
319.441	110.19
319.67	126.19
319.9	125.19
320.129	115.19
320.358	108.19
320.587	138.19
320.816	128.19
321.046	125.19
321.275	135.19
321.504	139.19
321.733	144.19
321.962	157.19
322.191	173.19
322.42	142.19
322.649	126.19
322.878	115.19
323.108	143.19
323.337	134.19
323.566	122.19
323.795	153.19
324.024	151.19
324.253	160.19
324.482	172.19
324.71	232.19
324.939	296.19
325.168	250.19
325.397	194.19
325.626	268.19
325.855	530.19
326.084	986.19
326.313	1693.19
326.542	1672.19
326.77	660.19
326.999	289.19
327.228	239.19
327.457	235.19
327.686	244.19
327.914	175.19
328.143	145.19
328.372	146.19
328.6	130.19
328.829	131.19
329.058	127.19
329.287	119.19
329.515	117.19
329.744	132.19
329.972	130.19
330.201	120.19
330.43	116.19
330.658	124.19
330.887	123.19
331.115	112.19
331.344	106.19
331.572	108.19
331.801	110.19
332.03	126.19
332.258	159.19
332.486	180.19
332.715	314.19
332.943	528.19
333.172	800.19
333.4	709.19
333.629	268.19
333.857	156.19
334.085	143.19
334.314	113.19
334.542	128.19
334.771	136.19
334.999	126.19
335.227	130.19
335.455	130.19
335.684	117.19
335.912	115.19
336.14	133.19
336.369	124.19
336.597	114.19
336.825	104.19
337.053	120.19
337.281	110.19
337.51	90.19
337.738	109.19
337.966	93.19
338.194	114.19
338.422	116.19
338.65	120.19
338.878	118.19
339.106	112.19
339.334	125.19
339.562	130.19
339.79	110.19
340.018	118.19
340.246	110.19
340.474	122.19
340.702	117.19
340.93	106.19
341.158	111.19
341.386	107.19
341.614	125.19
341.842	122.19
342.07	114.19
342.298	126.19
342.526	125.19
342.754	131.19
342.981	126.19
343.209	114.19
343.437	102.19
343.665	114.19
343.893	116.19
344.12	116.19
344.348	108.19
344.576	106.19
344.804	126.19
345.031	114.19
345.259	120.19
345.487	106.19
345.714	119.19
345.942	118.19
346.17	108.19
346.397	92.19
346.625	103.19
346.853	108.19
347.08	104.19
347.308	117.19
347.535	120.19
347.763	99.19
347.99	112.19
348.218	122.19
348.445	108.19
348.673	133.19
348.9	126.19
349.128	126.19
349.355	131.19
349.583	115.19
349.81	108.19
350.037	112.19
350.265	115.19
350.492	110.19
350.72	110.19
350.947	116.19
351.174	112.19
351.402	121.19
351.629	118.19
351.856	116.19
352.083	106.19
352.311	110.19
352.538	120.19
352.765	107.19
352.992	103.19
353.22	103.19
353.447	103.19
353.674	111.19
353.901	104.19
354.128	105.19
354.355	87.19
354.583	105.19
354.81	103.19
355.037	104.19
355.264	107.19
355.491	106.19
355.718	108.19
355.945	108.19
356.172	108.19
356.399	93.19
356.626	108.19
356.853	118.19
357.08	118.19
357.307	116.19
357.534	102.19
357.761	99.19
357.988	106.19
358.215	122.19
358.441	115.19
358.668	116.19
358.895	111.19
359.122	114.19
359.349	121.19
359.576	116.19
359.802	119.19
360.029	106.19
360.256	122.19
360.483	110.19
360.709	116.19
360.936	134.19
361.163	114.19
361.39	116.19
361.616	120.19
361.843	119.19
362.07	138.19
362.296	105.19
362.523	112.19
362.749	108.19
362.976	114.19
363.203	112.19
363.429	125.19
363.656	112.19
363.882	108.19
364.109	119.19
364.335	118.19
364.562	110.19
364.788	95.19
365.015	118.19
365.241	136.19
365.468	224.19
365.694	277.19
365.92	240.19
366.147	131.19
366.373	104.19
366.599	98.19
366.826	107.19
367.052	90.19
367.278	88.19
367.505	87.19
367.731	85.19
367.957	113.19
368.184	104.19
368.41	130.19
368.636	118.19
368.862	108.19
369.089	86.19
369.315	108.19
369.541	106.19
369.767	103.19
369.993	91.19
370.219	109.19
370.445	100.19
370.672	112.19
370.898	96.19
371.124	101.19
371.35	104.19
371.576	95.19
371.802	114.19
372.028	118.19
372.254	118.19
372.48	126.19
372.706	118.19
372.932	116.19
373.158	108.19
373.384	118.19
373.61	127.19
373.835	120.19
374.061	110.19
374.287	101.19
374.513	119.19
374.739	131.19
374.965	116.19
375.191	110.19
375.416	106.19
375.642	121.19
375.868	110.19
376.094	103.19
376.319	101.19
376.545	115.19
376.771	114.19
376.997	101.19
377.222	107.19
377.448	110.19
377.674	107.19
377.899	99.19
378.125	106.19
378.35	115.19
378.576	135.19
378.802	125.19
379.027	146.19
379.253	150.19
379.478	192.19
379.704	337.19
379.929	848.19
380.155	1722.19
380.38	1758.19
380.606	577.19
380.831	194.19
381.057	136.19
381.282	122.19
381.507	124.19
381.733	108.19
381.958	94.19
382.184	112.19
382.409	111.19
382.634	118.19
382.86	100.19
383.085	118.19
383.31	98.19
383.535	100.19
383.761	110.19
383.986	120.19
384.211	110.19
384.436	115.19
384.662	111.19
384.887	107.19
385.112	104.19
385.337	97.19
385.562	97.19
385.787	109.19
386.013	115.19
386.238	103.19
386.463	107.19
386.688	103.19
386.913	98.19
387.138	113.19
387.363	114.19
387.588	101.19
387.813	104.19
388.038	101.19
388.263	100.19
388.488	109.19
388.713	100.19
388.938	95.19
389.163	94.19
389.387	94.19
389.612	97.19
389.837	92.19
390.062	103.19
390.287	97.19
390.512	107.19
390.736	107.19
390.961	104.19
391.186	112.19
391.411	92.19
391.636	87.19
391.86	96.19
392.085	96.19
392.31	111.19
392.534	94.19
392.759	98.19
392.984	115.19
393.208	122.19
393.433	144.19
393.658	158.19
393.882	97.19
394.107	97.19
394.331	100.19
394.556	100.19
394.78	107.19
395.005	95.19
395.229	90.19
395.454	107.19
395.678	91.19
395.903	108.19
396.127	102.19
396.352	109.19
396.576	111.19
396.801	118.19
397.025	130.19
397.249	115.19
397.474	101.19
397.698	94.19
397.922	93.19
398.147	97.19
398.371	92.19
398.595	86.19
398.82	103.19
399.044	92.19
399.268	102.19
399.492	92.19
399.717	88.19
399.941	95.19
400.165	104.19
400.389	120.19
400.613	95.19
400.837	91.19
401.062	94.19
401.286	108.19
401.51	90.19
401.734	92.19
401.958	97.19
402.182	80.19
402.406	96.19
402.63	92.19
402.854	102.19
403.078	90.19
403.302	104.19
403.526	100.19
403.75	103.19
403.974	102.19
404.198	85.19
404.422	98.19
404.645	111.19
404.869	93.19
405.093	108.19
405.317	111.19
405.541	107.19
405.765	136.19
405.988	151.19
406.212	111.19
406.436	106.19
406.66	99.19
406.883	93.19
407.107	101.19
407.331	96.19
407.555	101.19
407.778	100.19
408.002	100.19
408.226	102.19
408.449	108.19
408.673	96.19
408.896	115.19
409.12	95.19
409.344	110.19
409.567	108.19
409.791	96.19
410.014	98.19
410.238	85.19
410.461	108.19
410.685	114.19
410.908	99.19
411.132	104.19
411.355	107.19
411.578	103.19
411.802	97.19
412.025	101.19
412.249	100.19
412.472	88.19
412.695	100.19
412.919	93.19
413.142	96.19
413.365	86.19
413.589	91.19
413.812	99.19
414.035	101.19
414.258	106.19
414.482	87.19
414.705	107.19
414.928	101.19
415.151	108.19
415.374	99.19
415.597	94.19
415.821	95.19
416.044	88.19
416.267	100.19
416.49	95.19
416.713	97.19
416.936	93.19
417.159	100.19
417.382	98.19
417.605	89.19
417.828	97.19
418.051	87.19
418.274	86.19
418.497	112.19
418.72	111.19
418.943	116.19
419.166	112.19
419.389	87.19
419.611	102.19
419.834	106.19
420.057	102.19
420.28	113.19
420.503	82.19
420.726	92.19
420.948	108.19
421.171	91.19
421.394	90.19
421.617	89.19
421.839	97.19
422.062	101.19
422.285	91.19
422.507	106.19
422.73	119.19
422.953	120.19
423.175	102.19
423.398	101.19
423.621	106.19
423.843	96.19
424.066	91.19
424.288	100.19
424.511	101.19
424.733	111.19
424.956	91.19
425.178	77.19
425.401	85.19
425.623	80.19
425.846	90.19
426.068	72.19
426.291	100.19
426.513	95.19
426.735	90.19
426.958	97.19
427.18	82.19
427.402	96.19
427.625	90.19
427.847	91.19
428.069	100.19
428.292	103.19
428.514	91.19
428.736	117.19
428.958	82.19
429.181	103.19
429.403	101.19
429.625	100.19
429.847	88.19
430.069	106.19
430.292	108.19
430.514	99.19
430.736	91.19
430.958	96.19
431.18	90.19
431.402	98.19
431.624	80.19
431.846	85.19
432.068	87.19
432.29	97.19
432.512	100.19
432.734	95.19
432.956	81.19
433.178	78.19
433.4	82.19
433.622	95.19
433.844	80.19
434.066	91.19
434.287	100.19
434.509	106.19
434.731	107.19
434.953	109.19
435.175	94.19
435.397	78.19
435.618	93.19
435.84	96.19
436.062	84.19
436.284	79.19
436.505	87.19
436.727	90.19
436.949	93.19
437.17	90.19
437.392	92.19
437.614	101.19
437.835	82.19
438.057	96.19
438.278	96.19
438.5	114.19
438.721	113.19
438.943	108.19
439.165	118.19
439.386	116.19
439.608	97.19
439.829	103.19
440.05	125.19
440.272	110.19
440.493	112.19
440.715	102.19
440.936	102.19
441.158	93.19
441.379	92.19
441.6	87.19
441.822	110.19
442.043	110.19
442.264	119.19
442.486	110.19
442.707	105.19
442.928	99.19
443.149	93.19
443.371	86.19
443.592	101.19
443.813	92.19
444.034	91.19
444.255	108.19
444.476	110.19
444.698	101.19
444.919	100.19
445.14	184.19
445.361	140.19
445.582	94.19
445.803	89.19
446.024	93.19
446.245	98.19
446.466	91.19
446.687	101.19
446.908	104.19
447.129	100.19
447.35	84.19
447.571	91.19
447.792	83.19
448.013	99.19
448.234	90.19
448.455	94.19
448.675	105.19
448.896	109.19
449.117	104.19
449.338	132.19
449.559	147.19
449.779	126.19
450	115.19
450.221	104.19
450.442	122.19
450.662	115.19
450.883	84.19
451.104	104.19
451.324	121.19
451.545	109.19
451.766	119.19
451.986	157.19
452.207	226.19
452.428	623.19
452.648	1558.19
452.869	836.19
453.089	220.19
453.31	126.19
453.53	123.19
453.751	139.19
453.971	162.19
454.192	150.19
454.412	114.19
454.633	97.19
454.853	83.19
455.073	87.19
455.294	95.19
455.514	94.19
455.734	87.19
455.955	102.19
456.175	94.19
456.395	98.19
456.616	101.19
456.836	124.19
457.056	107.19
457.276	108.19
457.497	98.19
457.717	126.19
457.937	99.19
458.157	98.19
458.377	109.19
458.598	93.19
458.818	80.19
459.038	94.19
459.258	88.19
459.478	80.19
459.698	90.19
459.918	84.19
460.138	79.19
460.358	94.19
460.578	95.19
460.798	86.19
461.018	82.19
461.238	86.19
461.458	99.19
461.678	88.19
461.898	84.19
462.118	100.19
462.338	96.19
462.558	93.19
462.777	92.19
462.997	79.19
463.217	101.19
463.437	147.19
463.657	190.19
463.876	186.19
464.096	108.19
464.316	92.19
464.536	96.19
464.755	92.19
464.975	70.19
465.195	98.19
465.414	91.19
465.634	105.19
465.854	90.19
466.073	100.19
466.293	92.19
466.512	87.19
466.732	76.19
466.951	117.19
467.171	130.19
467.391	160.19
467.61	120.19
467.829	87.19
468.049	91.19
468.268	90.19
468.488	83.19
468.707	108.19
468.927	109.19
469.146	107.19
469.365	102.19
469.585	100.19
469.804	103.19
470.023	100.19
470.243	94.19
470.462	118.19
470.681	111.19
470.901	133.19
471.12	202.19
471.339	195.19
471.558	128.19
471.777	114.19
471.997	96.19
472.216	95.19
472.435	91.19
472.654	86.19
472.873	103.19
473.092	92.19
473.311	101.19
473.53	112.19
473.749	102.19
473.968	106.19
474.187	96.19
474.406	80.19
474.625	97.19
474.844	88.19
475.063	93.19
475.282	71.19
475.501	98.19
475.72	107.19
475.939	84.19
476.158	101.19
476.377	119.19
476.596	110.19
476.814	93.19
477.033	76.19
477.252	96.19
477.471	99.19
477.69	102.19
477.908	92.19
478.127	106.19
478.346	99.19
478.564	81.19
478.783	85.19
479.002	108.19
479.22	90.19
479.439	94.19
479.658	91.19
479.876	91.19
480.095	88.19
480.313	94.19
480.532	84.19
480.751	108.19
480.969	93.19
481.188	87.19
481.406	87.19
481.624	111.19
481.843	112.19
482.061	114.19
482.28	93.19
482.498	82.19
482.717	92.19
482.935	102.19
483.153	96.19
483.372	99.19
483.59	111.19
483.808	99.19
484.027	86.19
484.245	112.19
484.463	170.19
484.681	250.19
484.9	172.19
485.118	119.19
485.336	110.19
485.554	127.19
485.772	124.19
485.99	202.19
486.209	268.19
486.427	154.19
486.645	113.19
486.863	98.19
487.081	106.19
487.299	103.19
487.517	94.19
487.735	124.19
487.953	107.19
488.171	99.19
488.389	100.19
488.607	97.19
488.825	108.19
489.043	79.19
489.261	107.19
489.479	100.19
489.696	102.19
489.914	97.19
490.132	97.19
490.35	99.19
490.568	103.19
490.786	80.19
491.003	111.19
491.221	107.19
491.439	119.19
491.657	102.19
491.874	100.19
492.092	106.19
492.31	98.19
492.527	108.19
492.745	101.19
492.963	100.19
493.18	112.19
493.398	98.19
493.615	92.19
493.833	95.19
494.05	110.19
494.268	101.19
494.485	108.19
494.703	100.19
494.92	103.19
495.138	95.19
495.355	106.19
495.573	110.19
495.79	108.19
496.008	102.19
496.225	106.19
496.442	95.19
496.66	122.19
496.877	163.19
497.094	163.19
497.312	120.19
497.529	100.19
497.746	99.19
497.963	90.19
498.181	107.19
498.398	98.19
498.615	95.19
498.832	98.19
499.049	108.19
499.267	140.19
499.484	174.19
499.701	103.19
499.918	92.19
500.135	108.19
500.352	98.19
500.569	91.19
500.786	112.19
501.003	86.19
501.22	101.19
501.437	92.19
501.654	105.19
501.871	97.19
502.088	103.19
502.305	115.19
502.522	99.19
502.739	99.19
502.956	102.19
503.172	104.19
503.389	89.19
503.606	84.19
503.823	93.19
504.04	95.19
504.256	87.19
504.473	109.19
504.69	108.19
504.907	107.19
505.123	120.19
505.34	114.19
505.557	112.19
505.773	106.19
505.99	118.19
506.207	102.19
506.423	110.19
506.64	92.19
506.856	101.19
507.073	118.19
507.289	97.19
507.506	106.19
507.722	95.19
507.939	98.19
508.155	101.19
508.372	87.19
508.588	87.19
