Data from SnStandardFlinnAPT0064_LampEnergy5.5_LIBS07252019.E.O._I.C._HRD10591_15-16-01-491.txt Node
Date: Thu Jul 25 15:16:01 EDT 2019
User: cochatt
Spectrometer: HR+D1059
Trigger mode: 1
Integration Time (sec): 1.000000E-1
Scans to average: 1
Electric dark correction enabled: true
Nonlinearity correction enabled: false
Boxcar width: 0
XAxis mode: Wavelengths
Number of Pixels in Spectrum: 2048
>>>>>Begin Spectral Data<<<<<
223.165	-10.25
223.4	-10.25
223.635	-10.25
223.869	-10.25
224.104	-24.25
224.338	-8.25
224.573	-7.25
224.808	-11.25
225.042	-15.25
225.277	-6.25
225.511	-9.25
225.746	2.75
225.98	3.75
226.215	11.75
226.449	7.75
226.683	23.75
226.918	32.75
227.152	19.75
227.387	26.75
227.621	48.75
227.856	29.75
228.09	39.75
228.324	66.75
228.559	62.75
228.793	74.75
229.027	145.75
229.262	152.75
229.496	160.75
229.73	147.75
229.964	152.75
230.199	158.75
230.433	166.75
230.667	145.75
230.901	169.75
231.136	165.75
231.37	170.75
231.604	196.75
231.838	198.75
232.072	218.75
232.306	249.75
232.541	222.75
232.775	188.75
233.009	201.75
233.243	209.75
233.477	236.75
233.711	251.75
233.945	271.75
234.179	228.75
234.413	222.75
234.647	209.75
234.881	219.75
235.115	230.75
235.349	270.75
235.583	327.75
235.817	436.75
236.051	428.75
236.285	295.75
236.519	242.75
236.753	237.75
236.987	220.75
237.221	238.75
237.455	228.75
237.689	207.75
237.922	237.75
238.156	236.75
238.39	231.75
238.624	223.75
238.858	229.75
239.091	217.75
239.325	220.75
239.559	248.75
239.793	233.75
240.027	260.75
240.26	251.75
240.494	246.75
240.728	269.75
240.961	284.75
241.195	276.75
241.429	317.75
241.662	306.75
241.896	331.75
242.13	398.75
242.363	516.75
242.597	619.75
242.83	578.75
243.064	606.75
243.298	714.75
243.531	590.75
243.765	379.75
243.998	319.75
244.232	335.75
244.465	314.75
244.699	287.75
244.932	291.75
245.166	285.75
245.399	301.75
245.633	281.75
245.866	308.75
246.099	297.75
246.333	302.75
246.566	328.75
246.8	298.75
247.033	280.75
247.266	285.75
247.5	286.75
247.733	294.75
247.966	342.75
248.2	339.75
248.433	364.75
248.666	397.75
248.899	386.75
249.133	368.75
249.366	369.75
249.599	409.75
249.832	450.75
250.066	429.75
250.299	365.75
250.532	340.75
250.765	343.75
250.998	337.75
251.231	324.75
251.465	340.75
251.698	343.75
251.931	334.75
252.164	333.75
252.397	327.75
252.63	363.75
252.863	338.75
253.096	354.75
253.329	356.75
253.562	348.75
253.795	340.75
254.028	359.75
254.261	376.75
254.494	382.75
254.727	423.75
254.96	523.75
255.193	490.75
255.426	418.75
255.659	379.75
255.892	384.75
256.124	379.75
256.357	378.75
256.59	410.75
256.823	411.75
257.056	437.75
257.289	504.75
257.521	566.75
257.754	486.75
257.987	404.75
258.22	400.75
258.452	405.75
258.685	411.75
258.918	420.75
259.151	436.75
259.383	469.75
259.616	484.75
259.849	524.75
260.081	438.75
260.314	430.75
260.547	410.75
260.779	425.75
261.012	404.75
261.244	408.75
261.477	457.75
261.71	468.75
261.942	429.75
262.175	465.75
262.407	483.75
262.64	501.75
262.872	520.75
263.105	508.75
263.337	538.75
263.57	585.75
263.802	584.75
264.035	562.75
264.267	601.75
264.499	600.75
264.732	642.75
264.964	640.75
265.197	634.75
265.429	633.75
265.661	634.75
265.894	680.75
266.126	733.75
266.358	807.75
266.591	778.75
266.823	678.75
267.055	648.75
267.287	614.75
267.52	600.75
267.752	588.75
267.984	588.75
268.216	566.75
268.448	556.75
268.681	553.75
268.913	551.75
269.145	553.75
269.377	566.75
269.609	557.75
269.841	558.75
270.073	579.75
270.306	672.75
270.538	881.75
270.77	1210.75
271.002	1484.75
271.234	1067.75
271.466	741.75
271.698	642.75
271.93	594.75
272.162	568.75
272.394	538.75
272.626	538.75
272.858	517.75
273.09	540.75
273.322	538.75
273.553	537.75
273.785	532.75
274.017	555.75
274.249	532.75
274.481	511.75
274.713	552.75
274.945	522.75
275.176	520.75
275.408	551.75
275.64	510.75
275.872	530.75
276.104	553.75
276.335	533.75
276.567	569.75
276.799	540.75
277.031	552.75
277.262	564.75
277.494	597.75
277.726	633.75
277.957	709.75
278.189	800.75
278.421	744.75
278.652	678.75
278.884	637.75
279.115	598.75
279.347	609.75
279.579	616.75
279.81	612.75
280.042	608.75
280.273	612.75
280.505	635.75
280.736	620.75
280.968	663.75
281.199	729.75
281.431	745.75
281.662	777.75
281.894	732.75
282.125	684.75
282.356	685.75
282.588	691.75
282.819	700.75
283.051	733.75
283.282	790.75
283.513	943.75
283.745	1398.75
283.976	2192.75
284.207	3002.75
284.439	2729.75
284.67	1667.75
284.901	1325.75
285.132	1348.75
285.364	1258.75
285.595	1018.75
285.826	972.75
286.057	1081.75
286.288	1448.75
286.52	1909.75
286.751	1813.75
286.982	1180.75
287.213	883.75
287.444	799.75
287.675	762.75
287.906	745.75
288.138	718.75
288.369	727.75
288.6	728.75
288.831	712.75
289.062	678.75
289.293	726.75
289.524	737.75
289.755	723.75
289.986	734.75
290.217	743.75
290.448	714.75
290.679	715.75
290.91	715.75
291.141	742.75
291.371	791.75
291.602	800.75
291.833	752.75
292.064	718.75
292.295	699.75
292.526	670.75
292.757	685.75
292.987	698.75
293.218	650.75
293.449	673.75
293.68	679.75
293.91	692.75
294.141	664.75
294.372	663.75
294.603	666.75
294.833	673.75
295.064	665.75
295.295	632.75
295.525	650.75
295.756	692.75
295.987	672.75
296.217	698.75
296.448	676.75
296.679	665.75
296.909	660.75
297.14	667.75
297.37	708.75
297.601	692.75
297.831	664.75
298.062	705.75
298.292	681.75
298.523	707.75
298.753	702.75
298.984	732.75
299.214	748.75
299.445	708.75
299.675	743.75
299.905	738.75
300.136	758.75
300.366	863.75
300.597	1090.75
300.827	1460.75
301.057	1920.75
301.288	1931.75
301.518	1265.75
301.748	1001.75
301.979	900.75
302.209	930.75
302.439	907.75
302.669	988.75
302.9	1139.75
303.13	1535.75
303.36	2210.75
303.59	2934.75
303.82	2586.75
304.051	1528.75
304.281	1159.75
304.511	962.75
304.741	916.75
304.971	881.75
305.201	835.75
305.431	804.75
305.661	816.75
305.891	793.75
306.121	832.75
306.352	784.75
306.582	797.75
306.812	793.75
307.042	782.75
307.272	745.75
307.502	756.75
307.731	768.75
307.961	759.75
308.191	788.75
308.421	794.75
308.651	764.75
308.881	774.75
309.111	782.75
309.341	752.75
309.571	755.75
309.8	800.75
310.03	786.75
310.26	805.75
310.49	785.75
310.72	814.75
310.949	768.75
311.179	795.75
311.409	788.75
311.639	802.75
311.868	812.75
312.098	813.75
312.328	840.75
312.557	828.75
312.787	834.75
313.017	807.75
313.246	842.75
313.476	828.75
313.706	863.75
313.935	878.75
314.165	938.75
314.394	977.75
314.624	948.75
314.853	893.75
315.083	893.75
315.312	891.75
315.542	907.75
315.771	901.75
316.001	921.75
316.23	966.75
316.46	984.75
316.689	1076.75
316.919	1275.75
317.148	1789.75
317.377	2693.75
317.607	3876.75
317.836	3958.75
318.065	2411.75
318.295	1580.75
318.524	1245.75
318.753	1141.75
318.983	1072.75
319.212	1007.75
319.441	1011.75
319.67	996.75
319.9	958.75
320.129	979.75
320.358	965.75
320.587	974.75
320.816	965.75
321.046	958.75
321.275	984.75
321.504	981.75
321.733	980.75
321.962	991.75
322.191	1024.75
322.42	1030.75
322.649	997.75
322.878	1020.75
323.108	1005.75
323.337	1034.75
323.566	1063.75
323.795	1070.75
324.024	1116.75
324.253	1112.75
324.482	1158.75
324.71	1182.75
324.939	1252.75
325.168	1280.75
325.397	1300.75
325.626	1524.75
325.855	2115.75
326.084	3250.75
326.313	4809.75
326.542	5005.75
326.77	3270.75
326.999	2164.75
327.228	1825.75
327.457	1759.75
327.686	1788.75
327.914	1885.75
328.143	2137.75
328.372	2465.75
328.6	2664.75
328.829	2468.75
329.058	2221.75
329.287	1985.75
329.515	1774.75
329.744	1698.75
329.972	1585.75
330.201	1526.75
330.43	1483.75
330.658	1456.75
330.887	1430.75
331.115	1383.75
331.344	1389.75
331.572	1414.75
331.801	1412.75
332.03	1398.75
332.258	1415.75
332.486	1521.75
332.715	1684.75
332.943	1956.75
333.172	2375.75
333.4	2364.75
333.629	1907.75
333.857	1752.75
334.085	1755.75
334.314	1798.75
334.542	1961.75
334.771	2253.75
334.999	2683.75
335.227	3212.75
335.455	3558.75
335.684	3277.75
335.912	2849.75
336.14	2450.75
336.369	2167.75
336.597	2050.75
336.825	1886.75
337.053	1796.75
337.281	1697.75
337.51	1596.75
337.738	1563.75
337.966	1504.75
338.194	1437.75
338.422	1424.75
338.65	1387.75
338.878	1355.75
339.106	1335.75
339.334	1304.75
339.562	1275.75
339.79	1254.75
340.018	1287.75
340.246	1261.75
340.474	1261.75
340.702	1267.75
340.93	1258.75
341.158	1242.75
341.386	1252.75
341.614	1230.75
341.842	1193.75
342.07	1168.75
342.298	1175.75
342.526	1137.75
342.754	1098.75
342.981	1165.75
343.209	1115.75
343.437	1148.75
343.665	1154.75
343.893	1192.75
344.12	1162.75
344.348	1184.75
344.576	1149.75
344.804	1145.75
345.031	1088.75
345.259	1094.75
345.487	1060.75
345.714	1039.75
345.942	1024.75
346.17	1080.75
346.397	1057.75
346.625	1034.75
346.853	1062.75
347.08	1057.75
347.308	1038.75
347.535	1057.75
347.763	1053.75
347.99	1050.75
348.218	1031.75
348.445	1046.75
348.673	1006.75
348.9	1051.75
349.128	1064.75
349.355	1024.75
349.583	1045.75
349.81	1020.75
350.037	1002.75
350.265	1021.75
350.492	1021.75
350.72	1015.75
350.947	1000.75
351.174	1000.75
351.402	1032.75
351.629	1015.75
351.856	1002.75
352.083	1010.75
352.311	999.75
352.538	1003.75
352.765	999.75
352.992	974.75
353.22	981.75
353.447	1022.75
353.674	993.75
353.901	1011.75
354.128	1003.75
354.355	1043.75
354.583	1035.75
354.81	1020.75
355.037	1017.75
355.264	1039.75
355.491	1041.75
355.718	1029.75
355.945	1027.75
356.172	1045.75
356.399	1035.75
356.626	1012.75
356.853	1044.75
357.08	1053.75
357.307	1059.75
357.534	1076.75
357.761	1105.75
357.988	1063.75
358.215	1080.75
358.441	1077.75
358.668	1042.75
358.895	1076.75
359.122	1085.75
359.349	1079.75
359.576	1083.75
359.802	1081.75
360.029	1100.75
360.256	1088.75
360.483	1079.75
360.709	1092.75
360.936	1099.75
361.163	1077.75
361.39	1084.75
361.616	1049.75
361.843	1076.75
362.07	1068.75
362.296	1067.75
362.523	1059.75
362.749	1086.75
362.976	1080.75
363.203	1076.75
363.429	1063.75
363.656	1081.75
363.882	1075.75
364.109	1091.75
364.335	1088.75
364.562	1065.75
364.788	1047.75
365.015	1123.75
365.241	1108.75
365.468	1156.75
365.694	1188.75
365.92	1138.75
366.147	1097.75
366.373	1098.75
366.599	1098.75
366.826	1091.75
367.052	1131.75
367.278	1115.75
367.505	1112.75
367.731	1107.75
367.957	1094.75
368.184	1129.75
368.41	1121.75
368.636	1120.75
368.862	1128.75
369.089	1147.75
369.315	1131.75
369.541	1116.75
369.767	1111.75
369.993	1101.75
370.219	1134.75
370.445	1116.75
370.672	1114.75
370.898	1136.75
371.124	1150.75
371.35	1156.75
371.576	1154.75
371.802	1148.75
372.028	1158.75
372.254	1160.75
372.48	1183.75
372.706	1153.75
372.932	1198.75
373.158	1197.75
373.384	1206.75
373.61	1154.75
373.835	1150.75
374.061	1181.75
374.287	1189.75
374.513	1216.75
374.739	1231.75
374.965	1239.75
375.191	1195.75
375.416	1229.75
375.642	1206.75
375.868	1196.75
376.094	1202.75
376.319	1184.75
376.545	1202.75
376.771	1170.75
376.997	1175.75
377.222	1171.75
377.448	1153.75
377.674	1140.75
377.899	1178.75
378.125	1156.75
378.35	1140.75
378.576	1140.75
378.802	1173.75
379.027	1198.75
379.253	1189.75
379.478	1238.75
379.704	1449.75
379.929	1948.75
380.155	2855.75
380.38	2994.75
380.606	1982.75
380.831	1466.75
381.057	1310.75
381.282	1244.75
381.507	1210.75
381.733	1158.75
381.958	1160.75
382.184	1164.75
382.409	1142.75
382.634	1159.75
382.86	1163.75
383.085	1145.75
383.31	1160.75
383.535	1146.75
383.761	1161.75
383.986	1170.75
384.211	1169.75
384.436	1197.75
384.662	1187.75
384.887	1190.75
385.112	1192.75
385.337	1200.75
385.562	1195.75
385.787	1189.75
386.013	1212.75
386.238	1228.75
386.463	1188.75
386.688	1217.75
386.913	1191.75
387.138	1200.75
387.363	1168.75
387.588	1154.75
387.813	1158.75
388.038	1179.75
388.263	1197.75
388.488	1156.75
388.713	1181.75
388.938	1188.75
389.163	1172.75
389.387	1188.75
389.612	1136.75
389.837	1204.75
390.062	1191.75
390.287	1186.75
390.512	1189.75
390.736	1188.75
390.961	1235.75
391.186	1217.75
391.411	1248.75
391.636	1258.75
391.86	1233.75
392.085	1264.75
392.31	1238.75
392.534	1229.75
392.759	1218.75
392.984	1234.75
393.208	1265.75
393.433	1314.75
393.658	1280.75
393.882	1204.75
394.107	1192.75
394.331	1169.75
394.556	1202.75
394.78	1208.75
395.005	1260.75
395.229	1223.75
395.454	1226.75
395.678	1248.75
395.903	1242.75
396.127	1228.75
396.352	1220.75
396.576	1230.75
396.801	1243.75
397.025	1287.75
397.249	1292.75
397.474	1284.75
397.698	1291.75
397.922	1248.75
398.147	1284.75
398.371	1280.75
398.595	1314.75
398.82	1349.75
399.044	1345.75
399.268	1432.75
399.492	1576.75
399.717	1572.75
399.941	1535.75
400.165	1543.75
400.389	1486.75
400.613	1403.75
400.837	1337.75
401.062	1348.75
401.286	1333.75
401.51	1333.75
401.734	1293.75
401.958	1333.75
402.182	1315.75
402.406	1285.75
402.63	1304.75
402.854	1335.75
403.078	1297.75
403.302	1348.75
403.526	1376.75
403.75	1370.75
403.974	1369.75
404.198	1322.75
404.422	1368.75
404.645	1370.75
404.869	1351.75
405.093	1327.75
405.317	1394.75
405.541	1388.75
405.765	1407.75
405.988	1398.75
406.212	1410.75
406.436	1380.75
406.66	1428.75
406.883	1401.75
407.107	1441.75
407.331	1481.75
407.555	1489.75
407.778	1462.75
408.002	1428.75
408.226	1440.75
408.449	1453.75
408.673	1373.75
408.896	1384.75
409.12	1392.75
409.344	1384.75
409.567	1348.75
409.791	1377.75
410.014	1362.75
410.238	1360.75
410.461	1407.75
410.685	1340.75
410.908	1346.75
411.132	1327.75
411.355	1329.75
411.578	1303.75
411.802	1313.75
412.025	1301.75
412.249	1297.75
412.472	1315.75
412.695	1307.75
412.919	1307.75
413.142	1292.75
413.365	1297.75
413.589	1291.75
413.812	1289.75
414.035	1256.75
414.258	1256.75
414.482	1298.75
414.705	1316.75
414.928	1293.75
415.151	1249.75
415.374	1259.75
415.597	1277.75
415.821	1248.75
416.044	1271.75
416.267	1239.75
416.49	1221.75
416.713	1253.75
416.936	1257.75
417.159	1247.75
417.382	1227.75
417.605	1204.75
417.828	1227.75
418.051	1272.75
418.274	1229.75
418.497	1250.75
418.72	1294.75
418.943	1242.75
419.166	1300.75
419.389	1367.75
419.611	1323.75
419.834	1305.75
420.057	1323.75
420.28	1264.75
420.503	1230.75
420.726	1239.75
420.948	1243.75
421.171	1227.75
421.394	1240.75
421.617	1274.75
421.839	1281.75
422.062	1255.75
422.285	1219.75
422.507	1282.75
422.73	1261.75
422.953	1294.75
423.175	1292.75
423.398	1258.75
423.621	1253.75
423.843	1256.75
424.066	1266.75
424.288	1272.75
424.511	1271.75
424.733	1240.75
424.956	1257.75
425.178	1243.75
425.401	1239.75
425.623	1213.75
425.846	1205.75
426.068	1204.75
426.291	1208.75
426.513	1222.75
426.735	1188.75
426.958	1204.75
427.18	1185.75
427.402	1167.75
427.625	1186.75
427.847	1126.75
428.069	1147.75
428.292	1186.75
428.514	1147.75
428.736	1148.75
428.958	1181.75
429.181	1129.75
429.403	1124.75
429.625	1144.75
429.847	1162.75
430.069	1174.75
430.292	1215.75
430.514	1226.75
430.736	1244.75
430.958	1178.75
431.18	1115.75
431.402	1155.75
431.624	1138.75
431.846	1137.75
432.068	1100.75
432.29	1156.75
432.512	1104.75
432.734	1156.75
432.956	1125.75
433.178	1133.75
433.4	1170.75
433.622	1167.75
433.844	1173.75
434.066	1144.75
434.287	1154.75
434.509	1114.75
434.731	1154.75
434.953	1177.75
435.175	1189.75
435.397	1198.75
435.618	1182.75
435.84	1154.75
436.062	1141.75
436.284	1150.75
436.505	1140.75
436.727	1165.75
436.949	1137.75
437.17	1166.75
437.392	1121.75
437.614	1118.75
437.835	1083.75
438.057	1105.75
438.278	1099.75
438.5	1095.75
438.721	1100.75
438.943	1141.75
439.165	1197.75
439.386	1195.75
439.608	1180.75
439.829	1174.75
440.05	1210.75
440.272	1234.75
440.493	1206.75
440.715	1188.75
440.936	1182.75
441.158	1174.75
441.379	1227.75
441.6	1263.75
441.822	1305.75
442.043	1316.75
442.264	1302.75
442.486	1281.75
442.707	1223.75
442.928	1200.75
443.149	1237.75
443.371	1233.75
443.592	1218.75
443.813	1261.75
444.034	1248.75
444.255	1266.75
444.476	1274.75
444.698	1317.75
444.919	1322.75
445.14	1419.75
445.361	1315.75
445.582	1280.75
445.803	1230.75
446.024	1260.75
446.245	1228.75
446.466	1239.75
446.687	1193.75
446.908	1230.75
447.129	1185.75
447.35	1148.75
447.571	1172.75
447.792	1150.75
448.013	1143.75
448.234	1134.75
448.455	1128.75
448.675	1169.75
448.896	1176.75
449.117	1195.75
449.338	1241.75
449.559	1315.75
449.779	1206.75
450	1161.75
450.221	1092.75
450.442	1097.75
450.662	1108.75
450.883	1100.75
451.104	1085.75
451.324	1118.75
451.545	1119.75
451.766	1119.75
451.986	1111.75
452.207	1145.75
452.428	1385.75
452.648	1905.75
452.869	1640.75
453.089	1264.75
453.31	1223.75
453.53	1194.75
453.751	1236.75
453.971	1278.75
454.192	1270.75
454.412	1124.75
454.633	1097.75
454.853	1081.75
455.073	1046.75
455.294	1092.75
455.514	1047.75
455.734	1056.75
455.955	1043.75
456.175	1060.75
456.395	1061.75
456.616	1036.75
456.836	1045.75
457.056	1046.75
457.276	1049.75
457.497	1097.75
457.717	1122.75
457.937	1121.75
458.157	1090.75
458.377	1102.75
458.598	1121.75
458.818	1136.75
459.038	1137.75
459.258	1134.75
459.478	1148.75
459.698	1170.75
459.918	1178.75
460.138	1196.75
460.358	1218.75
460.578	1227.75
460.798	1240.75
461.018	1245.75
461.238	1243.75
461.458	1245.75
461.678	1235.75
461.898	1281.75
462.118	1306.75
462.338	1317.75
462.558	1310.75
462.777	1346.75
462.997	1392.75
463.217	1450.75
463.437	1470.75
463.657	1480.75
463.876	1428.75
464.096	1409.75
464.316	1364.75
464.536	1337.75
464.755	1313.75
464.975	1278.75
465.195	1273.75
465.414	1233.75
465.634	1197.75
465.854	1182.75
466.073	1143.75
466.293	1158.75
466.512	1132.75
466.732	1162.75
466.951	1202.75
467.171	1274.75
467.391	1237.75
467.61	1157.75
467.829	1125.75
468.049	1144.75
468.268	1117.75
468.488	1134.75
468.707	1112.75
468.927	1139.75
469.146	1115.75
469.365	1122.75
469.585	1110.75
469.804	1163.75
470.023	1178.75
470.243	1208.75
470.462	1222.75
470.681	1285.75
470.901	1350.75
471.12	1530.75
471.339	1561.75
471.558	1309.75
471.777	1236.75
471.997	1192.75
472.216	1149.75
472.435	1142.75
472.654	1109.75
472.873	1102.75
473.092	1148.75
473.311	1120.75
473.53	1152.75
473.749	1172.75
473.968	1188.75
474.187	1150.75
474.406	1138.75
474.625	1167.75
474.844	1118.75
475.063	1132.75
475.282	1157.75
475.501	1133.75
475.72	1194.75
475.939	1178.75
476.158	1167.75
476.377	1188.75
476.596	1197.75
476.814	1212.75
477.033	1177.75
477.252	1188.75
477.471	1200.75
477.69	1237.75
477.908	1280.75
478.127	1265.75
478.346	1289.75
478.564	1334.75
478.783	1312.75
479.002	1333.75
479.22	1339.75
479.439	1333.75
479.658	1351.75
479.876	1335.75
480.095	1382.75
480.313	1374.75
480.532	1396.75
480.751	1384.75
480.969	1340.75
481.188	1313.75
481.406	1301.75
481.624	1326.75
481.843	1321.75
482.061	1354.75
482.28	1374.75
482.498	1339.75
482.717	1311.75
482.935	1332.75
483.153	1403.75
483.372	1398.75
483.59	1395.75
483.808	1434.75
484.027	1434.75
484.245	1500.75
484.463	1671.75
484.681	1766.75
484.9	1685.75
485.118	1540.75
485.336	1547.75
485.554	1549.75
485.772	1656.75
485.99	1848.75
486.209	1987.75
486.427	1668.75
486.645	1531.75
486.863	1499.75
487.081	1476.75
487.299	1435.75
487.517	1414.75
487.735	1464.75
487.953	1472.75
488.171	1462.75
488.389	1421.75
488.607	1412.75
488.825	1421.75
489.043	1394.75
489.261	1369.75
489.479	1378.75
489.696	1402.75
489.914	1410.75
490.132	1433.75
490.35	1440.75
490.568	1435.75
490.786	1437.75
491.003	1457.75
