Data from SnStandardFlinnAPT0064_QswitchEnergy10_LIBS07252019.E.O._I.C._HRD10591_15-27-38-973.txt Node
Date: Thu Jul 25 15:27:38 EDT 2019
User: cochatt
Spectrometer: HR+D1059
Trigger mode: 1
Integration Time (sec): 1.000000E-1
Scans to average: 1
Electric dark correction enabled: true
Nonlinearity correction enabled: false
Boxcar width: 0
XAxis mode: Wavelengths
Number of Pixels in Spectrum: 2048
>>>>>Begin Spectral Data<<<<<
223.165	-17.56
223.4	-17.56
223.635	-17.56
223.869	-17.56
224.104	-29.56
224.338	-19.56
224.573	-5.56
224.808	-7.56
225.042	-7.56
225.277	-8.56
225.511	1.44
225.746	8.44
225.98	3.44
226.215	9.44
226.449	18.44
226.683	2.44
226.918	41.44
227.152	28.44
227.387	30.44
227.621	34.44
227.856	45.44
228.09	50.44
228.324	40.44
228.559	64.44
228.793	74.44
229.027	63.44
229.262	70.44
229.496	78.44
229.73	75.44
229.964	68.44
230.199	88.44
230.433	87.44
230.667	89.44
230.901	78.44
231.136	88.44
231.37	95.44
231.604	107.44
231.838	101.44
232.072	121.44
232.306	123.44
232.541	95.44
232.775	80.44
233.009	94.44
233.243	95.44
233.477	112.44
233.711	102.44
233.945	126.44
234.179	103.44
234.413	111.44
234.647	93.44
234.881	82.44
235.115	86.44
235.349	100.44
235.583	104.44
235.817	134.44
236.051	130.44
236.285	103.44
236.519	88.44
236.753	91.44
236.987	72.44
237.221	78.44
237.455	83.44
237.689	85.44
237.922	81.44
238.156	94.44
238.39	82.44
238.624	82.44
238.858	80.44
239.091	87.44
239.325	88.44
239.559	93.44
239.793	85.44
240.027	94.44
240.26	81.44
240.494	88.44
240.728	74.44
240.961	86.44
241.195	85.44
241.429	94.44
241.662	96.44
241.896	89.44
242.13	99.44
242.363	134.44
242.597	168.44
242.83	148.44
243.064	125.44
243.298	171.44
243.531	162.44
243.765	108.44
243.998	82.44
244.232	86.44
244.465	79.44
244.699	76.44
244.932	82.44
245.166	80.44
245.399	82.44
245.633	91.44
245.866	86.44
246.099	86.44
246.333	75.44
246.566	80.44
246.8	87.44
247.033	93.44
247.266	82.44
247.5	87.44
247.733	81.44
247.966	100.44
248.2	95.44
248.433	102.44
248.666	139.44
248.899	120.44
249.133	94.44
249.366	115.44
249.599	101.44
249.832	142.44
250.066	134.44
250.299	90.44
250.532	90.44
250.765	89.44
250.998	71.44
251.231	82.44
251.465	80.44
251.698	92.44
251.931	69.44
252.164	88.44
252.397	100.44
252.63	95.44
252.863	85.44
253.096	99.44
253.329	101.44
253.562	113.44
253.795	84.44
254.028	82.44
254.261	88.44
254.494	89.44
254.727	110.44
254.96	130.44
255.193	134.44
255.426	94.44
255.659	84.44
255.892	84.44
256.124	94.44
256.357	94.44
256.59	86.44
256.823	81.44
257.056	119.44
257.289	134.44
257.521	180.44
257.754	128.44
257.987	102.44
258.22	76.44
258.452	96.44
258.685	83.44
258.918	88.44
259.151	95.44
259.383	131.44
259.616	153.44
259.849	157.44
260.081	96.44
260.314	102.44
260.547	79.44
260.779	82.44
261.012	90.44
261.244	85.44
261.477	92.44
261.71	83.44
261.942	94.44
262.175	86.44
262.407	80.44
262.64	93.44
262.872	78.44
263.105	89.44
263.337	89.44
263.57	99.44
263.802	110.44
264.035	94.44
264.267	92.44
264.499	86.44
264.732	79.44
264.964	86.44
265.197	82.44
265.429	93.44
265.661	77.44
265.894	95.44
266.126	125.44
266.358	167.44
266.591	155.44
266.823	112.44
267.055	88.44
267.287	90.44
267.52	93.44
267.752	89.44
267.984	85.44
268.216	87.44
268.448	82.44
268.681	92.44
268.913	82.44
269.145	97.44
269.377	85.44
269.609	99.44
269.841	90.44
270.073	101.44
270.306	147.44
270.538	201.44
270.77	315.44
271.002	384.44
271.234	196.44
271.466	127.44
271.698	102.44
271.93	90.44
272.162	105.44
272.394	92.44
272.626	101.44
272.858	91.44
273.09	106.44
273.322	85.44
273.553	100.44
273.785	89.44
274.017	90.44
274.249	96.44
274.481	86.44
274.713	99.44
274.945	90.44
275.176	90.44
275.408	80.44
275.64	87.44
275.872	83.44
276.104	85.44
276.335	85.44
276.567	102.44
276.799	87.44
277.031	88.44
277.262	89.44
277.494	107.44
277.726	134.44
277.957	181.44
278.189	262.44
278.421	222.44
278.652	178.44
278.884	198.44
279.115	135.44
279.347	107.44
279.579	103.44
279.81	102.44
280.042	110.44
280.273	105.44
280.505	116.44
280.736	115.44
280.968	122.44
281.199	175.44
281.431	258.44
281.662	268.44
281.894	162.44
282.125	109.44
282.356	112.44
282.588	112.44
282.819	115.44
283.051	110.44
283.282	137.44
283.513	202.44
283.745	312.44
283.976	554.44
284.207	812.44
284.439	613.44
284.67	279.44
284.901	251.44
285.132	341.44
285.364	397.44
285.595	207.44
285.826	175.44
286.057	266.44
286.288	434.44
286.52	628.44
286.751	505.44
286.982	203.44
287.213	136.44
287.444	117.44
287.675	103.44
287.906	98.44
288.138	82.44
288.369	92.44
288.6	101.44
288.831	100.44
289.062	99.44
289.293	115.44
289.524	103.44
289.755	104.44
289.986	100.44
290.217	86.44
290.448	117.44
290.679	92.44
290.91	133.44
291.141	182.44
291.371	231.44
291.602	283.44
291.833	206.44
292.064	117.44
292.295	86.44
292.526	96.44
292.757	89.44
292.987	94.44
293.218	92.44
293.449	88.44
293.68	103.44
293.91	97.44
294.141	93.44
294.372	99.44
294.603	111.44
294.833	99.44
295.064	79.44
295.295	114.44
295.525	105.44
295.756	103.44
295.987	92.44
296.217	102.44
296.448	104.44
296.679	95.44
296.909	109.44
297.14	105.44
297.37	110.44
297.601	95.44
297.831	106.44
298.062	94.44
298.292	111.44
298.523	109.44
298.753	110.44
298.984	110.44
299.214	119.44
299.445	106.44
299.675	121.44
299.905	126.44
300.136	137.44
300.366	174.44
300.597	261.44
300.827	457.44
301.057	708.44
301.288	653.44
301.518	258.44
301.748	174.44
301.979	131.44
302.209	137.44
302.439	166.44
302.669	181.44
302.9	277.44
303.13	514.44
303.36	868.44
303.59	1220.44
303.82	840.44
304.051	284.44
304.281	146.44
304.511	130.44
304.741	110.44
304.971	119.44
305.201	120.44
305.431	124.44
305.661	116.44
305.891	109.44
306.121	96.44
306.352	118.44
306.582	117.44
306.812	116.44
307.042	110.44
307.272	100.44
307.502	102.44
307.731	114.44
307.961	112.44
308.191	116.44
308.421	107.44
308.651	112.44
308.881	106.44
309.111	113.44
309.341	114.44
309.571	105.44
309.8	103.44
310.03	119.44
310.26	107.44
310.49	102.44
310.72	102.44
310.949	90.44
311.179	116.44
311.409	110.44
311.639	108.44
311.868	109.44
312.098	116.44
312.328	126.44
312.557	102.44
312.787	110.44
313.017	128.44
313.246	122.44
313.476	114.44
313.706	138.44
313.935	157.44
314.165	196.44
314.394	233.44
314.624	190.44
314.853	141.44
315.083	140.44
315.312	142.44
315.542	130.44
315.771	110.44
316.001	136.44
316.23	142.44
316.46	155.44
316.689	197.44
316.919	258.44
317.148	536.44
317.377	934.44
317.607	1489.44
317.836	1437.44
318.065	549.44
318.295	247.44
318.524	154.44
318.753	140.44
318.983	122.44
319.212	112.44
319.441	125.44
319.67	122.44
319.9	133.44
320.129	121.44
320.358	126.44
320.587	114.44
320.816	124.44
321.046	128.44
321.275	133.44
321.504	123.44
321.733	140.44
321.962	166.44
322.191	171.44
322.42	136.44
322.649	99.44
322.878	134.44
323.108	134.44
323.337	127.44
323.566	131.44
323.795	138.44
324.024	136.44
324.253	144.44
324.482	172.44
324.71	219.44
324.939	315.44
325.168	245.44
325.397	198.44
325.626	253.44
325.855	524.44
326.084	981.44
326.313	1654.44
326.542	1613.44
326.77	616.44
326.999	272.44
327.228	210.44
327.457	226.44
327.686	233.44
327.914	160.44
328.143	138.44
328.372	134.44
328.6	135.44
328.829	126.44
329.058	122.44
329.287	118.44
329.515	128.44
329.744	122.44
329.972	120.44
330.201	117.44
330.43	116.44
330.658	131.44
330.887	130.44
331.115	97.44
331.344	111.44
331.572	121.44
331.801	112.44
332.03	134.44
332.258	141.44
332.486	159.44
332.715	299.44
332.943	544.44
333.172	778.44
333.4	689.44
333.629	258.44
333.857	161.44
334.085	136.44
334.314	131.44
334.542	100.44
334.771	119.44
334.999	132.44
335.227	103.44
335.455	116.44
335.684	111.44
335.912	114.44
336.14	110.44
336.369	122.44
336.597	118.44
336.825	101.44
337.053	115.44
337.281	108.44
337.51	101.44
337.738	101.44
337.966	110.44
338.194	130.44
338.422	114.44
338.65	122.44
338.878	109.44
339.106	130.44
339.334	125.44
339.562	119.44
339.79	113.44
340.018	107.44
340.246	104.44
340.474	123.44
340.702	116.44
340.93	118.44
341.158	119.44
341.386	121.44
341.614	113.44
341.842	116.44
342.07	138.44
342.298	123.44
342.526	123.44
342.754	109.44
342.981	110.44
343.209	129.44
343.437	109.44
343.665	116.44
343.893	124.44
344.12	107.44
344.348	118.44
344.576	113.44
344.804	118.44
345.031	123.44
345.259	118.44
345.487	107.44
345.714	116.44
345.942	110.44
346.17	104.44
346.397	104.44
346.625	115.44
346.853	108.44
347.08	108.44
347.308	115.44
347.535	119.44
347.763	114.44
347.99	112.44
348.218	114.44
348.445	120.44
348.673	122.44
348.9	114.44
349.128	108.44
349.355	116.44
349.583	116.44
349.81	118.44
350.037	120.44
350.265	117.44
350.492	126.44
350.72	103.44
350.947	124.44
351.174	128.44
351.402	108.44
351.629	120.44
351.856	129.44
352.083	128.44
352.311	117.44
352.538	124.44
352.765	130.44
352.992	118.44
353.22	111.44
353.447	114.44
353.674	102.44
353.901	118.44
354.128	100.44
354.355	104.44
354.583	119.44
354.81	103.44
355.037	104.44
355.264	105.44
355.491	115.44
355.718	92.44
355.945	104.44
356.172	122.44
356.399	114.44
356.626	107.44
356.853	108.44
357.08	123.44
357.307	110.44
357.534	125.44
357.761	106.44
357.988	111.44
358.215	109.44
358.441	107.44
358.668	117.44
358.895	114.44
359.122	114.44
359.349	122.44
359.576	121.44
359.802	134.44
360.029	126.44
360.256	120.44
360.483	120.44
360.709	115.44
360.936	96.44
361.163	109.44
361.39	118.44
361.616	104.44
361.843	111.44
362.07	113.44
362.296	126.44
362.523	109.44
362.749	104.44
362.976	117.44
363.203	128.44
363.429	123.44
363.656	121.44
363.882	112.44
364.109	130.44
364.335	100.44
364.562	109.44
364.788	99.44
365.015	107.44
365.241	143.44
365.468	215.44
365.694	256.44
365.92	201.44
366.147	116.44
366.373	114.44
366.599	101.44
366.826	101.44
367.052	89.44
367.278	92.44
367.505	93.44
367.731	100.44
367.957	104.44
368.184	109.44
368.41	119.44
368.636	120.44
368.862	116.44
369.089	99.44
369.315	117.44
369.541	105.44
369.767	101.44
369.993	101.44
370.219	110.44
370.445	113.44
370.672	113.44
370.898	112.44
371.124	100.44
371.35	101.44
371.576	120.44
371.802	103.44
372.028	114.44
372.254	121.44
372.48	128.44
372.706	125.44
372.932	130.44
373.158	113.44
373.384	109.44
373.61	122.44
373.835	111.44
374.061	116.44
374.287	108.44
374.513	105.44
374.739	109.44
374.965	108.44
375.191	100.44
375.416	131.44
375.642	98.44
375.868	113.44
376.094	118.44
376.319	116.44
376.545	90.44
376.771	112.44
376.997	113.44
377.222	103.44
377.448	104.44
377.674	116.44
377.899	98.44
378.125	105.44
378.35	122.44
378.576	119.44
378.802	123.44
379.027	135.44
379.253	152.44
379.478	184.44
379.704	321.44
379.929	757.44
380.155	1579.44
380.38	1692.44
380.606	548.44
380.831	204.44
381.057	143.44
381.282	142.44
381.507	117.44
381.733	126.44
381.958	129.44
382.184	127.44
382.409	122.44
382.634	104.44
382.86	107.44
383.085	107.44
383.31	101.44
383.535	118.44
383.761	113.44
383.986	116.44
384.211	115.44
384.436	101.44
384.662	102.44
384.887	115.44
385.112	106.44
385.337	101.44
385.562	120.44
385.787	121.44
386.013	125.44
386.238	132.44
386.463	103.44
386.688	107.44
386.913	116.44
387.138	110.44
387.363	99.44
387.588	107.44
387.813	100.44
388.038	116.44
388.263	104.44
388.488	112.44
388.713	102.44
388.938	116.44
389.163	108.44
389.387	94.44
389.612	106.44
389.837	112.44
390.062	109.44
390.287	118.44
390.512	98.44
390.736	108.44
390.961	110.44
391.186	111.44
391.411	91.44
391.636	90.44
391.86	102.44
392.085	101.44
392.31	111.44
392.534	117.44
392.759	110.44
392.984	105.44
393.208	116.44
393.433	132.44
393.658	144.44
393.882	109.44
394.107	115.44
394.331	105.44
394.556	102.44
394.78	108.44
395.005	102.44
395.229	106.44
395.454	110.44
395.678	99.44
395.903	116.44
396.127	115.44
396.352	109.44
396.576	115.44
396.801	124.44
397.025	138.44
397.249	116.44
397.474	105.44
397.698	95.44
397.922	94.44
398.147	108.44
398.371	116.44
398.595	102.44
398.82	100.44
399.044	101.44
399.268	103.44
399.492	104.44
399.717	100.44
399.941	105.44
400.165	111.44
400.389	106.44
400.613	98.44
400.837	86.44
401.062	110.44
401.286	114.44
401.51	103.44
401.734	96.44
401.958	107.44
402.182	94.44
402.406	100.44
402.63	105.44
402.854	108.44
403.078	95.44
403.302	112.44
403.526	100.44
403.75	92.44
403.974	101.44
404.198	98.44
404.422	100.44
404.645	99.44
404.869	108.44
405.093	109.44
405.317	97.44
405.541	106.44
405.765	136.44
405.988	139.44
406.212	126.44
406.436	92.44
406.66	111.44
406.883	99.44
407.107	95.44
407.331	99.44
407.555	95.44
407.778	107.44
408.002	101.44
408.226	97.44
408.449	112.44
408.673	94.44
408.896	90.44
409.12	100.44
409.344	111.44
409.567	95.44
409.791	102.44
410.014	105.44
410.238	111.44
410.461	102.44
410.685	117.44
410.908	107.44
411.132	106.44
411.355	107.44
411.578	115.44
411.802	107.44
412.025	120.44
412.249	109.44
412.472	103.44
412.695	96.44
412.919	92.44
413.142	121.44
413.365	112.44
413.589	102.44
413.812	99.44
414.035	124.44
414.258	111.44
414.482	103.44
414.705	96.44
414.928	122.44
415.151	115.44
415.374	98.44
415.597	116.44
415.821	111.44
416.044	107.44
416.267	105.44
416.49	104.44
416.713	117.44
416.936	108.44
417.159	95.44
417.382	102.44
417.605	109.44
417.828	84.44
418.051	102.44
418.274	96.44
418.497	112.44
418.72	109.44
418.943	96.44
419.166	107.44
419.389	110.44
419.611	114.44
419.834	114.44
420.057	109.44
420.28	103.44
420.503	105.44
420.726	115.44
420.948	79.44
421.171	103.44
421.394	87.44
421.617	89.44
421.839	92.44
422.062	93.44
422.285	100.44
422.507	114.44
422.73	130.44
422.953	145.44
423.175	114.44
423.398	103.44
423.621	99.44
423.843	84.44
424.066	92.44
424.288	112.44
424.511	95.44
424.733	102.44
424.956	92.44
425.178	100.44
425.401	111.44
425.623	94.44
425.846	86.44
426.068	98.44
426.291	107.44
426.513	88.44
426.735	94.44
426.958	100.44
427.18	98.44
427.402	88.44
427.625	98.44
427.847	90.44
428.069	88.44
428.292	97.44
428.514	110.44
428.736	125.44
428.958	105.44
429.181	89.44
429.403	87.44
429.625	95.44
429.847	115.44
430.069	106.44
430.292	110.44
430.514	117.44
430.736	100.44
430.958	107.44
431.18	92.44
431.402	100.44
431.624	105.44
431.846	93.44
432.068	109.44
432.29	95.44
432.512	80.44
432.734	90.44
432.956	109.44
433.178	105.44
433.4	87.44
433.622	102.44
433.844	90.44
434.066	100.44
434.287	91.44
434.509	83.44
434.731	85.44
434.953	86.44
435.175	82.44
435.397	100.44
435.618	90.44
435.84	105.44
436.062	110.44
436.284	100.44
436.505	95.44
436.727	90.44
436.949	104.44
437.17	109.44
437.392	92.44
437.614	90.44
437.835	98.44
438.057	93.44
438.278	107.44
438.5	97.44
438.721	104.44
438.943	107.44
439.165	111.44
439.386	98.44
439.608	93.44
439.829	118.44
440.05	114.44
440.272	138.44
440.493	116.44
440.715	101.44
440.936	101.44
441.158	103.44
441.379	86.44
441.6	96.44
441.822	104.44
442.043	121.44
442.264	128.44
442.486	133.44
442.707	107.44
442.928	100.44
443.149	90.44
443.371	99.44
443.592	93.44
443.813	114.44
444.034	93.44
444.255	100.44
444.476	113.44
444.698	100.44
444.919	99.44
445.14	185.44
445.361	143.44
445.582	115.44
445.803	101.44
446.024	101.44
446.245	112.44
446.466	104.44
446.687	97.44
446.908	98.44
447.129	93.44
447.35	100.44
447.571	101.44
447.792	93.44
448.013	95.44
448.234	106.44
448.455	102.44
448.675	106.44
448.896	110.44
449.117	109.44
449.338	139.44
449.559	168.44
449.779	142.44
450	116.44
450.221	106.44
450.442	114.44
450.662	118.44
450.883	105.44
451.104	106.44
451.324	126.44
451.545	113.44
451.766	107.44
451.986	134.44
452.207	228.44
452.428	544.44
452.648	1332.44
452.869	739.44
453.089	203.44
453.31	134.44
453.53	118.44
453.751	146.44
453.971	157.44
454.192	155.44
454.412	116.44
454.633	105.44
454.853	106.44
455.073	110.44
455.294	99.44
455.514	89.44
455.734	95.44
455.955	100.44
456.175	101.44
456.395	91.44
456.616	94.44
456.836	108.44
457.056	111.44
457.276	102.44
457.497	104.44
457.717	117.44
457.937	106.44
458.157	79.44
458.377	79.44
458.598	102.44
458.818	92.44
459.038	98.44
459.258	100.44
459.478	96.44
459.698	100.44
459.918	101.44
460.138	76.44
460.358	93.44
460.578	97.44
460.798	88.44
461.018	101.44
461.238	82.44
461.458	81.44
461.678	109.44
461.898	96.44
462.118	108.44
462.338	94.44
462.558	111.44
462.777	89.44
462.997	103.44
463.217	115.44
463.437	141.44
463.657	186.44
463.876	190.44
464.096	134.44
464.316	99.44
464.536	99.44
464.755	110.44
464.975	111.44
465.195	91.44
465.414	95.44
465.634	101.44
465.854	86.44
466.073	103.44
466.293	91.44
466.512	107.44
466.732	103.44
466.951	124.44
467.171	147.44
467.391	130.44
467.61	110.44
467.829	102.44
468.049	102.44
468.268	108.44
468.488	99.44
468.707	85.44
468.927	84.44
469.146	108.44
469.365	94.44
469.585	91.44
469.804	117.44
470.023	106.44
470.243	104.44
470.462	83.44
470.681	134.44
470.901	150.44
471.12	207.44
471.339	228.44
471.558	137.44
471.777	111.44
471.997	98.44
472.216	92.44
472.435	93.44
472.654	101.44
472.873	95.44
473.092	87.44
473.311	105.44
473.53	103.44
473.749	116.44
473.968	109.44
474.187	110.44
474.406	88.44
474.625	94.44
474.844	106.44
475.063	116.44
475.282	97.44
475.501	91.44
475.72	104.44
475.939	94.44
476.158	108.44
476.377	119.44
476.596	106.44
476.814	108.44
477.033	98.44
477.252	98.44
477.471	91.44
477.69	111.44
477.908	92.44
478.127	92.44
478.346	95.44
478.564	99.44
478.783	107.44
479.002	110.44
479.22	107.44
479.439	102.44
479.658	98.44
479.876	81.44
480.095	94.44
480.313	101.44
480.532	98.44
480.751	96.44
480.969	91.44
481.188	96.44
481.406	112.44
481.624	106.44
481.843	115.44
482.061	115.44
482.28	107.44
482.498	100.44
482.717	96.44
482.935	104.44
483.153	101.44
483.372	114.44
483.59	101.44
483.808	87.44
484.027	117.44
484.245	122.44
484.463	182.44
484.681	231.44
484.9	167.44
485.118	118.44
485.336	120.44
485.554	99.44
485.772	142.44
485.99	217.44
486.209	260.44
486.427	172.44
486.645	109.44
486.863	105.44
487.081	117.44
487.299	102.44
487.517	103.44
487.735	98.44
487.953	101.44
488.171	113.44
488.389	109.44
488.607	96.44
488.825	98.44
489.043	105.44
489.261	88.44
489.479	106.44
489.696	95.44
489.914	102.44
490.132	96.44
490.35	112.44
490.568	114.44
490.786	110.44
491.003	98.44
491.221	114.44
491.439	113.44
491.657	103.44
491.874	92.44
492.092	101.44
492.31	116.44
492.527	108.44
492.745	106.44
492.963	109.44
493.18	112.44
493.398	119.44
493.615	106.44
493.833	100.44
494.05	108.44
494.268	104.44
494.485	104.44
494.703	98.44
494.92	121.44
495.138	106.44
495.355	108.44
495.573	118.44
495.79	102.44
496.008	112.44
496.225	105.44
496.442	108.44
496.66	129.44
496.877	172.44
497.094	160.44
497.312	119.44
497.529	92.44
497.746	122.44
497.963	106.44
498.181	108.44
498.398	106.44
498.615	112.44
498.832	124.44
499.049	100.44
499.267	136.44
499.484	156.44
499.701	114.44
499.918	118.44
500.135	101.44
500.352	94.44
500.569	85.44
500.786	119.44
501.003	95.44
501.22	93.44
501.437	100.44
501.654	114.44
501.871	124.44
502.088	102.44
502.305	96.44
502.522	102.44
502.739	102.44
502.956	100.44
503.172	106.44
503.389	92.44
503.606	96.44
503.823	121.44
504.04	113.44
504.256	112.44
504.473	101.44
504.69	105.44
504.907	107.44
505.123	121.44
505.34	102.44
505.557	94.44
505.773	112.44
505.99	104.44
506.207	102.44
506.423	120.44
506.64	114.44
