Data from SnStandardFlinnAPT0064_LampEnergy10_LIBS07252019.E.O._I.C._HRD10591_15-20-20-493.txt Node
Date: Thu Jul 25 15:20:20 EDT 2019
User: cochatt
Spectrometer: HR+D1059
Trigger mode: 1
Integration Time (sec): 1.000000E-1
Scans to average: 1
Electric dark correction enabled: true
Nonlinearity correction enabled: false
Boxcar width: 0
XAxis mode: Wavelengths
Number of Pixels in Spectrum: 2048
>>>>>Begin Spectral Data<<<<<
223.165	-26.25
223.4	-26.25
223.635	-26.25
223.869	-21.25
224.104	-24.25
224.338	-12.25
224.573	-18.25
224.808	-6.25
225.042	-11.25
225.277	-6.25
225.511	12.75
225.746	-3.25
225.98	1.75
226.215	14.75
226.449	14.75
226.683	22.75
226.918	21.75
227.152	40.75
227.387	34.75
227.621	29.75
227.856	47.75
228.09	37.75
228.324	49.75
228.559	43.75
228.793	133.75
229.027	311.75
229.262	337.75
229.496	305.75
229.73	285.75
229.964	309.75
230.199	308.75
230.433	298.75
230.667	300.75
230.901	316.75
231.136	323.75
231.37	360.75
231.604	379.75
231.838	433.75
232.072	509.75
232.306	575.75
232.541	469.75
232.775	414.75
233.009	410.75
233.243	413.75
233.477	452.75
233.711	519.75
233.945	598.75
234.179	538.75
234.413	462.75
234.647	445.75
234.881	460.75
235.115	528.75
235.349	627.75
235.583	789.75
235.817	997.75
236.051	999.75
236.285	636.75
236.519	509.75
236.753	486.75
236.987	497.75
237.221	544.75
237.455	486.75
237.689	448.75
237.922	438.75
238.156	464.75
238.39	479.75
238.624	489.75
238.858	486.75
239.091	471.75
239.325	479.75
239.559	500.75
239.793	491.75
240.027	527.75
240.26	550.75
240.494	521.75
240.728	584.75
240.961	611.75
241.195	636.75
241.429	689.75
241.662	696.75
241.896	767.75
242.13	903.75
242.363	1258.75
242.597	1589.75
242.83	1523.75
243.064	1543.75
243.298	1845.75
243.531	1493.75
243.765	953.75
243.998	783.75
244.232	686.75
244.465	629.75
244.699	623.75
244.932	630.75
245.166	653.75
245.399	645.75
245.633	644.75
245.866	684.75
246.099	651.75
246.333	629.75
246.566	607.75
246.8	619.75
247.033	648.75
247.266	647.75
247.5	641.75
247.733	666.75
247.966	695.75
248.2	764.75
248.433	899.75
248.666	997.75
248.899	920.75
249.133	830.75
249.366	849.75
249.599	939.75
249.832	1082.75
250.066	1097.75
250.299	846.75
250.532	739.75
250.765	739.75
250.998	710.75
251.231	702.75
251.465	704.75
251.698	707.75
251.931	701.75
252.164	737.75
252.397	744.75
252.63	798.75
252.863	774.75
253.096	749.75
253.329	763.75
253.562	755.75
253.795	780.75
254.028	786.75
254.261	806.75
254.494	865.75
254.727	1000.75
254.96	1243.75
255.193	1196.75
255.426	943.75
255.659	866.75
255.892	832.75
256.124	853.75
256.357	853.75
256.59	867.75
256.823	940.75
257.056	1101.75
257.289	1347.75
257.521	1501.75
257.754	1153.75
257.987	957.75
258.22	895.75
258.452	894.75
258.685	899.75
258.918	906.75
259.151	985.75
259.383	1049.75
259.616	1218.75
259.849	1277.75
260.081	1062.75
260.314	973.75
260.547	926.75
260.779	930.75
261.012	907.75
261.244	903.75
261.477	934.75
261.71	940.75
261.942	959.75
262.175	989.75
262.407	977.75
262.64	1010.75
262.872	1041.75
263.105	1107.75
263.337	1158.75
263.57	1203.75
263.802	1250.75
264.035	1227.75
264.267	1289.75
264.499	1308.75
264.732	1338.75
264.964	1355.75
265.197	1358.75
265.429	1351.75
265.661	1368.75
265.894	1479.75
266.126	1681.75
266.358	1905.75
266.591	1840.75
266.823	1561.75
267.055	1367.75
267.287	1329.75
267.52	1254.75
267.752	1253.75
267.984	1241.75
268.216	1220.75
268.448	1207.75
268.681	1221.75
268.913	1200.75
269.145	1210.75
269.377	1198.75
269.609	1197.75
269.841	1250.75
270.073	1332.75
270.306	1574.75
270.538	2147.75
270.77	3164.75
271.002	3919.75
271.234	2809.75
271.466	1848.75
271.698	1515.75
271.93	1348.75
272.162	1296.75
272.394	1231.75
272.626	1219.75
272.858	1184.75
273.09	1159.75
273.322	1194.75
273.553	1130.75
273.785	1186.75
274.017	1168.75
274.249	1181.75
274.481	1161.75
274.713	1159.75
274.945	1194.75
275.176	1186.75
275.408	1191.75
275.64	1215.75
275.872	1202.75
276.104	1253.75
276.335	1250.75
276.567	1249.75
276.799	1230.75
277.031	1245.75
277.262	1308.75
277.494	1358.75
277.726	1514.75
277.957	1811.75
278.189	2060.75
278.421	1981.75
278.652	1750.75
278.884	1639.75
279.115	1493.75
279.347	1391.75
279.579	1359.75
279.81	1373.75
280.042	1346.75
280.273	1419.75
280.505	1381.75
280.736	1463.75
280.968	1533.75
281.199	1746.75
281.431	2068.75
281.662	2071.75
281.894	1729.75
282.125	1627.75
282.356	1590.75
282.588	1590.75
282.819	1641.75
283.051	1793.75
283.282	1986.75
283.513	2421.75
283.745	3548.75
283.976	5627.75
284.207	7981.75
284.439	7277.75
284.67	4561.75
284.901	3771.75
285.132	3819.75
285.364	3568.75
285.595	2685.75
285.826	2394.75
286.057	2837.75
286.288	3772.75
286.52	5228.75
286.751	4905.75
286.982	3029.75
287.213	2268.75
287.444	1956.75
287.675	1811.75
287.906	1717.75
288.138	1671.75
288.369	1645.75
288.6	1645.75
288.831	1591.75
289.062	1613.75
289.293	1610.75
289.524	1647.75
289.755	1644.75
289.986	1641.75
290.217	1631.75
290.448	1646.75
290.679	1683.75
290.91	1751.75
291.141	1865.75
291.371	2011.75
291.602	2101.75
291.833	1913.75
292.064	1726.75
292.295	1631.75
292.526	1607.75
292.757	1553.75
292.987	1547.75
293.218	1542.75
293.449	1591.75
293.68	1504.75
293.91	1564.75
294.141	1539.75
294.372	1529.75
294.603	1532.75
294.833	1531.75
295.064	1525.75
295.295	1500.75
295.525	1537.75
295.756	1509.75
295.987	1483.75
296.217	1553.75
296.448	1513.75
296.679	1548.75
296.909	1513.75
297.14	1546.75
297.37	1549.75
297.601	1576.75
297.831	1568.75
298.062	1590.75
298.292	1600.75
298.523	1647.75
298.753	1653.75
298.984	1687.75
299.214	1723.75
299.445	1692.75
299.675	1746.75
299.905	1804.75
300.136	1854.75
300.366	2115.75
300.597	2692.75
300.827	3828.75
301.057	5218.75
301.288	5277.75
301.518	3349.75
301.748	2561.75
301.979	2292.75
302.209	2232.75
302.439	2242.75
302.669	2422.75
302.9	2887.75
303.13	4172.75
303.36	6206.75
303.59	8310.75
303.82	7160.75
304.051	4257.75
304.281	3014.75
304.511	2514.75
304.741	2266.75
304.971	2185.75
305.201	2041.75
305.431	1953.75
305.661	1960.75
305.891	1865.75
306.121	1848.75
306.352	1836.75
306.582	1802.75
306.812	1799.75
307.042	1798.75
307.272	1763.75
307.502	1777.75
307.731	1772.75
307.961	1787.75
308.191	1784.75
308.421	1752.75
308.651	1761.75
308.881	1774.75
309.111	1760.75
309.341	1743.75
309.571	1813.75
309.8	1826.75
310.03	1789.75
310.26	1784.75
310.49	1813.75
310.72	1813.75
310.949	1786.75
311.179	1841.75
311.409	1853.75
311.639	1843.75
311.868	1847.75
312.098	1881.75
312.328	1924.75
312.557	1921.75
312.787	1861.75
313.017	1922.75
313.246	1921.75
313.476	1933.75
313.706	2046.75
313.935	2163.75
314.165	2339.75
314.394	2486.75
314.624	2361.75
314.853	2105.75
315.083	2069.75
315.312	2090.75
315.542	2130.75
315.771	2154.75
316.001	2195.75
316.23	2253.75
316.46	2401.75
316.689	2617.75
316.919	3149.75
317.148	4563.75
317.377	7057.75
317.607	10402.75
317.836	10920.75
318.065	6682.75
318.295	4247.75
318.524	3417.75
318.753	2907.75
318.983	2680.75
319.212	2469.75
319.441	2434.75
319.67	2377.75
319.9	2304.75
320.129	2304.75
320.358	2309.75
320.587	2275.75
320.816	2261.75
321.046	2270.75
321.275	2286.75
321.504	2294.75
321.733	2337.75
321.962	2430.75
322.191	2457.75
322.42	2433.75
322.649	2383.75
322.878	2433.75
323.108	2393.75
323.337	2434.75
323.566	2509.75
323.795	2543.75
324.024	2554.75
324.253	2667.75
324.482	2742.75
324.71	2961.75
324.939	3114.75
325.168	3171.75
325.397	3321.75
325.626	3909.75
325.855	5481.75
326.084	8562.75
326.313	12644.75
326.542	13429.75
326.77	9053.75
326.999	5877.75
327.228	4845.75
327.457	4650.75
327.686	4623.75
327.914	4893.75
328.143	5646.75
328.372	6726.75
328.6	7309.75
328.829	6488.75
329.058	5486.75
329.287	4804.75
329.515	4446.75
329.744	4121.75
329.972	3873.75
330.201	3695.75
330.43	3586.75
330.658	3444.75
330.887	3424.75
331.115	3314.75
331.344	3294.75
331.572	3330.75
331.801	3302.75
332.03	3318.75
332.258	3469.75
332.486	3605.75
332.715	4153.75
332.943	5140.75
333.172	6535.75
333.4	6549.75
333.629	4869.75
333.857	4388.75
334.085	4280.75
334.314	4506.75
334.542	4840.75
334.771	5676.75
334.999	6951.75
335.227	8753.75
335.455	9738.75
335.684	8784.75
335.912	7291.75
336.14	6172.75
336.369	5431.75
336.597	5035.75
336.825	4547.75
337.053	4286.75
337.281	4038.75
337.51	3791.75
337.738	3702.75
337.966	3500.75
338.194	3429.75
338.422	3273.75
338.65	3258.75
338.878	3168.75
339.106	3145.75
339.334	3121.75
339.562	3043.75
339.79	2969.75
340.018	2958.75
340.246	2900.75
340.474	2918.75
340.702	2901.75
340.93	2922.75
341.158	2914.75
341.386	2890.75
341.614	2851.75
341.842	2742.75
342.07	2781.75
342.298	2733.75
342.526	2709.75
342.754	2645.75
342.981	2662.75
343.209	2629.75
343.437	2681.75
343.665	2691.75
343.893	2742.75
344.12	2711.75
344.348	2663.75
344.576	2678.75
344.804	2647.75
345.031	2495.75
345.259	2520.75
345.487	2499.75
345.714	2467.75
345.942	2488.75
346.17	2474.75
346.397	2470.75
346.625	2441.75
346.853	2438.75
347.08	2407.75
347.308	2449.75
347.535	2413.75
347.763	2397.75
347.99	2374.75
348.218	2408.75
348.445	2396.75
348.673	2402.75
348.9	2357.75
349.128	2358.75
349.355	2371.75
349.583	2355.75
349.81	2344.75
350.037	2341.75
350.265	2334.75
350.492	2316.75
350.72	2338.75
350.947	2321.75
351.174	2336.75
351.402	2322.75
351.629	2325.75
351.856	2295.75
352.083	2305.75
352.311	2301.75
352.538	2284.75
352.765	2330.75
352.992	2319.75
353.22	2255.75
353.447	2242.75
353.674	2260.75
353.901	2328.75
354.128	2306.75
354.355	2334.75
354.583	2343.75
354.81	2326.75
355.037	2332.75
355.264	2334.75
355.491	2320.75
355.718	2333.75
355.945	2366.75
356.172	2365.75
356.399	2342.75
356.626	2344.75
356.853	2398.75
357.08	2453.75
357.307	2435.75
357.534	2496.75
357.761	2503.75
357.988	2475.75
358.215	2458.75
358.441	2473.75
358.668	2420.75
358.895	2453.75
359.122	2412.75
359.349	2453.75
359.576	2442.75
359.802	2421.75
360.029	2460.75
360.256	2451.75
360.483	2447.75
360.709	2447.75
360.936	2446.75
361.163	2440.75
361.39	2454.75
361.616	2461.75
361.843	2465.75
362.07	2487.75
362.296	2479.75
362.523	2440.75
362.749	2441.75
362.976	2431.75
363.203	2435.75
363.429	2431.75
363.656	2445.75
363.882	2472.75
364.109	2454.75
364.335	2415.75
364.562	2459.75
364.788	2435.75
365.015	2473.75
365.241	2527.75
365.468	2699.75
365.694	2882.75
365.92	2761.75
366.147	2554.75
366.373	2519.75
366.599	2479.75
366.826	2490.75
367.052	2502.75
367.278	2542.75
367.505	2518.75
367.731	2531.75
367.957	2502.75
368.184	2532.75
368.41	2545.75
368.636	2617.75
368.862	2582.75
369.089	2561.75
369.315	2518.75
369.541	2533.75
369.767	2521.75
369.993	2533.75
370.219	2535.75
370.445	2529.75
370.672	2536.75
370.898	2516.75
371.124	2605.75
371.35	2609.75
371.576	2611.75
371.802	2629.75
372.028	2639.75
372.254	2670.75
372.48	2642.75
372.706	2653.75
372.932	2634.75
373.158	2636.75
373.384	2690.75
373.61	2628.75
373.835	2674.75
374.061	2733.75
374.287	2707.75
374.513	2664.75
374.739	2756.75
374.965	2804.75
375.191	2776.75
375.416	2750.75
375.642	2697.75
375.868	2704.75
376.094	2686.75
376.319	2655.75
376.545	2646.75
376.771	2632.75
376.997	2638.75
377.222	2619.75
377.448	2650.75
377.674	2649.75
377.899	2609.75
378.125	2639.75
378.35	2569.75
378.576	2627.75
378.802	2698.75
379.027	2754.75
379.253	2769.75
379.478	2955.75
379.704	3507.75
379.929	5065.75
380.155	7986.75
380.38	8747.75
380.606	5273.75
380.831	3587.75
381.057	3192.75
381.282	2858.75
381.507	2775.75
381.733	2687.75
381.958	2685.75
382.184	2628.75
382.409	2668.75
382.634	2628.75
382.86	2559.75
383.085	2587.75
383.31	2602.75
383.535	2566.75
383.761	2601.75
383.986	2619.75
384.211	2631.75
384.436	2697.75
384.662	2682.75
384.887	2723.75
385.112	2665.75
385.337	2697.75
385.562	2664.75
385.787	2707.75
386.013	2679.75
386.238	2689.75
386.463	2745.75
386.688	2703.75
386.913	2683.75
387.138	2620.75
387.363	2718.75
387.588	2603.75
387.813	2647.75
388.038	2647.75
388.263	2707.75
388.488	2696.75
388.713	2667.75
388.938	2670.75
389.163	2663.75
389.387	2677.75
389.612	2707.75
389.837	2692.75
390.062	2690.75
390.287	2713.75
390.512	2727.75
390.736	2754.75
390.961	2790.75
391.186	2761.75
391.411	2787.75
391.636	2846.75
391.86	2839.75
392.085	2794.75
392.31	2799.75
392.534	2792.75
392.759	2766.75
392.984	2776.75
393.208	2768.75
393.433	2758.75
393.658	2751.75
393.882	2701.75
394.107	2718.75
394.331	2737.75
394.556	2755.75
394.78	2767.75
395.005	2745.75
395.229	2754.75
395.454	2850.75
395.678	2830.75
395.903	2821.75
396.127	2806.75
396.352	2795.75
396.576	2787.75
396.801	2788.75
397.025	2787.75
397.249	2854.75
397.474	2818.75
397.698	2846.75
397.922	2902.75
398.147	2862.75
398.371	2914.75
398.595	2989.75
398.82	3009.75
399.044	3083.75
399.268	3268.75
399.492	3458.75
399.717	3538.75
399.941	3607.75
400.165	3421.75
400.389	3279.75
400.613	3193.75
400.837	3083.75
401.062	3071.75
401.286	2994.75
401.51	2949.75
401.734	2924.75
401.958	2949.75
402.182	2924.75
402.406	2952.75
402.63	3019.75
402.854	3022.75
403.078	2993.75
403.302	3079.75
403.526	3065.75
403.75	3041.75
403.974	3095.75
404.198	3044.75
404.422	3129.75
404.645	3086.75
404.869	3078.75
405.093	3077.75
405.317	3081.75
405.541	3123.75
405.765	3137.75
405.988	3168.75
406.212	3198.75
406.436	3171.75
406.66	3201.75
406.883	3136.75
407.107	3263.75
407.331	3304.75
407.555	3434.75
407.778	3366.75
408.002	3342.75
408.226	3323.75
408.449	3284.75
408.673	3204.75
408.896	3106.75
409.12	3121.75
409.344	3131.75
409.567	3078.75
409.791	3090.75
410.014	3105.75
410.238	3041.75
410.461	3081.75
410.685	3073.75
410.908	3021.75
411.132	3027.75
411.355	2954.75
411.578	2954.75
411.802	2932.75
412.025	2984.75
412.249	2971.75
412.472	3034.75
412.695	2902.75
412.919	2881.75
413.142	2877.75
413.365	2926.75
413.589	2961.75
413.812	2885.75
414.035	2916.75
414.258	2905.75
414.482	2913.75
414.705	2945.75
414.928	2913.75
415.151	2916.75
415.374	2877.75
415.597	2850.75
415.821	2801.75
416.044	2855.75
416.267	2777.75
416.49	2794.75
416.713	2725.75
416.936	2783.75
417.159	2848.75
417.382	2791.75
417.605	2817.75
417.828	2765.75
418.051	2750.75
418.274	2794.75
418.497	2846.75
418.72	2908.75
418.943	2843.75
419.166	2943.75
419.389	3134.75
419.611	3078.75
419.834	2970.75
420.057	2867.75
420.28	2822.75
420.503	2810.75
420.726	2755.75
420.948	2786.75
421.171	2764.75
421.394	2829.75
421.617	2785.75
421.839	2788.75
422.062	2804.75
422.285	2748.75
422.507	2792.75
422.73	2883.75
422.953	2911.75
423.175	2872.75
423.398	2873.75
423.621	2762.75
423.843	2851.75
424.066	2791.75
424.288	2784.75
424.511	2788.75
424.733	2860.75
424.956	2795.75
425.178	2766.75
425.401	2749.75
425.623	2739.75
425.846	2683.75
426.068	2718.75
426.291	2629.75
426.513	2668.75
426.735	2683.75
426.958	2678.75
427.18	2637.75
427.402	2655.75
427.625	2639.75
427.847	2619.75
428.069	2584.75
428.292	2611.75
428.514	2579.75
428.736	2611.75
428.958	2637.75
429.181	2537.75
429.403	2598.75
429.625	2606.75
429.847	2604.75
430.069	2612.75
430.292	2690.75
430.514	2724.75
430.736	2798.75
430.958	2658.75
431.18	2559.75
431.402	2566.75
431.624	2580.75
431.846	2565.75
432.068	2559.75
432.29	2609.75
432.512	2518.75
432.734	2603.75
432.956	2531.75
433.178	2574.75
433.4	2573.75
433.622	2557.75
433.844	2609.75
434.066	2591.75
434.287	2614.75
434.509	2642.75
434.731	2575.75
434.953	2691.75
435.175	2705.75
435.397	2709.75
435.618	2636.75
435.84	2594.75
436.062	2594.75
436.284	2599.75
436.505	2550.75
436.727	2594.75
436.949	2564.75
437.17	2553.75
437.392	2511.75
437.614	2493.75
437.835	2497.75
438.057	2467.75
438.278	2523.75
438.5	2478.75
438.721	2549.75
438.943	2645.75
439.165	2683.75
439.386	2675.75
439.608	2649.75
439.829	2667.75
440.05	2752.75
440.272	2780.75
440.493	2705.75
440.715	2662.75
440.936	2689.75
441.158	2703.75
441.379	2740.75
441.6	2870.75
441.822	2881.75
442.043	2980.75
442.264	3091.75
442.486	2918.75
442.707	2825.75
442.928	2751.75
443.149	2748.75
443.371	2707.75
443.592	2761.75
443.813	2780.75
444.034	2792.75
444.255	2860.75
444.476	2796.75
444.698	2913.75
444.919	2951.75
445.14	2986.75
445.361	2871.75
445.582	2794.75
445.803	2822.75
446.024	2756.75
446.245	2742.75
446.466	2693.75
446.687	2667.75
446.908	2693.75
447.129	2614.75
447.35	2538.75
447.571	2534.75
447.792	2515.75
448.013	2538.75
448.234	2515.75
448.455	2547.75
448.675	2519.75
448.896	2606.75
449.117	2742.75
449.338	2934.75
449.559	3043.75
449.779	2770.75
450	2548.75
450.221	2472.75
450.442	2521.75
450.662	2434.75
450.883	2468.75
451.104	2471.75
451.324	2473.75
451.545	2441.75
451.766	2526.75
451.986	2546.75
452.207	2737.75
452.428	3586.75
452.648	5542.75
452.869	4606.75
453.089	3141.75
453.31	2904.75
453.53	2843.75
453.751	2961.75
453.971	3128.75
454.192	3063.75
454.412	2650.75
454.633	2503.75
454.853	2422.75
455.073	2405.75
455.294	2421.75
455.514	2347.75
455.734	2287.75
455.955	2355.75
456.175	2334.75
456.395	2339.75
456.616	2379.75
456.836	2417.75
457.056	2427.75
457.276	2419.75
457.497	2574.75
457.717	2568.75
457.937	2494.75
458.157	2461.75
458.377	2501.75
458.598	2525.75
458.818	2556.75
459.038	2532.75
459.258	2548.75
459.478	2609.75
459.698	2597.75
459.918	2619.75
460.138	2671.75
460.358	2737.75
460.578	2734.75
460.798	2831.75
461.018	2757.75
461.238	2767.75
461.458	2847.75
461.678	2874.75
461.898	2887.75
462.118	2937.75
462.338	2978.75
462.558	3003.75
462.777	3097.75
462.997	3170.75
463.217	3331.75
463.437	3412.75
463.657	3480.75
463.876	3460.75
464.096	3306.75
464.316	3143.75
464.536	3086.75
464.755	3023.75
464.975	2941.75
465.195	2831.75
465.414	2758.75
465.634	2667.75
465.854	2636.75
466.073	2633.75
466.293	2610.75
466.512	2646.75
466.732	2678.75
466.951	2773.75
467.171	2982.75
467.391	2884.75
467.61	2649.75
467.829	2571.75
468.049	2534.75
468.268	2548.75
468.488	2563.75
468.707	2540.75
468.927	2528.75
469.146	2507.75
469.365	2564.75
469.585	2585.75
469.804	2634.75
470.023	2684.75
470.243	2721.75
470.462	2806.75
470.681	2931.75
470.901	3245.75
471.12	3685.75
471.339	3687.75
471.558	3119.75
471.777	2833.75
471.997	2675.75
472.216	2630.75
472.435	2569.75
472.654	2497.75
472.873	2540.75
473.092	2513.75
473.311	2576.75
473.53	2524.75
473.749	2643.75
473.968	2751.75
474.187	2561.75
474.406	2533.75
474.625	2498.75
474.844	2565.75
475.063	2559.75
475.282	2556.75
475.501	2556.75
475.72	2578.75
475.939	2606.75
476.158	2649.75
476.377	2746.75
476.596	2669.75
476.814	2716.75
477.033	2694.75
477.252	2695.75
477.471	2748.75
477.69	2851.75
477.908	2830.75
478.127	2845.75
478.346	2878.75
478.564	2931.75
478.783	2977.75
479.002	3003.75
479.22	3041.75
479.439	3021.75
479.658	3030.75
479.876	3029.75
480.095	3057.75
480.313	3161.75
480.532	3181.75
480.751	3149.75
480.969	3070.75
481.188	3048.75
481.406	3029.75
481.624	3097.75
481.843	3039.75
482.061	3107.75
482.28	3044.75
482.498	3065.75
482.717	3057.75
482.935	3124.75
483.153	3144.75
483.372	3186.75
483.59	3195.75
483.808	3282.75
484.027	3351.75
484.245	3509.75
484.463	3979.75
484.681	4457.75
484.9	4017.75
485.118	3657.75
485.336	3653.75
485.554	3713.75
485.772	3979.75
485.99	4476.75
486.209	4731.75
486.427	4053.75
486.645	3583.75
486.863	3464.75
487.081	3371.75
487.299	3341.75
487.517	3254.75
487.735	3225.75
