Data from SnStandardFlinnAPT0064_LampEnergy10_LIBS07252019.E.O._I.C._HRD10591_15-21-15-494.txt Node
Date: Thu Jul 25 15:21:15 EDT 2019
User: cochatt
Spectrometer: HR+D1059
Trigger mode: 1
Integration Time (sec): 1.000000E-1
Scans to average: 1
Electric dark correction enabled: true
Nonlinearity correction enabled: false
Boxcar width: 0
XAxis mode: Wavelengths
Number of Pixels in Spectrum: 2048
>>>>>Begin Spectral Data<<<<<
223.165	-15.62
223.4	-15.62
223.635	-15.62
223.869	-27.62
224.104	-16.62
224.338	-9.62
224.573	-29.62
224.808	-3.62
225.042	4.38
225.277	-6.62
225.511	3.38
225.746	-2.62
225.98	3.38
226.215	16.38
226.449	6.38
226.683	5.38
226.918	39.38
227.152	33.38
227.387	35.38
227.621	49.38
227.856	36.38
228.09	44.38
228.324	56.38
228.559	46.38
228.793	121.38
229.027	296.38
229.262	357.38
229.496	325.38
229.73	283.38
229.964	277.38
230.199	322.38
230.433	295.38
230.667	313.38
230.901	312.38
231.136	348.38
231.37	372.38
231.604	366.38
231.838	464.38
232.072	531.38
232.306	569.38
232.541	473.38
232.775	402.38
233.009	404.38
233.243	417.38
233.477	453.38
233.711	497.38
233.945	580.38
234.179	526.38
234.413	428.38
234.647	444.38
234.881	456.38
235.115	487.38
235.349	597.38
235.583	786.38
235.817	998.38
236.051	985.38
236.285	676.38
236.519	508.38
236.753	490.38
236.987	495.38
237.221	540.38
237.455	510.38
237.689	471.38
237.922	465.38
238.156	468.38
238.39	475.38
238.624	481.38
238.858	495.38
239.091	489.38
239.325	484.38
239.559	484.38
239.793	476.38
240.027	506.38
240.26	526.38
240.494	567.38
240.728	568.38
240.961	609.38
241.195	628.38
241.429	698.38
241.662	700.38
241.896	774.38
242.13	916.38
242.363	1212.38
242.597	1550.38
242.83	1501.38
243.064	1499.38
243.298	1769.38
243.531	1471.38
243.765	972.38
243.998	767.38
244.232	701.38
244.465	673.38
244.699	644.38
244.932	660.38
245.166	662.38
245.399	722.38
245.633	685.38
245.866	704.38
246.099	676.38
246.333	654.38
246.566	636.38
246.8	653.38
247.033	633.38
247.266	641.38
247.5	671.38
247.733	676.38
247.966	706.38
248.2	748.38
248.433	870.38
248.666	981.38
248.899	951.38
249.133	846.38
249.366	865.38
249.599	956.38
249.832	1081.38
250.066	1055.38
250.299	832.38
250.532	790.38
250.765	766.38
250.998	727.38
251.231	726.38
251.465	737.38
251.698	741.38
251.931	743.38
252.164	756.38
252.397	768.38
252.63	816.38
252.863	806.38
253.096	771.38
253.329	798.38
253.562	743.38
253.795	792.38
254.028	799.38
254.261	811.38
254.494	886.38
254.727	1027.38
254.96	1216.38
255.193	1185.38
255.426	989.38
255.659	857.38
255.892	888.38
256.124	876.38
256.357	861.38
256.59	908.38
256.823	973.38
257.056	1099.38
257.289	1339.38
257.521	1480.38
257.754	1161.38
257.987	966.38
258.22	903.38
258.452	914.38
258.685	918.38
258.918	954.38
259.151	997.38
259.383	1098.38
259.616	1214.38
259.849	1249.38
260.081	1099.38
260.314	1008.38
260.547	964.38
260.779	960.38
261.012	944.38
261.244	967.38
261.477	978.38
261.71	980.38
261.942	996.38
262.175	1013.38
262.407	1038.38
262.64	1080.38
262.872	1102.38
263.105	1148.38
263.337	1225.38
263.57	1264.38
263.802	1297.38
264.035	1316.38
264.267	1347.38
264.499	1374.38
264.732	1443.38
264.964	1452.38
265.197	1441.38
265.429	1453.38
265.661	1504.38
265.894	1556.38
266.126	1749.38
266.358	1925.38
266.591	1901.38
266.823	1640.38
267.055	1444.38
267.287	1393.38
267.52	1314.38
267.752	1300.38
267.984	1286.38
268.216	1266.38
268.448	1267.38
268.681	1250.38
268.913	1235.38
269.145	1214.38
269.377	1250.38
269.609	1236.38
269.841	1292.38
270.073	1416.38
270.306	1570.38
270.538	2146.38
270.77	3185.38
271.002	3885.38
271.234	2779.38
271.466	1881.38
271.698	1558.38
271.93	1383.38
272.162	1337.38
272.394	1257.38
272.626	1210.38
272.858	1233.38
273.09	1203.38
273.322	1219.38
273.553	1203.38
273.785	1196.38
274.017	1191.38
274.249	1239.38
274.481	1207.38
274.713	1196.38
274.945	1241.38
275.176	1183.38
275.408	1225.38
275.64	1229.38
275.872	1256.38
276.104	1249.38
276.335	1284.38
276.567	1287.38
276.799	1296.38
277.031	1324.38
277.262	1357.38
277.494	1400.38
277.726	1559.38
277.957	1863.38
278.189	2127.38
278.421	1955.38
278.652	1743.38
278.884	1680.38
279.115	1494.38
279.347	1464.38
279.579	1438.38
279.81	1385.38
280.042	1416.38
280.273	1379.38
280.505	1464.38
280.736	1479.38
280.968	1599.38
281.199	1776.38
281.431	2031.38
281.662	2071.38
281.894	1814.38
282.125	1582.38
282.356	1652.38
282.588	1647.38
282.819	1678.38
283.051	1816.38
283.282	2007.38
283.513	2450.38
283.745	3489.38
283.976	5564.38
284.207	7830.38
284.439	7176.38
284.67	4464.38
284.901	3697.38
285.132	3674.38
285.364	3497.38
285.595	2695.38
285.826	2432.38
286.057	2854.38
286.288	3783.38
286.52	5074.38
286.751	4803.38
286.982	3070.38
287.213	2306.38
287.444	1985.38
287.675	1862.38
287.906	1798.38
288.138	1708.38
288.369	1727.38
288.6	1693.38
288.831	1688.38
289.062	1719.38
289.293	1697.38
289.524	1724.38
289.755	1710.38
289.986	1706.38
290.217	1706.38
290.448	1734.38
290.679	1725.38
290.91	1834.38
291.141	1864.38
291.371	2074.38
291.602	2182.38
291.833	1921.38
292.064	1756.38
292.295	1688.38
292.526	1643.38
292.757	1600.38
292.987	1611.38
293.218	1607.38
293.449	1612.38
293.68	1605.38
293.91	1605.38
294.141	1564.38
294.372	1584.38
294.603	1580.38
294.833	1546.38
295.064	1562.38
295.295	1562.38
295.525	1564.38
295.756	1537.38
295.987	1582.38
296.217	1585.38
296.448	1560.38
296.679	1594.38
296.909	1555.38
297.14	1591.38
297.37	1648.38
297.601	1651.38
297.831	1623.38
298.062	1644.38
298.292	1672.38
298.523	1662.38
298.753	1680.38
298.984	1694.38
299.214	1725.38
299.445	1772.38
299.675	1773.38
299.905	1824.38
300.136	1894.38
300.366	2145.38
300.597	2751.38
300.827	3803.38
301.057	5092.38
301.288	5180.38
301.518	3337.38
301.748	2581.38
301.979	2356.38
302.209	2302.38
302.439	2320.38
302.669	2419.38
302.9	2926.38
303.13	4094.38
303.36	6101.38
303.59	8056.38
303.82	6990.38
304.051	4222.38
304.281	3000.38
304.511	2528.38
304.741	2348.38
304.971	2145.38
305.201	2076.38
305.431	2015.38
305.661	1962.38
305.891	1883.38
306.121	1913.38
306.352	1881.38
306.582	1834.38
306.812	1810.38
307.042	1823.38
307.272	1868.38
307.502	1810.38
307.731	1843.38
307.961	1836.38
308.191	1782.38
308.421	1801.38
308.651	1812.38
308.881	1799.38
309.111	1788.38
309.341	1800.38
309.571	1874.38
309.8	1863.38
310.03	1852.38
310.26	1864.38
310.49	1864.38
310.72	1882.38
310.949	1883.38
311.179	1909.38
311.409	1906.38
311.639	1935.38
311.868	1992.38
312.098	1951.38
312.328	1988.38
312.557	1998.38
312.787	1941.38
313.017	2004.38
313.246	2003.38
313.476	2046.38
313.706	2092.38
313.935	2222.38
314.165	2371.38
314.394	2490.38
314.624	2366.38
314.853	2153.38
315.083	2142.38
315.312	2154.38
315.542	2172.38
315.771	2214.38
316.001	2244.38
316.23	2292.38
316.46	2392.38
316.689	2656.38
316.919	3225.38
317.148	4526.38
317.377	7008.38
317.607	10177.38
317.836	10638.38
318.065	6527.38
318.295	4257.38
318.524	3440.38
318.753	2979.38
318.983	2750.38
319.212	2532.38
319.441	2485.38
319.67	2446.38
319.9	2375.38
320.129	2381.38
320.358	2339.38
320.587	2358.38
320.816	2385.38
321.046	2344.38
321.275	2366.38
321.504	2384.38
321.733	2460.38
321.962	2511.38
322.191	2560.38
322.42	2496.38
322.649	2441.38
322.878	2493.38
323.108	2523.38
323.337	2536.38
323.566	2582.38
323.795	2655.38
324.024	2671.38
324.253	2752.38
324.482	2869.38
324.71	3088.38
324.939	3166.38
325.168	3250.38
325.397	3385.38
325.626	3984.38
325.855	5572.38
326.084	8637.38
326.313	12410.38
326.542	13297.38
326.77	9052.38
326.999	5988.38
327.228	4958.38
327.457	4730.38
327.686	4817.38
327.914	5165.38
328.143	6056.38
328.372	7278.38
328.6	7887.38
328.829	7039.38
329.058	5929.38
329.287	5116.38
329.515	4676.38
329.744	4242.38
329.972	4076.38
330.201	3912.38
330.43	3736.38
330.658	3644.38
330.887	3564.38
331.115	3522.38
331.344	3509.38
331.572	3504.38
331.801	3514.38
332.03	3458.38
332.258	3572.38
332.486	3801.38
332.715	4283.38
332.943	5308.38
333.172	6591.38
333.4	6564.38
333.629	4969.38
333.857	4546.38
334.085	4524.38
334.314	4753.38
334.542	5183.38
334.771	6094.38
334.999	7505.38
335.227	9520.38
335.455	10582.38
335.684	9491.38
335.912	7758.38
336.14	6572.38
336.369	5739.38
336.597	5289.38
336.825	4739.38
337.053	4538.38
337.281	4355.38
337.51	4120.38
337.738	3870.38
337.966	3695.38
338.194	3642.38
338.422	3578.38
338.65	3350.38
338.878	3349.38
339.106	3256.38
339.334	3269.38
339.562	3212.38
339.79	3127.38
340.018	3088.38
340.246	3074.38
340.474	3029.38
340.702	3000.38
340.93	3000.38
341.158	3028.38
341.386	3017.38
341.614	2996.38
341.842	2934.38
342.07	2848.38
342.298	2805.38
342.526	2853.38
342.754	2754.38
342.981	2747.38
343.209	2750.38
343.437	2764.38
343.665	2837.38
343.893	2824.38
344.12	2858.38
344.348	2837.38
344.576	2751.38
344.804	2710.38
345.031	2677.38
345.259	2663.38
345.487	2578.38
345.714	2541.38
345.942	2589.38
346.17	2575.38
346.397	2565.38
346.625	2574.38
346.853	2559.38
347.08	2558.38
347.308	2556.38
347.535	2527.38
347.763	2511.38
347.99	2531.38
348.218	2509.38
348.445	2498.38
348.673	2482.38
348.9	2479.38
349.128	2481.38
349.355	2490.38
349.583	2446.38
349.81	2391.38
350.037	2426.38
350.265	2444.38
350.492	2404.38
350.72	2379.38
350.947	2463.38
351.174	2413.38
351.402	2482.38
351.629	2434.38
351.856	2401.38
352.083	2377.38
352.311	2366.38
352.538	2390.38
352.765	2369.38
352.992	2339.38
353.22	2370.38
353.447	2381.38
353.674	2365.38
353.901	2437.38
354.128	2406.38
354.355	2378.38
354.583	2417.38
354.81	2458.38
355.037	2432.38
355.264	2440.38
355.491	2428.38
355.718	2464.38
355.945	2454.38
356.172	2509.38
356.399	2467.38
356.626	2465.38
356.853	2488.38
357.08	2559.38
357.307	2503.38
357.534	2606.38
357.761	2648.38
357.988	2584.38
358.215	2549.38
358.441	2576.38
358.668	2580.38
358.895	2546.38
359.122	2526.38
359.349	2575.38
359.576	2505.38
359.802	2567.38
360.029	2530.38
360.256	2547.38
360.483	2585.38
360.709	2498.38
360.936	2582.38
361.163	2578.38
361.39	2543.38
361.616	2610.38
361.843	2618.38
362.07	2630.38
362.296	2548.38
362.523	2591.38
362.749	2615.38
362.976	2582.38
363.203	2534.38
363.429	2530.38
363.656	2549.38
363.882	2530.38
364.109	2548.38
364.335	2518.38
364.562	2521.38
364.788	2598.38
365.015	2598.38
365.241	2649.38
365.468	2778.38
365.694	2937.38
365.92	2852.38
366.147	2652.38
366.373	2636.38
366.599	2627.38
366.826	2634.38
367.052	2625.38
367.278	2668.38
367.505	2608.38
367.731	2568.38
367.957	2611.38
368.184	2586.38
368.41	2674.38
368.636	2664.38
368.862	2694.38
369.089	2702.38
369.315	2656.38
369.541	2641.38
369.767	2689.38
369.993	2599.38
370.219	2664.38
370.445	2646.38
370.672	2663.38
370.898	2680.38
371.124	2672.38
371.35	2704.38
371.576	2719.38
371.802	2774.38
372.028	2773.38
372.254	2773.38
372.48	2814.38
372.706	2826.38
372.932	2829.38
373.158	2823.38
373.384	2801.38
373.61	2754.38
373.835	2841.38
374.061	2800.38
374.287	2854.38
374.513	2852.38
374.739	2917.38
374.965	2910.38
375.191	2893.38
375.416	2942.38
375.642	2898.38
375.868	2857.38
376.094	2823.38
376.319	2818.38
376.545	2736.38
376.771	2780.38
376.997	2748.38
377.222	2740.38
377.448	2710.38
377.674	2735.38
377.899	2726.38
378.125	2756.38
378.35	2775.38
378.576	2772.38
378.802	2786.38
379.027	2833.38
379.253	2945.38
379.478	3042.38
379.704	3571.38
379.929	5108.38
380.155	7761.38
380.38	8504.38
380.606	5265.38
380.831	3628.38
381.057	3191.38
381.282	2972.38
381.507	2910.38
381.733	2799.38
381.958	2751.38
382.184	2750.38
382.409	2729.38
382.634	2686.38
382.86	2720.38
383.085	2682.38
383.31	2692.38
383.535	2739.38
383.761	2725.38
383.986	2741.38
384.211	2756.38
384.436	2772.38
384.662	2771.38
384.887	2793.38
385.112	2815.38
385.337	2862.38
385.562	2812.38
385.787	2769.38
386.013	2820.38
386.238	2823.38
386.463	2821.38
386.688	2799.38
386.913	2742.38
387.138	2730.38
387.363	2813.38
387.588	2735.38
387.813	2744.38
388.038	2800.38
388.263	2780.38
388.488	2810.38
388.713	2766.38
388.938	2793.38
389.163	2736.38
389.387	2762.38
389.612	2752.38
389.837	2747.38
390.062	2740.38
390.287	2801.38
390.512	2760.38
390.736	2832.38
390.961	2949.38
391.186	2886.38
391.411	2915.38
391.636	2990.38
391.86	2976.38
392.085	2967.38
392.31	2844.38
392.534	2860.38
392.759	2878.38
392.984	2837.38
393.208	2804.38
393.433	2806.38
393.658	2820.38
393.882	2777.38
394.107	2796.38
394.331	2832.38
394.556	2835.38
394.78	2858.38
395.005	2893.38
395.229	2868.38
395.454	2867.38
395.678	2910.38
395.903	2916.38
396.127	2947.38
396.352	2844.38
396.576	2860.38
396.801	2857.38
397.025	2884.38
397.249	2964.38
397.474	2982.38
397.698	2911.38
397.922	2962.38
398.147	2967.38
398.371	3017.38
398.595	3064.38
398.82	3105.38
399.044	3237.38
399.268	3359.38
399.492	3601.38
399.717	3649.38
399.941	3692.38
400.165	3516.38
400.389	3396.38
400.613	3285.38
400.837	3114.38
401.062	3130.38
401.286	3126.38
401.51	3059.38
401.734	3077.38
401.958	3097.38
402.182	3073.38
402.406	3031.38
402.63	3081.38
402.854	3088.38
403.078	3105.38
403.302	3165.38
403.526	3207.38
403.75	3200.38
403.974	3218.38
404.198	3197.38
404.422	3234.38
404.645	3214.38
404.869	3177.38
405.093	3191.38
405.317	3217.38
405.541	3262.38
405.765	3239.38
405.988	3334.38
406.212	3281.38
406.436	3251.38
406.66	3339.38
406.883	3317.38
407.107	3429.38
407.331	3401.38
407.555	3490.38
407.778	3524.38
408.002	3390.38
408.226	3379.38
408.449	3433.38
408.673	3342.38
408.896	3271.38
409.12	3225.38
409.344	3245.38
409.567	3159.38
409.791	3172.38
410.014	3178.38
410.238	3195.38
410.461	3192.38
410.685	3150.38
410.908	3168.38
411.132	3168.38
411.355	3038.38
411.578	3088.38
411.802	3097.38
412.025	3072.38
412.249	3096.38
412.472	3089.38
412.695	3034.38
412.919	2974.38
413.142	3050.38
413.365	3034.38
413.589	2990.38
413.812	3016.38
414.035	3031.38
414.258	2974.38
414.482	3021.38
414.705	2980.38
414.928	2980.38
415.151	2986.38
415.374	2961.38
415.597	2941.38
415.821	2916.38
416.044	2890.38
416.267	2856.38
416.49	2890.38
416.713	2889.38
416.936	2847.38
417.159	2855.38
417.382	2845.38
417.605	2806.38
417.828	2879.38
418.051	2894.38
418.274	2924.38
418.497	2857.38
418.72	2927.38
418.943	2930.38
419.166	3062.38
419.389	3233.38
419.611	3165.38
419.834	3097.38
420.057	3056.38
420.28	2942.38
420.503	2898.38
420.726	2893.38
420.948	2844.38
421.171	2870.38
421.394	2911.38
421.617	2866.38
421.839	2885.38
422.062	2887.38
422.285	2821.38
422.507	2949.38
422.73	2937.38
422.953	2990.38
423.175	3008.38
423.398	2980.38
423.621	2945.38
423.843	2889.38
424.066	2930.38
424.288	2895.38
424.511	2898.38
424.733	2897.38
424.956	2876.38
425.178	2804.38
425.401	2836.38
425.623	2897.38
425.846	2784.38
426.068	2827.38
426.291	2778.38
426.513	2769.38
426.735	2791.38
426.958	2792.38
427.18	2718.38
427.402	2738.38
427.625	2737.38
427.847	2711.38
428.069	2696.38
428.292	2718.38
428.514	2661.38
428.736	2661.38
428.958	2682.38
429.181	2576.38
429.403	2686.38
429.625	2632.38
429.847	2668.38
430.069	2773.38
430.292	2869.38
430.514	2873.38
430.736	2881.38
430.958	2718.38
431.18	2684.38
431.402	2678.38
431.624	2623.38
431.846	2569.38
432.068	2614.38
432.29	2686.38
432.512	2604.38
432.734	2642.38
432.956	2624.38
433.178	2648.38
433.4	2661.38
433.622	2658.38
433.844	2630.38
434.066	2708.38
434.287	2636.38
434.509	2727.38
434.731	2748.38
434.953	2732.38
435.175	2751.38
435.397	2751.38
435.618	2734.38
435.84	2672.38
436.062	2666.38
436.284	2659.38
436.505	2612.38
436.727	2658.38
436.949	2609.38
437.17	2598.38
437.392	2578.38
437.614	2592.38
437.835	2516.38
438.057	2566.38
438.278	2564.38
438.5	2558.38
438.721	2633.38
438.943	2726.38
439.165	2738.38
439.386	2722.38
439.608	2759.38
439.829	2742.38
440.05	2859.38
440.272	2870.38
440.493	2711.38
440.715	2690.38
440.936	2703.38
441.158	2740.38
441.379	2772.38
441.6	2873.38
441.822	2934.38
442.043	3141.38
442.264	3167.38
442.486	2933.38
442.707	2867.38
442.928	2879.38
443.149	2849.38
443.371	2836.38
443.592	2798.38
443.813	2873.38
444.034	2898.38
444.255	2916.38
444.476	2969.38
444.698	2983.38
444.919	3052.38
445.14	3034.38
445.361	2970.38
445.582	2884.38
445.803	2926.38
446.024	2845.38
446.245	2860.38
446.466	2827.38
446.687	2773.38
446.908	2735.38
447.129	2676.38
447.35	2681.38
447.571	2639.38
447.792	2616.38
448.013	2632.38
448.234	2583.38
448.455	2586.38
448.675	2646.38
448.896	2715.38
449.117	2790.38
449.338	3018.38
449.559	3094.38
449.779	2780.38
450	2630.38
450.221	2579.38
450.442	2579.38
450.662	2623.38
450.883	2604.38
451.104	2559.38
451.324	2517.38
451.545	2575.38
451.766	2582.38
451.986	2610.38
452.207	2810.38
452.428	3607.38
452.648	5469.38
452.869	4590.38
453.089	3140.38
453.31	2920.38
453.53	2998.38
453.751	3024.38
453.971	3165.38
454.192	3128.38
454.412	2678.38
454.633	2591.38
454.853	2526.38
455.073	2420.38
455.294	2461.38
455.514	2399.38
455.734	2424.38
455.955	2413.38
456.175	2391.38
456.395	2429.38
456.616	2492.38
456.836	2432.38
457.056	2518.38
457.276	2476.38
457.497	2624.38
457.717	2684.38
457.937	2608.38
458.157	2567.38
458.377	2608.38
458.598	2613.38
458.818	2628.38
459.038	2677.38
459.258	2652.38
459.478	2657.38
459.698	2719.38
459.918	2738.38
460.138	2705.38
460.358	2853.38
460.578	2850.38
460.798	2915.38
461.018	2889.38
461.238	2885.38
461.458	2897.38
461.678	2959.38
461.898	2992.38
462.118	2980.38
462.338	3103.38
462.558	3079.38
462.777	3174.38
462.997	3253.38
463.217	3409.38
463.437	3486.38
463.657	3596.38
463.876	3585.38
464.096	3347.38
464.316	3221.38
464.536	3210.38
464.755	3047.38
464.975	3023.38
465.195	2992.38
465.414	2870.38
465.634	2788.38
465.854	2756.38
466.073	2702.38
466.293	2690.38
466.512	2642.38
466.732	2773.38
466.951	2879.38
467.171	2989.38
467.391	2965.38
467.61	2729.38
467.829	2638.38
468.049	2604.38
468.268	2589.38
468.488	2591.38
468.707	2627.38
468.927	2649.38
469.146	2579.38
469.365	2657.38
469.585	2630.38
469.804	2706.38
470.023	2817.38
470.243	2748.38
470.462	2864.38
470.681	2989.38
470.901	3291.38
471.12	3745.38
471.339	3728.38
471.558	3201.38
471.777	2853.38
471.997	2755.38
472.216	2727.38
472.435	2723.38
472.654	2603.38
472.873	2569.38
473.092	2626.38
473.311	2640.38
473.53	2636.38
473.749	2727.38
473.968	2804.38
474.187	2678.38
474.406	2626.38
474.625	2661.38
474.844	2589.38
475.063	2603.38
475.282	2656.38
475.501	2653.38
475.72	2654.38
475.939	2687.38
476.158	2759.38
476.377	2819.38
476.596	2802.38
476.814	2840.38
477.033	2791.38
477.252	2797.38
477.471	2816.38
477.69	2874.38
477.908	2929.38
478.127	2985.38
478.346	2976.38
478.564	3008.38
478.783	3016.38
479.002	3075.38
479.22	3099.38
479.439	3144.38
479.658	3113.38
479.876	3165.38
480.095	3174.38
480.313	3209.38
480.532	3249.38
480.751	3249.38
480.969	3231.38
481.188	3196.38
481.406	3138.38
481.624	3166.38
481.843	3192.38
482.061	3177.38
482.28	3182.38
482.498	3108.38
482.717	3092.38
482.935	3204.38
483.153	3221.38
483.372	3267.38
483.59	3303.38
483.808	3374.38
484.027	3476.38
484.245	3612.38
484.463	4048.38
484.681	4451.38
484.9	4121.38
485.118	3849.38
485.336	3756.38
485.554	3910.38
485.772	4094.38
485.99	4561.38
486.209	4864.38
486.427	4167.38
486.645	3673.38
486.863	3519.38
487.081	3455.38
487.299	3433.38
487.517	3376.38
487.735	3414.38
487.953	3377.38
