Data from SnStandardFlinnAPT0064_QswitchEnergy10_LIBS07252019.E.O._I.C._HRD10591_15-28-25-974.txt Node
Date: Thu Jul 25 15:28:25 EDT 2019
User: cochatt
Spectrometer: HR+D1059
Trigger mode: 1
Integration Time (sec): 1.000000E-1
Scans to average: 1
Electric dark correction enabled: true
Nonlinearity correction enabled: false
Boxcar width: 0
XAxis mode: Wavelengths
Number of Pixels in Spectrum: 2048
>>>>>Begin Spectral Data<<<<<
223.165	-0.88
223.4	-0.88
223.635	-0.88
223.869	-13.88
224.104	-17.88
224.338	0.12
224.573	-0.88
224.808	-17.88
225.042	-17.88
225.277	-7.88
225.511	-9.88
225.746	3.12
225.98	-6.88
226.215	4.12
226.449	5.12
226.683	22.12
226.918	26.12
227.152	33.12
227.387	31.12
227.621	34.12
227.856	27.12
228.09	40.12
228.324	56.12
228.559	58.12
228.793	73.12
229.027	74.12
229.262	77.12
229.496	63.12
229.73	72.12
229.964	74.12
230.199	74.12
230.433	78.12
230.667	90.12
230.901	81.12
231.136	82.12
231.37	81.12
231.604	102.12
231.838	106.12
232.072	117.12
232.306	133.12
232.541	92.12
232.775	100.12
233.009	83.12
233.243	89.12
233.477	106.12
233.711	110.12
233.945	104.12
234.179	94.12
234.413	76.12
234.647	74.12
234.881	83.12
235.115	86.12
235.349	86.12
235.583	110.12
235.817	127.12
236.051	136.12
236.285	108.12
236.519	95.12
236.753	84.12
236.987	78.12
237.221	76.12
237.455	74.12
237.689	73.12
237.922	68.12
238.156	71.12
238.39	87.12
238.624	62.12
238.858	88.12
239.091	74.12
239.325	86.12
239.559	94.12
239.793	80.12
240.027	87.12
240.26	71.12
240.494	82.12
240.728	89.12
240.961	69.12
241.195	96.12
241.429	109.12
241.662	91.12
241.896	82.12
242.13	90.12
242.363	130.12
242.597	174.12
242.83	152.12
243.064	145.12
243.298	190.12
243.531	164.12
243.765	115.12
243.998	92.12
244.232	81.12
244.465	80.12
244.699	83.12
244.932	89.12
245.166	69.12
245.399	90.12
245.633	88.12
245.866	81.12
246.099	86.12
246.333	91.12
246.566	94.12
246.8	84.12
247.033	94.12
247.266	73.12
247.5	83.12
247.733	85.12
247.966	74.12
248.2	106.12
248.433	120.12
248.666	137.12
248.899	131.12
249.133	102.12
249.366	99.12
249.599	106.12
249.832	135.12
250.066	124.12
250.299	96.12
250.532	84.12
250.765	85.12
250.998	81.12
251.231	75.12
251.465	78.12
251.698	66.12
251.931	81.12
252.164	80.12
252.397	100.12
252.63	112.12
252.863	104.12
253.096	87.12
253.329	91.12
253.562	85.12
253.795	87.12
254.028	95.12
254.261	99.12
254.494	91.12
254.727	127.12
254.96	141.12
255.193	128.12
255.426	92.12
255.659	76.12
255.892	106.12
256.124	101.12
256.357	83.12
256.59	97.12
256.823	92.12
257.056	121.12
257.289	164.12
257.521	208.12
257.754	139.12
257.987	96.12
258.22	89.12
258.452	81.12
258.685	69.12
258.918	90.12
259.151	105.12
259.383	119.12
259.616	139.12
259.849	167.12
260.081	117.12
260.314	81.12
260.547	90.12
260.779	83.12
261.012	82.12
261.244	74.12
261.477	70.12
261.71	99.12
261.942	82.12
262.175	90.12
262.407	87.12
262.64	79.12
262.872	62.12
263.105	70.12
263.337	67.12
263.57	83.12
263.802	94.12
264.035	84.12
264.267	93.12
264.499	99.12
264.732	90.12
264.964	94.12
265.197	75.12
265.429	94.12
265.661	93.12
265.894	118.12
266.126	119.12
266.358	180.12
266.591	167.12
266.823	108.12
267.055	94.12
267.287	85.12
267.52	91.12
267.752	85.12
267.984	96.12
268.216	90.12
268.448	92.12
268.681	86.12
268.913	93.12
269.145	94.12
269.377	91.12
269.609	92.12
269.841	76.12
270.073	100.12
270.306	135.12
270.538	217.12
270.77	357.12
271.002	430.12
271.234	210.12
271.466	111.12
271.698	105.12
271.93	80.12
272.162	92.12
272.394	91.12
272.626	97.12
272.858	95.12
273.09	82.12
273.322	101.12
273.553	85.12
273.785	106.12
274.017	99.12
274.249	107.12
274.481	73.12
274.713	92.12
274.945	106.12
275.176	91.12
275.408	92.12
275.64	86.12
275.872	89.12
276.104	85.12
276.335	100.12
276.567	104.12
276.799	107.12
277.031	105.12
277.262	105.12
277.494	116.12
277.726	136.12
277.957	172.12
278.189	278.12
278.421	256.12
278.652	213.12
278.884	212.12
279.115	159.12
279.347	116.12
279.579	90.12
279.81	95.12
280.042	96.12
280.273	104.12
280.505	107.12
280.736	102.12
280.968	132.12
281.199	197.12
281.431	278.12
281.662	311.12
281.894	154.12
282.125	113.12
282.356	117.12
282.588	121.12
282.819	121.12
283.051	115.12
283.282	140.12
283.513	213.12
283.745	363.12
283.976	642.12
284.207	898.12
284.439	690.12
284.67	310.12
284.901	298.12
285.132	376.12
285.364	422.12
285.595	247.12
285.826	184.12
286.057	280.12
286.288	482.12
286.52	721.12
286.751	551.12
286.982	216.12
287.213	137.12
287.444	136.12
287.675	114.12
287.906	100.12
288.138	101.12
288.369	106.12
288.6	110.12
288.831	93.12
289.062	104.12
289.293	98.12
289.524	91.12
289.755	95.12
289.986	94.12
290.217	89.12
290.448	99.12
290.679	97.12
290.91	126.12
291.141	170.12
291.371	274.12
291.602	316.12
291.833	221.12
292.064	114.12
292.295	95.12
292.526	104.12
292.757	111.12
292.987	88.12
293.218	84.12
293.449	99.12
293.68	81.12
293.91	101.12
294.141	98.12
294.372	91.12
294.603	98.12
294.833	93.12
295.064	93.12
295.295	109.12
295.525	92.12
295.756	94.12
295.987	98.12
296.217	94.12
296.448	97.12
296.679	101.12
296.909	105.12
297.14	103.12
297.37	123.12
297.601	104.12
297.831	101.12
298.062	96.12
298.292	81.12
298.523	101.12
298.753	126.12
298.984	124.12
299.214	118.12
299.445	119.12
299.675	120.12
299.905	121.12
300.136	139.12
300.366	179.12
300.597	292.12
300.827	506.12
301.057	827.12
301.288	736.12
301.518	292.12
301.748	167.12
301.979	149.12
302.209	134.12
302.439	152.12
302.669	179.12
302.9	283.12
303.13	579.12
303.36	1038.12
303.59	1394.12
303.82	946.12
304.051	331.12
304.281	180.12
304.511	126.12
304.741	125.12
304.971	123.12
305.201	111.12
305.431	112.12
305.661	103.12
305.891	122.12
306.121	118.12
306.352	114.12
306.582	116.12
306.812	106.12
307.042	126.12
307.272	122.12
307.502	98.12
307.731	110.12
307.961	106.12
308.191	113.12
308.421	110.12
308.651	114.12
308.881	99.12
309.111	119.12
309.341	106.12
309.571	114.12
309.8	116.12
310.03	124.12
310.26	105.12
310.49	114.12
310.72	118.12
310.949	113.12
311.179	103.12
311.409	118.12
311.639	114.12
311.868	104.12
312.098	104.12
312.328	119.12
312.557	118.12
312.787	106.12
313.017	121.12
313.246	118.12
313.476	120.12
313.706	149.12
313.935	167.12
314.165	218.12
314.394	264.12
314.624	184.12
314.853	138.12
315.083	125.12
315.312	123.12
315.542	133.12
315.771	144.12
316.001	136.12
316.23	150.12
316.46	157.12
316.689	186.12
316.919	300.12
317.148	573.12
317.377	1038.12
317.607	1738.12
317.836	1616.12
318.065	628.12
318.295	242.12
318.524	169.12
318.753	135.12
318.983	129.12
319.212	123.12
319.441	126.12
319.67	124.12
319.9	131.12
320.129	114.12
320.358	116.12
320.587	130.12
320.816	126.12
321.046	132.12
321.275	128.12
321.504	149.12
321.733	159.12
321.962	183.12
322.191	171.12
322.42	146.12
322.649	129.12
322.878	119.12
323.108	129.12
323.337	135.12
323.566	134.12
323.795	139.12
324.024	141.12
324.253	134.12
324.482	187.12
324.71	243.12
324.939	300.12
325.168	259.12
325.397	205.12
325.626	282.12
325.855	556.12
326.084	1082.12
326.313	1818.12
326.542	1765.12
326.77	715.12
326.999	301.12
327.228	229.12
327.457	263.12
327.686	256.12
327.914	165.12
328.143	153.12
328.372	141.12
328.6	128.12
328.829	130.12
329.058	132.12
329.287	114.12
329.515	123.12
329.744	128.12
329.972	128.12
330.201	123.12
330.43	114.12
330.658	112.12
330.887	125.12
331.115	128.12
331.344	124.12
331.572	126.12
331.801	120.12
332.03	130.12
332.258	151.12
332.486	200.12
332.715	333.12
332.943	575.12
333.172	874.12
333.4	767.12
333.629	268.12
333.857	153.12
334.085	123.12
334.314	129.12
334.542	136.12
334.771	116.12
334.999	134.12
335.227	122.12
335.455	128.12
335.684	126.12
335.912	118.12
336.14	134.12
336.369	122.12
336.597	119.12
336.825	113.12
337.053	96.12
337.281	116.12
337.51	108.12
337.738	123.12
337.966	125.12
338.194	123.12
338.422	123.12
338.65	119.12
338.878	120.12
339.106	125.12
339.334	132.12
339.562	119.12
339.79	124.12
340.018	125.12
340.246	123.12
340.474	130.12
340.702	121.12
340.93	106.12
341.158	122.12
341.386	128.12
341.614	128.12
341.842	128.12
342.07	125.12
342.298	117.12
342.526	116.12
342.754	107.12
342.981	99.12
343.209	112.12
343.437	109.12
343.665	112.12
343.893	120.12
344.12	118.12
344.348	109.12
344.576	115.12
344.804	122.12
345.031	112.12
345.259	116.12
345.487	102.12
345.714	103.12
345.942	112.12
346.17	115.12
346.397	114.12
346.625	119.12
346.853	119.12
347.08	107.12
347.308	124.12
347.535	112.12
347.763	102.12
347.99	106.12
348.218	104.12
348.445	106.12
348.673	121.12
348.9	120.12
349.128	112.12
349.355	117.12
349.583	125.12
349.81	112.12
350.037	116.12
350.265	118.12
350.492	118.12
350.72	129.12
350.947	129.12
351.174	117.12
351.402	119.12
351.629	115.12
351.856	110.12
352.083	122.12
352.311	125.12
352.538	125.12
352.765	112.12
352.992	106.12
353.22	103.12
353.447	104.12
353.674	99.12
353.901	104.12
354.128	101.12
354.355	120.12
354.583	100.12
354.81	112.12
355.037	107.12
355.264	105.12
355.491	115.12
355.718	102.12
355.945	105.12
356.172	99.12
356.399	101.12
356.626	124.12
356.853	110.12
357.08	119.12
357.307	120.12
357.534	118.12
357.761	103.12
357.988	99.12
358.215	107.12
358.441	114.12
358.668	120.12
358.895	139.12
359.122	123.12
359.349	123.12
359.576	114.12
359.802	122.12
360.029	107.12
360.256	110.12
360.483	115.12
360.709	98.12
360.936	130.12
361.163	120.12
361.39	116.12
361.616	103.12
361.843	120.12
362.07	126.12
362.296	114.12
362.523	111.12
362.749	104.12
362.976	106.12
363.203	120.12
363.429	103.12
363.656	118.12
363.882	118.12
364.109	114.12
364.335	113.12
364.562	118.12
364.788	103.12
365.015	124.12
365.241	141.12
365.468	224.12
365.694	270.12
365.92	222.12
366.147	129.12
366.373	107.12
366.599	105.12
366.826	93.12
367.052	89.12
367.278	95.12
367.505	96.12
367.731	109.12
367.957	97.12
368.184	119.12
368.41	117.12
368.636	123.12
368.862	110.12
369.089	102.12
369.315	110.12
369.541	119.12
369.767	121.12
369.993	99.12
370.219	121.12
370.445	105.12
370.672	102.12
370.898	118.12
371.124	114.12
371.35	113.12
371.576	115.12
371.802	124.12
372.028	111.12
372.254	114.12
372.48	108.12
372.706	98.12
372.932	118.12
373.158	118.12
373.384	116.12
373.61	114.12
373.835	119.12
374.061	119.12
374.287	132.12
374.513	123.12
374.739	106.12
374.965	111.12
375.191	114.12
375.416	100.12
375.642	122.12
375.868	115.12
376.094	120.12
376.319	119.12
376.545	118.12
376.771	121.12
376.997	108.12
377.222	114.12
377.448	94.12
377.674	118.12
377.899	119.12
378.125	121.12
378.35	126.12
378.576	115.12
378.802	122.12
379.027	133.12
379.253	154.12
379.478	196.12
379.704	337.12
379.929	885.12
380.155	1790.12
380.38	1833.12
380.606	586.12
380.831	215.12
381.057	160.12
381.282	128.12
381.507	118.12
381.733	120.12
381.958	127.12
382.184	118.12
382.409	100.12
382.634	118.12
382.86	99.12
383.085	115.12
383.31	90.12
383.535	110.12
383.761	104.12
383.986	113.12
384.211	107.12
384.436	102.12
384.662	107.12
384.887	112.12
385.112	108.12
385.337	108.12
385.562	117.12
385.787	109.12
386.013	105.12
386.238	119.12
386.463	107.12
386.688	116.12
386.913	108.12
387.138	99.12
387.363	90.12
387.588	112.12
387.813	110.12
388.038	117.12
388.263	116.12
388.488	114.12
388.713	111.12
388.938	99.12
389.163	97.12
389.387	95.12
389.612	103.12
389.837	102.12
390.062	103.12
390.287	120.12
390.512	104.12
390.736	112.12
390.961	113.12
391.186	107.12
391.411	102.12
391.636	104.12
391.86	112.12
392.085	108.12
392.31	104.12
392.534	85.12
392.759	110.12
392.984	98.12
393.208	134.12
393.433	164.12
393.658	168.12
393.882	113.12
394.107	104.12
394.331	102.12
394.556	105.12
394.78	98.12
395.005	111.12
395.229	109.12
395.454	102.12
395.678	99.12
395.903	110.12
396.127	114.12
396.352	113.12
396.576	124.12
396.801	123.12
397.025	129.12
397.249	120.12
397.474	102.12
397.698	99.12
397.922	101.12
398.147	103.12
398.371	101.12
398.595	99.12
398.82	100.12
399.044	105.12
399.268	99.12
399.492	108.12
399.717	93.12
399.941	86.12
400.165	111.12
400.389	90.12
400.613	94.12
400.837	95.12
401.062	100.12
401.286	99.12
401.51	99.12
401.734	89.12
401.958	97.12
402.182	93.12
402.406	115.12
402.63	98.12
402.854	95.12
403.078	110.12
403.302	101.12
403.526	100.12
403.75	93.12
403.974	115.12
404.198	98.12
404.422	112.12
404.645	112.12
404.869	106.12
405.093	95.12
405.317	109.12
405.541	116.12
405.765	124.12
405.988	169.12
406.212	123.12
406.436	97.12
406.66	101.12
406.883	84.12
407.107	113.12
407.331	86.12
407.555	103.12
407.778	110.12
408.002	112.12
408.226	104.12
408.449	118.12
408.673	96.12
408.896	112.12
409.12	106.12
409.344	113.12
409.567	95.12
409.791	91.12
410.014	106.12
410.238	111.12
410.461	112.12
410.685	98.12
410.908	102.12
411.132	92.12
411.355	90.12
411.578	103.12
411.802	89.12
412.025	105.12
412.249	107.12
412.472	95.12
412.695	91.12
412.919	101.12
413.142	98.12
413.365	111.12
413.589	92.12
413.812	100.12
414.035	92.12
414.258	97.12
414.482	89.12
414.705	99.12
414.928	103.12
415.151	103.12
415.374	85.12
415.597	111.12
415.821	110.12
416.044	92.12
416.267	92.12
416.49	89.12
416.713	115.12
416.936	100.12
417.159	80.12
417.382	99.12
417.605	96.12
417.828	96.12
418.051	105.12
418.274	96.12
418.497	108.12
418.72	118.12
418.943	105.12
419.166	111.12
419.389	115.12
419.611	107.12
419.834	101.12
420.057	113.12
420.28	94.12
420.503	91.12
420.726	106.12
420.948	97.12
421.171	95.12
421.394	98.12
421.617	102.12
421.839	102.12
422.062	104.12
422.285	95.12
422.507	118.12
422.73	139.12
422.953	157.12
423.175	125.12
423.398	108.12
423.621	87.12
423.843	79.12
424.066	102.12
424.288	98.12
424.511	100.12
424.733	92.12
424.956	96.12
425.178	91.12
425.401	97.12
425.623	93.12
425.846	100.12
426.068	98.12
426.291	97.12
426.513	87.12
426.735	90.12
426.958	86.12
427.18	107.12
427.402	104.12
427.625	85.12
427.847	100.12
428.069	106.12
428.292	116.12
428.514	88.12
428.736	100.12
428.958	92.12
429.181	95.12
429.403	110.12
429.625	106.12
429.847	86.12
430.069	113.12
430.292	108.12
430.514	103.12
430.736	106.12
430.958	92.12
431.18	102.12
431.402	81.12
431.624	84.12
431.846	95.12
432.068	92.12
432.29	100.12
432.512	89.12
432.734	100.12
432.956	113.12
433.178	90.12
433.4	96.12
433.622	97.12
433.844	99.12
434.066	90.12
434.287	100.12
434.509	95.12
434.731	92.12
434.953	78.12
435.175	91.12
435.397	99.12
435.618	85.12
435.84	103.12
436.062	89.12
436.284	97.12
436.505	97.12
436.727	88.12
436.949	95.12
437.17	82.12
437.392	93.12
437.614	105.12
437.835	94.12
438.057	83.12
438.278	99.12
438.5	91.12
438.721	98.12
438.943	91.12
439.165	107.12
439.386	119.12
439.608	99.12
439.829	103.12
440.05	118.12
440.272	132.12
440.493	107.12
440.715	103.12
440.936	98.12
441.158	85.12
441.379	99.12
441.6	97.12
441.822	111.12
442.043	104.12
442.264	141.12
442.486	119.12
442.707	98.12
442.928	91.12
443.149	99.12
443.371	108.12
443.592	96.12
443.813	96.12
444.034	88.12
444.255	102.12
444.476	86.12
444.698	96.12
444.919	91.12
445.14	178.12
445.361	130.12
445.582	100.12
445.803	103.12
446.024	103.12
446.245	91.12
446.466	104.12
446.687	89.12
446.908	114.12
447.129	100.12
447.35	96.12
447.571	97.12
447.792	92.12
448.013	103.12
448.234	105.12
448.455	94.12
448.675	99.12
448.896	103.12
449.117	118.12
449.338	147.12
449.559	152.12
449.779	137.12
450	119.12
450.221	114.12
450.442	104.12
450.662	112.12
450.883	107.12
451.104	110.12
451.324	137.12
451.545	128.12
451.766	130.12
451.986	132.12
452.207	227.12
452.428	619.12
452.648	1493.12
452.869	839.12
453.089	227.12
453.31	128.12
453.53	138.12
453.751	160.12
453.971	181.12
454.192	178.12
454.412	123.12
454.633	102.12
454.853	94.12
455.073	100.12
455.294	83.12
455.514	104.12
455.734	96.12
455.955	96.12
456.175	94.12
456.395	81.12
456.616	95.12
456.836	103.12
457.056	91.12
457.276	110.12
457.497	126.12
457.717	133.12
457.937	121.12
458.157	97.12
458.377	98.12
458.598	92.12
458.818	93.12
459.038	89.12
459.258	88.12
459.478	79.12
459.698	104.12
459.918	93.12
460.138	91.12
460.358	94.12
460.578	107.12
460.798	103.12
461.018	106.12
461.238	93.12
461.458	86.12
461.678	90.12
461.898	86.12
462.118	91.12
462.338	93.12
462.558	96.12
462.777	101.12
462.997	92.12
463.217	115.12
463.437	138.12
463.657	200.12
463.876	198.12
464.096	125.12
464.316	118.12
464.536	100.12
464.755	98.12
464.975	98.12
465.195	101.12
465.414	97.12
465.634	106.12
465.854	103.12
466.073	91.12
466.293	102.12
466.512	92.12
466.732	95.12
466.951	117.12
467.171	147.12
467.391	152.12
467.61	114.12
467.829	100.12
468.049	99.12
468.268	84.12
468.488	100.12
468.707	103.12
468.927	100.12
469.146	96.12
469.365	86.12
469.585	100.12
469.804	105.12
470.023	94.12
470.243	96.12
470.462	105.12
470.681	106.12
470.901	145.12
471.12	194.12
471.339	218.12
471.558	142.12
471.777	117.12
471.997	114.12
472.216	106.12
472.435	90.12
472.654	100.12
472.873	105.12
473.092	106.12
473.311	96.12
473.53	95.12
473.749	98.12
473.968	106.12
474.187	97.12
474.406	103.12
474.625	102.12
474.844	92.12
475.063	103.12
475.282	103.12
475.501	108.12
475.72	98.12
475.939	92.12
476.158	102.12
476.377	114.12
476.596	98.12
476.814	91.12
477.033	116.12
477.252	88.12
477.471	80.12
477.69	88.12
477.908	110.12
478.127	108.12
478.346	100.12
478.564	87.12
478.783	111.12
479.002	117.12
479.22	104.12
479.439	86.12
479.658	90.12
479.876	96.12
480.095	97.12
480.313	99.12
480.532	98.12
480.751	99.12
480.969	96.12
481.188	80.12
481.406	89.12
481.624	110.12
481.843	104.12
482.061	107.12
482.28	106.12
482.498	114.12
482.717	93.12
482.935	104.12
483.153	106.12
483.372	116.12
483.59	101.12
483.808	98.12
484.027	106.12
484.245	122.12
484.463	200.12
484.681	254.12
484.9	173.12
485.118	116.12
485.336	114.12
485.554	121.12
485.772	115.12
485.99	212.12
486.209	283.12
486.427	164.12
486.645	120.12
486.863	117.12
487.081	120.12
487.299	96.12
487.517	105.12
487.735	105.12
487.953	106.12
488.171	113.12
488.389	97.12
488.607	95.12
488.825	108.12
489.043	105.12
489.261	102.12
489.479	95.12
489.696	91.12
489.914	89.12
490.132	98.12
490.35	103.12
490.568	107.12
490.786	102.12
491.003	106.12
491.221	107.12
491.439	117.12
491.657	116.12
491.874	102.12
492.092	91.12
492.31	108.12
492.527	116.12
492.745	104.12
492.963	119.12
493.18	123.12
493.398	121.12
493.615	111.12
493.833	102.12
494.05	104.12
494.268	119.12
494.485	110.12
494.703	106.12
494.92	105.12
495.138	101.12
495.355	100.12
495.573	129.12
495.79	110.12
496.008	126.12
496.225	110.12
496.442	121.12
496.66	133.12
496.877	159.12
497.094	163.12
497.312	132.12
497.529	101.12
497.746	108.12
497.963	111.12
498.181	113.12
498.398	95.12
498.615	116.12
498.832	120.12
499.049	104.12
499.267	149.12
499.484	162.12
499.701	113.12
499.918	114.12
500.135	98.12
500.352	103.12
500.569	100.12
500.786	116.12
501.003	98.12
501.22	92.12
501.437	101.12
501.654	121.12
501.871	108.12
502.088	97.12
502.305	98.12
502.522	118.12
502.739	118.12
502.956	98.12
503.172	104.12
503.389	102.12
503.606	95.12
503.823	105.12
504.04	106.12
504.256	99.12
504.473	104.12
504.69	104.12
504.907	109.12
505.123	114.12
505.34	107.12
505.557	114.12
505.773	97.12
505.99	102.12
506.207	94.12
506.423	99.12
506.64	103.12
506.856	104.12
507.073	93.12
507.289	86.12
