Data from SnStandardFlinnAPT0064_QswitchEnergy10_LIBS07252019.E.O._I.C._HRD10591_15-27-07-974.txt Node
Date: Thu Jul 25 15:27:07 EDT 2019
User: cochatt
Spectrometer: HR+D1059
Trigger mode: 1
Integration Time (sec): 1.000000E-1
Scans to average: 1
Electric dark correction enabled: true
Nonlinearity correction enabled: false
Boxcar width: 0
XAxis mode: Wavelengths
Number of Pixels in Spectrum: 2048
>>>>>Begin Spectral Data<<<<<
223.165	3.25
223.4	3.25
223.635	3.25
223.869	-25.75
224.104	-14.75
224.338	-13.75
224.573	-8.75
224.808	-7.75
225.042	-10.75
225.277	-15.75
225.511	-5.75
225.746	-4.75
225.98	16.25
226.215	22.25
226.449	20.25
226.683	12.25
226.918	18.25
227.152	15.25
227.387	28.25
227.621	32.25
227.856	35.25
228.09	52.25
228.324	45.25
228.559	61.25
228.793	69.25
229.027	65.25
229.262	74.25
229.496	60.25
229.73	64.25
229.964	64.25
230.199	77.25
230.433	72.25
230.667	69.25
230.901	77.25
231.136	74.25
231.37	76.25
231.604	72.25
231.838	96.25
232.072	119.25
232.306	118.25
232.541	85.25
232.775	88.25
233.009	90.25
233.243	89.25
233.477	89.25
233.711	82.25
233.945	102.25
234.179	95.25
234.413	77.25
234.647	88.25
234.881	91.25
235.115	100.25
235.349	86.25
235.583	98.25
235.817	133.25
236.051	127.25
236.285	97.25
236.519	62.25
236.753	97.25
236.987	84.25
237.221	83.25
237.455	86.25
237.689	88.25
237.922	75.25
238.156	71.25
238.39	82.25
238.624	73.25
238.858	81.25
239.091	83.25
239.325	80.25
239.559	91.25
239.793	72.25
240.027	79.25
240.26	77.25
240.494	83.25
240.728	88.25
240.961	69.25
241.195	94.25
241.429	91.25
241.662	89.25
241.896	91.25
242.13	85.25
242.363	113.25
242.597	151.25
242.83	127.25
243.064	129.25
243.298	164.25
243.531	144.25
243.765	87.25
243.998	92.25
244.232	93.25
244.465	61.25
244.699	91.25
244.932	65.25
245.166	81.25
245.399	77.25
245.633	78.25
245.866	79.25
246.099	84.25
246.333	83.25
246.566	69.25
246.8	71.25
247.033	78.25
247.266	85.25
247.5	74.25
247.733	81.25
247.966	91.25
248.2	80.25
248.433	87.25
248.666	128.25
248.899	124.25
249.133	92.25
249.366	93.25
249.599	102.25
249.832	113.25
250.066	112.25
250.299	70.25
250.532	87.25
250.765	75.25
250.998	78.25
251.231	86.25
251.465	80.25
251.698	77.25
251.931	83.25
252.164	81.25
252.397	72.25
252.63	93.25
252.863	100.25
253.096	96.25
253.329	85.25
253.562	101.25
253.795	71.25
254.028	90.25
254.261	90.25
254.494	92.25
254.727	116.25
254.96	140.25
255.193	122.25
255.426	88.25
255.659	103.25
255.892	95.25
256.124	84.25
256.357	92.25
256.59	94.25
256.823	86.25
257.056	113.25
257.289	143.25
257.521	168.25
257.754	128.25
257.987	84.25
258.22	88.25
258.452	70.25
258.685	77.25
258.918	85.25
259.151	81.25
259.383	89.25
259.616	137.25
259.849	152.25
260.081	96.25
260.314	83.25
260.547	67.25
260.779	72.25
261.012	86.25
261.244	86.25
261.477	95.25
261.71	89.25
261.942	85.25
262.175	88.25
262.407	80.25
262.64	87.25
262.872	88.25
263.105	77.25
263.337	103.25
263.57	93.25
263.802	85.25
264.035	89.25
264.267	81.25
264.499	76.25
264.732	79.25
264.964	88.25
265.197	75.25
265.429	75.25
265.661	82.25
265.894	109.25
266.126	117.25
266.358	142.25
266.591	140.25
266.823	94.25
267.055	89.25
267.287	86.25
267.52	87.25
267.752	90.25
267.984	87.25
268.216	91.25
268.448	94.25
268.681	87.25
268.913	70.25
269.145	77.25
269.377	85.25
269.609	84.25
269.841	94.25
270.073	104.25
270.306	128.25
270.538	197.25
270.77	308.25
271.002	332.25
271.234	195.25
271.466	112.25
271.698	83.25
271.93	87.25
272.162	87.25
272.394	82.25
272.626	92.25
272.858	80.25
273.09	84.25
273.322	92.25
273.553	77.25
273.785	75.25
274.017	97.25
274.249	80.25
274.481	89.25
274.713	81.25
274.945	81.25
275.176	80.25
275.408	73.25
275.64	84.25
275.872	95.25
276.104	97.25
276.335	105.25
276.567	113.25
276.799	81.25
277.031	98.25
277.262	96.25
277.494	96.25
277.726	125.25
277.957	163.25
278.189	226.25
278.421	218.25
278.652	176.25
278.884	162.25
279.115	126.25
279.347	110.25
279.579	93.25
279.81	89.25
280.042	103.25
280.273	103.25
280.505	109.25
280.736	100.25
280.968	111.25
281.199	155.25
281.431	214.25
281.662	233.25
281.894	126.25
282.125	118.25
282.356	106.25
282.588	120.25
282.819	116.25
283.051	112.25
283.282	126.25
283.513	174.25
283.745	287.25
283.976	508.25
284.207	735.25
284.439	572.25
284.67	271.25
284.901	234.25
285.132	336.25
285.364	368.25
285.595	210.25
285.826	165.25
286.057	232.25
286.288	368.25
286.52	581.25
286.751	468.25
286.982	200.25
287.213	112.25
287.444	97.25
287.675	104.25
287.906	94.25
288.138	94.25
288.369	94.25
288.6	96.25
288.831	102.25
289.062	79.25
289.293	82.25
289.524	102.25
289.755	94.25
289.986	88.25
290.217	88.25
290.448	93.25
290.679	97.25
290.91	119.25
291.141	145.25
291.371	211.25
291.602	269.25
291.833	168.25
292.064	90.25
292.295	98.25
292.526	103.25
292.757	105.25
292.987	92.25
293.218	88.25
293.449	92.25
293.68	109.25
293.91	78.25
294.141	73.25
294.372	82.25
294.603	84.25
294.833	98.25
295.064	78.25
295.295	88.25
295.525	88.25
295.756	113.25
295.987	85.25
296.217	88.25
296.448	86.25
296.679	85.25
296.909	89.25
297.14	84.25
297.37	96.25
297.601	94.25
297.831	99.25
298.062	90.25
298.292	97.25
298.523	103.25
298.753	100.25
298.984	84.25
299.214	95.25
299.445	110.25
299.675	98.25
299.905	116.25
300.136	123.25
300.366	159.25
300.597	257.25
300.827	406.25
301.057	604.25
301.288	565.25
301.518	226.25
301.748	136.25
301.979	136.25
302.209	125.25
302.439	132.25
302.669	167.25
302.9	259.25
303.13	454.25
303.36	788.25
303.59	1091.25
303.82	792.25
304.051	274.25
304.281	141.25
304.511	114.25
304.741	123.25
304.971	110.25
305.201	96.25
305.431	109.25
305.661	105.25
305.891	98.25
306.121	94.25
306.352	103.25
306.582	109.25
306.812	116.25
307.042	118.25
307.272	109.25
307.502	93.25
307.731	97.25
307.961	102.25
308.191	109.25
308.421	98.25
308.651	108.25
308.881	108.25
309.111	97.25
309.341	108.25
309.571	100.25
309.8	89.25
310.03	103.25
310.26	94.25
310.49	113.25
310.72	100.25
310.949	102.25
311.179	109.25
311.409	110.25
311.639	118.25
311.868	104.25
312.098	98.25
312.328	93.25
312.557	97.25
312.787	98.25
313.017	117.25
313.246	107.25
313.476	107.25
313.706	115.25
313.935	136.25
314.165	196.25
314.394	223.25
314.624	169.25
314.853	122.25
315.083	133.25
315.312	124.25
315.542	134.25
315.771	126.25
316.001	139.25
316.23	121.25
316.46	145.25
316.689	170.25
316.919	231.25
317.148	463.25
317.377	817.25
317.607	1337.25
317.836	1261.25
318.065	486.25
318.295	202.25
318.524	149.25
318.753	132.25
318.983	100.25
319.212	111.25
319.441	116.25
319.67	105.25
319.9	106.25
320.129	111.25
320.358	114.25
320.587	107.25
320.816	108.25
321.046	126.25
321.275	113.25
321.504	125.25
321.733	136.25
321.962	140.25
322.191	150.25
322.42	120.25
322.649	113.25
322.878	108.25
323.108	112.25
323.337	118.25
323.566	120.25
323.795	122.25
324.024	129.25
324.253	135.25
324.482	156.25
324.71	215.25
324.939	277.25
325.168	221.25
325.397	171.25
325.626	238.25
325.855	448.25
326.084	837.25
326.313	1426.25
326.542	1436.25
326.77	556.25
326.999	232.25
327.228	200.25
327.457	223.25
327.686	211.25
327.914	118.25
328.143	133.25
328.372	138.25
328.6	121.25
328.829	105.25
329.058	117.25
329.287	125.25
329.515	117.25
329.744	128.25
329.972	128.25
330.201	105.25
330.43	104.25
330.658	115.25
330.887	119.25
331.115	103.25
331.344	108.25
331.572	111.25
331.801	119.25
332.03	116.25
332.258	121.25
332.486	159.25
332.715	253.25
332.943	487.25
333.172	694.25
333.4	626.25
333.629	227.25
333.857	144.25
334.085	118.25
334.314	114.25
334.542	121.25
334.771	109.25
334.999	111.25
335.227	121.25
335.455	102.25
335.684	116.25
335.912	106.25
336.14	118.25
336.369	105.25
336.597	113.25
336.825	105.25
337.053	101.25
337.281	116.25
337.51	110.25
337.738	117.25
337.966	107.25
338.194	95.25
338.422	99.25
338.65	113.25
338.878	114.25
339.106	120.25
339.334	104.25
339.562	115.25
339.79	115.25
340.018	104.25
340.246	92.25
340.474	99.25
340.702	92.25
340.93	100.25
341.158	112.25
341.386	109.25
341.614	118.25
341.842	116.25
342.07	106.25
342.298	121.25
342.526	103.25
342.754	110.25
342.981	110.25
343.209	110.25
343.437	126.25
343.665	108.25
343.893	111.25
344.12	112.25
344.348	112.25
344.576	108.25
344.804	109.25
345.031	110.25
345.259	116.25
345.487	76.25
345.714	96.25
345.942	105.25
346.17	111.25
346.397	101.25
346.625	104.25
346.853	111.25
347.08	108.25
347.308	102.25
347.535	121.25
347.763	113.25
347.99	105.25
348.218	92.25
348.445	98.25
348.673	113.25
348.9	114.25
349.128	117.25
349.355	112.25
349.583	107.25
349.81	96.25
350.037	108.25
350.265	114.25
350.492	105.25
350.72	92.25
350.947	100.25
351.174	109.25
351.402	117.25
351.629	119.25
351.856	101.25
352.083	112.25
352.311	111.25
352.538	92.25
352.765	117.25
352.992	97.25
353.22	101.25
353.447	109.25
353.674	94.25
353.901	111.25
354.128	90.25
354.355	87.25
354.583	87.25
354.81	95.25
355.037	107.25
355.264	105.25
355.491	105.25
355.718	96.25
355.945	104.25
356.172	101.25
356.399	111.25
356.626	91.25
356.853	109.25
357.08	109.25
357.307	98.25
357.534	100.25
357.761	97.25
357.988	109.25
358.215	90.25
358.441	105.25
358.668	106.25
358.895	104.25
359.122	112.25
359.349	119.25
359.576	108.25
359.802	116.25
360.029	115.25
360.256	110.25
360.483	97.25
360.709	91.25
360.936	113.25
361.163	106.25
361.39	112.25
361.616	114.25
361.843	100.25
362.07	102.25
362.296	106.25
362.523	96.25
362.749	95.25
362.976	92.25
363.203	95.25
363.429	103.25
363.656	97.25
363.882	112.25
364.109	104.25
364.335	120.25
364.562	109.25
364.788	108.25
365.015	104.25
365.241	117.25
365.468	164.25
365.694	230.25
365.92	176.25
366.147	106.25
366.373	89.25
366.599	101.25
366.826	90.25
367.052	101.25
367.278	84.25
367.505	89.25
367.731	91.25
367.957	98.25
368.184	105.25
368.41	117.25
368.636	104.25
368.862	103.25
369.089	105.25
369.315	94.25
369.541	105.25
369.767	93.25
369.993	110.25
370.219	99.25
370.445	112.25
370.672	112.25
370.898	108.25
371.124	103.25
371.35	82.25
371.576	112.25
371.802	113.25
372.028	109.25
372.254	105.25
372.48	104.25
372.706	103.25
372.932	99.25
373.158	100.25
373.384	105.25
373.61	103.25
373.835	112.25
374.061	116.25
374.287	112.25
374.513	97.25
374.739	110.25
374.965	112.25
375.191	106.25
375.416	101.25
375.642	109.25
375.868	112.25
376.094	109.25
376.319	96.25
376.545	110.25
376.771	102.25
376.997	120.25
377.222	89.25
377.448	94.25
377.674	103.25
377.899	103.25
378.125	97.25
378.35	98.25
378.576	99.25
378.802	108.25
379.027	118.25
379.253	145.25
379.478	163.25
379.704	283.25
379.929	724.25
380.155	1464.25
380.38	1509.25
380.606	484.25
380.831	193.25
381.057	126.25
381.282	110.25
381.507	106.25
381.733	110.25
381.958	106.25
382.184	108.25
382.409	98.25
382.634	110.25
382.86	89.25
383.085	97.25
383.31	97.25
383.535	114.25
383.761	97.25
383.986	97.25
384.211	97.25
384.436	97.25
384.662	96.25
384.887	93.25
385.112	95.25
385.337	97.25
385.562	95.25
385.787	88.25
386.013	100.25
386.238	106.25
386.463	100.25
386.688	113.25
386.913	98.25
387.138	120.25
387.363	110.25
387.588	96.25
387.813	100.25
388.038	103.25
388.263	98.25
388.488	81.25
388.713	109.25
388.938	97.25
389.163	85.25
389.387	109.25
389.612	94.25
389.837	105.25
390.062	86.25
390.287	88.25
390.512	81.25
390.736	101.25
390.961	95.25
391.186	106.25
391.411	94.25
391.636	92.25
391.86	97.25
392.085	97.25
392.31	84.25
392.534	97.25
392.759	104.25
392.984	110.25
393.208	128.25
393.433	132.25
393.658	126.25
393.882	94.25
394.107	89.25
394.331	102.25
394.556	90.25
394.78	94.25
395.005	92.25
395.229	102.25
395.454	102.25
395.678	87.25
395.903	86.25
396.127	100.25
396.352	86.25
396.576	106.25
396.801	118.25
397.025	103.25
397.249	90.25
397.474	99.25
397.698	85.25
397.922	94.25
398.147	99.25
398.371	101.25
398.595	99.25
398.82	88.25
399.044	89.25
399.268	86.25
399.492	104.25
399.717	105.25
399.941	94.25
400.165	98.25
400.389	82.25
400.613	82.25
400.837	96.25
401.062	93.25
401.286	95.25
401.51	97.25
401.734	108.25
401.958	99.25
402.182	83.25
402.406	100.25
402.63	104.25
402.854	99.25
403.078	109.25
403.302	93.25
403.526	86.25
403.75	98.25
403.974	90.25
404.198	78.25
404.422	98.25
404.645	93.25
404.869	94.25
405.093	86.25
405.317	96.25
405.541	93.25
405.765	118.25
405.988	146.25
406.212	114.25
406.436	91.25
406.66	103.25
406.883	81.25
407.107	62.25
407.331	101.25
407.555	86.25
407.778	103.25
408.002	98.25
408.226	101.25
408.449	96.25
408.673	97.25
408.896	100.25
409.12	91.25
409.344	108.25
409.567	74.25
409.791	89.25
410.014	85.25
410.238	92.25
410.461	104.25
410.685	100.25
410.908	103.25
411.132	85.25
411.355	84.25
411.578	95.25
411.802	104.25
412.025	93.25
412.249	86.25
412.472	91.25
412.695	97.25
412.919	92.25
413.142	97.25
413.365	79.25
413.589	95.25
413.812	87.25
414.035	104.25
414.258	101.25
414.482	86.25
414.705	99.25
414.928	91.25
415.151	96.25
415.374	88.25
415.597	91.25
415.821	85.25
416.044	99.25
416.267	83.25
416.49	92.25
416.713	94.25
416.936	92.25
417.159	87.25
417.382	85.25
417.605	88.25
417.828	81.25
418.051	95.25
418.274	79.25
418.497	102.25
418.72	96.25
418.943	88.25
419.166	90.25
419.389	89.25
419.611	109.25
419.834	105.25
420.057	82.25
420.28	83.25
420.503	101.25
420.726	102.25
420.948	89.25
421.171	102.25
421.394	90.25
421.617	82.25
421.839	93.25
422.062	111.25
422.285	89.25
422.507	95.25
422.73	125.25
422.953	117.25
423.175	99.25
423.398	100.25
423.621	83.25
423.843	85.25
424.066	99.25
424.288	96.25
424.511	98.25
424.733	97.25
424.956	81.25
425.178	92.25
425.401	88.25
425.623	87.25
425.846	76.25
426.068	99.25
426.291	98.25
426.513	82.25
426.735	92.25
426.958	93.25
427.18	94.25
427.402	113.25
427.625	83.25
427.847	97.25
428.069	111.25
428.292	86.25
428.514	82.25
428.736	84.25
428.958	93.25
429.181	102.25
429.403	102.25
429.625	92.25
429.847	101.25
430.069	90.25
430.292	108.25
430.514	94.25
430.736	96.25
430.958	90.25
431.18	100.25
431.402	100.25
431.624	86.25
431.846	103.25
432.068	86.25
432.29	97.25
432.512	86.25
432.734	81.25
432.956	88.25
433.178	92.25
433.4	92.25
433.622	93.25
433.844	93.25
434.066	79.25
434.287	80.25
434.509	89.25
434.731	85.25
434.953	87.25
435.175	94.25
435.397	101.25
435.618	95.25
435.84	84.25
436.062	87.25
436.284	101.25
436.505	92.25
436.727	92.25
436.949	95.25
437.17	96.25
437.392	86.25
437.614	84.25
437.835	94.25
438.057	86.25
438.278	78.25
438.5	91.25
438.721	87.25
438.943	116.25
439.165	105.25
439.386	108.25
439.608	100.25
439.829	100.25
440.05	112.25
440.272	120.25
440.493	105.25
440.715	96.25
440.936	93.25
441.158	87.25
441.379	86.25
441.6	92.25
441.822	86.25
442.043	97.25
442.264	126.25
442.486	116.25
442.707	105.25
442.928	89.25
443.149	96.25
443.371	94.25
443.592	104.25
443.813	87.25
444.034	83.25
444.255	84.25
444.476	95.25
444.698	100.25
444.919	94.25
445.14	201.25
445.361	159.25
445.582	96.25
445.803	78.25
446.024	84.25
446.245	85.25
446.466	92.25
446.687	104.25
446.908	96.25
447.129	90.25
447.35	99.25
447.571	99.25
447.792	97.25
448.013	94.25
448.234	100.25
448.455	101.25
448.675	93.25
448.896	97.25
449.117	101.25
449.338	134.25
449.559	143.25
449.779	106.25
450	86.25
450.221	96.25
450.442	105.25
450.662	109.25
450.883	99.25
451.104	117.25
451.324	114.25
451.545	115.25
451.766	96.25
451.986	132.25
452.207	188.25
452.428	501.25
452.648	1214.25
452.869	682.25
453.089	197.25
453.31	123.25
453.53	126.25
453.751	127.25
453.971	161.25
454.192	146.25
454.412	114.25
454.633	91.25
454.853	92.25
455.073	92.25
455.294	104.25
455.514	93.25
455.734	94.25
455.955	90.25
456.175	100.25
456.395	87.25
456.616	100.25
456.836	96.25
457.056	97.25
457.276	97.25
457.497	111.25
457.717	116.25
457.937	98.25
458.157	81.25
458.377	112.25
458.598	86.25
458.818	92.25
459.038	90.25
459.258	97.25
459.478	90.25
459.698	82.25
459.918	99.25
460.138	93.25
460.358	91.25
460.578	81.25
460.798	87.25
461.018	88.25
461.238	76.25
461.458	90.25
461.678	88.25
461.898	94.25
462.118	99.25
462.338	76.25
462.558	90.25
462.777	109.25
462.997	96.25
463.217	105.25
463.437	137.25
463.657	159.25
463.876	159.25
464.096	116.25
464.316	84.25
464.536	91.25
464.755	103.25
464.975	86.25
465.195	89.25
465.414	86.25
465.634	103.25
465.854	88.25
466.073	90.25
466.293	84.25
466.512	84.25
466.732	101.25
466.951	94.25
467.171	143.25
467.391	147.25
467.61	103.25
467.829	98.25
468.049	89.25
468.268	93.25
468.488	84.25
468.707	89.25
468.927	87.25
469.146	101.25
469.365	80.25
469.585	94.25
469.804	88.25
470.023	102.25
470.243	107.25
470.462	93.25
470.681	96.25
470.901	112.25
471.12	180.25
471.339	197.25
471.558	118.25
471.777	121.25
471.997	97.25
472.216	105.25
472.435	95.25
472.654	93.25
472.873	94.25
473.092	96.25
473.311	95.25
473.53	91.25
473.749	100.25
473.968	104.25
474.187	103.25
474.406	81.25
474.625	86.25
474.844	103.25
475.063	92.25
475.282	105.25
475.501	101.25
475.72	84.25
475.939	97.25
476.158	98.25
476.377	97.25
476.596	104.25
476.814	91.25
477.033	89.25
477.252	94.25
477.471	103.25
477.69	102.25
477.908	113.25
478.127	98.25
478.346	100.25
478.564	83.25
478.783	96.25
479.002	83.25
479.22	95.25
479.439	93.25
479.658	90.25
479.876	94.25
480.095	102.25
480.313	98.25
480.532	98.25
480.751	93.25
480.969	99.25
481.188	82.25
481.406	106.25
481.624	108.25
481.843	114.25
482.061	96.25
482.28	96.25
482.498	101.25
482.717	96.25
482.935	69.25
483.153	95.25
483.372	104.25
483.59	102.25
483.808	95.25
484.027	109.25
484.245	108.25
484.463	166.25
484.681	203.25
484.9	137.25
485.118	114.25
485.336	103.25
485.554	95.25
485.772	109.25
485.99	182.25
486.209	242.25
486.427	156.25
486.645	113.25
486.863	96.25
487.081	84.25
487.299	97.25
487.517	101.25
487.735	110.25
487.953	116.25
488.171	95.25
488.389	92.25
488.607	97.25
488.825	94.25
489.043	99.25
489.261	109.25
489.479	101.25
489.696	100.25
489.914	113.25
490.132	96.25
490.35	100.25
490.568	106.25
490.786	90.25
491.003	89.25
491.221	119.25
491.439	112.25
491.657	109.25
491.874	108.25
492.092	108.25
492.31	104.25
492.527	105.25
492.745	117.25
492.963	110.25
493.18	110.25
493.398	119.25
493.615	101.25
493.833	103.25
494.05	108.25
494.268	87.25
494.485	97.25
494.703	95.25
494.92	96.25
495.138	89.25
495.355	121.25
495.573	105.25
495.79	114.25
496.008	95.25
496.225	98.25
496.442	109.25
496.66	103.25
496.877	152.25
497.094	137.25
497.312	101.25
497.529	90.25
497.746	93.25
497.963	101.25
498.181	93.25
498.398	101.25
498.615	111.25
498.832	99.25
499.049	116.25
499.267	142.25
499.484	154.25
499.701	117.25
499.918	103.25
500.135	98.25
500.352	95.25
500.569	97.25
500.786	104.25
501.003	103.25
501.22	99.25
501.437	117.25
501.654	92.25
501.871	84.25
502.088	100.25
502.305	94.25
502.522	104.25
502.739	89.25
502.956	104.25
503.172	90.25
503.389	96.25
503.606	98.25
503.823	88.25
504.04	109.25
504.256	104.25
504.473	93.25
504.69	110.25
504.907	109.25
505.123	115.25
505.34	105.25
505.557	100.25
505.773	86.25
505.99	95.25
506.207	98.25
506.423	107.25
506.64	116.25
506.856	111.25
507.073	108.25
507.289	97.25
507.506	89.25
507.722	95.25
507.939	71.25
508.155	94.25
508.372	92.25
508.588	98.25
508.805	106.25
509.021	95.25
509.238	108.25
509.454	142.25
509.67	153.25
509.887	115.25
510.103	106.25
510.319	94.25
