Data from SnStandardFlinnAPT0064_LampEnergy5.5_LIBS07252019.E.O._I.C._HRD10591_15-16-22-492.txt Node
Date: Thu Jul 25 15:16:22 EDT 2019
User: cochatt
Spectrometer: HR+D1059
Trigger mode: 1
Integration Time (sec): 1.000000E-1
Scans to average: 1
Electric dark correction enabled: true
Nonlinearity correction enabled: false
Boxcar width: 0
XAxis mode: Wavelengths
Number of Pixels in Spectrum: 2048
>>>>>Begin Spectral Data<<<<<
223.165	-2.81
223.4	-2.81
223.635	-2.81
223.869	-20.81
224.104	-8.81
224.338	-25.81
224.573	-25.81
224.808	-4.81
225.042	-16.81
225.277	-7.81
225.511	3.19
225.746	-5.81
225.98	12.19
226.215	1.19
226.449	27.19
226.683	20.19
226.918	27.19
227.152	28.19
227.387	31.19
227.621	39.19
227.856	37.19
228.09	45.19
228.324	59.19
228.559	63.19
228.793	77.19
229.027	154.19
229.262	166.19
229.496	161.19
229.73	155.19
229.964	165.19
230.199	166.19
230.433	179.19
230.667	161.19
230.901	161.19
231.136	164.19
231.37	178.19
231.604	198.19
231.838	194.19
232.072	231.19
232.306	239.19
232.541	216.19
232.775	215.19
233.009	209.19
233.243	207.19
233.477	209.19
233.711	236.19
233.945	259.19
234.179	238.19
234.413	220.19
234.647	215.19
234.881	232.19
235.115	238.19
235.349	271.19
235.583	341.19
235.817	403.19
236.051	403.19
236.285	281.19
236.519	229.19
236.753	239.19
236.987	227.19
237.221	261.19
237.455	245.19
237.689	227.19
237.922	228.19
238.156	234.19
238.39	236.19
238.624	238.19
238.858	242.19
239.091	217.19
239.325	217.19
239.559	245.19
239.793	238.19
240.027	234.19
240.26	247.19
240.494	247.19
240.728	249.19
240.961	284.19
241.195	282.19
241.429	306.19
241.662	306.19
241.896	336.19
242.13	402.19
242.363	512.19
242.597	602.19
242.83	580.19
243.064	609.19
243.298	706.19
243.531	584.19
243.765	386.19
243.998	300.19
244.232	310.19
244.465	287.19
244.699	285.19
244.932	287.19
245.166	291.19
245.399	289.19
245.633	294.19
245.866	315.19
246.099	297.19
246.333	292.19
246.566	301.19
246.8	296.19
247.033	291.19
247.266	298.19
247.5	290.19
247.733	291.19
247.966	306.19
248.2	340.19
248.433	349.19
248.666	374.19
248.899	369.19
249.133	369.19
249.366	364.19
249.599	403.19
249.832	424.19
250.066	423.19
250.299	371.19
250.532	342.19
250.765	313.19
250.998	322.19
251.231	330.19
251.465	338.19
251.698	325.19
251.931	333.19
252.164	344.19
252.397	322.19
252.63	329.19
252.863	349.19
253.096	346.19
253.329	352.19
253.562	330.19
253.795	353.19
254.028	359.19
254.261	367.19
254.494	384.19
254.727	418.19
254.96	506.19
255.193	488.19
255.426	413.19
255.659	368.19
255.892	406.19
256.124	372.19
256.357	365.19
256.59	394.19
256.823	421.19
257.056	445.19
257.289	524.19
257.521	572.19
257.754	483.19
257.987	417.19
258.22	387.19
258.452	399.19
258.685	397.19
258.918	421.19
259.151	420.19
259.383	457.19
259.616	475.19
259.849	482.19
260.081	443.19
260.314	437.19
260.547	406.19
260.779	411.19
261.012	433.19
261.244	455.19
261.477	423.19
261.71	453.19
261.942	459.19
262.175	461.19
262.407	446.19
262.64	452.19
262.872	488.19
263.105	491.19
263.337	535.19
263.57	541.19
263.802	559.19
264.035	558.19
264.267	585.19
264.499	587.19
264.732	620.19
264.964	622.19
265.197	612.19
265.429	590.19
265.661	614.19
265.894	684.19
266.126	753.19
266.358	783.19
266.591	779.19
266.823	685.19
267.055	606.19
267.287	595.19
267.52	591.19
267.752	557.19
267.984	550.19
268.216	552.19
268.448	559.19
268.681	565.19
268.913	519.19
269.145	540.19
269.377	525.19
269.609	545.19
269.841	563.19
270.073	577.19
270.306	662.19
270.538	876.19
270.77	1214.19
271.002	1467.19
271.234	1043.19
271.466	713.19
271.698	618.19
271.93	582.19
272.162	567.19
272.394	531.19
272.626	539.19
272.858	534.19
273.09	550.19
273.322	537.19
273.553	521.19
273.785	525.19
274.017	531.19
274.249	513.19
274.481	524.19
274.713	515.19
274.945	515.19
275.176	525.19
275.408	540.19
275.64	511.19
275.872	547.19
276.104	550.19
276.335	548.19
276.567	547.19
276.799	540.19
277.031	549.19
277.262	563.19
277.494	583.19
277.726	621.19
277.957	696.19
278.189	797.19
278.421	746.19
278.652	686.19
278.884	654.19
279.115	613.19
279.347	582.19
279.579	593.19
279.81	569.19
280.042	581.19
280.273	585.19
280.505	607.19
280.736	605.19
280.968	628.19
281.199	661.19
281.431	758.19
281.662	778.19
281.894	711.19
282.125	659.19
282.356	674.19
282.588	689.19
282.819	710.19
283.051	732.19
283.282	777.19
283.513	971.19
283.745	1394.19
283.976	2171.19
284.207	3043.19
284.439	2699.19
284.67	1624.19
284.901	1347.19
285.132	1297.19
285.364	1245.19
285.595	994.19
285.826	942.19
286.057	1083.19
286.288	1493.19
286.52	1921.19
286.751	1803.19
286.982	1103.19
287.213	881.19
287.444	785.19
287.675	747.19
287.906	724.19
288.138	710.19
288.369	699.19
288.6	685.19
288.831	707.19
289.062	689.19
289.293	691.19
289.524	676.19
289.755	729.19
289.986	729.19
290.217	706.19
290.448	715.19
290.679	711.19
290.91	717.19
291.141	744.19
291.371	794.19
291.602	805.19
291.833	754.19
292.064	698.19
292.295	695.19
292.526	729.19
292.757	689.19
292.987	679.19
293.218	678.19
293.449	663.19
293.68	677.19
293.91	660.19
294.141	654.19
294.372	666.19
294.603	654.19
294.833	667.19
295.064	645.19
295.295	652.19
295.525	670.19
295.756	660.19
295.987	634.19
296.217	654.19
296.448	668.19
296.679	662.19
296.909	644.19
297.14	666.19
297.37	670.19
297.601	702.19
297.831	685.19
298.062	692.19
298.292	709.19
298.523	696.19
298.753	691.19
298.984	695.19
299.214	727.19
299.445	721.19
299.675	733.19
299.905	745.19
300.136	793.19
300.366	852.19
300.597	1065.19
300.827	1455.19
301.057	1900.19
301.288	1855.19
301.518	1241.19
301.748	985.19
301.979	922.19
302.209	858.19
302.439	874.19
302.669	966.19
302.9	1144.19
303.13	1495.19
303.36	2185.19
303.59	2903.19
303.82	2529.19
304.051	1505.19
304.281	1144.19
304.511	949.19
304.741	909.19
304.971	874.19
305.201	835.19
305.431	818.19
305.661	793.19
305.891	759.19
306.121	766.19
306.352	769.19
306.582	779.19
306.812	761.19
307.042	805.19
307.272	771.19
307.502	741.19
307.731	752.19
307.961	771.19
308.191	771.19
308.421	738.19
308.651	728.19
308.881	765.19
309.111	749.19
309.341	769.19
309.571	797.19
309.8	790.19
310.03	774.19
310.26	765.19
310.49	767.19
310.72	795.19
310.949	779.19
311.179	769.19
311.409	780.19
311.639	824.19
311.868	799.19
312.098	814.19
312.328	828.19
312.557	833.19
312.787	801.19
313.017	841.19
313.246	843.19
313.476	836.19
313.706	849.19
313.935	886.19
314.165	893.19
314.394	947.19
314.624	939.19
314.853	872.19
315.083	874.19
315.312	892.19
315.542	878.19
315.771	886.19
316.001	925.19
316.23	930.19
316.46	955.19
316.689	1037.19
316.919	1221.19
317.148	1732.19
317.377	2631.19
317.607	3889.19
317.836	3923.19
318.065	2297.19
318.295	1551.19
318.524	1230.19
318.753	1123.19
318.983	1056.19
319.212	1025.19
319.441	1007.19
319.67	998.19
319.9	999.19
320.129	956.19
320.358	939.19
320.587	972.19
320.816	943.19
321.046	951.19
321.275	973.19
321.504	978.19
321.733	972.19
321.962	997.19
322.191	1003.19
322.42	984.19
322.649	1014.19
322.878	1008.19
323.108	1007.19
323.337	1040.19
323.566	1031.19
323.795	1075.19
324.024	1100.19
324.253	1083.19
324.482	1123.19
324.71	1151.19
324.939	1227.19
325.168	1246.19
325.397	1318.19
325.626	1497.19
325.855	2127.19
326.084	3186.19
326.313	4797.19
326.542	4995.19
326.77	3125.19
326.999	2105.19
327.228	1817.19
327.457	1717.19
327.686	1753.19
327.914	1847.19
328.143	2096.19
328.372	2418.19
328.6	2627.19
328.829	2399.19
329.058	2142.19
329.287	1939.19
329.515	1766.19
329.744	1622.19
329.972	1577.19
330.201	1501.19
330.43	1442.19
330.658	1422.19
330.887	1399.19
331.115	1388.19
331.344	1335.19
331.572	1362.19
331.801	1383.19
332.03	1369.19
332.258	1411.19
332.486	1497.19
332.715	1626.19
332.943	1945.19
333.172	2393.19
333.4	2287.19
333.629	1872.19
333.857	1694.19
334.085	1697.19
334.314	1797.19
334.542	1916.19
334.771	2207.19
334.999	2607.19
335.227	3129.19
335.455	3481.19
335.684	3210.19
335.912	2819.19
336.14	2459.19
336.369	2196.19
336.597	2005.19
336.825	1829.19
337.053	1765.19
337.281	1650.19
337.51	1532.19
337.738	1536.19
337.966	1473.19
338.194	1407.19
338.422	1396.19
338.65	1353.19
338.878	1324.19
339.106	1293.19
339.334	1271.19
339.562	1258.19
339.79	1267.19
340.018	1294.19
340.246	1246.19
340.474	1230.19
340.702	1230.19
340.93	1236.19
341.158	1239.19
341.386	1194.19
341.614	1185.19
341.842	1175.19
342.07	1168.19
342.298	1152.19
342.526	1175.19
342.754	1144.19
342.981	1130.19
343.209	1123.19
343.437	1175.19
343.665	1155.19
343.893	1171.19
344.12	1153.19
344.348	1137.19
344.576	1127.19
344.804	1121.19
345.031	1098.19
345.259	1081.19
345.487	1108.19
345.714	1077.19
345.942	1059.19
346.17	1070.19
346.397	1065.19
346.625	1070.19
346.853	1015.19
347.08	1027.19
347.308	1040.19
347.535	1039.19
347.763	1029.19
347.99	1023.19
348.218	1033.19
348.445	1031.19
348.673	1012.19
348.9	1033.19
349.128	1039.19
349.355	1013.19
349.583	1037.19
349.81	1018.19
350.037	985.19
350.265	1019.19
350.492	1014.19
350.72	963.19
350.947	998.19
351.174	1008.19
351.402	976.19
351.629	988.19
351.856	1003.19
352.083	990.19
352.311	1014.19
352.538	980.19
352.765	984.19
352.992	979.19
353.22	997.19
353.447	988.19
353.674	971.19
353.901	1004.19
354.128	1002.19
354.355	1012.19
354.583	1002.19
354.81	983.19
355.037	1023.19
355.264	1033.19
355.491	984.19
355.718	1023.19
355.945	1005.19
356.172	1022.19
356.399	1044.19
356.626	1037.19
356.853	1036.19
357.08	1032.19
357.307	1059.19
357.534	1004.19
357.761	1061.19
357.988	1065.19
358.215	1046.19
358.441	1036.19
358.668	1058.19
358.895	1053.19
359.122	1059.19
359.349	1054.19
359.576	1029.19
359.802	1059.19
360.029	1048.19
360.256	1068.19
360.483	1049.19
360.709	1069.19
360.936	1069.19
361.163	1076.19
361.39	1056.19
361.616	1044.19
361.843	1070.19
362.07	1063.19
362.296	1077.19
362.523	1081.19
362.749	1058.19
362.976	1079.19
363.203	1082.19
363.429	1054.19
363.656	1048.19
363.882	1071.19
364.109	1070.19
364.335	1066.19
364.562	1043.19
364.788	1067.19
365.015	1082.19
365.241	1090.19
365.468	1120.19
365.694	1171.19
365.92	1159.19
366.147	1086.19
366.373	1086.19
366.599	1110.19
366.826	1100.19
367.052	1076.19
367.278	1058.19
367.505	1075.19
367.731	1107.19
367.957	1114.19
368.184	1083.19
368.41	1117.19
368.636	1112.19
368.862	1110.19
369.089	1106.19
369.315	1109.19
369.541	1095.19
369.767	1114.19
369.993	1111.19
370.219	1116.19
370.445	1089.19
370.672	1141.19
370.898	1114.19
371.124	1107.19
371.35	1106.19
371.576	1176.19
371.802	1167.19
372.028	1138.19
372.254	1153.19
372.48	1146.19
372.706	1175.19
372.932	1176.19
373.158	1172.19
373.384	1161.19
373.61	1157.19
373.835	1166.19
374.061	1166.19
374.287	1194.19
374.513	1173.19
374.739	1182.19
374.965	1185.19
375.191	1212.19
375.416	1175.19
375.642	1183.19
375.868	1204.19
376.094	1189.19
376.319	1151.19
376.545	1177.19
376.771	1161.19
376.997	1138.19
377.222	1160.19
377.448	1136.19
377.674	1156.19
377.899	1133.19
378.125	1149.19
378.35	1148.19
378.576	1147.19
378.802	1137.19
379.027	1158.19
379.253	1222.19
379.478	1226.19
379.704	1407.19
379.929	1944.19
380.155	2866.19
380.38	2979.19
380.606	1898.19
380.831	1407.19
381.057	1307.19
381.282	1203.19
381.507	1170.19
381.733	1155.19
381.958	1171.19
382.184	1153.19
382.409	1106.19
382.634	1101.19
382.86	1117.19
383.085	1121.19
383.31	1146.19
383.535	1165.19
383.761	1166.19
383.986	1148.19
384.211	1148.19
384.436	1179.19
384.662	1179.19
384.887	1183.19
385.112	1165.19
385.337	1178.19
385.562	1166.19
385.787	1147.19
386.013	1220.19
386.238	1185.19
386.463	1177.19
386.688	1157.19
386.913	1138.19
387.138	1150.19
387.363	1165.19
387.588	1170.19
387.813	1163.19
388.038	1179.19
388.263	1147.19
388.488	1206.19
388.713	1185.19
388.938	1171.19
389.163	1159.19
389.387	1157.19
389.612	1181.19
389.837	1174.19
390.062	1173.19
390.287	1191.19
390.512	1151.19
390.736	1167.19
390.961	1187.19
391.186	1216.19
391.411	1185.19
391.636	1186.19
391.86	1247.19
392.085	1249.19
392.31	1232.19
392.534	1244.19
392.759	1194.19
392.984	1196.19
393.208	1218.19
393.433	1219.19
393.658	1187.19
393.882	1204.19
394.107	1203.19
394.331	1180.19
394.556	1209.19
394.78	1172.19
395.005	1198.19
395.229	1201.19
395.454	1210.19
395.678	1223.19
395.903	1240.19
396.127	1228.19
396.352	1192.19
396.576	1226.19
396.801	1221.19
397.025	1239.19
397.249	1260.19
397.474	1259.19
397.698	1235.19
397.922	1268.19
398.147	1275.19
398.371	1266.19
398.595	1285.19
398.82	1289.19
399.044	1353.19
399.268	1430.19
399.492	1514.19
399.717	1551.19
399.941	1530.19
400.165	1510.19
400.389	1431.19
400.613	1346.19
400.837	1341.19
401.062	1348.19
401.286	1301.19
401.51	1311.19
401.734	1291.19
401.958	1337.19
402.182	1319.19
402.406	1305.19
402.63	1322.19
402.854	1309.19
403.078	1313.19
403.302	1320.19
403.526	1349.19
403.75	1341.19
403.974	1311.19
404.198	1333.19
404.422	1373.19
404.645	1353.19
404.869	1350.19
405.093	1345.19
405.317	1295.19
405.541	1335.19
405.765	1389.19
405.988	1402.19
406.212	1401.19
406.436	1377.19
406.66	1427.19
406.883	1413.19
407.107	1395.19
407.331	1457.19
407.555	1501.19
407.778	1441.19
408.002	1437.19
408.226	1404.19
408.449	1417.19
408.673	1375.19
408.896	1379.19
409.12	1352.19
409.344	1396.19
409.567	1378.19
409.791	1352.19
410.014	1321.19
410.238	1334.19
410.461	1330.19
410.685	1302.19
410.908	1302.19
411.132	1313.19
411.355	1335.19
411.578	1272.19
411.802	1285.19
412.025	1304.19
412.249	1311.19
412.472	1265.19
412.695	1278.19
412.919	1258.19
413.142	1249.19
413.365	1292.19
413.589	1277.19
413.812	1262.19
414.035	1267.19
414.258	1279.19
414.482	1267.19
414.705	1306.19
414.928	1294.19
415.151	1277.19
415.374	1244.19
415.597	1256.19
415.821	1209.19
416.044	1222.19
416.267	1225.19
416.49	1247.19
416.713	1222.19
416.936	1189.19
417.159	1219.19
417.382	1227.19
417.605	1213.19
417.828	1243.19
418.051	1259.19
418.274	1240.19
418.497	1261.19
418.72	1298.19
418.943	1260.19
419.166	1300.19
419.389	1374.19
419.611	1362.19
419.834	1315.19
420.057	1302.19
420.28	1275.19
420.503	1225.19
420.726	1241.19
420.948	1228.19
421.171	1221.19
421.394	1227.19
421.617	1244.19
421.839	1252.19
422.062	1263.19
422.285	1255.19
422.507	1265.19
422.73	1248.19
422.953	1284.19
423.175	1281.19
423.398	1263.19
423.621	1281.19
423.843	1273.19
424.066	1246.19
424.288	1215.19
424.511	1194.19
424.733	1219.19
424.956	1215.19
425.178	1244.19
425.401	1222.19
425.623	1240.19
425.846	1217.19
426.068	1190.19
426.291	1159.19
426.513	1200.19
426.735	1177.19
426.958	1175.19
427.18	1175.19
427.402	1154.19
427.625	1157.19
427.847	1150.19
428.069	1127.19
428.292	1146.19
428.514	1123.19
428.736	1153.19
428.958	1161.19
429.181	1108.19
429.403	1102.19
429.625	1163.19
429.847	1157.19
430.069	1154.19
430.292	1168.19
430.514	1178.19
430.736	1173.19
430.958	1140.19
431.18	1129.19
431.402	1121.19
431.624	1133.19
431.846	1137.19
432.068	1110.19
432.29	1095.19
432.512	1116.19
432.734	1131.19
432.956	1142.19
433.178	1153.19
433.4	1141.19
433.622	1158.19
433.844	1161.19
434.066	1167.19
434.287	1137.19
434.509	1140.19
434.731	1164.19
434.953	1159.19
435.175	1202.19
435.397	1221.19
435.618	1142.19
435.84	1149.19
436.062	1082.19
436.284	1148.19
436.505	1138.19
436.727	1157.19
436.949	1164.19
437.17	1145.19
437.392	1117.19
437.614	1099.19
437.835	1078.19
438.057	1079.19
438.278	1082.19
438.5	1114.19
438.721	1149.19
438.943	1152.19
439.165	1178.19
439.386	1129.19
439.608	1151.19
439.829	1188.19
440.05	1204.19
440.272	1225.19
440.493	1203.19
440.715	1179.19
440.936	1177.19
441.158	1206.19
441.379	1219.19
441.6	1249.19
441.822	1275.19
442.043	1315.19
442.264	1321.19
442.486	1290.19
442.707	1240.19
442.928	1219.19
443.149	1217.19
443.371	1223.19
443.592	1221.19
443.813	1238.19
444.034	1215.19
444.255	1262.19
444.476	1278.19
444.698	1268.19
444.919	1341.19
445.14	1386.19
445.361	1299.19
445.582	1285.19
445.803	1253.19
446.024	1220.19
446.245	1256.19
446.466	1230.19
446.687	1222.19
446.908	1191.19
447.129	1186.19
447.35	1127.19
447.571	1157.19
447.792	1153.19
448.013	1118.19
448.234	1084.19
448.455	1102.19
448.675	1124.19
448.896	1158.19
449.117	1171.19
449.338	1269.19
449.559	1302.19
449.779	1179.19
450	1131.19
450.221	1121.19
450.442	1100.19
450.662	1090.19
450.883	1094.19
451.104	1080.19
451.324	1077.19
451.545	1097.19
451.766	1074.19
451.986	1084.19
452.207	1142.19
452.428	1409.19
452.648	1855.19
452.869	1624.19
453.089	1265.19
453.31	1225.19
453.53	1153.19
453.751	1225.19
453.971	1262.19
454.192	1260.19
454.412	1131.19
454.633	1083.19
454.853	1068.19
455.073	1047.19
455.294	1051.19
455.514	1065.19
455.734	1027.19
455.955	1024.19
456.175	1013.19
456.395	1033.19
456.616	1070.19
456.836	1065.19
457.056	1080.19
457.276	1037.19
457.497	1088.19
457.717	1073.19
457.937	1102.19
458.157	1047.19
458.377	1092.19
458.598	1085.19
458.818	1122.19
459.038	1115.19
459.258	1075.19
459.478	1110.19
459.698	1142.19
459.918	1139.19
460.138	1166.19
460.358	1213.19
460.578	1199.19
460.798	1233.19
461.018	1207.19
461.238	1217.19
461.458	1244.19
461.678	1241.19
461.898	1244.19
462.118	1295.19
462.338	1313.19
462.558	1319.19
462.777	1343.19
462.997	1371.19
463.217	1423.19
463.437	1443.19
463.657	1427.19
463.876	1446.19
464.096	1367.19
464.316	1321.19
464.536	1320.19
464.755	1283.19
464.975	1303.19
465.195	1260.19
465.414	1237.19
465.634	1187.19
465.854	1180.19
466.073	1155.19
466.293	1127.19
466.512	1150.19
466.732	1146.19
466.951	1198.19
467.171	1250.19
467.391	1268.19
467.61	1147.19
467.829	1125.19
468.049	1137.19
468.268	1103.19
468.488	1143.19
468.707	1130.19
468.927	1146.19
469.146	1107.19
469.365	1120.19
469.585	1139.19
469.804	1163.19
470.023	1176.19
470.243	1162.19
470.462	1222.19
470.681	1263.19
470.901	1346.19
471.12	1557.19
471.339	1547.19
471.558	1308.19
471.777	1218.19
471.997	1164.19
472.216	1146.19
472.435	1135.19
472.654	1121.19
472.873	1083.19
473.092	1084.19
473.311	1094.19
473.53	1117.19
473.749	1171.19
473.968	1175.19
474.187	1114.19
474.406	1107.19
474.625	1108.19
474.844	1157.19
475.063	1130.19
475.282	1134.19
475.501	1096.19
475.72	1150.19
475.939	1126.19
476.158	1193.19
476.377	1177.19
476.596	1179.19
476.814	1173.19
477.033	1190.19
477.252	1186.19
477.471	1212.19
477.69	1254.19
477.908	1238.19
478.127	1286.19
478.346	1261.19
478.564	1317.19
478.783	1310.19
479.002	1332.19
479.22	1310.19
479.439	1330.19
479.658	1314.19
479.876	1329.19
480.095	1356.19
480.313	1369.19
480.532	1370.19
480.751	1364.19
480.969	1326.19
481.188	1331.19
481.406	1301.19
481.624	1317.19
481.843	1336.19
482.061	1327.19
482.28	1344.19
482.498	1317.19
482.717	1275.19
482.935	1367.19
483.153	1372.19
483.372	1395.19
483.59	1413.19
483.808	1435.19
484.027	1441.19
484.245	1493.19
484.463	1622.19
484.681	1794.19
484.9	1654.19
485.118	1581.19
485.336	1530.19
485.554	1567.19
485.772	1652.19
485.99	1789.19
486.209	1944.19
486.427	1693.19
486.645	1509.19
486.863	1475.19
487.081	1484.19
487.299	1396.19
487.517	1422.19
487.735	1410.19
487.953	1447.19
488.171	1441.19
488.389	1422.19
488.607	1429.19
488.825	1367.19
489.043	1323.19
489.261	1336.19
489.479	1388.19
489.696	1374.19
489.914	1377.19
490.132	1384.19
490.35	1409.19
490.568	1435.19
490.786	1423.19
491.003	1450.19
491.221	1420.19
