Data from SnStandardFlinnAPT0064_LampEnergy5.5_LIBS07252019.E.O._I.C._HRD10591_15-16-32-492.txt Node
Date: Thu Jul 25 15:16:32 EDT 2019
User: cochatt
Spectrometer: HR+D1059
Trigger mode: 1
Integration Time (sec): 1.000000E-1
Scans to average: 1
Electric dark correction enabled: true
Nonlinearity correction enabled: false
Boxcar width: 0
XAxis mode: Wavelengths
Number of Pixels in Spectrum: 2048
>>>>>Begin Spectral Data<<<<<
223.165	-17
223.4	-17
223.635	-17
223.869	-13
224.104	-14
224.338	-15
224.573	-4
224.808	-15
225.042	-26
225.277	-7
225.511	-8
225.746	4
225.98	9
226.215	17
226.449	8
226.683	14
226.918	31
227.152	36
227.387	34
227.621	49
227.856	41
228.09	37
228.324	66
228.559	57
228.793	93
229.027	150
229.262	145
229.496	151
229.73	153
229.964	165
230.199	167
230.433	147
230.667	162
230.901	164
231.136	162
231.37	162
231.604	190
231.838	212
232.072	225
232.306	252
232.541	202
232.775	215
233.009	212
233.243	210
233.477	208
233.711	246
233.945	266
234.179	241
234.413	215
234.647	227
234.881	207
235.115	254
235.349	289
235.583	342
235.817	459
236.051	435
236.285	278
236.519	265
236.753	236
236.987	222
237.221	253
237.455	234
237.689	213
237.922	211
238.156	230
238.39	230
238.624	226
238.858	237
239.091	215
239.325	242
239.559	234
239.793	242
240.027	251
240.26	245
240.494	270
240.728	257
240.961	277
241.195	307
241.429	293
241.662	290
241.896	323
242.13	394
242.363	509
242.597	661
242.83	635
243.064	650
243.298	749
243.531	607
243.765	397
243.998	330
244.232	317
244.465	296
244.699	293
244.932	302
245.166	304
245.399	310
245.633	324
245.866	313
246.099	293
246.333	302
246.566	286
246.8	293
247.033	311
247.266	299
247.5	301
247.733	323
247.966	340
248.2	342
248.433	376
248.666	418
248.899	393
249.133	366
249.366	366
249.599	418
249.832	445
250.066	439
250.299	353
250.532	321
250.765	342
250.998	343
251.231	333
251.465	328
251.698	315
251.931	344
252.164	316
252.397	329
252.63	354
252.863	371
253.096	360
253.329	367
253.562	355
253.795	341
254.028	368
254.261	369
254.494	389
254.727	435
254.96	519
255.193	499
255.426	420
255.659	375
255.892	388
256.124	370
256.357	388
256.59	391
256.823	421
257.056	464
257.289	552
257.521	563
257.754	497
257.987	423
258.22	403
258.452	399
258.685	407
258.918	419
259.151	418
259.383	465
259.616	506
259.849	541
260.081	475
260.314	427
260.547	430
260.779	401
261.012	410
261.244	429
261.477	436
261.71	454
261.942	475
262.175	466
262.407	473
262.64	465
262.872	482
263.105	523
263.337	503
263.57	554
263.802	565
264.035	563
264.267	594
264.499	592
264.732	611
264.964	636
265.197	632
265.429	639
265.661	645
265.894	707
266.126	769
266.358	821
266.591	823
266.823	715
267.055	615
267.287	623
267.52	625
267.752	592
267.984	567
268.216	557
268.448	555
268.681	529
268.913	558
269.145	545
269.377	553
269.609	544
269.841	557
270.073	606
270.306	709
270.538	902
270.77	1303
271.002	1575
271.234	1105
271.466	751
271.698	663
271.93	586
272.162	578
272.394	574
272.626	531
272.858	532
273.09	518
273.322	547
273.553	523
273.785	528
274.017	557
274.249	554
274.481	551
274.713	521
274.945	547
275.176	545
275.408	533
275.64	531
275.872	531
276.104	536
276.335	529
276.567	550
276.799	533
277.031	578
277.262	575
277.494	601
277.726	645
277.957	722
278.189	805
278.421	785
278.652	682
278.884	689
279.115	606
279.347	603
279.579	592
279.81	602
280.042	629
280.273	613
280.505	604
280.736	623
280.968	659
281.199	722
281.431	803
281.662	799
281.894	707
282.125	670
282.356	698
282.588	693
282.819	700
283.051	752
283.282	805
283.513	976
283.745	1465
283.976	2307
284.207	3266
284.439	2882
284.67	1733
284.901	1383
285.132	1373
285.364	1325
285.595	1068
285.826	950
286.057	1090
286.288	1531
286.52	2081
286.751	1905
286.982	1189
287.213	890
287.444	815
287.675	770
287.906	753
288.138	722
288.369	707
288.6	714
288.831	683
289.062	712
289.293	698
289.524	715
289.755	743
289.986	707
290.217	735
290.448	739
290.679	729
290.91	722
291.141	738
291.371	797
291.602	837
291.833	787
292.064	707
292.295	707
292.526	688
292.757	676
292.987	705
293.218	687
293.449	676
293.68	682
293.91	672
294.141	667
294.372	643
294.603	680
294.833	666
295.064	661
295.295	690
295.525	655
295.756	638
295.987	678
296.217	668
296.448	663
296.679	681
296.909	678
297.14	667
297.37	694
297.601	706
297.831	694
298.062	664
298.292	675
298.523	697
298.753	719
298.984	716
299.214	695
299.445	734
299.675	722
299.905	766
300.136	821
300.366	908
300.597	1133
300.827	1526
301.057	2029
301.288	2044
301.518	1335
301.748	1031
301.979	941
302.209	928
302.439	923
302.669	982
302.9	1164
303.13	1623
303.36	2359
303.59	3111
303.82	2704
304.051	1614
304.281	1136
304.511	975
304.741	921
304.971	869
305.201	849
305.431	800
305.661	795
305.891	781
306.121	780
306.352	777
306.582	777
306.812	784
307.042	758
307.272	771
307.502	748
307.731	751
307.961	754
308.191	752
308.421	757
308.651	770
308.881	754
309.111	755
309.341	785
309.571	754
309.8	784
310.03	793
310.26	784
310.49	790
310.72	795
310.949	799
311.179	795
311.409	782
311.639	807
311.868	801
312.098	814
312.328	852
312.557	847
312.787	825
313.017	842
313.246	810
313.476	827
313.706	872
313.935	902
314.165	953
314.394	981
314.624	944
314.853	883
315.083	891
315.312	910
315.542	905
315.771	903
316.001	930
316.23	957
316.46	1009
316.689	1083
316.919	1288
317.148	1838
317.377	2869
317.607	4181
317.836	4236
318.065	2510
318.295	1618
318.524	1325
318.753	1151
318.983	1096
319.212	1033
319.441	994
319.67	965
319.9	987
320.129	991
320.358	953
320.587	961
320.816	992
321.046	1018
321.275	977
321.504	1001
321.733	1016
321.962	1023
322.191	1021
322.42	1029
322.649	1029
322.878	1017
323.108	1051
323.337	1041
323.566	1105
323.795	1030
324.024	1091
324.253	1126
324.482	1155
324.71	1201
324.939	1267
325.168	1290
325.397	1366
325.626	1573
325.855	2199
326.084	3497
326.313	5157
326.542	5377
326.77	3406
326.999	2188
327.228	1822
327.457	1784
327.686	1800
327.914	1895
328.143	2190
328.372	2545
328.6	2763
328.829	2536
329.058	2213
329.287	1960
329.515	1818
329.744	1670
329.972	1603
330.201	1515
330.43	1529
330.658	1449
330.887	1441
331.115	1400
331.344	1385
331.572	1402
331.801	1400
332.03	1438
332.258	1426
332.486	1465
332.715	1714
332.943	2053
333.172	2507
333.4	2485
333.629	1936
333.857	1761
334.085	1740
334.314	1842
334.542	1960
334.771	2274
334.999	2709
335.227	3300
335.455	3681
335.684	3442
335.912	2913
336.14	2489
336.369	2170
336.597	2017
336.825	1890
337.053	1816
337.281	1699
337.51	1650
337.738	1514
337.966	1496
338.194	1413
338.422	1421
338.65	1389
338.878	1365
339.106	1318
339.334	1287
339.562	1309
339.79	1256
340.018	1276
340.246	1245
340.474	1246
340.702	1233
340.93	1254
341.158	1250
341.386	1224
341.614	1226
341.842	1189
342.07	1200
342.298	1193
342.526	1161
342.754	1142
342.981	1140
343.209	1148
343.437	1139
343.665	1189
343.893	1206
344.12	1181
344.348	1145
344.576	1149
344.804	1113
345.031	1093
345.259	1098
345.487	1124
345.714	1088
345.942	1098
346.17	1091
346.397	1071
346.625	1059
346.853	1036
347.08	1071
347.308	1071
347.535	1051
347.763	1044
347.99	1045
348.218	1049
348.445	1057
348.673	1033
348.9	1066
349.128	1039
349.355	1042
349.583	1037
349.81	1025
350.037	1025
350.265	1058
350.492	1019
350.72	1011
350.947	1013
351.174	1002
351.402	1050
351.629	1018
351.856	1001
352.083	1005
352.311	999
352.538	1013
352.765	1025
352.992	1013
353.22	1013
353.447	979
353.674	1010
353.901	1010
354.128	1017
354.355	1030
354.583	997
354.81	1030
355.037	1020
355.264	1025
355.491	1026
355.718	1047
355.945	994
356.172	1023
356.399	1048
356.626	1050
356.853	1046
357.08	1070
357.307	1053
357.534	1055
357.761	1070
357.988	1074
358.215	1079
358.441	1079
358.668	1048
358.895	1073
359.122	1050
359.349	1103
359.576	1071
359.802	1090
360.029	1086
360.256	1085
360.483	1067
360.709	1082
360.936	1110
361.163	1059
361.39	1080
361.616	1071
361.843	1083
362.07	1083
362.296	1057
362.523	1070
362.749	1080
362.976	1086
363.203	1091
363.429	1083
363.656	1091
363.882	1094
364.109	1089
364.335	1040
364.562	1055
364.788	1051
365.015	1086
365.241	1126
365.468	1165
365.694	1153
365.92	1153
366.147	1119
366.373	1103
366.599	1083
366.826	1127
367.052	1110
367.278	1127
367.505	1105
367.731	1111
367.957	1103
368.184	1115
368.41	1136
368.636	1131
368.862	1121
369.089	1125
369.315	1135
369.541	1107
369.767	1120
369.993	1116
370.219	1133
370.445	1092
370.672	1140
370.898	1130
371.124	1147
371.35	1147
371.576	1135
371.802	1155
372.028	1170
372.254	1152
372.48	1151
372.706	1191
372.932	1192
373.158	1176
373.384	1192
373.61	1162
373.835	1191
374.061	1189
374.287	1206
374.513	1237
374.739	1227
374.965	1246
375.191	1239
375.416	1222
375.642	1236
375.868	1206
376.094	1174
376.319	1186
376.545	1193
376.771	1205
376.997	1151
377.222	1161
377.448	1177
377.674	1165
377.899	1184
378.125	1163
378.35	1154
378.576	1190
378.802	1149
379.027	1168
379.253	1240
379.478	1298
379.704	1463
379.929	2053
380.155	3032
380.38	3272
380.606	2015
380.831	1509
381.057	1313
381.282	1219
381.507	1182
381.733	1146
381.958	1148
382.184	1151
382.409	1161
382.634	1176
382.86	1141
383.085	1141
383.31	1135
383.535	1143
383.761	1171
383.986	1163
384.211	1165
384.436	1167
384.662	1165
384.887	1169
385.112	1151
385.337	1170
385.562	1168
385.787	1201
386.013	1193
386.238	1201
386.463	1184
386.688	1222
386.913	1197
387.138	1173
387.363	1199
387.588	1169
387.813	1191
388.038	1197
388.263	1181
388.488	1199
388.713	1189
388.938	1193
389.163	1170
389.387	1170
389.612	1154
389.837	1175
390.062	1169
390.287	1213
390.512	1218
390.736	1215
390.961	1220
391.186	1218
391.411	1213
391.636	1257
391.86	1259
392.085	1237
392.31	1245
392.534	1257
392.759	1250
392.984	1233
393.208	1243
393.433	1263
393.658	1263
393.882	1255
394.107	1199
394.331	1220
394.556	1213
394.78	1176
395.005	1233
395.229	1216
395.454	1246
395.678	1249
395.903	1208
396.127	1225
396.352	1199
396.576	1253
396.801	1242
397.025	1255
397.249	1237
397.474	1264
397.698	1233
397.922	1283
398.147	1271
398.371	1267
398.595	1302
398.82	1319
399.044	1416
399.268	1421
399.492	1504
399.717	1611
399.941	1543
400.165	1509
400.389	1441
400.613	1401
400.837	1385
401.062	1365
401.286	1350
401.51	1300
401.734	1306
401.958	1322
402.182	1314
402.406	1327
402.63	1318
402.854	1342
403.078	1331
403.302	1354
403.526	1342
403.75	1329
403.974	1399
404.198	1352
404.422	1370
404.645	1376
404.869	1368
405.093	1348
405.317	1346
405.541	1367
405.765	1401
405.988	1404
406.212	1363
406.436	1369
406.66	1407
406.883	1379
407.107	1417
407.331	1443
407.555	1466
407.778	1444
408.002	1444
408.226	1416
408.449	1431
408.673	1424
408.896	1389
409.12	1398
409.344	1384
409.567	1365
409.791	1347
410.014	1329
410.238	1322
410.461	1362
410.685	1364
410.908	1321
411.132	1343
411.355	1297
411.578	1288
411.802	1317
412.025	1318
412.249	1306
412.472	1309
412.695	1277
412.919	1269
413.142	1301
413.365	1282
413.589	1291
413.812	1264
414.035	1303
414.258	1301
414.482	1301
414.705	1298
414.928	1311
415.151	1290
415.374	1307
415.597	1311
415.821	1232
416.044	1225
416.267	1239
416.49	1219
416.713	1238
416.936	1252
417.159	1222
417.382	1203
417.605	1235
417.828	1246
418.051	1213
418.274	1257
418.497	1231
418.72	1317
418.943	1213
419.166	1287
419.389	1387
419.611	1397
419.834	1307
420.057	1310
420.28	1259
420.503	1261
420.726	1262
420.948	1222
421.171	1217
421.394	1235
421.617	1226
421.839	1233
422.062	1250
422.285	1267
422.507	1260
422.73	1298
422.953	1250
423.175	1297
423.398	1277
423.621	1256
423.843	1267
424.066	1245
424.288	1265
424.511	1290
424.733	1226
424.956	1239
425.178	1237
425.401	1198
425.623	1217
425.846	1213
426.068	1197
426.291	1177
426.513	1200
426.735	1186
426.958	1205
427.18	1173
427.402	1180
427.625	1198
427.847	1176
428.069	1161
428.292	1185
428.514	1163
428.736	1143
428.958	1156
429.181	1167
429.403	1146
429.625	1121
429.847	1133
430.069	1148
430.292	1193
430.514	1205
430.736	1210
430.958	1167
431.18	1140
431.402	1120
431.624	1129
431.846	1114
432.068	1121
432.29	1124
432.512	1091
432.734	1143
432.956	1153
433.178	1135
433.4	1149
433.622	1167
433.844	1179
434.066	1143
434.287	1157
434.509	1140
434.731	1140
434.953	1194
435.175	1222
435.397	1220
435.618	1197
435.84	1145
436.062	1115
436.284	1157
436.505	1116
436.727	1145
436.949	1161
437.17	1201
437.392	1113
437.614	1149
437.835	1096
438.057	1087
438.278	1085
438.5	1144
438.721	1148
438.943	1160
439.165	1211
439.386	1171
439.608	1187
439.829	1174
440.05	1191
440.272	1233
440.493	1226
440.715	1180
440.936	1217
441.158	1213
441.379	1227
441.6	1229
441.822	1262
442.043	1295
442.264	1360
442.486	1264
442.707	1240
442.928	1218
443.149	1232
443.371	1186
443.592	1209
443.813	1227
444.034	1270
444.255	1263
444.476	1313
444.698	1326
444.919	1344
445.14	1383
445.361	1321
445.582	1239
445.803	1227
446.024	1230
446.245	1229
446.466	1240
446.687	1202
446.908	1189
447.129	1195
447.35	1158
447.571	1160
447.792	1124
448.013	1156
448.234	1143
448.455	1147
448.675	1153
448.896	1161
449.117	1188
449.338	1335
449.559	1345
449.779	1227
450	1136
450.221	1111
450.442	1137
450.662	1078
450.883	1103
451.104	1114
451.324	1098
451.545	1090
451.766	1122
451.986	1112
452.207	1191
452.428	1391
452.648	2016
452.869	1732
453.089	1257
453.31	1233
453.53	1218
453.751	1219
453.971	1301
454.192	1317
454.412	1147
454.633	1099
454.853	1067
455.073	1060
455.294	1074
455.514	1056
455.734	1052
455.955	1053
456.175	1050
456.395	1034
456.616	1036
456.836	1073
457.056	1075
457.276	1062
457.497	1101
457.717	1132
457.937	1101
458.157	1114
458.377	1098
458.598	1105
458.818	1124
459.038	1124
459.258	1118
459.478	1118
459.698	1156
459.918	1170
460.138	1201
460.358	1204
460.578	1246
460.798	1230
461.018	1252
461.238	1265
461.458	1233
461.678	1244
461.898	1278
462.118	1269
462.338	1316
462.558	1312
462.777	1352
462.997	1400
463.217	1445
463.437	1463
463.657	1497
463.876	1465
464.096	1434
464.316	1359
464.536	1327
464.755	1316
464.975	1311
465.195	1282
465.414	1226
465.634	1176
465.854	1204
466.073	1142
466.293	1141
466.512	1182
466.732	1197
466.951	1252
467.171	1282
467.391	1240
467.61	1176
467.829	1144
468.049	1126
468.268	1113
468.488	1107
468.707	1119
468.927	1129
469.146	1141
469.365	1144
469.585	1143
469.804	1143
470.023	1179
470.243	1204
470.462	1205
470.681	1322
470.901	1379
471.12	1601
471.339	1592
471.558	1331
471.777	1197
471.997	1150
472.216	1161
472.435	1147
472.654	1124
472.873	1104
473.092	1122
473.311	1095
473.53	1123
473.749	1163
473.968	1187
474.187	1130
474.406	1115
474.625	1123
474.844	1127
475.063	1134
475.282	1169
475.501	1143
475.72	1144
475.939	1155
476.158	1175
476.377	1176
476.596	1189
476.814	1180
477.033	1187
477.252	1199
477.471	1226
477.69	1246
477.908	1259
478.127	1264
478.346	1307
478.564	1279
478.783	1324
479.002	1320
479.22	1349
479.439	1359
479.658	1326
479.876	1359
480.095	1348
480.313	1395
480.532	1395
480.751	1377
480.969	1355
481.188	1318
481.406	1302
481.624	1327
481.843	1346
482.061	1326
482.28	1349
482.498	1313
482.717	1337
482.935	1350
483.153	1397
483.372	1386
483.59	1441
483.808	1421
484.027	1440
484.245	1537
484.463	1691
484.681	1921
484.9	1718
485.118	1625
485.336	1572
485.554	1558
485.772	1693
485.99	1877
486.209	2053
486.427	1705
486.645	1557
486.863	1489
487.081	1476
487.299	1415
487.517	1416
487.735	1464
487.953	1485
488.171	1447
488.389	1435
488.607	1426
488.825	1377
489.043	1383
489.261	1370
489.479	1399
489.696	1394
489.914	1390
490.132	1415
490.35	1403
490.568	1431
490.786	1447
491.003	1430
491.221	1496
491.439	1472
491.657	1469
491.874	1504
492.092	1537
492.31	1539
492.527	1514
492.745	1526
492.963	1514
493.18	1481
493.398	1485
493.615	1484
493.833	1493
494.05	1496
494.268	1514
494.485	1520
494.703	1503
494.92	1467
495.138	1493
495.355	1504
495.573	1499
495.79	1494
496.008	1510
496.225	1500
496.442	1570
496.66	1573
496.877	1638
497.094	1623
497.312	1602
497.529	1583
497.746	1589
497.963	1625
498.181	1682
498.398	1702
498.615	1736
498.832	1808
499.049	1864
499.267	2026
499.484	2107
499.701	2208
499.918	2238
500.135	2358
500.352	2447
500.569	2530
500.786	2502
501.003	2429
501.22	2293
501.437	2188
501.654	2037
501.871	1908
502.088	1875
502.305	1789
502.522	1809
502.739	1735
502.956	1697
503.172	1611
503.389	1583
503.606	1565
503.823	1522
504.04	1570
504.256	1529
504.473	1545
504.69	1488
504.907	1501
505.123	1478
505.34	1425
505.557	1399
505.773	1405
505.99	1397
506.207	1355
506.423	1332
506.64	1333
506.856	1335
507.073	1331
507.289	1306
507.506	1309
507.722	1311
507.939	1306
508.155	1276
508.372	1294
508.588	1256
508.805	1242
509.021	1263
509.238	1304
509.454	1341
509.67	1429
509.887	1277
510.103	1271
510.319	1241
510.536	1231
510.752	1252
510.968	1241
511.184	1212
511.401	1211
511.617	1201
511.833	1229
512.049	1181
512.265	1227
512.481	1195
512.698	1188
512.914	1193
513.13	1200
513.346	1221
513.562	1196
513.778	1218
513.994	1234
514.21	1269
514.426	1325
514.642	1363
514.858	1263
515.074	1228
515.29	1240
515.506	1220
515.721	1240
515.937	1223
516.153	1255
516.369	1274
516.585	1305
516.801	1284
517.016	1339
517.232	1333
517.448	1359
517.664	1389
517.879	1384
518.095	1361
518.311	1370
518.527	1345
518.742	1321
518.958	1324
519.173	1379
519.389	1338
519.605	1287
519.82	1243
520.036	1226
520.251	1219
520.467	1211
520.682	1223
520.898	1209
521.113	1203
521.329	1189
521.544	1221
521.76	1167
521.975	1163
522.19	1182
522.406	1188
522.621	1225
522.836	1167
523.052	1178
523.267	1185
523.482	1171
523.698	1140
523.913	1149
524.128	1178
524.343	1208
524.559	1203
524.774	1197
524.989	1188
525.204	1177
525.419	1176
525.634	1141
525.849	1163
526.064	1175
526.28	1179
526.495	1158
526.71	1169
526.925	1133
527.14	1132
527.355	1140
527.57	1172
527.785	1170
527.999	1166
528.214	1185
528.429	1193
528.644	1219
528.859	1259
529.074	1241
529.289	1272
529.503	1262
529.718	1290
529.933	1259
530.148	1243
530.363	1226
530.577	1251
530.792	1217
531.007	1206
531.221	1243
531.436	1248
531.651	1254
531.865	1280
532.08	1313
532.295	1306
532.509	1384
532.724	1385
532.938	1379
533.153	1439
533.367	1512
533.582	1586
533.796	1542
534.011	1497
534.225	1441
534.44	1402
534.654	1382
534.868	1370
535.083	1353
535.297	1314
535.511	1328
535.726	1331
535.94	1290
536.154	1262
536.369	1263
536.583	1213
536.797	1229
537.011	1206
537.225	1186
537.44	1217
537.654	1193
537.868	1184
538.082	1147
538.296	1164
538.51	1179
538.724	1146
538.938	1177
539.153	1131
539.367	1175
539.581	1157
539.795	1134
540.009	1141
540.222	1108
540.436	1146
540.65	1121
540.864	1152
541.078	1209
541.292	1242
541.506	1461
541.72	1521
541.934	1352
542.147	1270
542.361	1236
542.575	1170
542.789	1107
543.002	1131
543.216	1089
543.43	1077
543.644	1104
543.857	1102
544.071	1108
544.285	1132
544.498	1127
544.712	1143
544.925	1168
545.139	1116
545.352	1138
545.566	1119
545.779	1161
545.993	1152
