Data from SnStandardFlinnAPT0064_QswitchEnergy10_LIBS07252019.E.O._I.C._HRD10591_15-26-17-973.txt Node
Date: Thu Jul 25 15:26:17 EDT 2019
User: cochatt
Spectrometer: HR+D1059
Trigger mode: 1
Integration Time (sec): 1.000000E-1
Scans to average: 1
Electric dark correction enabled: true
Nonlinearity correction enabled: false
Boxcar width: 0
XAxis mode: Wavelengths
Number of Pixels in Spectrum: 2048
>>>>>Begin Spectral Data<<<<<
223.165	-25.69
223.4	-25.69
223.635	-25.69
223.869	-14.69
224.104	-25.69
224.338	-17.69
224.573	-25.69
224.808	2.31
225.042	-0.69
225.277	-2.69
225.511	-6.69
225.746	4.31
225.98	6.31
226.215	10.31
226.449	28.31
226.683	28.31
226.918	30.31
227.152	9.31
227.387	25.31
227.621	37.31
227.856	37.31
228.09	55.31
228.324	48.31
228.559	65.31
228.793	65.31
229.027	60.31
229.262	77.31
229.496	66.31
229.73	73.31
229.964	72.31
230.199	84.31
230.433	69.31
230.667	82.31
230.901	77.31
231.136	92.31
231.37	93.31
231.604	102.31
231.838	78.31
232.072	105.31
232.306	108.31
232.541	92.31
232.775	84.31
233.009	94.31
233.243	85.31
233.477	85.31
233.711	87.31
233.945	89.31
234.179	90.31
234.413	90.31
234.647	77.31
234.881	82.31
235.115	85.31
235.349	96.31
235.583	93.31
235.817	106.31
236.051	117.31
236.285	88.31
236.519	84.31
236.753	65.31
236.987	80.31
237.221	84.31
237.455	87.31
237.689	89.31
237.922	85.31
238.156	87.31
238.39	79.31
238.624	85.31
238.858	94.31
239.091	84.31
239.325	74.31
239.559	73.31
239.793	74.31
240.027	87.31
240.26	75.31
240.494	72.31
240.728	69.31
240.961	82.31
241.195	91.31
241.429	87.31
241.662	80.31
241.896	76.31
242.13	84.31
242.363	108.31
242.597	129.31
242.83	115.31
243.064	117.31
243.298	148.31
243.531	120.31
243.765	91.31
243.998	98.31
244.232	73.31
244.465	85.31
244.699	87.31
244.932	88.31
245.166	82.31
245.399	81.31
245.633	86.31
245.866	93.31
246.099	97.31
246.333	83.31
246.566	75.31
246.8	80.31
247.033	99.31
247.266	76.31
247.5	79.31
247.733	83.31
247.966	86.31
248.2	78.31
248.433	93.31
248.666	93.31
248.899	106.31
249.133	85.31
249.366	86.31
249.599	99.31
249.832	97.31
250.066	116.31
250.299	90.31
250.532	75.31
250.765	75.31
250.998	71.31
251.231	84.31
251.465	91.31
251.698	98.31
251.931	83.31
252.164	74.31
252.397	78.31
252.63	93.31
252.863	113.31
253.096	70.31
253.329	94.31
253.562	79.31
253.795	86.31
254.028	90.31
254.261	78.31
254.494	99.31
254.727	109.31
254.96	110.31
255.193	99.31
255.426	95.31
255.659	93.31
255.892	94.31
256.124	86.31
256.357	85.31
256.59	102.31
256.823	97.31
257.056	105.31
257.289	120.31
257.521	138.31
257.754	98.31
257.987	75.31
258.22	72.31
258.452	89.31
258.685	96.31
258.918	91.31
259.151	95.31
259.383	102.31
259.616	103.31
259.849	120.31
260.081	93.31
260.314	81.31
260.547	84.31
260.779	81.31
261.012	89.31
261.244	91.31
261.477	70.31
261.71	73.31
261.942	84.31
262.175	75.31
262.407	99.31
262.64	84.31
262.872	92.31
263.105	91.31
263.337	80.31
263.57	76.31
263.802	78.31
264.035	94.31
264.267	76.31
264.499	89.31
264.732	76.31
264.964	94.31
265.197	80.31
265.429	94.31
265.661	92.31
265.894	91.31
266.126	125.31
266.358	140.31
266.591	108.31
266.823	90.31
267.055	84.31
267.287	84.31
267.52	69.31
267.752	80.31
267.984	89.31
268.216	93.31
268.448	95.31
268.681	90.31
268.913	97.31
269.145	92.31
269.377	90.31
269.609	96.31
269.841	107.31
270.073	106.31
270.306	110.31
270.538	151.31
270.77	250.31
271.002	256.31
271.234	161.31
271.466	107.31
271.698	94.31
271.93	92.31
272.162	101.31
272.394	106.31
272.626	78.31
272.858	97.31
273.09	84.31
273.322	78.31
273.553	91.31
273.785	83.31
274.017	93.31
274.249	100.31
274.481	86.31
274.713	83.31
274.945	97.31
275.176	84.31
275.408	94.31
275.64	85.31
275.872	104.31
276.104	95.31
276.335	96.31
276.567	93.31
276.799	82.31
277.031	85.31
277.262	91.31
277.494	93.31
277.726	114.31
277.957	140.31
278.189	185.31
278.421	174.31
278.652	158.31
278.884	153.31
279.115	116.31
279.347	103.31
279.579	80.31
279.81	81.31
280.042	93.31
280.273	97.31
280.505	88.31
280.736	90.31
280.968	116.31
281.199	132.31
281.431	208.31
281.662	215.31
281.894	122.31
282.125	116.31
282.356	98.31
282.588	94.31
282.819	102.31
283.051	108.31
283.282	114.31
283.513	144.31
283.745	238.31
283.976	389.31
284.207	545.31
284.439	447.31
284.67	211.31
284.901	197.31
285.132	252.31
285.364	284.31
285.595	174.31
285.826	120.31
286.057	201.31
286.288	305.31
286.52	429.31
286.751	349.31
286.982	156.31
287.213	123.31
287.444	101.31
287.675	90.31
287.906	95.31
288.138	87.31
288.369	99.31
288.6	93.31
288.831	93.31
289.062	103.31
289.293	83.31
289.524	90.31
289.755	94.31
289.986	82.31
290.217	92.31
290.448	106.31
290.679	88.31
290.91	99.31
291.141	148.31
291.371	178.31
291.602	213.31
291.833	161.31
292.064	110.31
292.295	92.31
292.526	82.31
292.757	96.31
292.987	85.31
293.218	81.31
293.449	98.31
293.68	84.31
293.91	87.31
294.141	87.31
294.372	85.31
294.603	90.31
294.833	87.31
295.064	81.31
295.295	97.31
295.525	81.31
295.756	92.31
295.987	88.31
296.217	89.31
296.448	92.31
296.679	92.31
296.909	98.31
297.14	98.31
297.37	92.31
297.601	95.31
297.831	105.31
298.062	106.31
298.292	87.31
298.523	90.31
298.753	99.31
298.984	94.31
299.214	100.31
299.445	104.31
299.675	102.31
299.905	102.31
300.136	127.31
300.366	120.31
300.597	203.31
300.827	343.31
301.057	497.31
301.288	428.31
301.518	206.31
301.748	130.31
301.979	114.31
302.209	108.31
302.439	106.31
302.669	141.31
302.9	210.31
303.13	382.31
303.36	622.31
303.59	825.31
303.82	590.31
304.051	226.31
304.281	122.31
304.511	118.31
304.741	104.31
304.971	105.31
305.201	99.31
305.431	88.31
305.661	109.31
305.891	98.31
306.121	87.31
306.352	109.31
306.582	101.31
306.812	103.31
307.042	91.31
307.272	110.31
307.502	101.31
307.731	112.31
307.961	98.31
308.191	103.31
308.421	106.31
308.651	97.31
308.881	89.31
309.111	92.31
309.341	98.31
309.571	101.31
309.8	108.31
310.03	88.31
310.26	99.31
310.49	94.31
310.72	90.31
310.949	105.31
311.179	104.31
311.409	89.31
311.639	96.31
311.868	101.31
312.098	102.31
312.328	111.31
312.557	91.31
312.787	112.31
313.017	124.31
313.246	107.31
313.476	107.31
313.706	114.31
313.935	124.31
314.165	151.31
314.394	188.31
314.624	130.31
314.853	121.31
315.083	121.31
315.312	124.31
315.542	106.31
315.771	112.31
316.001	124.31
316.23	124.31
316.46	115.31
316.689	145.31
316.919	184.31
317.148	374.31
317.377	624.31
317.607	1006.31
317.836	950.31
318.065	372.31
318.295	171.31
318.524	132.31
318.753	116.31
318.983	120.31
319.212	107.31
319.441	93.31
319.67	105.31
319.9	104.31
320.129	106.31
320.358	105.31
320.587	92.31
320.816	101.31
321.046	104.31
321.275	124.31
321.504	118.31
321.733	119.31
321.962	142.31
322.191	139.31
322.42	122.31
322.649	119.31
322.878	105.31
323.108	113.31
323.337	114.31
323.566	104.31
323.795	104.31
324.024	106.31
324.253	122.31
324.482	148.31
324.71	174.31
324.939	219.31
325.168	182.31
325.397	147.31
325.626	204.31
325.855	369.31
326.084	683.31
326.313	1099.31
326.542	1081.31
326.77	432.31
326.999	186.31
327.228	160.31
327.457	180.31
327.686	192.31
327.914	140.31
328.143	117.31
328.372	128.31
328.6	113.31
328.829	113.31
329.058	99.31
329.287	105.31
329.515	97.31
329.744	95.31
329.972	99.31
330.201	104.31
330.43	101.31
330.658	118.31
330.887	99.31
331.115	99.31
331.344	104.31
331.572	108.31
331.801	99.31
332.03	109.31
332.258	131.31
332.486	142.31
332.715	214.31
332.943	364.31
333.172	554.31
333.4	461.31
333.629	205.31
333.857	132.31
334.085	122.31
334.314	106.31
334.542	112.31
334.771	114.31
334.999	118.31
335.227	111.31
335.455	113.31
335.684	96.31
335.912	81.31
336.14	101.31
336.369	107.31
336.597	114.31
336.825	116.31
337.053	81.31
337.281	101.31
337.51	109.31
337.738	97.31
337.966	97.31
338.194	102.31
338.422	97.31
338.65	113.31
338.878	101.31
339.106	112.31
339.334	116.31
339.562	99.31
339.79	93.31
340.018	115.31
340.246	103.31
340.474	123.31
340.702	89.31
340.93	106.31
341.158	97.31
341.386	97.31
341.614	89.31
341.842	109.31
342.07	96.31
342.298	101.31
342.526	106.31
342.754	87.31
342.981	107.31
343.209	107.31
343.437	100.31
343.665	114.31
343.893	108.31
344.12	112.31
344.348	100.31
344.576	95.31
344.804	102.31
345.031	108.31
345.259	112.31
345.487	97.31
345.714	96.31
345.942	97.31
346.17	105.31
346.397	105.31
346.625	104.31
346.853	103.31
347.08	105.31
347.308	96.31
347.535	94.31
347.763	96.31
347.99	108.31
348.218	80.31
348.445	106.31
348.673	102.31
348.9	108.31
349.128	102.31
349.355	123.31
349.583	101.31
349.81	87.31
350.037	92.31
350.265	115.31
350.492	100.31
350.72	93.31
350.947	92.31
351.174	106.31
351.402	101.31
351.629	103.31
351.856	100.31
352.083	106.31
352.311	100.31
352.538	97.31
352.765	106.31
352.992	106.31
353.22	90.31
353.447	95.31
353.674	98.31
353.901	110.31
354.128	92.31
354.355	92.31
354.583	103.31
354.81	116.31
355.037	101.31
355.264	90.31
355.491	107.31
355.718	92.31
355.945	99.31
356.172	86.31
356.399	93.31
356.626	85.31
356.853	107.31
357.08	89.31
357.307	111.31
357.534	99.31
357.761	106.31
357.988	100.31
358.215	94.31
358.441	89.31
358.668	81.31
358.895	96.31
359.122	106.31
359.349	106.31
359.576	102.31
359.802	110.31
360.029	98.31
360.256	114.31
360.483	97.31
360.709	91.31
360.936	116.31
361.163	93.31
361.39	88.31
361.616	118.31
361.843	97.31
362.07	76.31
362.296	100.31
362.523	101.31
362.749	107.31
362.976	97.31
363.203	101.31
363.429	102.31
363.656	84.31
363.882	101.31
364.109	98.31
364.335	94.31
364.562	104.31
364.788	85.31
365.015	106.31
365.241	118.31
365.468	140.31
365.694	167.31
365.92	167.31
366.147	96.31
366.373	89.31
366.599	101.31
366.826	85.31
367.052	96.31
367.278	101.31
367.505	100.31
367.731	94.31
367.957	103.31
368.184	101.31
368.41	109.31
368.636	112.31
368.862	91.31
369.089	91.31
369.315	101.31
369.541	91.31
369.767	93.31
369.993	120.31
370.219	95.31
370.445	94.31
370.672	92.31
370.898	109.31
371.124	91.31
371.35	93.31
371.576	97.31
371.802	99.31
372.028	102.31
372.254	89.31
372.48	92.31
372.706	97.31
372.932	98.31
373.158	99.31
373.384	100.31
373.61	105.31
373.835	96.31
374.061	105.31
374.287	90.31
374.513	93.31
374.739	97.31
374.965	95.31
375.191	106.31
375.416	102.31
375.642	99.31
375.868	102.31
376.094	88.31
376.319	107.31
376.545	108.31
376.771	101.31
376.997	99.31
377.222	114.31
377.448	104.31
377.674	112.31
377.899	101.31
378.125	106.31
378.35	121.31
378.576	98.31
378.802	108.31
379.027	109.31
379.253	122.31
379.478	139.31
379.704	248.31
379.929	543.31
380.155	1106.31
380.38	1139.31
380.606	384.31
380.831	157.31
381.057	131.31
381.282	92.31
381.507	105.31
381.733	109.31
381.958	99.31
382.184	101.31
382.409	88.31
382.634	106.31
382.86	119.31
383.085	106.31
383.31	100.31
383.535	102.31
383.761	100.31
383.986	98.31
384.211	83.31
384.436	100.31
384.662	103.31
384.887	103.31
385.112	94.31
385.337	96.31
385.562	98.31
385.787	107.31
386.013	98.31
386.238	110.31
386.463	97.31
386.688	93.31
386.913	106.31
387.138	97.31
387.363	107.31
387.588	109.31
387.813	107.31
388.038	110.31
388.263	94.31
388.488	97.31
388.713	95.31
388.938	97.31
389.163	110.31
389.387	99.31
389.612	87.31
389.837	96.31
390.062	102.31
390.287	97.31
390.512	99.31
390.736	97.31
390.961	104.31
391.186	88.31
391.411	94.31
391.636	113.31
391.86	91.31
392.085	75.31
392.31	92.31
392.534	81.31
392.759	96.31
392.984	88.31
393.208	114.31
393.433	110.31
393.658	136.31
393.882	107.31
394.107	99.31
394.331	101.31
394.556	98.31
394.78	86.31
395.005	114.31
395.229	106.31
395.454	92.31
395.678	101.31
395.903	96.31
396.127	97.31
396.352	103.31
396.576	108.31
396.801	126.31
397.025	120.31
397.249	108.31
397.474	102.31
397.698	91.31
397.922	92.31
398.147	75.31
398.371	98.31
398.595	95.31
398.82	90.31
399.044	99.31
399.268	98.31
399.492	88.31
399.717	91.31
399.941	100.31
400.165	90.31
400.389	92.31
400.613	103.31
400.837	95.31
401.062	92.31
401.286	87.31
401.51	92.31
401.734	100.31
401.958	87.31
402.182	92.31
402.406	86.31
402.63	93.31
402.854	84.31
403.078	102.31
403.302	93.31
403.526	97.31
403.75	91.31
403.974	92.31
404.198	102.31
404.422	83.31
404.645	94.31
404.869	90.31
405.093	98.31
405.317	103.31
405.541	112.31
405.765	110.31
405.988	124.31
406.212	101.31
406.436	114.31
406.66	91.31
406.883	97.31
407.107	82.31
407.331	85.31
407.555	88.31
407.778	90.31
408.002	81.31
408.226	96.31
408.449	94.31
408.673	88.31
408.896	97.31
409.12	90.31
409.344	105.31
409.567	92.31
409.791	102.31
410.014	101.31
410.238	101.31
410.461	113.31
410.685	98.31
410.908	99.31
411.132	95.31
411.355	96.31
411.578	97.31
411.802	90.31
412.025	96.31
412.249	90.31
412.472	79.31
412.695	101.31
412.919	94.31
413.142	96.31
413.365	97.31
413.589	92.31
413.812	104.31
414.035	100.31
414.258	95.31
414.482	98.31
414.705	99.31
414.928	101.31
415.151	90.31
415.374	88.31
415.597	96.31
415.821	92.31
416.044	101.31
416.267	71.31
416.49	80.31
416.713	103.31
416.936	108.31
417.159	97.31
417.382	85.31
417.605	95.31
417.828	82.31
418.051	85.31
418.274	101.31
418.497	105.31
418.72	102.31
418.943	91.31
419.166	94.31
419.389	103.31
419.611	94.31
419.834	96.31
420.057	103.31
420.28	98.31
420.503	92.31
420.726	95.31
420.948	91.31
421.171	89.31
421.394	80.31
421.617	92.31
421.839	65.31
422.062	87.31
422.285	104.31
422.507	113.31
422.73	123.31
422.953	140.31
423.175	102.31
423.398	98.31
423.621	88.31
423.843	72.31
424.066	82.31
424.288	97.31
424.511	91.31
424.733	106.31
424.956	99.31
425.178	89.31
425.401	93.31
425.623	79.31
425.846	94.31
426.068	88.31
426.291	100.31
426.513	104.31
426.735	94.31
426.958	108.31
427.18	91.31
427.402	96.31
427.625	84.31
427.847	90.31
428.069	104.31
428.292	104.31
428.514	86.31
428.736	94.31
428.958	100.31
429.181	95.31
429.403	89.31
429.625	100.31
429.847	94.31
430.069	102.31
430.292	95.31
430.514	91.31
430.736	109.31
430.958	99.31
431.18	88.31
431.402	89.31
431.624	100.31
431.846	86.31
432.068	90.31
432.29	92.31
432.512	86.31
432.734	101.31
432.956	107.31
433.178	103.31
433.4	88.31
433.622	93.31
433.844	90.31
434.066	89.31
434.287	91.31
434.509	94.31
434.731	89.31
434.953	100.31
435.175	86.31
435.397	83.31
435.618	77.31
435.84	78.31
436.062	101.31
436.284	101.31
436.505	90.31
436.727	92.31
436.949	92.31
437.17	102.31
437.392	92.31
437.614	92.31
437.835	100.31
438.057	89.31
438.278	91.31
438.5	92.31
438.721	105.31
438.943	110.31
439.165	89.31
439.386	104.31
439.608	97.31
439.829	107.31
440.05	109.31
440.272	122.31
440.493	98.31
440.715	70.31
440.936	93.31
441.158	92.31
441.379	94.31
441.6	93.31
441.822	101.31
442.043	106.31
442.264	102.31
442.486	105.31
442.707	109.31
442.928	99.31
443.149	96.31
443.371	94.31
443.592	92.31
443.813	87.31
444.034	99.31
444.255	99.31
444.476	91.31
444.698	83.31
444.919	103.31
445.14	189.31
445.361	144.31
445.582	108.31
445.803	100.31
446.024	101.31
446.245	114.31
446.466	120.31
446.687	109.31
446.908	104.31
447.129	104.31
447.35	80.31
447.571	101.31
447.792	101.31
448.013	94.31
448.234	98.31
448.455	105.31
448.675	103.31
448.896	101.31
449.117	98.31
449.338	125.31
449.559	144.31
449.779	113.31
450	97.31
450.221	106.31
450.442	100.31
450.662	106.31
450.883	82.31
451.104	109.31
451.324	100.31
451.545	100.31
451.766	105.31
451.986	124.31
452.207	175.31
452.428	394.31
452.648	970.31
452.869	518.31
453.089	164.31
453.31	117.31
453.53	120.31
453.751	128.31
453.971	119.31
454.192	134.31
454.412	104.31
454.633	104.31
454.853	89.31
455.073	94.31
455.294	82.31
455.514	83.31
455.734	88.31
455.955	100.31
456.175	88.31
456.395	86.31
456.616	81.31
456.836	85.31
457.056	102.31
457.276	97.31
457.497	96.31
457.717	112.31
457.937	87.31
458.157	90.31
458.377	82.31
458.598	95.31
458.818	94.31
459.038	92.31
459.258	91.31
459.478	79.31
459.698	85.31
459.918	85.31
460.138	86.31
460.358	100.31
460.578	88.31
460.798	96.31
461.018	94.31
461.238	95.31
461.458	90.31
461.678	93.31
461.898	102.31
462.118	94.31
462.338	98.31
462.558	101.31
462.777	90.31
462.997	105.31
463.217	99.31
463.437	121.31
463.657	150.31
463.876	152.31
464.096	94.31
464.316	101.31
464.536	84.31
464.755	80.31
464.975	87.31
465.195	98.31
465.414	96.31
465.634	83.31
465.854	89.31
466.073	102.31
466.293	90.31
466.512	87.31
466.732	103.31
466.951	116.31
467.171	136.31
467.391	131.31
467.61	109.31
467.829	88.31
468.049	101.31
468.268	98.31
468.488	99.31
468.707	91.31
468.927	89.31
469.146	101.31
469.365	94.31
469.585	89.31
469.804	91.31
470.023	92.31
470.243	95.31
470.462	101.31
470.681	103.31
470.901	110.31
471.12	163.31
471.339	174.31
471.558	126.31
471.777	106.31
471.997	109.31
472.216	87.31
472.435	104.31
472.654	87.31
472.873	88.31
473.092	84.31
473.311	89.31
473.53	92.31
473.749	107.31
473.968	104.31
474.187	89.31
474.406	90.31
474.625	103.31
474.844	88.31
475.063	75.31
475.282	84.31
475.501	104.31
475.72	117.31
475.939	91.31
476.158	101.31
476.377	104.31
476.596	104.31
476.814	98.31
477.033	98.31
477.252	95.31
477.471	89.31
477.69	99.31
477.908	94.31
478.127	107.31
478.346	92.31
478.564	82.31
478.783	82.31
479.002	102.31
479.22	112.31
479.439	89.31
479.658	84.31
479.876	84.31
480.095	84.31
480.313	85.31
480.532	76.31
480.751	91.31
480.969	86.31
481.188	80.31
481.406	80.31
481.624	94.31
481.843	80.31
482.061	103.31
482.28	112.31
482.498	102.31
482.717	98.31
482.935	109.31
483.153	108.31
483.372	97.31
483.59	98.31
483.808	100.31
484.027	93.31
484.245	99.31
484.463	148.31
484.681	181.31
484.9	122.31
485.118	116.31
485.336	97.31
485.554	102.31
485.772	118.31
485.99	162.31
486.209	205.31
486.427	126.31
486.645	94.31
486.863	108.31
487.081	90.31
487.299	97.31
487.517	89.31
487.735	88.31
487.953	99.31
488.171	89.31
488.389	72.31
488.607	89.31
488.825	89.31
489.043	101.31
489.261	94.31
489.479	102.31
489.696	96.31
489.914	92.31
490.132	101.31
490.35	89.31
490.568	92.31
490.786	81.31
491.003	98.31
491.221	103.31
491.439	105.31
491.657	93.31
491.874	105.31
492.092	110.31
492.31	105.31
492.527	94.31
492.745	101.31
492.963	101.31
493.18	97.31
493.398	98.31
493.615	98.31
493.833	94.31
494.05	101.31
494.268	112.31
494.485	84.31
494.703	98.31
494.92	92.31
495.138	104.31
495.355	113.31
495.573	100.31
495.79	100.31
496.008	110.31
496.225	100.31
496.442	119.31
496.66	117.31
496.877	144.31
497.094	132.31
497.312	100.31
497.529	102.31
497.746	102.31
497.963	104.31
498.181	112.31
498.398	95.31
498.615	94.31
498.832	101.31
499.049	113.31
499.267	118.31
499.484	125.31
499.701	100.31
499.918	98.31
500.135	82.31
500.352	81.31
500.569	106.31
500.786	97.31
501.003	97.31
501.22	94.31
501.437	105.31
501.654	94.31
501.871	87.31
502.088	86.31
502.305	102.31
502.522	99.31
502.739	95.31
502.956	109.31
503.172	107.31
503.389	85.31
503.606	90.31
503.823	89.31
504.04	94.31
504.256	98.31
504.473	91.31
504.69	91.31
504.907	116.31
505.123	109.31
505.34	109.31
505.557	90.31
505.773	100.31
505.99	106.31
506.207	79.31
506.423	97.31
506.64	97.31
506.856	93.31
507.073	101.31
507.289	94.31
507.506	94.31
507.722	95.31
507.939	87.31
508.155	92.31
508.372	104.31
508.588	91.31
508.805	97.31
509.021	85.31
509.238	99.31
509.454	99.31
509.67	122.31
509.887	100.31
510.103	84.31
510.319	103.31
510.536	104.31
510.752	96.31
510.968	94.31
