Data from SnStandardFlinnAPT0064_QswitchEnergy10_LIBS07252019.E.O._I.C._HRD10591_15-27-37-973.txt Node
Date: Thu Jul 25 15:27:37 EDT 2019
User: cochatt
Spectrometer: HR+D1059
Trigger mode: 1
Integration Time (sec): 1.000000E-1
Scans to average: 1
Electric dark correction enabled: true
Nonlinearity correction enabled: false
Boxcar width: 0
XAxis mode: Wavelengths
Number of Pixels in Spectrum: 2048
>>>>>Begin Spectral Data<<<<<
223.165	-14.62
223.4	-14.62
223.635	-14.62
223.869	-25.62
224.104	-9.62
224.338	-12.62
224.573	-14.62
224.808	-18.62
225.042	-13.62
225.277	6.38
225.511	2.38
225.746	2.38
225.98	-8.62
226.215	5.38
226.449	19.38
226.683	23.38
226.918	35.38
227.152	23.38
227.387	26.38
227.621	38.38
227.856	48.38
228.09	46.38
228.324	35.38
228.559	52.38
228.793	65.38
229.027	71.38
229.262	66.38
229.496	73.38
229.73	66.38
229.964	78.38
230.199	72.38
230.433	72.38
230.667	78.38
230.901	78.38
231.136	84.38
231.37	75.38
231.604	90.38
231.838	79.38
232.072	93.38
232.306	95.38
232.541	95.38
232.775	87.38
233.009	84.38
233.243	85.38
233.477	87.38
233.711	83.38
233.945	104.38
234.179	91.38
234.413	86.38
234.647	93.38
234.881	74.38
235.115	81.38
235.349	78.38
235.583	112.38
235.817	133.38
236.051	126.38
236.285	92.38
236.519	97.38
236.753	76.38
236.987	64.38
237.221	83.38
237.455	84.38
237.689	63.38
237.922	68.38
238.156	77.38
238.39	70.38
238.624	70.38
238.858	93.38
239.091	74.38
239.325	78.38
239.559	70.38
239.793	85.38
240.027	87.38
240.26	79.38
240.494	73.38
240.728	68.38
240.961	77.38
241.195	82.38
241.429	83.38
241.662	81.38
241.896	81.38
242.13	93.38
242.363	135.38
242.597	148.38
242.83	146.38
243.064	125.38
243.298	159.38
243.531	130.38
243.765	103.38
243.998	87.38
244.232	92.38
244.465	59.38
244.699	66.38
244.932	73.38
245.166	77.38
245.399	85.38
245.633	87.38
245.866	77.38
246.099	82.38
246.333	71.38
246.566	73.38
246.8	81.38
247.033	73.38
247.266	84.38
247.5	87.38
247.733	79.38
247.966	75.38
248.2	98.38
248.433	99.38
248.666	116.38
248.899	110.38
249.133	93.38
249.366	92.38
249.599	98.38
249.832	109.38
250.066	131.38
250.299	85.38
250.532	82.38
250.765	81.38
250.998	68.38
251.231	89.38
251.465	75.38
251.698	74.38
251.931	80.38
252.164	83.38
252.397	97.38
252.63	96.38
252.863	87.38
253.096	73.38
253.329	92.38
253.562	95.38
253.795	80.38
254.028	85.38
254.261	81.38
254.494	94.38
254.727	113.38
254.96	139.38
255.193	139.38
255.426	85.38
255.659	80.38
255.892	86.38
256.124	81.38
256.357	77.38
256.59	84.38
256.823	87.38
257.056	102.38
257.289	124.38
257.521	156.38
257.754	114.38
257.987	77.38
258.22	94.38
258.452	65.38
258.685	77.38
258.918	90.38
259.151	88.38
259.383	104.38
259.616	132.38
259.849	124.38
260.081	104.38
260.314	63.38
260.547	82.38
260.779	84.38
261.012	90.38
261.244	81.38
261.477	88.38
261.71	82.38
261.942	68.38
262.175	74.38
262.407	82.38
262.64	75.38
262.872	79.38
263.105	82.38
263.337	87.38
263.57	78.38
263.802	81.38
264.035	87.38
264.267	95.38
264.499	86.38
264.732	100.38
264.964	83.38
265.197	85.38
265.429	91.38
265.661	96.38
265.894	83.38
266.126	121.38
266.358	151.38
266.591	144.38
266.823	92.38
267.055	85.38
267.287	93.38
267.52	79.38
267.752	85.38
267.984	96.38
268.216	88.38
268.448	96.38
268.681	80.38
268.913	86.38
269.145	86.38
269.377	84.38
269.609	94.38
269.841	80.38
270.073	85.38
270.306	105.38
270.538	187.38
270.77	292.38
271.002	352.38
271.234	174.38
271.466	95.38
271.698	90.38
271.93	81.38
272.162	86.38
272.394	98.38
272.626	85.38
272.858	84.38
273.09	79.38
273.322	89.38
273.553	89.38
273.785	89.38
274.017	82.38
274.249	90.38
274.481	85.38
274.713	80.38
274.945	83.38
275.176	99.38
275.408	97.38
275.64	69.38
275.872	87.38
276.104	85.38
276.335	93.38
276.567	93.38
276.799	86.38
277.031	94.38
277.262	95.38
277.494	101.38
277.726	126.38
277.957	182.38
278.189	224.38
278.421	216.38
278.652	192.38
278.884	160.38
279.115	133.38
279.347	98.38
279.579	104.38
279.81	90.38
280.042	100.38
280.273	84.38
280.505	99.38
280.736	102.38
280.968	120.38
281.199	166.38
281.431	227.38
281.662	256.38
281.894	150.38
282.125	114.38
282.356	108.38
282.588	103.38
282.819	123.38
283.051	120.38
283.282	128.38
283.513	176.38
283.745	286.38
283.976	496.38
284.207	767.38
284.439	546.38
284.67	259.38
284.901	245.38
285.132	321.38
285.364	353.38
285.595	204.38
285.826	164.38
286.057	237.38
286.288	385.38
286.52	560.38
286.751	470.38
286.982	189.38
287.213	118.38
287.444	110.38
287.675	97.38
287.906	89.38
288.138	95.38
288.369	76.38
288.6	82.38
288.831	96.38
289.062	92.38
289.293	87.38
289.524	88.38
289.755	85.38
289.986	101.38
290.217	93.38
290.448	92.38
290.679	113.38
290.91	104.38
291.141	142.38
291.371	232.38
291.602	272.38
291.833	188.38
292.064	104.38
292.295	93.38
292.526	86.38
292.757	78.38
292.987	111.38
293.218	98.38
293.449	89.38
293.68	81.38
293.91	98.38
294.141	96.38
294.372	84.38
294.603	93.38
294.833	92.38
295.064	89.38
295.295	85.38
295.525	95.38
295.756	83.38
295.987	86.38
296.217	87.38
296.448	81.38
296.679	103.38
296.909	80.38
297.14	96.38
297.37	87.38
297.601	90.38
297.831	72.38
298.062	94.38
298.292	87.38
298.523	97.38
298.753	94.38
298.984	102.38
299.214	101.38
299.445	98.38
299.675	111.38
299.905	117.38
300.136	120.38
300.366	139.38
300.597	240.38
300.827	416.38
301.057	651.38
301.288	565.38
301.518	250.38
301.748	146.38
301.979	121.38
302.209	122.38
302.439	136.38
302.669	157.38
302.9	258.38
303.13	472.38
303.36	817.38
303.59	1140.38
303.82	803.38
304.051	267.38
304.281	154.38
304.511	123.38
304.741	96.38
304.971	98.38
305.201	121.38
305.431	103.38
305.661	108.38
305.891	101.38
306.121	100.38
306.352	112.38
306.582	114.38
306.812	117.38
307.042	104.38
307.272	73.38
307.502	95.38
307.731	103.38
307.961	110.38
308.191	110.38
308.421	99.38
308.651	97.38
308.881	108.38
309.111	97.38
309.341	111.38
309.571	102.38
309.8	99.38
310.03	97.38
310.26	100.38
310.49	108.38
310.72	118.38
310.949	112.38
311.179	104.38
311.409	94.38
311.639	111.38
311.868	105.38
312.098	108.38
312.328	100.38
312.557	116.38
312.787	129.38
313.017	110.38
313.246	118.38
313.476	122.38
313.706	119.38
313.935	130.38
314.165	177.38
314.394	220.38
314.624	165.38
314.853	132.38
315.083	117.38
315.312	108.38
315.542	118.38
315.771	124.38
316.001	118.38
316.23	130.38
316.46	156.38
316.689	163.38
316.919	252.38
317.148	482.38
317.377	861.38
317.607	1392.38
317.836	1260.38
318.065	480.38
318.295	212.38
318.524	146.38
318.753	105.38
318.983	116.38
319.212	128.38
319.441	120.38
319.67	102.38
319.9	108.38
320.129	122.38
320.358	104.38
320.587	113.38
320.816	134.38
321.046	121.38
321.275	129.38
321.504	126.38
321.733	132.38
321.962	157.38
322.191	164.38
322.42	124.38
322.649	134.38
322.878	131.38
323.108	119.38
323.337	113.38
323.566	118.38
323.795	117.38
324.024	139.38
324.253	147.38
324.482	156.38
324.71	236.38
324.939	258.38
325.168	230.38
325.397	194.38
325.626	257.38
325.855	452.38
326.084	895.38
326.313	1497.38
326.542	1474.38
326.77	584.38
326.999	257.38
327.228	202.38
327.457	205.38
327.686	212.38
327.914	154.38
328.143	124.38
328.372	118.38
328.6	120.38
328.829	112.38
329.058	123.38
329.287	120.38
329.515	111.38
329.744	111.38
329.972	108.38
330.201	117.38
330.43	125.38
330.658	106.38
330.887	106.38
331.115	112.38
331.344	105.38
331.572	130.38
331.801	127.38
332.03	126.38
332.258	134.38
332.486	158.38
332.715	268.38
332.943	474.38
333.172	703.38
333.4	628.38
333.629	241.38
333.857	156.38
334.085	122.38
334.314	138.38
334.542	98.38
334.771	117.38
334.999	124.38
335.227	110.38
335.455	119.38
335.684	125.38
335.912	120.38
336.14	116.38
336.369	127.38
336.597	101.38
336.825	105.38
337.053	100.38
337.281	112.38
337.51	108.38
337.738	112.38
337.966	122.38
338.194	110.38
338.422	109.38
338.65	113.38
338.878	110.38
339.106	130.38
339.334	108.38
339.562	106.38
339.79	108.38
340.018	111.38
340.246	105.38
340.474	115.38
340.702	88.38
340.93	114.38
341.158	110.38
341.386	102.38
341.614	116.38
341.842	114.38
342.07	107.38
342.298	119.38
342.526	112.38
342.754	101.38
342.981	86.38
343.209	106.38
343.437	108.38
343.665	118.38
343.893	126.38
344.12	103.38
344.348	104.38
344.576	103.38
344.804	111.38
345.031	99.38
345.259	104.38
345.487	97.38
345.714	120.38
345.942	108.38
346.17	106.38
346.397	101.38
346.625	108.38
346.853	94.38
347.08	99.38
347.308	102.38
347.535	100.38
347.763	96.38
347.99	111.38
348.218	108.38
348.445	110.38
348.673	119.38
348.9	120.38
349.128	109.38
349.355	128.38
349.583	112.38
349.81	111.38
350.037	117.38
350.265	106.38
350.492	120.38
350.72	99.38
350.947	109.38
351.174	105.38
351.402	96.38
351.629	104.38
351.856	112.38
352.083	105.38
352.311	108.38
352.538	106.38
352.765	99.38
352.992	102.38
353.22	101.38
353.447	95.38
353.674	103.38
353.901	112.38
354.128	104.38
354.355	104.38
354.583	101.38
354.81	103.38
355.037	113.38
355.264	101.38
355.491	110.38
355.718	106.38
355.945	101.38
356.172	86.38
356.399	99.38
356.626	108.38
356.853	103.38
357.08	99.38
357.307	99.38
357.534	110.38
357.761	97.38
357.988	108.38
358.215	104.38
358.441	106.38
358.668	114.38
358.895	112.38
359.122	121.38
359.349	111.38
359.576	128.38
359.802	101.38
360.029	117.38
360.256	110.38
360.483	103.38
360.709	108.38
360.936	102.38
361.163	114.38
361.39	88.38
361.616	115.38
361.843	116.38
362.07	108.38
362.296	102.38
362.523	104.38
362.749	89.38
362.976	114.38
363.203	110.38
363.429	107.38
363.656	113.38
363.882	98.38
364.109	113.38
364.335	99.38
364.562	123.38
364.788	96.38
365.015	96.38
365.241	118.38
365.468	191.38
365.694	261.38
365.92	180.38
366.147	88.38
366.373	93.38
366.599	95.38
366.826	93.38
367.052	97.38
367.278	85.38
367.505	104.38
367.731	111.38
367.957	95.38
368.184	112.38
368.41	118.38
368.636	117.38
368.862	101.38
369.089	98.38
369.315	111.38
369.541	96.38
369.767	94.38
369.993	107.38
370.219	110.38
370.445	121.38
370.672	99.38
370.898	101.38
371.124	98.38
371.35	96.38
371.576	95.38
371.802	90.38
372.028	111.38
372.254	103.38
372.48	98.38
372.706	99.38
372.932	110.38
373.158	108.38
373.384	112.38
373.61	105.38
373.835	120.38
374.061	105.38
374.287	102.38
374.513	118.38
374.739	117.38
374.965	89.38
375.191	106.38
375.416	89.38
375.642	111.38
375.868	94.38
376.094	93.38
376.319	109.38
376.545	109.38
376.771	94.38
376.997	101.38
377.222	107.38
377.448	124.38
377.674	103.38
377.899	108.38
378.125	117.38
378.35	105.38
378.576	118.38
378.802	119.38
379.027	124.38
379.253	112.38
379.478	162.38
379.704	305.38
379.929	714.38
380.155	1500.38
380.38	1492.38
380.606	479.38
380.831	176.38
381.057	145.38
381.282	121.38
381.507	127.38
381.733	101.38
381.958	86.38
382.184	104.38
382.409	106.38
382.634	94.38
382.86	89.38
383.085	106.38
383.31	104.38
383.535	109.38
383.761	109.38
383.986	105.38
384.211	89.38
384.436	109.38
384.662	91.38
384.887	100.38
385.112	109.38
385.337	99.38
385.562	101.38
385.787	105.38
386.013	97.38
386.238	108.38
386.463	104.38
386.688	103.38
386.913	95.38
387.138	120.38
387.363	109.38
387.588	108.38
387.813	103.38
388.038	102.38
388.263	113.38
388.488	118.38
388.713	104.38
388.938	114.38
389.163	98.38
389.387	106.38
389.612	98.38
389.837	103.38
390.062	102.38
390.287	104.38
390.512	110.38
390.736	89.38
390.961	93.38
391.186	81.38
391.411	103.38
391.636	86.38
391.86	76.38
392.085	104.38
392.31	98.38
392.534	99.38
392.759	104.38
392.984	107.38
393.208	114.38
393.433	127.38
393.658	129.38
393.882	103.38
394.107	96.38
394.331	101.38
394.556	104.38
394.78	102.38
395.005	92.38
395.229	97.38
395.454	102.38
395.678	106.38
395.903	103.38
396.127	110.38
396.352	105.38
396.576	105.38
396.801	117.38
397.025	125.38
397.249	111.38
397.474	102.38
397.698	91.38
397.922	78.38
398.147	95.38
398.371	86.38
398.595	94.38
398.82	97.38
399.044	86.38
399.268	100.38
399.492	89.38
399.717	92.38
399.941	111.38
400.165	105.38
400.389	101.38
400.613	94.38
400.837	93.38
401.062	86.38
401.286	93.38
401.51	109.38
401.734	105.38
401.958	95.38
402.182	89.38
402.406	94.38
402.63	81.38
402.854	79.38
403.078	89.38
403.302	90.38
403.526	89.38
403.75	74.38
403.974	86.38
404.198	82.38
404.422	98.38
404.645	93.38
404.869	103.38
405.093	92.38
405.317	88.38
405.541	95.38
405.765	118.38
405.988	138.38
406.212	112.38
406.436	102.38
406.66	108.38
406.883	94.38
407.107	90.38
407.331	93.38
407.555	96.38
407.778	81.38
408.002	88.38
408.226	108.38
408.449	104.38
408.673	97.38
408.896	84.38
409.12	82.38
409.344	88.38
409.567	86.38
409.791	102.38
410.014	104.38
410.238	110.38
410.461	94.38
410.685	92.38
410.908	89.38
411.132	99.38
411.355	101.38
411.578	85.38
411.802	97.38
412.025	91.38
412.249	88.38
412.472	94.38
412.695	85.38
412.919	98.38
413.142	102.38
413.365	79.38
413.589	100.38
413.812	94.38
414.035	92.38
414.258	94.38
414.482	96.38
414.705	104.38
414.928	99.38
415.151	97.38
415.374	101.38
415.597	104.38
415.821	78.38
416.044	78.38
416.267	97.38
416.49	103.38
416.713	81.38
416.936	105.38
417.159	97.38
417.382	99.38
417.605	98.38
417.828	93.38
418.051	87.38
418.274	87.38
418.497	95.38
418.72	90.38
418.943	98.38
419.166	117.38
419.389	112.38
419.611	98.38
419.834	99.38
420.057	102.38
420.28	97.38
420.503	112.38
420.726	90.38
420.948	87.38
421.171	95.38
421.394	90.38
421.617	90.38
421.839	101.38
422.062	87.38
422.285	98.38
422.507	95.38
422.73	116.38
422.953	134.38
423.175	101.38
423.398	93.38
423.621	82.38
423.843	89.38
424.066	97.38
424.288	101.38
424.511	93.38
424.733	104.38
424.956	88.38
425.178	92.38
425.401	74.38
425.623	98.38
425.846	97.38
426.068	112.38
426.291	99.38
426.513	84.38
426.735	83.38
426.958	86.38
427.18	108.38
427.402	88.38
427.625	96.38
427.847	91.38
428.069	87.38
428.292	97.38
428.514	103.38
428.736	88.38
428.958	89.38
429.181	101.38
429.403	89.38
429.625	104.38
429.847	100.38
430.069	110.38
430.292	108.38
430.514	97.38
430.736	103.38
430.958	107.38
431.18	93.38
431.402	96.38
431.624	101.38
431.846	96.38
432.068	84.38
432.29	96.38
432.512	85.38
432.734	97.38
432.956	104.38
433.178	92.38
433.4	83.38
433.622	101.38
433.844	90.38
434.066	81.38
434.287	93.38
434.509	92.38
434.731	94.38
434.953	96.38
435.175	105.38
435.397	111.38
435.618	99.38
435.84	90.38
436.062	93.38
436.284	78.38
436.505	96.38
436.727	87.38
436.949	104.38
437.17	98.38
437.392	98.38
437.614	96.38
437.835	102.38
438.057	96.38
438.278	96.38
438.5	98.38
438.721	86.38
438.943	102.38
439.165	119.38
439.386	115.38
439.608	92.38
439.829	89.38
440.05	114.38
440.272	122.38
440.493	87.38
440.715	80.38
440.936	92.38
441.158	99.38
441.379	89.38
441.6	96.38
441.822	96.38
442.043	112.38
442.264	134.38
442.486	103.38
442.707	92.38
442.928	110.38
443.149	110.38
443.371	95.38
443.592	97.38
443.813	100.38
444.034	102.38
444.255	100.38
444.476	84.38
444.698	88.38
444.919	95.38
445.14	194.38
445.361	137.38
445.582	96.38
445.803	97.38
446.024	109.38
446.245	93.38
446.466	88.38
446.687	110.38
446.908	114.38
447.129	86.38
447.35	80.38
447.571	97.38
447.792	102.38
448.013	87.38
448.234	91.38
448.455	89.38
448.675	107.38
448.896	114.38
449.117	119.38
449.338	116.38
449.559	132.38
449.779	112.38
450	101.38
450.221	94.38
450.442	112.38
450.662	111.38
450.883	95.38
451.104	86.38
451.324	113.38
451.545	114.38
451.766	110.38
451.986	144.38
452.207	192.38
452.428	497.38
452.648	1252.38
452.869	724.38
453.089	187.38
453.31	134.38
453.53	125.38
453.751	134.38
453.971	150.38
454.192	143.38
454.412	111.38
454.633	112.38
454.853	110.38
455.073	94.38
455.294	83.38
455.514	97.38
455.734	98.38
455.955	75.38
456.175	88.38
456.395	89.38
456.616	86.38
456.836	102.38
457.056	106.38
457.276	95.38
457.497	112.38
457.717	118.38
457.937	98.38
458.157	90.38
458.377	98.38
458.598	87.38
458.818	85.38
459.038	97.38
459.258	86.38
459.478	91.38
459.698	86.38
459.918	99.38
460.138	97.38
460.358	79.38
460.578	85.38
460.798	93.38
461.018	81.38
461.238	98.38
461.458	87.38
461.678	94.38
461.898	96.38
462.118	85.38
462.338	102.38
462.558	113.38
462.777	102.38
462.997	102.38
463.217	114.38
463.437	116.38
463.657	170.38
463.876	175.38
464.096	108.38
464.316	91.38
464.536	95.38
464.755	99.38
464.975	94.38
465.195	98.38
465.414	85.38
465.634	80.38
465.854	95.38
466.073	82.38
466.293	81.38
466.512	93.38
466.732	92.38
466.951	113.38
467.171	148.38
467.391	124.38
467.61	107.38
467.829	93.38
468.049	78.38
468.268	103.38
468.488	89.38
468.707	97.38
468.927	93.38
469.146	92.38
469.365	102.38
469.585	89.38
469.804	87.38
470.023	97.38
470.243	91.38
470.462	98.38
470.681	118.38
470.901	132.38
471.12	188.38
471.339	200.38
471.558	133.38
471.777	105.38
471.997	97.38
472.216	99.38
472.435	99.38
472.654	95.38
472.873	90.38
473.092	95.38
473.311	90.38
473.53	82.38
473.749	110.38
473.968	105.38
474.187	94.38
474.406	80.38
474.625	69.38
474.844	104.38
475.063	90.38
475.282	89.38
475.501	80.38
475.72	97.38
475.939	95.38
476.158	93.38
476.377	91.38
476.596	97.38
476.814	83.38
477.033	89.38
477.252	98.38
477.471	84.38
477.69	95.38
477.908	95.38
478.127	95.38
478.346	98.38
478.564	86.38
478.783	103.38
479.002	92.38
479.22	79.38
479.439	111.38
479.658	96.38
479.876	89.38
480.095	80.38
480.313	82.38
480.532	93.38
480.751	93.38
480.969	97.38
481.188	79.38
481.406	91.38
481.624	99.38
481.843	117.38
482.061	93.38
482.28	82.38
482.498	91.38
482.717	95.38
482.935	104.38
483.153	111.38
483.372	101.38
483.59	112.38
483.808	114.38
484.027	116.38
484.245	119.38
484.463	158.38
484.681	226.38
484.9	140.38
485.118	111.38
485.336	94.38
485.554	112.38
485.772	115.38
485.99	176.38
486.209	227.38
486.427	160.38
486.645	105.38
486.863	110.38
487.081	104.38
487.299	110.38
487.517	93.38
487.735	85.38
487.953	101.38
488.171	95.38
488.389	103.38
488.607	89.38
488.825	101.38
489.043	96.38
489.261	76.38
489.479	95.38
489.696	92.38
489.914	112.38
490.132	101.38
490.35	102.38
490.568	82.38
490.786	86.38
491.003	94.38
491.221	101.38
491.439	103.38
491.657	97.38
491.874	100.38
492.092	103.38
492.31	99.38
492.527	96.38
492.745	115.38
492.963	114.38
493.18	102.38
493.398	94.38
493.615	106.38
493.833	97.38
494.05	93.38
494.268	106.38
494.485	101.38
494.703	104.38
494.92	108.38
495.138	107.38
495.355	94.38
495.573	91.38
495.79	95.38
496.008	85.38
496.225	80.38
496.442	104.38
496.66	128.38
496.877	168.38
497.094	137.38
497.312	102.38
497.529	104.38
497.746	104.38
497.963	101.38
498.181	103.38
498.398	98.38
498.615	89.38
498.832	108.38
499.049	106.38
499.267	114.38
499.484	153.38
499.701	104.38
499.918	102.38
500.135	97.38
500.352	95.38
500.569	88.38
500.786	97.38
501.003	94.38
501.22	87.38
501.437	88.38
501.654	94.38
501.871	85.38
502.088	99.38
502.305	89.38
502.522	99.38
502.739	115.38
502.956	94.38
503.172	85.38
503.389	80.38
503.606	102.38
503.823	89.38
504.04	98.38
504.256	95.38
504.473	88.38
504.69	88.38
504.907	100.38
505.123	105.38
505.34	94.38
505.557	106.38
505.773	93.38
505.99	93.38
506.207	103.38
506.423	106.38
506.64	102.38
506.856	113.38
507.073	96.38
507.289	75.38
507.506	113.38
507.722	96.38
507.939	98.38
508.155	81.38
508.372	79.38
508.588	97.38
508.805	77.38
509.021	91.38
509.238	97.38
509.454	128.38
509.67	151.38
509.887	99.38
510.103	106.38
