Data from SnStandardFlinnAPT0064_LampEnergy10_LIBS07252019.E.O._I.C._HRD10591_15-19-57-493.txt Node
Date: Thu Jul 25 15:19:57 EDT 2019
User: cochatt
Spectrometer: HR+D1059
Trigger mode: 1
Integration Time (sec): 1.000000E-1
Scans to average: 1
Electric dark correction enabled: true
Nonlinearity correction enabled: false
Boxcar width: 0
XAxis mode: Wavelengths
Number of Pixels in Spectrum: 2048
>>>>>Begin Spectral Data<<<<<
223.165	-30.19
223.4	-30.19
223.635	-30.19
223.869	-13.19
224.104	-28.19
224.338	-12.19
224.573	-10.19
224.808	-11.19
225.042	-1.19
225.277	2.81
225.511	-7.19
225.746	0.81
225.98	17.81
226.215	8.81
226.449	23.81
226.683	14.81
226.918	17.81
227.152	26.81
227.387	26.81
227.621	35.81
227.856	55.81
228.09	44.81
228.324	44.81
228.559	48.81
228.793	134.81
229.027	327.81
229.262	353.81
229.496	316.81
229.73	300.81
229.964	299.81
230.199	296.81
230.433	309.81
230.667	327.81
230.901	304.81
231.136	328.81
231.37	348.81
231.604	399.81
231.838	438.81
232.072	501.81
232.306	568.81
232.541	483.81
232.775	424.81
233.009	429.81
233.243	425.81
233.477	466.81
233.711	532.81
233.945	606.81
234.179	518.81
234.413	465.81
234.647	449.81
234.881	473.81
235.115	510.81
235.349	652.81
235.583	805.81
235.817	1036.81
236.051	1004.81
236.285	663.81
236.519	542.81
236.753	506.81
236.987	508.81
237.221	544.81
237.455	525.81
237.689	474.81
237.922	467.81
238.156	462.81
238.39	488.81
238.624	500.81
238.858	511.81
239.091	494.81
239.325	488.81
239.559	516.81
239.793	508.81
240.027	527.81
240.26	541.81
240.494	553.81
240.728	576.81
240.961	625.81
241.195	671.81
241.429	676.81
241.662	721.81
241.896	820.81
242.13	998.81
242.363	1264.81
242.597	1632.81
242.83	1576.81
243.064	1588.81
243.298	1795.81
243.531	1523.81
243.765	970.81
243.998	780.81
244.232	728.81
244.465	684.81
244.699	677.81
244.932	651.81
245.166	673.81
245.399	689.81
245.633	700.81
245.866	702.81
246.099	681.81
246.333	660.81
246.566	648.81
246.8	634.81
247.033	649.81
247.266	658.81
247.5	666.81
247.733	695.81
247.966	717.81
248.2	783.81
248.433	882.81
248.666	1034.81
248.899	988.81
249.133	870.81
249.366	887.81
249.599	968.81
249.832	1124.81
250.066	1098.81
250.299	869.81
250.532	781.81
250.765	737.81
250.998	752.81
251.231	765.81
251.465	738.81
251.698	731.81
251.931	732.81
252.164	749.81
252.397	780.81
252.63	778.81
252.863	829.81
253.096	767.81
253.329	790.81
253.562	809.81
253.795	762.81
254.028	788.81
254.261	831.81
254.494	892.81
254.727	1026.81
254.96	1229.81
255.193	1255.81
255.426	995.81
255.659	912.81
255.892	857.81
256.124	887.81
256.357	876.81
256.59	910.81
256.823	963.81
257.056	1144.81
257.289	1402.81
257.521	1525.81
257.754	1236.81
257.987	1001.81
258.22	933.81
258.452	938.81
258.685	954.81
258.918	947.81
259.151	1020.81
259.383	1083.81
259.616	1214.81
259.849	1292.81
260.081	1079.81
260.314	1000.81
260.547	976.81
260.779	948.81
261.012	954.81
261.244	976.81
261.477	966.81
261.71	994.81
261.942	1004.81
262.175	1013.81
262.407	1020.81
262.64	1040.81
262.872	1069.81
263.105	1128.81
263.337	1159.81
263.57	1215.81
263.802	1261.81
264.035	1288.81
264.267	1324.81
264.499	1361.81
264.732	1378.81
264.964	1429.81
265.197	1398.81
265.429	1415.81
265.661	1456.81
265.894	1557.81
266.126	1742.81
266.358	1970.81
266.591	1894.81
266.823	1598.81
267.055	1442.81
267.287	1389.81
267.52	1325.81
267.752	1259.81
267.984	1295.81
268.216	1257.81
268.448	1239.81
268.681	1223.81
268.913	1229.81
269.145	1219.81
269.377	1234.81
269.609	1248.81
269.841	1324.81
270.073	1394.81
270.306	1610.81
270.538	2188.81
270.77	3214.81
271.002	3957.81
271.234	2917.81
271.466	1911.81
271.698	1565.81
271.93	1437.81
272.162	1340.81
272.394	1288.81
272.626	1276.81
272.858	1225.81
273.09	1245.81
273.322	1241.81
273.553	1194.81
273.785	1154.81
274.017	1158.81
274.249	1232.81
274.481	1228.81
274.713	1213.81
274.945	1213.81
275.176	1231.81
275.408	1222.81
275.64	1202.81
275.872	1218.81
276.104	1259.81
276.335	1302.81
276.567	1284.81
276.799	1246.81
277.031	1316.81
277.262	1336.81
277.494	1403.81
277.726	1610.81
277.957	1900.81
278.189	2174.81
278.421	2025.81
278.652	1755.81
278.884	1681.81
279.115	1526.81
279.347	1424.81
279.579	1407.81
279.81	1438.81
280.042	1418.81
280.273	1455.81
280.505	1469.81
280.736	1526.81
280.968	1623.81
281.199	1796.81
281.431	2093.81
281.662	2119.81
281.894	1784.81
282.125	1630.81
282.356	1685.81
282.588	1662.81
282.819	1694.81
283.051	1854.81
283.282	2063.81
283.513	2554.81
283.745	3693.81
283.976	5730.81
284.207	8145.81
284.439	7541.81
284.67	4712.81
284.901	3898.81
285.132	3849.81
285.364	3656.81
285.595	2808.81
285.826	2547.81
286.057	2926.81
286.288	3943.81
286.52	5363.81
286.751	5072.81
286.982	3155.81
287.213	2358.81
287.444	2012.81
287.675	1895.81
287.906	1827.81
288.138	1769.81
288.369	1728.81
288.6	1716.81
288.831	1666.81
289.062	1665.81
289.293	1677.81
289.524	1692.81
289.755	1725.81
289.986	1762.81
290.217	1727.81
290.448	1709.81
290.679	1729.81
290.91	1765.81
291.141	1870.81
291.371	2048.81
291.602	2126.81
291.833	1923.81
292.064	1799.81
292.295	1692.81
292.526	1658.81
292.757	1621.81
292.987	1607.81
293.218	1601.81
293.449	1609.81
293.68	1589.81
293.91	1583.81
294.141	1580.81
294.372	1517.81
294.603	1576.81
294.833	1582.81
295.064	1558.81
295.295	1573.81
295.525	1564.81
295.756	1564.81
295.987	1605.81
296.217	1572.81
296.448	1581.81
296.679	1584.81
296.909	1562.81
297.14	1610.81
297.37	1661.81
297.601	1629.81
297.831	1602.81
298.062	1663.81
298.292	1666.81
298.523	1702.81
298.753	1695.81
298.984	1693.81
299.214	1750.81
299.445	1761.81
299.675	1796.81
299.905	1859.81
300.136	1916.81
300.366	2160.81
300.597	2759.81
300.827	3906.81
301.057	5341.81
301.288	5340.81
301.518	3504.81
301.748	2695.81
301.979	2450.81
302.209	2339.81
302.439	2318.81
302.669	2482.81
302.9	2996.81
303.13	4180.81
303.36	6273.81
303.59	8260.81
303.82	7327.81
304.051	4388.81
304.281	3142.81
304.511	2606.81
304.741	2393.81
304.971	2239.81
305.201	2138.81
305.431	2038.81
305.661	1944.81
305.891	1888.81
306.121	1905.81
306.352	1872.81
306.582	1833.81
306.812	1849.81
307.042	1855.81
307.272	1812.81
307.502	1825.81
307.731	1814.81
307.961	1822.81
308.191	1824.81
308.421	1801.81
308.651	1810.81
308.881	1799.81
309.111	1836.81
309.341	1869.81
309.571	1821.81
309.8	1866.81
310.03	1880.81
310.26	1866.81
310.49	1843.81
310.72	1866.81
310.949	1875.81
311.179	1882.81
311.409	1921.81
311.639	1920.81
311.868	1964.81
312.098	1949.81
312.328	1925.81
312.557	1985.81
312.787	1948.81
313.017	2002.81
313.246	2023.81
313.476	2038.81
313.706	2117.81
313.935	2256.81
314.165	2365.81
314.394	2486.81
314.624	2375.81
314.853	2166.81
315.083	2176.81
315.312	2212.81
315.542	2200.81
315.771	2236.81
316.001	2262.81
316.23	2353.81
316.46	2488.81
316.689	2705.81
316.919	3242.81
317.148	4617.81
317.377	7190.81
317.607	10601.81
317.836	11006.81
318.065	6891.81
318.295	4422.81
318.524	3560.81
318.753	3052.81
318.983	2774.81
319.212	2621.81
319.441	2557.81
319.67	2525.81
319.9	2472.81
320.129	2386.81
320.358	2340.81
320.587	2399.81
320.816	2394.81
321.046	2374.81
321.275	2341.81
321.504	2419.81
321.733	2451.81
321.962	2506.81
322.191	2560.81
322.42	2548.81
322.649	2539.81
322.878	2505.81
323.108	2529.81
323.337	2573.81
323.566	2596.81
323.795	2646.81
324.024	2673.81
324.253	2738.81
324.482	2811.81
324.71	3048.81
324.939	3225.81
325.168	3332.81
325.397	3406.81
325.626	4116.81
325.855	5684.81
326.084	8893.81
326.313	12868.81
326.542	13661.81
326.77	9382.81
326.999	6153.81
327.228	5119.81
327.457	4916.81
327.686	4921.81
327.914	5265.81
328.143	6175.81
328.372	7268.81
328.6	7944.81
328.829	7123.81
329.058	5912.81
329.287	5168.81
329.515	4722.81
329.744	4369.81
329.972	4149.81
330.201	3938.81
330.43	3764.81
330.658	3697.81
330.887	3595.81
331.115	3500.81
331.344	3507.81
331.572	3510.81
331.801	3500.81
332.03	3541.81
332.258	3569.81
332.486	3808.81
332.715	4274.81
332.943	5319.81
333.172	6774.81
333.4	6644.81
333.629	5036.81
333.857	4593.81
334.085	4593.81
334.314	4811.81
334.542	5202.81
334.771	6144.81
334.999	7534.81
335.227	9426.81
335.455	10528.81
335.684	9544.81
335.912	7850.81
336.14	6618.81
336.369	5769.81
336.597	5340.81
336.825	4881.81
337.053	4572.81
337.281	4255.81
337.51	4069.81
337.738	3898.81
337.966	3685.81
338.194	3543.81
338.422	3471.81
338.65	3374.81
338.878	3306.81
339.106	3234.81
339.334	3182.81
339.562	3137.81
339.79	3121.81
340.018	3072.81
340.246	3023.81
340.474	3010.81
340.702	3041.81
340.93	3026.81
341.158	3024.81
341.386	3043.81
341.614	2998.81
341.842	2961.81
342.07	2882.81
342.298	2776.81
342.526	2818.81
342.754	2752.81
342.981	2727.81
343.209	2699.81
343.437	2691.81
343.665	2782.81
343.893	2806.81
344.12	2852.81
344.348	2779.81
344.576	2717.81
344.804	2680.81
345.031	2584.81
345.259	2612.81
345.487	2566.81
345.714	2576.81
345.942	2566.81
346.17	2512.81
346.397	2550.81
346.625	2561.81
346.853	2494.81
347.08	2516.81
347.308	2491.81
347.535	2508.81
347.763	2528.81
347.99	2505.81
348.218	2520.81
348.445	2477.81
348.673	2436.81
348.9	2429.81
349.128	2489.81
349.355	2444.81
349.583	2433.81
349.81	2425.81
350.037	2397.81
350.265	2407.81
350.492	2436.81
350.72	2420.81
350.947	2393.81
351.174	2401.81
351.402	2392.81
351.629	2382.81
351.856	2382.81
352.083	2393.81
352.311	2416.81
352.538	2362.81
352.765	2362.81
352.992	2414.81
353.22	2368.81
353.447	2382.81
353.674	2394.81
353.901	2396.81
354.128	2379.81
354.355	2428.81
354.583	2419.81
354.81	2438.81
355.037	2477.81
355.264	2428.81
355.491	2418.81
355.718	2417.81
355.945	2421.81
356.172	2503.81
356.399	2435.81
356.626	2464.81
356.853	2502.81
357.08	2525.81
357.307	2539.81
357.534	2567.81
357.761	2558.81
357.988	2574.81
358.215	2584.81
358.441	2533.81
358.668	2565.81
358.895	2588.81
359.122	2524.81
359.349	2558.81
359.576	2527.81
359.802	2520.81
360.029	2533.81
360.256	2537.81
360.483	2554.81
360.709	2509.81
360.936	2559.81
361.163	2607.81
361.39	2520.81
361.616	2604.81
361.843	2537.81
362.07	2563.81
362.296	2601.81
362.523	2522.81
362.749	2568.81
362.976	2572.81
363.203	2560.81
363.429	2514.81
363.656	2524.81
363.882	2528.81
364.109	2484.81
364.335	2488.81
364.562	2498.81
364.788	2548.81
365.015	2579.81
365.241	2606.81
365.468	2799.81
365.694	2943.81
365.92	2850.81
366.147	2672.81
366.373	2638.81
366.599	2577.81
366.826	2570.81
367.052	2576.81
367.278	2680.81
367.505	2600.81
367.731	2612.81
367.957	2605.81
368.184	2590.81
368.41	2714.81
368.636	2677.81
368.862	2649.81
369.089	2691.81
369.315	2625.81
369.541	2629.81
369.767	2631.81
369.993	2578.81
370.219	2598.81
370.445	2655.81
370.672	2649.81
370.898	2620.81
371.124	2654.81
371.35	2675.81
371.576	2670.81
371.802	2695.81
372.028	2734.81
372.254	2705.81
372.48	2714.81
372.706	2778.81
372.932	2723.81
373.158	2802.81
373.384	2788.81
373.61	2767.81
373.835	2800.81
374.061	2778.81
374.287	2805.81
374.513	2844.81
374.739	2855.81
374.965	2889.81
375.191	2894.81
375.416	2855.81
375.642	2753.81
375.868	2841.81
376.094	2754.81
376.319	2766.81
376.545	2784.81
376.771	2705.81
376.997	2736.81
377.222	2716.81
377.448	2698.81
377.674	2724.81
377.899	2690.81
378.125	2751.81
378.35	2706.81
378.576	2750.81
378.802	2758.81
379.027	2785.81
379.253	2868.81
379.478	3024.81
379.704	3552.81
379.929	5181.81
380.155	8019.81
380.38	8733.81
380.606	5322.81
380.831	3782.81
381.057	3299.81
381.282	3018.81
381.507	2828.81
381.733	2829.81
381.958	2743.81
382.184	2757.81
382.409	2713.81
382.634	2673.81
382.86	2715.81
383.085	2658.81
383.31	2696.81
383.535	2704.81
383.761	2641.81
383.986	2669.81
384.211	2724.81
384.436	2738.81
384.662	2772.81
384.887	2800.81
385.112	2750.81
385.337	2785.81
385.562	2712.81
385.787	2722.81
386.013	2735.81
386.238	2788.81
386.463	2750.81
386.688	2811.81
386.913	2700.81
387.138	2692.81
387.363	2750.81
387.588	2702.81
387.813	2752.81
388.038	2762.81
388.263	2745.81
388.488	2721.81
388.713	2743.81
388.938	2729.81
389.163	2766.81
389.387	2743.81
389.612	2713.81
389.837	2778.81
390.062	2722.81
390.287	2772.81
390.512	2796.81
390.736	2826.81
390.961	2830.81
391.186	2861.81
391.411	2881.81
391.636	2829.81
391.86	2878.81
392.085	2877.81
392.31	2870.81
392.534	2875.81
392.759	2880.81
392.984	2806.81
393.208	2801.81
393.433	2829.81
393.658	2799.81
393.882	2788.81
394.107	2782.81
394.331	2818.81
394.556	2777.81
394.78	2778.81
395.005	2793.81
395.229	2821.81
395.454	2865.81
395.678	2845.81
395.903	2878.81
396.127	2892.81
396.352	2857.81
396.576	2807.81
396.801	2852.81
397.025	2880.81
397.249	2892.81
397.474	2882.81
397.698	2878.81
397.922	2925.81
398.147	2969.81
398.371	2927.81
398.595	2975.81
398.82	3043.81
399.044	3205.81
399.268	3286.81
399.492	3508.81
399.717	3605.81
399.941	3659.81
400.165	3509.81
400.389	3358.81
400.613	3158.81
400.837	3118.81
401.062	3150.81
401.286	3030.81
401.51	3080.81
401.734	3023.81
401.958	3011.81
402.182	3040.81
402.406	3053.81
402.63	3045.81
402.854	3068.81
403.078	3056.81
403.302	3100.81
403.526	3098.81
403.75	3128.81
403.974	3182.81
404.198	3100.81
404.422	3161.81
404.645	3128.81
404.869	3151.81
405.093	3129.81
405.317	3164.81
405.541	3197.81
405.765	3257.81
405.988	3261.81
406.212	3257.81
406.436	3206.81
406.66	3246.81
406.883	3245.81
407.107	3322.81
407.331	3352.81
407.555	3462.81
407.778	3422.81
408.002	3394.81
408.226	3388.81
408.449	3369.81
408.673	3331.81
408.896	3209.81
409.12	3188.81
409.344	3205.81
409.567	3143.81
409.791	3182.81
410.014	3160.81
410.238	3105.81
410.461	3154.81
410.685	3105.81
410.908	3140.81
411.132	3124.81
411.355	3007.81
411.578	3030.81
411.802	3035.81
412.025	3013.81
412.249	3048.81
412.472	3036.81
412.695	3022.81
412.919	3007.81
413.142	3022.81
413.365	2958.81
413.589	3022.81
413.812	2994.81
414.035	3013.81
414.258	3018.81
414.482	2998.81
414.705	2982.81
414.928	2998.81
415.151	2904.81
415.374	2913.81
415.597	2913.81
415.821	2865.81
416.044	2847.81
416.267	2856.81
416.49	2834.81
416.713	2849.81
416.936	2851.81
417.159	2823.81
417.382	2836.81
417.605	2789.81
417.828	2856.81
418.051	2815.81
418.274	2876.81
418.497	2895.81
418.72	2961.81
418.943	2860.81
419.166	3031.81
419.389	3156.81
419.611	3180.81
419.834	3035.81
420.057	3006.81
420.28	2946.81
420.503	2860.81
420.726	2911.81
420.948	2820.81
421.171	2847.81
421.394	2888.81
421.617	2879.81
421.839	2913.81
422.062	2888.81
422.285	2805.81
422.507	2906.81
422.73	2950.81
422.953	2964.81
423.175	2984.81
423.398	2968.81
423.621	2853.81
423.843	2856.81
424.066	2890.81
424.288	2868.81
424.511	2834.81
424.733	2863.81
424.956	2797.81
425.178	2836.81
425.401	2806.81
425.623	2814.81
425.846	2728.81
426.068	2776.81
426.291	2715.81
426.513	2759.81
426.735	2760.81
426.958	2770.81
427.18	2628.81
427.402	2686.81
427.625	2740.81
427.847	2656.81
428.069	2651.81
428.292	2670.81
428.514	2649.81
428.736	2650.81
428.958	2685.81
429.181	2593.81
429.403	2592.81
429.625	2635.81
429.847	2605.81
430.069	2668.81
430.292	2740.81
430.514	2837.81
430.736	2834.81
430.958	2702.81
431.18	2620.81
431.402	2607.81
431.624	2593.81
431.846	2584.81
432.068	2618.81
432.29	2648.81
432.512	2606.81
432.734	2629.81
432.956	2600.81
433.178	2663.81
433.4	2657.81
433.622	2696.81
433.844	2648.81
434.066	2608.81
434.287	2662.81
434.509	2689.81
434.731	2738.81
434.953	2722.81
435.175	2706.81
435.397	2749.81
435.618	2701.81
435.84	2695.81
436.062	2601.81
436.284	2595.81
436.505	2594.81
436.727	2601.81
436.949	2637.81
437.17	2591.81
437.392	2534.81
437.614	2596.81
437.835	2515.81
438.057	2523.81
438.278	2501.81
438.5	2593.81
438.721	2587.81
438.943	2644.81
439.165	2713.81
439.386	2736.81
439.608	2718.81
439.829	2767.81
440.05	2824.81
440.272	2876.81
440.493	2743.81
440.715	2718.81
440.936	2699.81
441.158	2737.81
441.379	2753.81
441.6	2889.81
441.822	2891.81
442.043	3114.81
442.264	3149.81
442.486	2968.81
442.707	2817.81
442.928	2847.81
443.149	2807.81
443.371	2787.81
443.592	2841.81
443.813	2825.81
444.034	2824.81
444.255	2863.81
444.476	2942.81
444.698	2982.81
444.919	3009.81
445.14	3048.81
445.361	2948.81
445.582	2882.81
445.803	2760.81
446.024	2797.81
446.245	2823.81
446.466	2781.81
446.687	2768.81
446.908	2749.81
447.129	2666.81
447.35	2608.81
447.571	2649.81
447.792	2565.81
448.013	2611.81
448.234	2620.81
448.455	2608.81
448.675	2620.81
448.896	2625.81
449.117	2758.81
449.338	2988.81
449.559	3109.81
449.779	2845.81
450	2625.81
450.221	2579.81
450.442	2572.81
450.662	2540.81
450.883	2542.81
451.104	2505.81
451.324	2537.81
451.545	2559.81
451.766	2573.81
451.986	2584.81
452.207	2856.81
452.428	3664.81
452.648	5556.81
452.869	4707.81
453.089	3181.81
453.31	3004.81
453.53	3000.81
453.751	3031.81
453.971	3218.81
454.192	3111.81
454.412	2694.81
454.633	2600.81
454.853	2454.81
455.073	2478.81
455.294	2492.81
455.514	2417.81
455.734	2452.81
455.955	2379.81
456.175	2384.81
456.395	2421.81
456.616	2403.81
456.836	2443.81
457.056	2437.81
457.276	2444.81
457.497	2648.81
457.717	2660.81
457.937	2540.81
458.157	2563.81
458.377	2552.81
458.598	2551.81
458.818	2590.81
459.038	2578.81
459.258	2573.81
459.478	2615.81
459.698	2676.81
459.918	2684.81
460.138	2690.81
460.358	2798.81
460.578	2782.81
460.798	2804.81
461.018	2838.81
461.238	2838.81
461.458	2874.81
461.678	2881.81
461.898	2972.81
462.118	2971.81
462.338	3080.81
462.558	3058.81
462.777	3141.81
462.997	3216.81
463.217	3364.81
463.437	3472.81
463.657	3536.81
463.876	3509.81
464.096	3338.81
464.316	3185.81
464.536	3109.81
464.755	3033.81
464.975	3024.81
465.195	2894.81
465.414	2781.81
465.634	2761.81
465.854	2705.81
466.073	2705.81
466.293	2600.81
466.512	2634.81
466.732	2695.81
466.951	2841.81
467.171	2981.81
467.391	2957.81
467.61	2727.81
467.829	2659.81
468.049	2586.81
468.268	2534.81
468.488	2533.81
468.707	2563.81
468.927	2601.81
469.146	2564.81
469.365	2586.81
469.585	2626.81
469.804	2736.81
470.023	2777.81
470.243	2808.81
470.462	2854.81
470.681	3085.81
470.901	3282.81
471.12	3740.81
471.339	3809.81
471.558	3223.81
471.777	2907.81
471.997	2753.81
472.216	2682.81
472.435	2618.81
472.654	2588.81
472.873	2616.81
473.092	2582.81
473.311	2633.81
473.53	2657.81
473.749	2726.81
473.968	2778.81
474.187	2673.81
474.406	2590.81
474.625	2604.81
474.844	2608.81
475.063	2647.81
475.282	2555.81
475.501	2653.81
475.72	2669.81
475.939	2662.81
476.158	2725.81
476.377	2772.81
476.596	2728.81
476.814	2749.81
477.033	2725.81
477.252	2774.81
477.471	2830.81
477.69	2879.81
477.908	2885.81
478.127	2933.81
478.346	2973.81
478.564	2992.81
478.783	2996.81
479.002	3085.81
479.22	3064.81
479.439	3095.81
479.658	3078.81
479.876	3136.81
480.095	3152.81
480.313	3262.81
480.532	3230.81
480.751	3237.81
480.969	3220.81
481.188	3122.81
481.406	3176.81
481.624	3141.81
481.843	3214.81
482.061	3196.81
482.28	3176.81
482.498	3173.81
482.717	3157.81
482.935	3174.81
483.153	3209.81
483.372	3257.81
483.59	3336.81
483.808	3393.81
484.027	3417.81
484.245	3697.81
484.463	4135.81
484.681	4504.81
484.9	4125.81
485.118	3803.81
485.336	3696.81
485.554	3847.81
485.772	4079.81
485.99	4553.81
486.209	4860.81
486.427	4135.81
486.645	3712.81
486.863	3605.81
487.081	3429.81
487.299	3408.81
487.517	3374.81
487.735	3423.81
