Data from SnStandardFlinnAPT0064_LampEnergy10_LIBS07252019.E.O._I.C._HRD10591_15-21-35-494.txt Node
Date: Thu Jul 25 15:21:35 EDT 2019
User: cochatt
Spectrometer: HR+D1059
Trigger mode: 1
Integration Time (sec): 1.000000E-1
Scans to average: 1
Electric dark correction enabled: true
Nonlinearity correction enabled: false
Boxcar width: 0
XAxis mode: Wavelengths
Number of Pixels in Spectrum: 2048
>>>>>Begin Spectral Data<<<<<
223.165	-14.06
223.4	-14.06
223.635	-14.06
223.869	-24.06
224.104	-21.06
224.338	-7.06
224.573	-9.06
224.808	-9.06
225.042	-11.06
225.277	-12.06
225.511	-0.06
225.746	0.94
225.98	2.94
226.215	5.94
226.449	11.94
226.683	24.94
226.918	31.94
227.152	28.94
227.387	38.94
227.621	44.94
227.856	48.94
228.09	38.94
228.324	45.94
228.559	50.94
228.793	120.94
229.027	302.94
229.262	343.94
229.496	308.94
229.73	295.94
229.964	295.94
230.199	292.94
230.433	300.94
230.667	308.94
230.901	311.94
231.136	329.94
231.37	361.94
231.604	369.94
231.838	452.94
232.072	522.94
232.306	554.94
232.541	459.94
232.775	391.94
233.009	417.94
233.243	423.94
233.477	448.94
233.711	515.94
233.945	561.94
234.179	503.94
234.413	434.94
234.647	468.94
234.881	476.94
235.115	491.94
235.349	619.94
235.583	735.94
235.817	994.94
236.051	978.94
236.285	673.94
236.519	547.94
236.753	507.94
236.987	498.94
237.221	537.94
237.455	511.94
237.689	465.94
237.922	476.94
238.156	481.94
238.39	471.94
238.624	502.94
238.858	486.94
239.091	485.94
239.325	503.94
239.559	493.94
239.793	485.94
240.027	509.94
240.26	537.94
240.494	543.94
240.728	573.94
240.961	609.94
241.195	663.94
241.429	676.94
241.662	693.94
241.896	774.94
242.13	941.94
242.363	1232.94
242.597	1609.94
242.83	1526.94
243.064	1497.94
243.298	1748.94
243.531	1504.94
243.765	964.94
243.998	775.94
244.232	694.94
244.465	674.94
244.699	644.94
244.932	627.94
245.166	656.94
245.399	676.94
245.633	694.94
245.866	696.94
246.099	683.94
246.333	661.94
246.566	654.94
246.8	641.94
247.033	641.94
247.266	624.94
247.5	652.94
247.733	682.94
247.966	693.94
248.2	761.94
248.433	855.94
248.666	974.94
248.899	949.94
249.133	861.94
249.366	871.94
249.599	923.94
249.832	1111.94
250.066	1075.94
250.299	876.94
250.532	781.94
250.765	759.94
250.998	729.94
251.231	730.94
251.465	771.94
251.698	738.94
251.931	725.94
252.164	736.94
252.397	760.94
252.63	767.94
252.863	793.94
253.096	788.94
253.329	808.94
253.562	761.94
253.795	802.94
254.028	825.94
254.261	833.94
254.494	879.94
254.727	1029.94
254.96	1221.94
255.193	1217.94
255.426	931.94
255.659	853.94
255.892	878.94
256.124	868.94
256.357	891.94
256.59	905.94
256.823	975.94
257.056	1104.94
257.289	1311.94
257.521	1486.94
257.754	1201.94
257.987	940.94
258.22	915.94
258.452	934.94
258.685	923.94
258.918	940.94
259.151	1012.94
259.383	1089.94
259.616	1197.94
259.849	1266.94
260.081	1091.94
260.314	994.94
260.547	972.94
260.779	925.94
261.012	979.94
261.244	956.94
261.477	991.94
261.71	994.94
261.942	1023.94
262.175	1013.94
262.407	1058.94
262.64	1068.94
262.872	1139.94
263.105	1137.94
263.337	1207.94
263.57	1263.94
263.802	1270.94
264.035	1310.94
264.267	1355.94
264.499	1372.94
264.732	1431.94
264.964	1441.94
265.197	1473.94
265.429	1446.94
265.661	1490.94
265.894	1558.94
266.126	1767.94
266.358	1954.94
266.591	1910.94
266.823	1631.94
267.055	1441.94
267.287	1371.94
267.52	1300.94
267.752	1316.94
267.984	1291.94
268.216	1265.94
268.448	1247.94
268.681	1233.94
268.913	1228.94
269.145	1226.94
269.377	1196.94
269.609	1246.94
269.841	1276.94
270.073	1383.94
270.306	1585.94
270.538	2167.94
270.77	3231.94
271.002	3889.94
271.234	2752.94
271.466	1850.94
271.698	1537.94
271.93	1379.94
272.162	1321.94
272.394	1279.94
272.626	1256.94
272.858	1219.94
273.09	1240.94
273.322	1226.94
273.553	1203.94
273.785	1197.94
274.017	1202.94
274.249	1196.94
274.481	1189.94
274.713	1180.94
274.945	1181.94
275.176	1225.94
275.408	1216.94
275.64	1233.94
275.872	1221.94
276.104	1218.94
276.335	1251.94
276.567	1268.94
276.799	1244.94
277.031	1310.94
277.262	1302.94
277.494	1386.94
277.726	1562.94
277.957	1847.94
278.189	2093.94
278.421	1974.94
278.652	1746.94
278.884	1684.94
279.115	1500.94
279.347	1437.94
279.579	1427.94
279.81	1396.94
280.042	1357.94
280.273	1389.94
280.505	1437.94
280.736	1499.94
280.968	1561.94
281.199	1728.94
281.431	2026.94
281.662	2080.94
281.894	1761.94
282.125	1636.94
282.356	1653.94
282.588	1658.94
282.819	1664.94
283.051	1787.94
283.282	1998.94
283.513	2441.94
283.745	3685.94
283.976	5574.94
284.207	7924.94
284.439	7215.94
284.67	4497.94
284.901	3656.94
285.132	3682.94
285.364	3530.94
285.595	2707.94
285.826	2419.94
286.057	2803.94
286.288	3839.94
286.52	5114.94
286.751	4787.94
286.982	3029.94
287.213	2251.94
287.444	1995.94
287.675	1869.94
287.906	1785.94
288.138	1713.94
288.369	1692.94
288.6	1663.94
288.831	1695.94
289.062	1650.94
289.293	1682.94
289.524	1675.94
289.755	1688.94
289.986	1717.94
290.217	1703.94
290.448	1720.94
290.679	1725.94
290.91	1770.94
291.141	1889.94
291.371	2037.94
291.602	2089.94
291.833	1889.94
292.064	1733.94
292.295	1656.94
292.526	1613.94
292.757	1599.94
292.987	1602.94
293.218	1573.94
293.449	1605.94
293.68	1603.94
293.91	1574.94
294.141	1550.94
294.372	1552.94
294.603	1538.94
294.833	1560.94
295.064	1569.94
295.295	1552.94
295.525	1551.94
295.756	1553.94
295.987	1559.94
296.217	1600.94
296.448	1612.94
296.679	1580.94
296.909	1567.94
297.14	1572.94
297.37	1627.94
297.601	1631.94
297.831	1632.94
298.062	1624.94
298.292	1623.94
298.523	1676.94
298.753	1687.94
298.984	1692.94
299.214	1739.94
299.445	1755.94
299.675	1725.94
299.905	1833.94
300.136	1889.94
300.366	2107.94
300.597	2687.94
300.827	3739.94
301.057	5165.94
301.288	5121.94
301.518	3315.94
301.748	2569.94
301.979	2363.94
302.209	2269.94
302.439	2294.94
302.669	2391.94
302.9	2961.94
303.13	4089.94
303.36	6125.94
303.59	8139.94
303.82	7011.94
304.051	4164.94
304.281	2942.94
304.511	2529.94
304.741	2274.94
304.971	2167.94
305.201	2066.94
305.431	1941.94
305.661	1936.94
305.891	1892.94
306.121	1881.94
306.352	1871.94
306.582	1848.94
306.812	1855.94
307.042	1845.94
307.272	1841.94
307.502	1799.94
307.731	1841.94
307.961	1778.94
308.191	1790.94
308.421	1807.94
308.651	1844.94
308.881	1796.94
309.111	1798.94
309.341	1837.94
309.571	1845.94
309.8	1840.94
310.03	1853.94
310.26	1862.94
310.49	1859.94
310.72	1900.94
310.949	1852.94
311.179	1884.94
311.409	1907.94
311.639	1895.94
311.868	1898.94
312.098	1932.94
312.328	1941.94
312.557	1975.94
312.787	1937.94
313.017	1915.94
313.246	1980.94
313.476	1997.94
313.706	2121.94
313.935	2210.94
314.165	2351.94
314.394	2499.94
314.624	2379.94
314.853	2168.94
315.083	2135.94
315.312	2194.94
315.542	2142.94
315.771	2132.94
316.001	2264.94
316.23	2340.94
316.46	2397.94
316.689	2641.94
316.919	3174.94
317.148	4620.94
317.377	6969.94
317.607	10292.94
317.836	10693.94
318.065	6465.94
318.295	4211.94
318.524	3386.94
318.753	2940.94
318.983	2694.94
319.212	2569.94
319.441	2447.94
319.67	2410.94
319.9	2381.94
320.129	2356.94
320.358	2313.94
320.587	2318.94
320.816	2372.94
321.046	2314.94
321.275	2388.94
321.504	2382.94
321.733	2407.94
321.962	2492.94
322.191	2505.94
322.42	2459.94
322.649	2491.94
322.878	2504.94
323.108	2474.94
323.337	2539.94
323.566	2521.94
323.795	2574.94
324.024	2623.94
324.253	2735.94
324.482	2790.94
324.71	2947.94
324.939	3164.94
325.168	3247.94
325.397	3363.94
325.626	3980.94
325.855	5519.94
326.084	8615.94
326.313	12537.94
326.542	13301.94
326.77	8989.94
326.999	5854.94
327.228	4927.94
327.457	4732.94
327.686	4717.94
327.914	5144.94
328.143	6005.94
328.372	7214.94
328.6	7803.94
328.829	7045.94
329.058	5779.94
329.287	5071.94
329.515	4621.94
329.744	4260.94
329.972	4047.94
330.201	3876.94
330.43	3674.94
330.658	3638.94
330.887	3544.94
331.115	3455.94
331.344	3458.94
331.572	3479.94
331.801	3504.94
332.03	3485.94
332.258	3511.94
332.486	3772.94
332.715	4294.94
332.943	5298.94
333.172	6519.94
333.4	6409.94
333.629	4912.94
333.857	4442.94
334.085	4462.94
334.314	4752.94
334.542	5148.94
334.771	6108.94
334.999	7549.94
335.227	9448.94
335.455	10606.94
335.684	9499.94
335.912	7652.94
336.14	6492.94
336.369	5683.94
336.597	5181.94
336.825	4726.94
337.053	4538.94
337.281	4301.94
337.51	4012.94
337.738	3919.94
337.966	3659.94
338.194	3516.94
338.422	3448.94
338.65	3381.94
338.878	3333.94
339.106	3254.94
339.334	3261.94
339.562	3161.94
339.79	3096.94
340.018	3080.94
340.246	3045.94
340.474	3035.94
340.702	2993.94
340.93	3027.94
341.158	3056.94
341.386	2965.94
341.614	2974.94
341.842	2941.94
342.07	2867.94
342.298	2826.94
342.526	2804.94
342.754	2756.94
342.981	2709.94
343.209	2682.94
343.437	2741.94
343.665	2785.94
343.893	2825.94
344.12	2820.94
344.348	2740.94
344.576	2719.94
344.804	2703.94
345.031	2661.94
345.259	2607.94
345.487	2596.94
345.714	2578.94
345.942	2604.94
346.17	2545.94
346.397	2564.94
346.625	2504.94
346.853	2483.94
347.08	2515.94
347.308	2505.94
347.535	2530.94
347.763	2503.94
347.99	2517.94
348.218	2472.94
348.445	2469.94
348.673	2460.94
348.9	2465.94
349.128	2452.94
349.355	2458.94
349.583	2426.94
349.81	2446.94
350.037	2395.94
350.265	2391.94
350.492	2349.94
350.72	2400.94
350.947	2387.94
351.174	2400.94
351.402	2411.94
351.629	2434.94
351.856	2391.94
352.083	2385.94
352.311	2348.94
352.538	2403.94
352.765	2402.94
352.992	2410.94
353.22	2338.94
353.447	2376.94
353.674	2339.94
353.901	2451.94
354.128	2412.94
354.355	2390.94
354.583	2425.94
354.81	2454.94
355.037	2506.94
355.264	2431.94
355.491	2440.94
355.718	2423.94
355.945	2412.94
356.172	2448.94
356.399	2436.94
356.626	2492.94
356.853	2493.94
357.08	2516.94
357.307	2572.94
357.534	2619.94
357.761	2598.94
357.988	2588.94
358.215	2540.94
358.441	2548.94
358.668	2507.94
358.895	2543.94
359.122	2528.94
359.349	2531.94
359.576	2580.94
359.802	2526.94
360.029	2529.94
360.256	2548.94
360.483	2545.94
360.709	2581.94
360.936	2566.94
361.163	2540.94
361.39	2545.94
361.616	2603.94
361.843	2599.94
362.07	2587.94
362.296	2587.94
362.523	2567.94
362.749	2596.94
362.976	2528.94
363.203	2557.94
363.429	2487.94
363.656	2563.94
363.882	2541.94
364.109	2517.94
364.335	2538.94
364.562	2550.94
364.788	2564.94
365.015	2579.94
365.241	2637.94
365.468	2829.94
365.694	2951.94
365.92	2825.94
366.147	2626.94
366.373	2574.94
366.599	2612.94
366.826	2641.94
367.052	2628.94
367.278	2611.94
367.505	2564.94
367.731	2661.94
367.957	2599.94
368.184	2612.94
368.41	2675.94
368.636	2647.94
368.862	2671.94
369.089	2617.94
369.315	2688.94
369.541	2653.94
369.767	2673.94
369.993	2674.94
370.219	2605.94
370.445	2671.94
370.672	2691.94
370.898	2648.94
371.124	2684.94
371.35	2706.94
371.576	2754.94
371.802	2747.94
372.028	2784.94
372.254	2781.94
372.48	2790.94
372.706	2760.94
372.932	2747.94
373.158	2818.94
373.384	2806.94
373.61	2789.94
373.835	2839.94
374.061	2821.94
374.287	2812.94
374.513	2840.94
374.739	2858.94
374.965	2920.94
375.191	2914.94
375.416	2917.94
375.642	2853.94
375.868	2826.94
376.094	2837.94
376.319	2810.94
376.545	2819.94
376.771	2798.94
376.997	2743.94
377.222	2791.94
377.448	2788.94
377.674	2801.94
377.899	2757.94
378.125	2745.94
378.35	2717.94
378.576	2729.94
378.802	2787.94
379.027	2832.94
379.253	2892.94
379.478	3034.94
379.704	3555.94
379.929	5087.94
380.155	7786.94
380.38	8417.94
380.606	5179.94
380.831	3659.94
381.057	3219.94
381.282	2986.94
381.507	2860.94
381.733	2804.94
381.958	2803.94
382.184	2741.94
382.409	2700.94
382.634	2727.94
382.86	2667.94
383.085	2673.94
383.31	2697.94
383.535	2692.94
383.761	2712.94
383.986	2755.94
384.211	2717.94
384.436	2773.94
384.662	2760.94
384.887	2798.94
385.112	2804.94
385.337	2779.94
385.562	2780.94
385.787	2817.94
386.013	2820.94
386.238	2818.94
386.463	2840.94
386.688	2780.94
386.913	2767.94
387.138	2792.94
387.363	2810.94
387.588	2757.94
387.813	2746.94
388.038	2713.94
388.263	2765.94
388.488	2779.94
388.713	2783.94
388.938	2785.94
389.163	2760.94
389.387	2801.94
389.612	2772.94
389.837	2777.94
390.062	2787.94
390.287	2839.94
390.512	2785.94
390.736	2839.94
390.961	2869.94
391.186	2874.94
391.411	2903.94
391.636	2915.94
391.86	2975.94
392.085	2927.94
392.31	2904.94
392.534	2860.94
392.759	2855.94
392.984	2840.94
393.208	2841.94
393.433	2871.94
393.658	2775.94
393.882	2804.94
394.107	2790.94
394.331	2823.94
394.556	2818.94
394.78	2856.94
395.005	2852.94
395.229	2853.94
395.454	2874.94
395.678	2904.94
395.903	2857.94
396.127	2903.94
396.352	2861.94
396.576	2873.94
396.801	2859.94
397.025	2916.94
397.249	2925.94
397.474	2931.94
397.698	2887.94
397.922	2925.94
398.147	2949.94
398.371	3028.94
398.595	3081.94
398.82	3078.94
399.044	3175.94
399.268	3302.94
399.492	3525.94
399.717	3681.94
399.941	3697.94
400.165	3527.94
400.389	3415.94
400.613	3269.94
400.837	3182.94
401.062	3119.94
401.286	3121.94
401.51	3063.94
401.734	2997.94
401.958	3091.94
402.182	3052.94
402.406	3016.94
402.63	3103.94
402.854	3099.94
403.078	3071.94
403.302	3130.94
403.526	3178.94
403.75	3196.94
403.974	3175.94
404.198	3106.94
404.422	3173.94
404.645	3134.94
404.869	3193.94
405.093	3192.94
405.317	3162.94
405.541	3240.94
405.765	3265.94
405.988	3286.94
406.212	3295.94
406.436	3295.94
406.66	3280.94
406.883	3271.94
407.107	3365.94
407.331	3439.94
407.555	3519.94
407.778	3456.94
408.002	3427.94
408.226	3394.94
408.449	3412.94
408.673	3336.94
408.896	3286.94
409.12	3270.94
409.344	3200.94
409.567	3219.94
409.791	3199.94
410.014	3157.94
410.238	3178.94
410.461	3192.94
410.685	3131.94
410.908	3075.94
411.132	3108.94
411.355	3015.94
411.578	3037.94
411.802	3040.94
412.025	3028.94
412.249	3049.94
412.472	3073.94
412.695	3036.94
412.919	2978.94
413.142	2985.94
413.365	2973.94
413.589	3008.94
413.812	2983.94
414.035	2987.94
414.258	3006.94
414.482	3003.94
414.705	2983.94
414.928	3018.94
415.151	2998.94
415.374	3027.94
415.597	2973.94
415.821	2871.94
416.044	2844.94
416.267	2865.94
416.49	2843.94
416.713	2842.94
416.936	2868.94
417.159	2870.94
417.382	2882.94
417.605	2836.94
417.828	2871.94
418.051	2900.94
418.274	2926.94
418.497	2897.94
418.72	2961.94
418.943	2944.94
419.166	3050.94
419.389	3205.94
419.611	3131.94
419.834	3026.94
420.057	2995.94
420.28	2962.94
420.503	2838.94
420.726	2866.94
420.948	2856.94
421.171	2897.94
421.394	2935.94
421.617	2891.94
421.839	2838.94
422.062	2904.94
422.285	2876.94
422.507	2946.94
422.73	2945.94
422.953	2924.94
423.175	2985.94
423.398	2955.94
423.621	2896.94
423.843	2918.94
424.066	2888.94
424.288	2842.94
424.511	2844.94
424.733	2871.94
424.956	2848.94
425.178	2835.94
425.401	2859.94
425.623	2884.94
425.846	2747.94
426.068	2807.94
426.291	2768.94
426.513	2776.94
426.735	2736.94
426.958	2786.94
427.18	2713.94
427.402	2707.94
427.625	2696.94
427.847	2658.94
428.069	2659.94
428.292	2714.94
428.514	2683.94
428.736	2675.94
428.958	2698.94
429.181	2647.94
429.403	2631.94
429.625	2658.94
429.847	2652.94
430.069	2711.94
430.292	2759.94
430.514	2826.94
430.736	2838.94
430.958	2780.94
431.18	2629.94
431.402	2662.94
431.624	2655.94
431.846	2617.94
432.068	2621.94
432.29	2699.94
432.512	2641.94
432.734	2621.94
432.956	2640.94
433.178	2607.94
433.4	2653.94
433.622	2656.94
433.844	2646.94
434.066	2642.94
434.287	2713.94
434.509	2695.94
434.731	2705.94
434.953	2728.94
435.175	2742.94
435.397	2772.94
435.618	2707.94
435.84	2647.94
436.062	2612.94
436.284	2590.94
436.505	2612.94
436.727	2608.94
436.949	2626.94
437.17	2616.94
437.392	2567.94
437.614	2613.94
437.835	2535.94
438.057	2577.94
438.278	2530.94
438.5	2572.94
438.721	2597.94
438.943	2641.94
439.165	2691.94
439.386	2745.94
439.608	2727.94
439.829	2706.94
440.05	2812.94
440.272	2884.94
440.493	2746.94
440.715	2665.94
440.936	2761.94
441.158	2733.94
441.379	2819.94
441.6	2848.94
441.822	2967.94
442.043	3108.94
442.264	3209.94
442.486	2989.94
442.707	2889.94
442.928	2854.94
443.149	2832.94
443.371	2777.94
443.592	2847.94
443.813	2851.94
444.034	2856.94
444.255	2901.94
444.476	2934.94
444.698	2983.94
444.919	3050.94
445.14	3108.94
445.361	2949.94
445.582	2879.94
445.803	2863.94
446.024	2811.94
446.245	2756.94
446.466	2780.94
446.687	2762.94
446.908	2732.94
447.129	2687.94
447.35	2691.94
447.571	2676.94
447.792	2620.94
448.013	2651.94
448.234	2604.94
448.455	2591.94
448.675	2626.94
448.896	2702.94
449.117	2785.94
449.338	2954.94
449.559	3103.94
449.779	2834.94
450	2631.94
450.221	2565.94
450.442	2555.94
450.662	2567.94
450.883	2472.94
451.104	2538.94
451.324	2501.94
451.545	2527.94
451.766	2562.94
451.986	2597.94
452.207	2836.94
452.428	3609.94
452.648	5379.94
452.869	4471.94
453.089	3131.94
453.31	2929.94
453.53	2962.94
453.751	3033.94
453.971	3196.94
454.192	3162.94
454.412	2665.94
454.633	2550.94
454.853	2501.94
455.073	2439.94
455.294	2446.94
455.514	2439.94
455.734	2408.94
455.955	2385.94
456.175	2395.94
456.395	2396.94
456.616	2412.94
456.836	2508.94
457.056	2491.94
457.276	2475.94
457.497	2659.94
457.717	2668.94
457.937	2591.94
458.157	2590.94
458.377	2562.94
458.598	2584.94
458.818	2601.94
459.038	2602.94
459.258	2636.94
459.478	2612.94
459.698	2708.94
459.918	2680.94
460.138	2755.94
460.358	2821.94
460.578	2819.94
460.798	2897.94
461.018	2908.94
461.238	2884.94
461.458	2909.94
461.678	2892.94
461.898	2994.94
462.118	2964.94
462.338	3105.94
462.558	3121.94
462.777	3192.94
462.997	3258.94
463.217	3386.94
463.437	3492.94
463.657	3549.94
463.876	3564.94
464.096	3357.94
464.316	3200.94
464.536	3155.94
464.755	3093.94
464.975	2988.94
465.195	2891.94
465.414	2891.94
465.634	2822.94
465.854	2712.94
466.073	2685.94
466.293	2669.94
466.512	2693.94
466.732	2665.94
466.951	2804.94
467.171	3008.94
467.391	2921.94
467.61	2714.94
467.829	2645.94
468.049	2624.94
468.268	2541.94
468.488	2577.94
468.707	2600.94
468.927	2581.94
469.146	2578.94
469.365	2582.94
469.585	2643.94
469.804	2681.94
470.023	2767.94
470.243	2751.94
470.462	2861.94
470.681	3000.94
470.901	3353.94
471.12	3748.94
471.339	3772.94
471.558	3142.94
471.777	2852.94
471.997	2724.94
472.216	2683.94
472.435	2625.94
472.654	2573.94
472.873	2581.94
473.092	2601.94
473.311	2583.94
473.53	2646.94
473.749	2718.94
473.968	2776.94
474.187	2608.94
474.406	2579.94
474.625	2649.94
474.844	2575.94
475.063	2643.94
475.282	2632.94
475.501	2618.94
475.72	2633.94
475.939	2687.94
476.158	2695.94
476.377	2753.94
476.596	2711.94
476.814	2760.94
477.033	2747.94
477.252	2783.94
477.471	2858.94
477.69	2866.94
477.908	2902.94
478.127	2975.94
478.346	2940.94
478.564	3039.94
478.783	3031.94
479.002	3098.94
479.22	3065.94
479.439	3145.94
479.658	3128.94
479.876	3128.94
480.095	3125.94
480.313	3297.94
480.532	3268.94
480.751	3268.94
480.969	3169.94
481.188	3119.94
481.406	3180.94
481.624	3127.94
481.843	3141.94
482.061	3196.94
482.28	3161.94
482.498	3155.94
482.717	3133.94
482.935	3221.94
483.153	3283.94
483.372	3261.94
483.59	3304.94
483.808	3348.94
484.027	3466.94
484.245	3631.94
484.463	4064.94
484.681	4500.94
484.9	4104.94
485.118	3860.94
485.336	3705.94
485.554	3743.94
485.772	4050.94
485.99	4582.94
486.209	4853.94
486.427	4128.94
486.645	3642.94
486.863	3569.94
487.081	3445.94
487.299	3414.94
487.517	3357.94
487.735	3364.94
