Data from SnStandardFlinnAPT0064_QswitchEnergy10_LIBS07252019.E.O._I.C._HRD10591_15-26-46-973.txt Node
Date: Thu Jul 25 15:26:46 EDT 2019
User: cochatt
Spectrometer: HR+D1059
Trigger mode: 1
Integration Time (sec): 1.000000E-1
Scans to average: 1
Electric dark correction enabled: true
Nonlinearity correction enabled: false
Boxcar width: 0
XAxis mode: Wavelengths
Number of Pixels in Spectrum: 2048
>>>>>Begin Spectral Data<<<<<
223.165	-18.38
223.4	-18.38
223.635	-18.38
223.869	-18.38
224.104	-13.38
224.338	-11.38
224.573	-25.38
224.808	-9.38
225.042	-0.38
225.277	-6.38
225.511	3.62
225.746	7.62
225.98	-3.38
226.215	19.62
226.449	8.62
226.683	16.62
226.918	34.62
227.152	15.62
227.387	45.62
227.621	24.62
227.856	43.62
228.09	45.62
228.324	45.62
228.559	55.62
228.793	53.62
229.027	65.62
229.262	65.62
229.496	68.62
229.73	75.62
229.964	74.62
230.199	60.62
230.433	80.62
230.667	79.62
230.901	89.62
231.136	80.62
231.37	73.62
231.604	84.62
231.838	93.62
232.072	100.62
232.306	116.62
232.541	95.62
232.775	74.62
233.009	76.62
233.243	88.62
233.477	96.62
233.711	92.62
233.945	104.62
234.179	86.62
234.413	84.62
234.647	81.62
234.881	90.62
235.115	80.62
235.349	82.62
235.583	114.62
235.817	127.62
236.051	127.62
236.285	95.62
236.519	108.62
236.753	82.62
236.987	82.62
237.221	75.62
237.455	74.62
237.689	78.62
237.922	77.62
238.156	77.62
238.39	79.62
238.624	85.62
238.858	75.62
239.091	73.62
239.325	80.62
239.559	67.62
239.793	91.62
240.027	90.62
240.26	88.62
240.494	84.62
240.728	89.62
240.961	86.62
241.195	98.62
241.429	91.62
241.662	81.62
241.896	84.62
242.13	99.62
242.363	111.62
242.597	166.62
242.83	133.62
243.064	133.62
243.298	160.62
243.531	158.62
243.765	93.62
243.998	90.62
244.232	66.62
244.465	76.62
244.699	73.62
244.932	71.62
245.166	63.62
245.399	92.62
245.633	74.62
245.866	88.62
246.099	80.62
246.333	87.62
246.566	77.62
246.8	87.62
247.033	76.62
247.266	89.62
247.5	74.62
247.733	72.62
247.966	85.62
248.2	90.62
248.433	99.62
248.666	122.62
248.899	112.62
249.133	101.62
249.366	93.62
249.599	107.62
249.832	109.62
250.066	135.62
250.299	88.62
250.532	90.62
250.765	77.62
250.998	83.62
251.231	65.62
251.465	76.62
251.698	81.62
251.931	68.62
252.164	79.62
252.397	78.62
252.63	93.62
252.863	91.62
253.096	98.62
253.329	86.62
253.562	84.62
253.795	96.62
254.028	76.62
254.261	97.62
254.494	91.62
254.727	109.62
254.96	133.62
255.193	134.62
255.426	104.62
255.659	88.62
255.892	78.62
256.124	86.62
256.357	72.62
256.59	77.62
256.823	98.62
257.056	112.62
257.289	143.62
257.521	175.62
257.754	111.62
257.987	85.62
258.22	78.62
258.452	78.62
258.685	79.62
258.918	74.62
259.151	94.62
259.383	88.62
259.616	132.62
259.849	140.62
260.081	107.62
260.314	85.62
260.547	80.62
260.779	89.62
261.012	87.62
261.244	74.62
261.477	87.62
261.71	81.62
261.942	81.62
262.175	83.62
262.407	73.62
262.64	83.62
262.872	73.62
263.105	75.62
263.337	85.62
263.57	84.62
263.802	90.62
264.035	94.62
264.267	72.62
264.499	83.62
264.732	88.62
264.964	89.62
265.197	82.62
265.429	84.62
265.661	94.62
265.894	86.62
266.126	120.62
266.358	145.62
266.591	128.62
266.823	100.62
267.055	87.62
267.287	79.62
267.52	80.62
267.752	86.62
267.984	78.62
268.216	64.62
268.448	81.62
268.681	88.62
268.913	93.62
269.145	86.62
269.377	82.62
269.609	76.62
269.841	92.62
270.073	106.62
270.306	119.62
270.538	184.62
270.77	316.62
271.002	361.62
271.234	201.62
271.466	124.62
271.698	99.62
271.93	89.62
272.162	80.62
272.394	79.62
272.626	68.62
272.858	77.62
273.09	78.62
273.322	83.62
273.553	79.62
273.785	90.62
274.017	79.62
274.249	96.62
274.481	76.62
274.713	68.62
274.945	98.62
275.176	76.62
275.408	86.62
275.64	89.62
275.872	87.62
276.104	98.62
276.335	96.62
276.567	88.62
276.799	83.62
277.031	93.62
277.262	96.62
277.494	89.62
277.726	125.62
277.957	160.62
278.189	233.62
278.421	200.62
278.652	201.62
278.884	184.62
279.115	147.62
279.347	104.62
279.579	85.62
279.81	91.62
280.042	96.62
280.273	98.62
280.505	103.62
280.736	108.62
280.968	116.62
281.199	156.62
281.431	219.62
281.662	256.62
281.894	159.62
282.125	116.62
282.356	110.62
282.588	105.62
282.819	110.62
283.051	121.62
283.282	137.62
283.513	175.62
283.745	295.62
283.976	541.62
284.207	751.62
284.439	576.62
284.67	264.62
284.901	260.62
285.132	334.62
285.364	365.62
285.595	239.62
285.826	167.62
286.057	243.62
286.288	412.62
286.52	575.62
286.751	465.62
286.982	183.62
287.213	114.62
287.444	120.62
287.675	99.62
287.906	91.62
288.138	82.62
288.369	104.62
288.6	92.62
288.831	98.62
289.062	109.62
289.293	89.62
289.524	84.62
289.755	99.62
289.986	80.62
290.217	111.62
290.448	101.62
290.679	95.62
290.91	110.62
291.141	161.62
291.371	227.62
291.602	273.62
291.833	194.62
292.064	101.62
292.295	102.62
292.526	100.62
292.757	88.62
292.987	80.62
293.218	76.62
293.449	93.62
293.68	91.62
293.91	88.62
294.141	94.62
294.372	94.62
294.603	99.62
294.833	90.62
295.064	94.62
295.295	80.62
295.525	83.62
295.756	91.62
295.987	97.62
296.217	91.62
296.448	83.62
296.679	93.62
296.909	83.62
297.14	92.62
297.37	92.62
297.601	79.62
297.831	104.62
298.062	96.62
298.292	99.62
298.523	95.62
298.753	111.62
298.984	84.62
299.214	93.62
299.445	94.62
299.675	117.62
299.905	122.62
300.136	131.62
300.366	168.62
300.597	260.62
300.827	423.62
301.057	667.62
301.288	610.62
301.518	272.62
301.748	143.62
301.979	133.62
302.209	133.62
302.439	154.62
302.669	164.62
302.9	264.62
303.13	471.62
303.36	836.62
303.59	1170.62
303.82	832.62
304.051	291.62
304.281	163.62
304.511	118.62
304.741	119.62
304.971	105.62
305.201	107.62
305.431	90.62
305.661	103.62
305.891	102.62
306.121	96.62
306.352	107.62
306.582	102.62
306.812	99.62
307.042	88.62
307.272	97.62
307.502	88.62
307.731	101.62
307.961	88.62
308.191	110.62
308.421	102.62
308.651	103.62
308.881	97.62
309.111	94.62
309.341	87.62
309.571	92.62
309.8	126.62
310.03	107.62
310.26	104.62
310.49	105.62
310.72	103.62
310.949	101.62
311.179	99.62
311.409	106.62
311.639	109.62
311.868	96.62
312.098	115.62
312.328	95.62
312.557	113.62
312.787	111.62
313.017	110.62
313.246	118.62
313.476	121.62
313.706	123.62
313.935	144.62
314.165	193.62
314.394	222.62
314.624	191.62
314.853	117.62
315.083	117.62
315.312	133.62
315.542	116.62
315.771	133.62
316.001	135.62
316.23	139.62
316.46	142.62
316.689	176.62
316.919	245.62
317.148	486.62
317.377	882.62
317.607	1445.62
317.836	1366.62
318.065	545.62
318.295	207.62
318.524	151.62
318.753	138.62
318.983	121.62
319.212	121.62
319.441	113.62
319.67	103.62
319.9	112.62
320.129	112.62
320.358	124.62
320.587	109.62
320.816	119.62
321.046	117.62
321.275	114.62
321.504	117.62
321.733	136.62
321.962	150.62
322.191	159.62
322.42	129.62
322.649	125.62
322.878	133.62
323.108	128.62
323.337	121.62
323.566	119.62
323.795	111.62
324.024	120.62
324.253	132.62
324.482	151.62
324.71	200.62
324.939	277.62
325.168	216.62
325.397	188.62
325.626	238.62
325.855	471.62
326.084	905.62
326.313	1547.62
326.542	1549.62
326.77	601.62
326.999	255.62
327.228	174.62
327.457	220.62
327.686	213.62
327.914	157.62
328.143	129.62
328.372	149.62
328.6	133.62
328.829	118.62
329.058	120.62
329.287	101.62
329.515	109.62
329.744	100.62
329.972	99.62
330.201	106.62
330.43	115.62
330.658	102.62
330.887	96.62
331.115	113.62
331.344	125.62
331.572	110.62
331.801	119.62
332.03	111.62
332.258	121.62
332.486	179.62
332.715	301.62
332.943	505.62
333.172	738.62
333.4	639.62
333.629	221.62
333.857	143.62
334.085	128.62
334.314	120.62
334.542	125.62
334.771	116.62
334.999	119.62
335.227	110.62
335.455	126.62
335.684	115.62
335.912	129.62
336.14	114.62
336.369	112.62
336.597	109.62
336.825	86.62
337.053	111.62
337.281	109.62
337.51	89.62
337.738	94.62
337.966	106.62
338.194	107.62
338.422	113.62
338.65	116.62
338.878	119.62
339.106	117.62
339.334	114.62
339.562	119.62
339.79	104.62
340.018	101.62
340.246	123.62
340.474	86.62
340.702	108.62
340.93	113.62
341.158	107.62
341.386	109.62
341.614	118.62
341.842	96.62
342.07	111.62
342.298	115.62
342.526	127.62
342.754	111.62
342.981	108.62
343.209	105.62
343.437	102.62
343.665	105.62
343.893	102.62
344.12	111.62
344.348	101.62
344.576	112.62
344.804	125.62
345.031	108.62
345.259	103.62
345.487	96.62
345.714	105.62
345.942	99.62
346.17	115.62
346.397	110.62
346.625	121.62
346.853	95.62
347.08	91.62
347.308	88.62
347.535	113.62
347.763	98.62
347.99	89.62
348.218	99.62
348.445	84.62
348.673	90.62
348.9	103.62
349.128	122.62
349.355	117.62
349.583	105.62
349.81	115.62
350.037	111.62
350.265	96.62
350.492	108.62
350.72	107.62
350.947	109.62
351.174	116.62
351.402	102.62
351.629	107.62
351.856	97.62
352.083	115.62
352.311	99.62
352.538	103.62
352.765	105.62
352.992	112.62
353.22	112.62
353.447	98.62
353.674	96.62
353.901	104.62
354.128	109.62
354.355	94.62
354.583	102.62
354.81	107.62
355.037	109.62
355.264	93.62
355.491	109.62
355.718	92.62
355.945	93.62
356.172	110.62
356.399	102.62
356.626	89.62
356.853	97.62
357.08	85.62
357.307	101.62
357.534	109.62
357.761	113.62
357.988	117.62
358.215	99.62
358.441	93.62
358.668	114.62
358.895	113.62
359.122	121.62
359.349	110.62
359.576	115.62
359.802	111.62
360.029	103.62
360.256	98.62
360.483	113.62
360.709	102.62
360.936	83.62
361.163	100.62
361.39	89.62
361.616	104.62
361.843	101.62
362.07	104.62
362.296	107.62
362.523	99.62
362.749	110.62
362.976	101.62
363.203	107.62
363.429	117.62
363.656	103.62
363.882	93.62
364.109	104.62
364.335	100.62
364.562	109.62
364.788	101.62
365.015	114.62
365.241	122.62
365.468	177.62
365.694	257.62
365.92	223.62
366.147	120.62
366.373	107.62
366.599	94.62
366.826	93.62
367.052	83.62
367.278	82.62
367.505	95.62
367.731	97.62
367.957	95.62
368.184	121.62
368.41	105.62
368.636	122.62
368.862	117.62
369.089	98.62
369.315	96.62
369.541	109.62
369.767	90.62
369.993	105.62
370.219	107.62
370.445	117.62
370.672	112.62
370.898	102.62
371.124	93.62
371.35	91.62
371.576	113.62
371.802	105.62
372.028	96.62
372.254	103.62
372.48	107.62
372.706	109.62
372.932	114.62
373.158	110.62
373.384	109.62
373.61	120.62
373.835	120.62
374.061	112.62
374.287	110.62
374.513	95.62
374.739	111.62
374.965	99.62
375.191	114.62
375.416	96.62
375.642	91.62
375.868	116.62
376.094	98.62
376.319	110.62
376.545	112.62
376.771	101.62
376.997	90.62
377.222	108.62
377.448	108.62
377.674	100.62
377.899	103.62
378.125	103.62
378.35	104.62
378.576	106.62
378.802	117.62
379.027	109.62
379.253	130.62
379.478	171.62
379.704	307.62
379.929	752.62
380.155	1549.62
380.38	1598.62
380.606	506.62
380.831	193.62
381.057	142.62
381.282	115.62
381.507	111.62
381.733	104.62
381.958	111.62
382.184	99.62
382.409	104.62
382.634	96.62
382.86	97.62
383.085	102.62
383.31	103.62
383.535	111.62
383.761	108.62
383.986	98.62
384.211	94.62
384.436	92.62
384.662	90.62
384.887	116.62
385.112	107.62
385.337	97.62
385.562	97.62
385.787	93.62
386.013	108.62
386.238	95.62
386.463	104.62
386.688	106.62
386.913	108.62
387.138	93.62
387.363	90.62
387.588	104.62
387.813	104.62
388.038	112.62
388.263	100.62
388.488	95.62
388.713	108.62
388.938	83.62
389.163	92.62
389.387	104.62
389.612	114.62
389.837	85.62
390.062	101.62
390.287	104.62
390.512	91.62
390.736	92.62
390.961	103.62
391.186	104.62
391.411	91.62
391.636	88.62
391.86	75.62
392.085	88.62
392.31	99.62
392.534	78.62
392.759	107.62
392.984	95.62
393.208	85.62
393.433	119.62
393.658	127.62
393.882	96.62
394.107	99.62
394.331	99.62
394.556	95.62
394.78	84.62
395.005	109.62
395.229	85.62
395.454	92.62
395.678	106.62
395.903	101.62
396.127	101.62
396.352	97.62
396.576	92.62
396.801	122.62
397.025	124.62
397.249	110.62
397.474	109.62
397.698	103.62
397.922	80.62
398.147	92.62
398.371	100.62
398.595	89.62
398.82	88.62
399.044	95.62
399.268	88.62
399.492	114.62
399.717	103.62
399.941	89.62
400.165	104.62
400.389	89.62
400.613	92.62
400.837	77.62
401.062	104.62
401.286	99.62
401.51	96.62
401.734	97.62
401.958	81.62
402.182	99.62
402.406	97.62
402.63	101.62
402.854	95.62
403.078	80.62
403.302	79.62
403.526	110.62
403.75	98.62
403.974	85.62
404.198	96.62
404.422	93.62
404.645	92.62
404.869	102.62
405.093	97.62
405.317	100.62
405.541	103.62
405.765	147.62
405.988	154.62
406.212	102.62
406.436	81.62
406.66	111.62
406.883	82.62
407.107	94.62
407.331	99.62
407.555	87.62
407.778	103.62
408.002	93.62
408.226	99.62
408.449	102.62
408.673	93.62
408.896	89.62
409.12	93.62
409.344	93.62
409.567	98.62
409.791	96.62
410.014	105.62
410.238	92.62
410.461	92.62
410.685	85.62
410.908	85.62
411.132	92.62
411.355	92.62
411.578	96.62
411.802	84.62
412.025	100.62
412.249	95.62
412.472	89.62
412.695	91.62
412.919	105.62
413.142	89.62
413.365	92.62
413.589	88.62
413.812	90.62
414.035	100.62
414.258	97.62
414.482	88.62
414.705	109.62
414.928	102.62
415.151	97.62
415.374	87.62
415.597	110.62
415.821	80.62
416.044	76.62
416.267	95.62
416.49	99.62
416.713	102.62
416.936	99.62
417.159	84.62
417.382	91.62
417.605	101.62
417.828	83.62
418.051	89.62
418.274	99.62
418.497	88.62
418.72	112.62
418.943	116.62
419.166	101.62
419.389	98.62
419.611	98.62
419.834	91.62
420.057	88.62
420.28	97.62
420.503	102.62
420.726	96.62
420.948	72.62
421.171	102.62
421.394	88.62
421.617	100.62
421.839	93.62
422.062	92.62
422.285	100.62
422.507	108.62
422.73	124.62
422.953	119.62
423.175	104.62
423.398	96.62
423.621	69.62
423.843	85.62
424.066	85.62
424.288	90.62
424.511	104.62
424.733	97.62
424.956	97.62
425.178	97.62
425.401	99.62
425.623	100.62
425.846	79.62
426.068	86.62
426.291	94.62
426.513	88.62
426.735	87.62
426.958	81.62
427.18	83.62
427.402	84.62
427.625	85.62
427.847	102.62
428.069	90.62
428.292	93.62
428.514	87.62
428.736	99.62
428.958	93.62
429.181	104.62
429.403	103.62
429.625	91.62
429.847	101.62
430.069	109.62
430.292	98.62
430.514	111.62
430.736	96.62
430.958	97.62
431.18	80.62
431.402	76.62
431.624	85.62
431.846	87.62
432.068	86.62
432.29	93.62
432.512	95.62
432.734	97.62
432.956	98.62
433.178	104.62
433.4	92.62
433.622	81.62
433.844	102.62
434.066	92.62
434.287	94.62
434.509	97.62
434.731	103.62
434.953	91.62
435.175	92.62
435.397	92.62
435.618	93.62
435.84	87.62
436.062	96.62
436.284	82.62
436.505	102.62
436.727	94.62
436.949	85.62
437.17	80.62
437.392	86.62
437.614	88.62
437.835	97.62
438.057	88.62
438.278	84.62
438.5	97.62
438.721	99.62
438.943	97.62
439.165	111.62
439.386	119.62
439.608	99.62
439.829	95.62
440.05	105.62
440.272	134.62
440.493	91.62
440.715	95.62
440.936	100.62
441.158	102.62
441.379	93.62
441.6	92.62
441.822	107.62
442.043	108.62
442.264	131.62
442.486	110.62
442.707	105.62
442.928	94.62
443.149	97.62
443.371	104.62
443.592	81.62
443.813	92.62
444.034	92.62
444.255	101.62
444.476	91.62
444.698	81.62
444.919	86.62
445.14	199.62
445.361	151.62
445.582	104.62
445.803	94.62
446.024	101.62
446.245	115.62
446.466	107.62
446.687	97.62
446.908	91.62
447.129	101.62
447.35	82.62
447.571	103.62
447.792	99.62
448.013	102.62
448.234	109.62
448.455	92.62
448.675	97.62
448.896	101.62
449.117	106.62
449.338	135.62
449.559	150.62
449.779	112.62
450	84.62
450.221	113.62
450.442	118.62
450.662	121.62
450.883	111.62
451.104	94.62
451.324	133.62
451.545	113.62
451.766	120.62
451.986	153.62
452.207	202.62
452.428	518.62
452.648	1339.62
452.869	729.62
453.089	189.62
453.31	107.62
453.53	118.62
453.751	143.62
453.971	152.62
454.192	154.62
454.412	100.62
454.633	107.62
454.853	91.62
455.073	107.62
455.294	83.62
455.514	98.62
455.734	104.62
455.955	89.62
456.175	100.62
456.395	83.62
456.616	84.62
456.836	105.62
457.056	91.62
457.276	99.62
457.497	121.62
457.717	110.62
457.937	112.62
458.157	105.62
458.377	77.62
458.598	86.62
458.818	82.62
459.038	91.62
459.258	81.62
459.478	96.62
459.698	88.62
459.918	94.62
460.138	103.62
460.358	78.62
460.578	89.62
460.798	83.62
461.018	96.62
461.238	84.62
461.458	80.62
461.678	76.62
461.898	79.62
462.118	84.62
462.338	95.62
462.558	104.62
462.777	86.62
462.997	86.62
463.217	112.62
463.437	126.62
463.657	186.62
463.876	171.62
464.096	121.62
464.316	104.62
464.536	85.62
464.755	94.62
464.975	99.62
465.195	101.62
465.414	88.62
465.634	84.62
465.854	80.62
466.073	92.62
466.293	92.62
466.512	88.62
466.732	95.62
466.951	104.62
467.171	146.62
467.391	124.62
467.61	97.62
467.829	87.62
468.049	92.62
468.268	103.62
468.488	95.62
468.707	98.62
468.927	77.62
469.146	99.62
469.365	100.62
469.585	98.62
469.804	96.62
470.023	96.62
470.243	94.62
470.462	115.62
470.681	108.62
470.901	127.62
471.12	185.62
471.339	197.62
471.558	127.62
471.777	112.62
471.997	98.62
472.216	102.62
472.435	102.62
472.654	96.62
472.873	102.62
473.092	92.62
473.311	101.62
473.53	95.62
473.749	107.62
473.968	100.62
474.187	106.62
474.406	72.62
474.625	83.62
474.844	90.62
475.063	93.62
475.282	106.62
475.501	85.62
475.72	77.62
475.939	90.62
476.158	89.62
476.377	108.62
476.596	95.62
476.814	89.62
477.033	92.62
477.252	109.62
477.471	87.62
477.69	90.62
477.908	99.62
478.127	93.62
478.346	80.62
478.564	110.62
478.783	79.62
479.002	103.62
479.22	94.62
479.439	96.62
479.658	80.62
479.876	90.62
480.095	111.62
480.313	81.62
480.532	84.62
480.751	93.62
480.969	95.62
481.188	88.62
481.406	87.62
481.624	105.62
481.843	111.62
482.061	117.62
482.28	95.62
482.498	94.62
482.717	95.62
482.935	99.62
483.153	99.62
483.372	98.62
483.59	91.62
483.808	115.62
484.027	97.62
484.245	121.62
484.463	162.62
484.681	235.62
484.9	143.62
485.118	121.62
485.336	108.62
485.554	100.62
485.772	117.62
485.99	197.62
486.209	225.62
486.427	137.62
486.645	115.62
486.863	88.62
487.081	95.62
487.299	100.62
487.517	113.62
487.735	84.62
487.953	104.62
488.171	100.62
488.389	91.62
488.607	99.62
488.825	82.62
489.043	89.62
489.261	82.62
489.479	107.62
489.696	91.62
489.914	100.62
490.132	88.62
490.35	89.62
490.568	92.62
490.786	106.62
491.003	103.62
491.221	103.62
491.439	116.62
491.657	95.62
491.874	100.62
492.092	98.62
492.31	107.62
492.527	111.62
492.745	95.62
492.963	117.62
493.18	113.62
493.398	104.62
493.615	107.62
493.833	111.62
494.05	107.62
494.268	88.62
494.485	100.62
494.703	97.62
494.92	101.62
495.138	96.62
495.355	102.62
495.573	95.62
495.79	97.62
496.008	110.62
496.225	109.62
496.442	113.62
496.66	114.62
496.877	148.62
497.094	145.62
497.312	98.62
497.529	92.62
497.746	102.62
497.963	98.62
498.181	102.62
498.398	94.62
498.615	94.62
498.832	93.62
499.049	101.62
499.267	127.62
499.484	153.62
499.701	115.62
499.918	83.62
500.135	92.62
500.352	84.62
500.569	76.62
500.786	89.62
501.003	93.62
501.22	93.62
501.437	107.62
501.654	98.62
501.871	92.62
502.088	98.62
502.305	91.62
502.522	98.62
502.739	91.62
502.956	99.62
503.172	111.62
503.389	95.62
503.606	96.62
503.823	88.62
504.04	103.62
504.256	97.62
504.473	92.62
504.69	103.62
504.907	109.62
505.123	117.62
505.34	102.62
505.557	94.62
505.773	86.62
505.99	95.62
506.207	98.62
506.423	102.62
506.64	115.62
506.856	113.62
507.073	91.62
507.289	88.62
507.506	104.62
507.722	109.62
507.939	97.62
508.155	91.62
508.372	108.62
508.588	79.62
508.805	91.62
509.021	91.62
509.238	101.62
509.454	148.62
509.67	150.62
509.887	115.62
510.103	98.62
510.319	100.62
