Data from SnStandardFlinnAPT0064_LampEnergy5.5_LIBS07252019.E.O._I.C._HRD10591_15-14-50-491.txt Node
Date: Thu Jul 25 15:14:50 EDT 2019
User: cochatt
Spectrometer: HR+D1059
Trigger mode: 1
Integration Time (sec): 1.000000E-1
Scans to average: 1
Electric dark correction enabled: true
Nonlinearity correction enabled: false
Boxcar width: 0
XAxis mode: Wavelengths
Number of Pixels in Spectrum: 2048
>>>>>Begin Spectral Data<<<<<
223.165	-19.62
223.4	-19.62
223.635	-19.62
223.869	-16.62
224.104	-15.62
224.338	-16.62
224.573	-15.62
224.808	-16.62
225.042	-0.62
225.277	5.38
225.511	5.38
225.746	13.38
225.98	1.38
226.215	1.38
226.449	-0.62
226.683	12.38
226.918	31.38
227.152	31.38
227.387	21.38
227.621	26.38
227.856	43.38
228.09	35.38
228.324	37.38
228.559	45.38
228.793	73.38
229.027	133.38
229.262	143.38
229.496	133.38
229.73	137.38
229.964	151.38
230.199	140.38
230.433	158.38
230.667	143.38
230.901	155.38
231.136	166.38
231.37	153.38
231.604	165.38
231.838	189.38
232.072	200.38
232.306	212.38
232.541	180.38
232.775	204.38
233.009	191.38
233.243	171.38
233.477	196.38
233.711	216.38
233.945	220.38
234.179	222.38
234.413	180.38
234.647	186.38
234.881	224.38
235.115	235.38
235.349	259.38
235.583	285.38
235.817	352.38
236.051	369.38
236.285	259.38
236.519	208.38
236.753	219.38
236.987	199.38
237.221	201.38
237.455	207.38
237.689	204.38
237.922	196.38
238.156	196.38
238.39	210.38
238.624	197.38
238.858	205.38
239.091	202.38
239.325	190.38
239.559	221.38
239.793	218.38
240.027	222.38
240.26	225.38
240.494	237.38
240.728	242.38
240.961	236.38
241.195	260.38
241.429	256.38
241.662	280.38
241.896	315.38
242.13	348.38
242.363	424.38
242.597	504.38
242.83	494.38
243.064	522.38
243.298	605.38
243.531	520.38
243.765	355.38
243.998	330.38
244.232	285.38
244.465	263.38
244.699	265.38
244.932	269.38
245.166	256.38
245.399	277.38
245.633	270.38
245.866	270.38
246.099	278.38
246.333	261.38
246.566	273.38
246.8	265.38
247.033	264.38
247.266	290.38
247.5	273.38
247.733	283.38
247.966	287.38
248.2	309.38
248.433	357.38
248.666	340.38
248.899	353.38
249.133	327.38
249.366	340.38
249.599	348.38
249.832	369.38
250.066	387.38
250.299	332.38
250.532	325.38
250.765	301.38
250.998	297.38
251.231	317.38
251.465	320.38
251.698	286.38
251.931	309.38
252.164	304.38
252.397	313.38
252.63	323.38
252.863	317.38
253.096	336.38
253.329	318.38
253.562	312.38
253.795	350.38
254.028	308.38
254.261	322.38
254.494	353.38
254.727	377.38
254.96	451.38
255.193	422.38
255.426	373.38
255.659	344.38
255.892	325.38
256.124	346.38
256.357	349.38
256.59	364.38
256.823	379.38
257.056	391.38
257.289	456.38
257.521	494.38
257.754	417.38
257.987	378.38
258.22	367.38
258.452	367.38
258.685	362.38
258.918	375.38
259.151	376.38
259.383	397.38
259.616	452.38
259.849	452.38
260.081	412.38
260.314	400.38
260.547	397.38
260.779	413.38
261.012	392.38
261.244	394.38
261.477	381.38
261.71	403.38
261.942	419.38
262.175	431.38
262.407	409.38
262.64	443.38
262.872	435.38
263.105	483.38
263.337	495.38
263.57	519.38
263.802	510.38
264.035	548.38
264.267	541.38
264.499	571.38
264.732	573.38
264.964	567.38
265.197	566.38
265.429	566.38
265.661	603.38
265.894	620.38
266.126	689.38
266.358	732.38
266.591	697.38
266.823	619.38
267.055	573.38
267.287	574.38
267.52	529.38
267.752	540.38
267.984	513.38
268.216	515.38
268.448	511.38
268.681	510.38
268.913	488.38
269.145	488.38
269.377	492.38
269.609	507.38
269.841	501.38
270.073	533.38
270.306	578.38
270.538	703.38
270.77	1024.38
271.002	1236.38
271.234	918.38
271.466	662.38
271.698	560.38
271.93	530.38
272.162	536.38
272.394	501.38
272.626	497.38
272.858	502.38
273.09	477.38
273.322	482.38
273.553	484.38
273.785	488.38
274.017	456.38
274.249	506.38
274.481	471.38
274.713	491.38
274.945	489.38
275.176	489.38
275.408	492.38
275.64	491.38
275.872	493.38
276.104	524.38
276.335	505.38
276.567	502.38
276.799	510.38
277.031	510.38
277.262	512.38
277.494	552.38
277.726	572.38
277.957	611.38
278.189	701.38
278.421	655.38
278.652	603.38
278.884	605.38
279.115	546.38
279.347	541.38
279.579	528.38
279.81	529.38
280.042	521.38
280.273	547.38
280.505	560.38
280.736	573.38
280.968	593.38
281.199	634.38
281.431	685.38
281.662	685.38
281.894	623.38
282.125	599.38
282.356	637.38
282.588	627.38
282.819	629.38
283.051	649.38
283.282	696.38
283.513	844.38
283.745	1159.38
283.976	1771.38
284.207	2478.38
284.439	2237.38
284.67	1432.38
284.901	1170.38
285.132	1152.38
285.364	1056.38
285.595	868.38
285.826	847.38
286.057	936.38
286.288	1224.38
286.52	1610.38
286.751	1478.38
286.982	1012.38
287.213	770.38
287.444	729.38
287.675	663.38
287.906	646.38
288.138	650.38
288.369	657.38
288.6	667.38
288.831	657.38
289.062	637.38
289.293	668.38
289.524	664.38
289.755	642.38
289.986	649.38
290.217	662.38
290.448	669.38
290.679	649.38
290.91	651.38
291.141	680.38
291.371	689.38
291.602	714.38
291.833	669.38
292.064	633.38
292.295	636.38
292.526	622.38
292.757	625.38
292.987	615.38
293.218	624.38
293.449	615.38
293.68	625.38
293.91	612.38
294.141	616.38
294.372	603.38
294.603	647.38
294.833	608.38
295.064	616.38
295.295	625.38
295.525	591.38
295.756	591.38
295.987	609.38
296.217	615.38
296.448	612.38
296.679	626.38
296.909	591.38
297.14	602.38
297.37	619.38
297.601	649.38
297.831	605.38
298.062	635.38
298.292	621.38
298.523	665.38
298.753	655.38
298.984	656.38
299.214	653.38
299.445	633.38
299.675	643.38
299.905	709.38
300.136	735.38
300.366	777.38
300.597	925.38
300.827	1189.38
301.057	1592.38
301.288	1574.38
301.518	1085.38
301.748	884.38
301.979	799.38
302.209	813.38
302.439	830.38
302.669	839.38
302.9	977.38
303.13	1319.38
303.36	1795.38
303.59	2383.38
303.82	2101.38
304.051	1319.38
304.281	1019.38
304.511	867.38
304.741	818.38
304.971	778.38
305.201	767.38
305.431	749.38
305.661	743.38
305.891	719.38
306.121	720.38
306.352	737.38
306.582	716.38
306.812	711.38
307.042	711.38
307.272	702.38
307.502	683.38
307.731	699.38
307.961	718.38
308.191	693.38
308.421	699.38
308.651	712.38
308.881	694.38
309.111	709.38
309.341	699.38
309.571	717.38
309.8	727.38
310.03	722.38
310.26	713.38
310.49	719.38
310.72	723.38
310.949	705.38
311.179	719.38
311.409	740.38
311.639	750.38
311.868	742.38
312.098	730.38
312.328	751.38
312.557	749.38
312.787	756.38
313.017	732.38
313.246	775.38
313.476	773.38
313.706	776.38
313.935	830.38
314.165	845.38
314.394	875.38
314.624	863.38
314.853	829.38
315.083	800.38
315.312	812.38
315.542	816.38
315.771	814.38
316.001	819.38
316.23	858.38
316.46	874.38
316.689	947.38
316.919	1108.38
317.148	1473.38
317.377	2175.38
317.607	3083.38
317.836	3236.38
318.065	1999.38
318.295	1385.38
318.524	1145.38
318.753	1005.38
318.983	972.38
319.212	931.38
319.441	905.38
319.67	917.38
319.9	901.38
320.129	880.38
320.358	872.38
320.587	875.38
320.816	903.38
321.046	905.38
321.275	880.38
321.504	891.38
321.733	899.38
321.962	918.38
322.191	943.38
322.42	920.38
322.649	913.38
322.878	931.38
323.108	940.38
323.337	945.38
323.566	945.38
323.795	945.38
324.024	974.38
324.253	987.38
324.482	1019.38
324.71	1102.38
324.939	1133.38
325.168	1148.38
325.397	1189.38
325.626	1336.38
325.855	1796.38
326.084	2671.38
326.313	3861.38
326.542	4099.38
326.77	2721.38
326.999	1893.38
327.228	1638.38
327.457	1608.38
327.686	1622.38
327.914	1719.38
328.143	1949.38
328.372	2182.38
328.6	2343.38
328.829	2226.38
329.058	1961.38
329.287	1806.38
329.515	1622.38
329.744	1533.38
329.972	1503.38
330.201	1415.38
330.43	1373.38
330.658	1291.38
330.887	1289.38
331.115	1279.38
331.344	1285.38
331.572	1259.38
331.801	1283.38
332.03	1264.38
332.258	1276.38
332.486	1349.38
332.715	1487.38
332.943	1731.38
333.172	2046.38
333.4	2006.38
333.629	1689.38
333.857	1574.38
334.085	1603.38
334.314	1657.38
334.542	1781.38
334.771	2029.38
334.999	2347.38
335.227	2814.38
335.455	3150.38
335.684	2917.38
335.912	2579.38
336.14	2259.38
336.369	2024.38
336.597	1877.38
336.825	1720.38
337.053	1659.38
337.281	1557.38
337.51	1476.38
337.738	1419.38
337.966	1386.38
338.194	1347.38
338.422	1273.38
338.65	1259.38
338.878	1260.38
339.106	1212.38
339.334	1197.38
339.562	1208.38
339.79	1174.38
340.018	1151.38
340.246	1159.38
340.474	1149.38
340.702	1105.38
340.93	1118.38
341.158	1141.38
341.386	1127.38
341.614	1102.38
341.842	1089.38
342.07	1067.38
342.298	1050.38
342.526	1031.38
342.754	1041.38
342.981	1044.38
343.209	1048.38
343.437	1041.38
343.665	1061.38
343.893	1070.38
344.12	1091.38
344.348	1080.38
344.576	1027.38
344.804	1039.38
345.031	996.38
345.259	1005.38
345.487	1016.38
345.714	1000.38
345.942	982.38
346.17	1020.38
346.397	977.38
346.625	979.38
346.853	968.38
347.08	953.38
347.308	943.38
347.535	960.38
347.763	973.38
347.99	941.38
348.218	946.38
348.445	942.38
348.673	936.38
348.9	950.38
349.128	948.38
349.355	916.38
349.583	955.38
349.81	938.38
350.037	932.38
350.265	920.38
350.492	944.38
350.72	930.38
350.947	956.38
351.174	931.38
351.402	917.38
351.629	917.38
351.856	920.38
352.083	945.38
352.311	930.38
352.538	933.38
352.765	963.38
352.992	884.38
353.22	893.38
353.447	931.38
353.674	924.38
353.901	920.38
354.128	946.38
354.355	912.38
354.583	939.38
354.81	933.38
355.037	939.38
355.264	936.38
355.491	914.38
355.718	943.38
355.945	945.38
356.172	955.38
356.399	940.38
356.626	948.38
356.853	955.38
357.08	937.38
357.307	971.38
357.534	981.38
357.761	964.38
357.988	960.38
358.215	965.38
358.441	977.38
358.668	973.38
358.895	943.38
359.122	965.38
359.349	973.38
359.576	986.38
359.802	979.38
360.029	962.38
360.256	962.38
360.483	941.38
360.709	963.38
360.936	993.38
361.163	994.38
361.39	975.38
361.616	995.38
361.843	992.38
362.07	971.38
362.296	986.38
362.523	945.38
362.749	979.38
362.976	969.38
363.203	973.38
363.429	981.38
363.656	985.38
363.882	1008.38
364.109	975.38
364.335	977.38
364.562	968.38
364.788	981.38
365.015	1022.38
365.241	1011.38
365.468	1033.38
365.694	1071.38
365.92	1009.38
366.147	989.38
366.373	993.38
366.599	999.38
366.826	980.38
367.052	1013.38
367.278	1008.38
367.505	1021.38
367.731	1010.38
367.957	1006.38
368.184	1008.38
368.41	1021.38
368.636	1040.38
368.862	1011.38
369.089	998.38
369.315	1012.38
369.541	1020.38
369.767	1025.38
369.993	1031.38
370.219	1021.38
370.445	1043.38
370.672	1046.38
370.898	1034.38
371.124	1056.38
371.35	1067.38
371.576	1035.38
371.802	1055.38
372.028	1066.38
372.254	1065.38
372.48	1072.38
372.706	1096.38
372.932	1085.38
373.158	1063.38
373.384	1123.38
373.61	1071.38
373.835	1120.38
374.061	1104.38
374.287	1100.38
374.513	1110.38
374.739	1111.38
374.965	1139.38
375.191	1131.38
375.416	1137.38
375.642	1127.38
375.868	1103.38
376.094	1098.38
376.319	1097.38
376.545	1073.38
376.771	1050.38
376.997	1071.38
377.222	1039.38
377.448	1018.38
377.674	1045.38
377.899	1037.38
378.125	1048.38
378.35	1091.38
378.576	1060.38
378.802	1043.38
379.027	1060.38
379.253	1085.38
379.478	1094.38
379.704	1279.38
379.929	1695.38
380.155	2382.38
380.38	2505.38
380.606	1707.38
380.831	1320.38
381.057	1153.38
381.282	1111.38
381.507	1092.38
381.733	1060.38
381.958	1087.38
382.184	1067.38
382.409	1064.38
382.634	1063.38
382.86	1055.38
383.085	1053.38
383.31	1047.38
383.535	1025.38
383.761	1044.38
383.986	1053.38
384.211	1067.38
384.436	1077.38
384.662	1089.38
384.887	1089.38
385.112	1068.38
385.337	1064.38
385.562	1111.38
385.787	1089.38
386.013	1071.38
386.238	1094.38
386.463	1093.38
386.688	1094.38
386.913	1058.38
387.138	1079.38
387.363	1099.38
387.588	1080.38
387.813	1111.38
388.038	1053.38
388.263	1083.38
388.488	1076.38
388.713	1121.38
388.938	1080.38
389.163	1097.38
389.387	1068.38
389.612	1089.38
389.837	1086.38
390.062	1080.38
390.287	1115.38
390.512	1110.38
390.736	1132.38
390.961	1126.38
391.186	1137.38
391.411	1138.38
391.636	1149.38
391.86	1135.38
392.085	1136.38
392.31	1172.38
392.534	1139.38
392.759	1116.38
392.984	1112.38
393.208	1102.38
393.433	1119.38
393.658	1101.38
393.882	1077.38
394.107	1097.38
394.331	1119.38
394.556	1111.38
394.78	1123.38
395.005	1125.38
395.229	1109.38
395.454	1136.38
395.678	1173.38
395.903	1108.38
396.127	1133.38
396.352	1107.38
396.576	1108.38
396.801	1109.38
397.025	1143.38
397.249	1119.38
397.474	1172.38
397.698	1157.38
397.922	1204.38
398.147	1149.38
398.371	1188.38
398.595	1185.38
398.82	1177.38
399.044	1247.38
399.268	1307.38
399.492	1412.38
399.717	1453.38
399.941	1443.38
400.165	1390.38
400.389	1352.38
400.613	1302.38
400.837	1268.38
401.062	1244.38
401.286	1206.38
401.51	1220.38
401.734	1197.38
401.958	1212.38
402.182	1197.38
402.406	1224.38
402.63	1185.38
402.854	1233.38
403.078	1201.38
403.302	1251.38
403.526	1229.38
403.75	1263.38
403.974	1250.38
404.198	1270.38
404.422	1255.38
404.645	1217.38
404.869	1280.38
405.093	1284.38
405.317	1286.38
405.541	1266.38
405.765	1275.38
405.988	1259.38
406.212	1294.38
406.436	1299.38
406.66	1288.38
406.883	1275.38
407.107	1347.38
407.331	1352.38
407.555	1399.38
407.778	1358.38
408.002	1327.38
408.226	1345.38
408.449	1319.38
408.673	1307.38
408.896	1272.38
409.12	1249.38
409.344	1279.38
409.567	1260.38
409.791	1284.38
410.014	1234.38
410.238	1224.38
410.461	1241.38
410.685	1218.38
410.908	1243.38
411.132	1245.38
411.355	1200.38
411.578	1226.38
411.802	1206.38
412.025	1215.38
412.249	1239.38
412.472	1213.38
412.695	1190.38
412.919	1190.38
413.142	1179.38
413.365	1209.38
413.589	1176.38
413.812	1172.38
414.035	1185.38
414.258	1215.38
414.482	1183.38
414.705	1186.38
414.928	1198.38
415.151	1171.38
415.374	1167.38
415.597	1157.38
415.821	1136.38
416.044	1146.38
416.267	1144.38
416.49	1147.38
416.713	1121.38
416.936	1139.38
417.159	1132.38
417.382	1155.38
417.605	1141.38
417.828	1153.38
418.051	1143.38
418.274	1149.38
418.497	1153.38
418.72	1195.38
418.943	1139.38
419.166	1207.38
419.389	1265.38
419.611	1254.38
419.834	1197.38
420.057	1189.38
420.28	1167.38
420.503	1144.38
420.726	1163.38
420.948	1149.38
421.171	1139.38
421.394	1138.38
421.617	1171.38
421.839	1172.38
422.062	1161.38
422.285	1158.38
422.507	1168.38
422.73	1121.38
422.953	1174.38
423.175	1166.38
423.398	1189.38
423.621	1153.38
423.843	1179.38
424.066	1147.38
424.288	1159.38
424.511	1158.38
424.733	1179.38
424.956	1149.38
425.178	1119.38
425.401	1153.38
425.623	1147.38
425.846	1097.38
426.068	1120.38
426.291	1102.38
426.513	1113.38
426.735	1088.38
426.958	1102.38
427.18	1085.38
427.402	1119.38
427.625	1103.38
427.847	1085.38
428.069	1070.38
428.292	1085.38
428.514	1078.38
428.736	1089.38
428.958	1059.38
429.181	1060.38
429.403	1067.38
429.625	1076.38
429.847	1052.38
430.069	1075.38
430.292	1088.38
430.514	1104.38
430.736	1116.38
430.958	1089.38
431.18	1053.38
431.402	1048.38
431.624	1036.38
431.846	1035.38
432.068	1024.38
432.29	1064.38
432.512	1078.38
432.734	1079.38
432.956	1055.38
433.178	1077.38
433.4	1081.38
433.622	1100.38
433.844	1064.38
434.066	1060.38
434.287	1057.38
434.509	1054.38
434.731	1064.38
434.953	1073.38
435.175	1080.38
435.397	1100.38
435.618	1078.38
435.84	1053.38
436.062	1047.38
436.284	1045.38
436.505	1057.38
436.727	1059.38
436.949	1050.38
437.17	1060.38
437.392	1023.38
437.614	1023.38
437.835	1032.38
438.057	1021.38
438.278	997.38
438.5	1001.38
438.721	1020.38
438.943	1053.38
439.165	1090.38
439.386	1109.38
439.608	1104.38
439.829	1122.38
440.05	1124.38
440.272	1149.38
440.493	1105.38
440.715	1095.38
440.936	1079.38
441.158	1128.38
441.379	1117.38
441.6	1138.38
441.822	1173.38
442.043	1245.38
442.264	1191.38
442.486	1173.38
442.707	1145.38
442.928	1115.38
443.149	1152.38
443.371	1131.38
443.592	1171.38
443.813	1162.38
444.034	1136.38
444.255	1143.38
444.476	1197.38
444.698	1205.38
444.919	1224.38
445.14	1261.38
445.361	1221.38
445.582	1211.38
445.803	1109.38
446.024	1138.38
446.245	1124.38
446.466	1133.38
446.687	1108.38
446.908	1129.38
447.129	1078.38
447.35	1083.38
447.571	1084.38
447.792	1044.38
448.013	1080.38
448.234	1021.38
448.455	1075.38
448.675	1069.38
448.896	1044.38
449.117	1080.38
449.338	1153.38
449.559	1187.38
449.779	1059.38
450	1070.38
450.221	1019.38
450.442	1009.38
450.662	1007.38
450.883	1015.38
451.104	1018.38
451.324	1016.38
451.545	1005.38
451.766	1013.38
451.986	1000.38
452.207	1062.38
452.428	1222.38
452.648	1616.38
452.869	1429.38
453.089	1146.38
453.31	1071.38
453.53	1125.38
453.751	1118.38
453.971	1137.38
454.192	1143.38
454.412	1021.38
454.633	993.38
454.853	983.38
455.073	974.38
455.294	959.38
455.514	985.38
455.734	968.38
455.955	947.38
456.175	958.38
456.395	962.38
456.616	959.38
456.836	983.38
457.056	987.38
457.276	966.38
457.497	1021.38
457.717	1005.38
457.937	988.38
458.157	1027.38
458.377	1005.38
458.598	1006.38
458.818	1048.38
459.038	1028.38
459.258	1057.38
459.478	1059.38
459.698	1029.38
459.918	1064.38
460.138	1111.38
460.358	1123.38
460.578	1135.38
460.798	1151.38
461.018	1133.38
461.238	1151.38
461.458	1169.38
461.678	1173.38
461.898	1162.38
462.118	1165.38
462.338	1215.38
462.558	1215.38
462.777	1249.38
462.997	1280.38
463.217	1333.38
463.437	1339.38
463.657	1320.38
463.876	1329.38
464.096	1284.38
464.316	1237.38
464.536	1237.38
464.755	1223.38
464.975	1228.38
465.195	1142.38
465.414	1126.38
465.634	1122.38
465.854	1058.38
466.073	1047.38
466.293	1123.38
466.512	1064.38
466.732	1075.38
466.951	1135.38
467.171	1156.38
467.391	1105.38
467.61	1101.38
467.829	1074.38
468.049	1043.38
468.268	1054.38
468.488	1053.38
468.707	1028.38
468.927	1045.38
469.146	1017.38
469.365	1023.38
469.585	1033.38
469.804	1015.38
470.023	1088.38
470.243	1094.38
470.462	1137.38
470.681	1171.38
470.901	1232.38
471.12	1361.38
471.339	1415.38
471.558	1143.38
471.777	1124.38
471.997	1079.38
472.216	1067.38
472.435	1084.38
472.654	1032.38
472.873	1012.38
473.092	1030.38
473.311	1046.38
473.53	1055.38
473.749	1069.38
473.968	1099.38
474.187	1072.38
474.406	1038.38
474.625	1048.38
474.844	1011.38
475.063	1050.38
475.282	1053.38
475.501	1031.38
475.72	1046.38
475.939	1061.38
476.158	1089.38
476.377	1087.38
476.596	1038.38
476.814	1096.38
477.033	1093.38
477.252	1134.38
477.471	1147.38
477.69	1152.38
477.908	1147.38
478.127	1169.38
478.346	1202.38
478.564	1195.38
478.783	1208.38
479.002	1255.38
479.22	1220.38
479.439	1243.38
479.658	1260.38
479.876	1229.38
480.095	1237.38
480.313	1275.38
480.532	1265.38
480.751	1292.38
480.969	1236.38
481.188	1241.38
481.406	1203.38
481.624	1190.38
481.843	1217.38
482.061	1260.38
482.28	1245.38
482.498	1253.38
482.717	1225.38
482.935	1242.38
483.153	1269.38
483.372	1265.38
483.59	1289.38
483.808	1283.38
484.027	1281.38
484.245	1367.38
484.463	1469.38
484.681	1599.38
484.9	1532.38
485.118	1428.38
485.336	1425.38
485.554	1413.38
485.772	1499.38
485.99	1646.38
486.209	1775.38
486.427	1505.38
486.645	1375.38
486.863	1356.38
487.081	1350.38
487.299	1297.38
487.517	1318.38
487.735	1341.38
487.953	1372.38
488.171	1392.38
488.389	1290.38
488.607	1323.38
488.825	1300.38
489.043	1301.38
489.261	1280.38
489.479	1267.38
489.696	1283.38
489.914	1270.38
490.132	1280.38
490.35	1272.38
490.568	1327.38
490.786	1336.38
491.003	1358.38
491.221	1366.38
491.439	1393.38
491.657	1376.38
491.874	1409.38
492.092	1407.38
492.31	1450.38
492.527	1417.38
