Data from SnStandardFlinnAPT0064_LampEnergy10_LIBS07252019.E.O._I.C._HRD10591_15-20-59-494.txt Node
Date: Thu Jul 25 15:20:59 EDT 2019
User: cochatt
Spectrometer: HR+D1059
Trigger mode: 1
Integration Time (sec): 1.000000E-1
Scans to average: 1
Electric dark correction enabled: true
Nonlinearity correction enabled: false
Boxcar width: 0
XAxis mode: Wavelengths
Number of Pixels in Spectrum: 2048
>>>>>Begin Spectral Data<<<<<
223.165	-9.94
223.4	-9.94
223.635	-9.94
223.869	-8.94
224.104	-18.94
224.338	-18.94
224.573	-11.94
224.808	-9.94
225.042	-11.94
225.277	-7.94
225.511	6.06
225.746	5.06
225.98	10.06
226.215	5.06
226.449	14.06
226.683	9.06
226.918	27.06
227.152	22.06
227.387	48.06
227.621	32.06
227.856	47.06
228.09	53.06
228.324	60.06
228.559	61.06
228.793	115.06
229.027	317.06
229.262	345.06
229.496	312.06
229.73	289.06
229.964	313.06
230.199	299.06
230.433	296.06
230.667	329.06
230.901	328.06
231.136	335.06
231.37	362.06
231.604	373.06
231.838	439.06
232.072	552.06
232.306	574.06
232.541	463.06
232.775	439.06
233.009	409.06
233.243	407.06
233.477	456.06
233.711	510.06
233.945	559.06
234.179	517.06
234.413	451.06
234.647	444.06
234.881	468.06
235.115	539.06
235.349	625.06
235.583	767.06
235.817	965.06
236.051	972.06
236.285	650.06
236.519	552.06
236.753	496.06
236.987	533.06
237.221	522.06
237.455	514.06
237.689	468.06
237.922	459.06
238.156	458.06
238.39	481.06
238.624	505.06
238.858	481.06
239.091	491.06
239.325	491.06
239.559	520.06
239.793	503.06
240.027	533.06
240.26	563.06
240.494	549.06
240.728	591.06
240.961	638.06
241.195	639.06
241.429	683.06
241.662	707.06
241.896	781.06
242.13	969.06
242.363	1247.06
242.597	1622.06
242.83	1515.06
243.064	1516.06
243.298	1792.06
243.531	1491.06
243.765	931.06
243.998	743.06
244.232	703.06
244.465	676.06
244.699	664.06
244.932	649.06
245.166	679.06
245.399	715.06
245.633	685.06
245.866	681.06
246.099	669.06
246.333	659.06
246.566	652.06
246.8	630.06
247.033	640.06
247.266	616.06
247.5	664.06
247.733	655.06
247.966	712.06
248.2	778.06
248.433	874.06
248.666	995.06
248.899	956.06
249.133	857.06
249.366	885.06
249.599	949.06
249.832	1103.06
250.066	1089.06
250.299	859.06
250.532	791.06
250.765	746.06
250.998	717.06
251.231	744.06
251.465	709.06
251.698	729.06
251.931	749.06
252.164	742.06
252.397	767.06
252.63	776.06
252.863	795.06
253.096	777.06
253.329	788.06
253.562	798.06
253.795	782.06
254.028	791.06
254.261	820.06
254.494	859.06
254.727	1036.06
254.96	1223.06
255.193	1221.06
255.426	963.06
255.659	868.06
255.892	858.06
256.124	863.06
256.357	852.06
256.59	917.06
256.823	994.06
257.056	1091.06
257.289	1331.06
257.521	1458.06
257.754	1211.06
257.987	960.06
258.22	933.06
258.452	914.06
258.685	899.06
258.918	961.06
259.151	1011.06
259.383	1098.06
259.616	1207.06
259.849	1245.06
260.081	1068.06
260.314	981.06
260.547	974.06
260.779	949.06
261.012	957.06
261.244	978.06
261.477	986.06
261.71	1001.06
261.942	997.06
262.175	1025.06
262.407	1054.06
262.64	1037.06
262.872	1098.06
263.105	1125.06
263.337	1185.06
263.57	1277.06
263.802	1315.06
264.035	1287.06
264.267	1351.06
264.499	1355.06
264.732	1436.06
264.964	1425.06
265.197	1445.06
265.429	1443.06
265.661	1454.06
265.894	1587.06
266.126	1727.06
266.358	1946.06
266.591	1929.06
266.823	1641.06
267.055	1457.06
267.287	1356.06
267.52	1326.06
267.752	1284.06
267.984	1246.06
268.216	1242.06
268.448	1238.06
268.681	1243.06
268.913	1195.06
269.145	1214.06
269.377	1238.06
269.609	1230.06
269.841	1268.06
270.073	1386.06
270.306	1568.06
270.538	2139.06
270.77	3163.06
271.002	3861.06
271.234	2729.06
271.466	1847.06
271.698	1521.06
271.93	1376.06
272.162	1372.06
272.394	1299.06
272.626	1273.06
272.858	1221.06
273.09	1210.06
273.322	1235.06
273.553	1224.06
273.785	1205.06
274.017	1197.06
274.249	1211.06
274.481	1173.06
274.713	1208.06
274.945	1241.06
275.176	1221.06
275.408	1201.06
275.64	1247.06
275.872	1230.06
276.104	1253.06
276.335	1258.06
276.567	1270.06
276.799	1289.06
277.031	1304.06
277.262	1335.06
277.494	1386.06
277.726	1559.06
277.957	1857.06
278.189	2145.06
278.421	1979.06
278.652	1728.06
278.884	1659.06
279.115	1470.06
279.347	1420.06
279.579	1384.06
279.81	1386.06
280.042	1381.06
280.273	1416.06
280.505	1441.06
280.736	1500.06
280.968	1564.06
281.199	1773.06
281.431	2017.06
281.662	2057.06
281.894	1802.06
282.125	1658.06
282.356	1631.06
282.588	1669.06
282.819	1697.06
283.051	1830.06
283.282	2019.06
283.513	2529.06
283.745	3601.06
283.976	5598.06
284.207	7832.06
284.439	7161.06
284.67	4539.06
284.901	3683.06
285.132	3706.06
285.364	3550.06
285.595	2684.06
285.826	2417.06
286.057	2837.06
286.288	3847.06
286.52	5149.06
286.751	4858.06
286.982	3023.06
287.213	2270.06
287.444	1973.06
287.675	1812.06
287.906	1787.06
288.138	1739.06
288.369	1669.06
288.6	1683.06
288.831	1673.06
289.062	1667.06
289.293	1690.06
289.524	1720.06
289.755	1704.06
289.986	1717.06
290.217	1697.06
290.448	1697.06
290.679	1736.06
290.91	1803.06
291.141	1875.06
291.371	2037.06
291.602	2149.06
291.833	1946.06
292.064	1781.06
292.295	1655.06
292.526	1652.06
292.757	1603.06
292.987	1597.06
293.218	1555.06
293.449	1580.06
293.68	1585.06
293.91	1554.06
294.141	1579.06
294.372	1540.06
294.603	1567.06
294.833	1577.06
295.064	1533.06
295.295	1571.06
295.525	1542.06
295.756	1568.06
295.987	1526.06
296.217	1549.06
296.448	1579.06
296.679	1567.06
296.909	1578.06
297.14	1622.06
297.37	1627.06
297.601	1651.06
297.831	1620.06
298.062	1634.06
298.292	1650.06
298.523	1695.06
298.753	1716.06
298.984	1685.06
299.214	1738.06
299.445	1741.06
299.675	1743.06
299.905	1834.06
300.136	1891.06
300.366	2172.06
300.597	2719.06
300.827	3849.06
301.057	5165.06
301.288	5172.06
301.518	3393.06
301.748	2589.06
301.979	2360.06
302.209	2269.06
302.439	2281.06
302.669	2441.06
302.9	2995.06
303.13	4123.06
303.36	6138.06
303.59	8189.06
303.82	7095.06
304.051	4226.06
304.281	3043.06
304.511	2537.06
304.741	2309.06
304.971	2199.06
305.201	2073.06
305.431	1996.06
305.661	1957.06
305.891	1894.06
306.121	1890.06
306.352	1869.06
306.582	1822.06
306.812	1798.06
307.042	1836.06
307.272	1831.06
307.502	1771.06
307.731	1801.06
307.961	1796.06
308.191	1830.06
308.421	1795.06
308.651	1811.06
308.881	1778.06
309.111	1767.06
309.341	1762.06
309.571	1805.06
309.8	1849.06
310.03	1850.06
310.26	1838.06
310.49	1841.06
310.72	1867.06
310.949	1827.06
311.179	1886.06
311.409	1854.06
311.639	1894.06
311.868	1939.06
312.098	1911.06
312.328	1906.06
312.557	1964.06
312.787	1971.06
313.017	1942.06
313.246	2018.06
313.476	2038.06
313.706	2037.06
313.935	2206.06
314.165	2338.06
314.394	2492.06
314.624	2359.06
314.853	2138.06
315.083	2152.06
315.312	2158.06
315.542	2181.06
315.771	2181.06
316.001	2226.06
316.23	2289.06
316.46	2428.06
316.689	2668.06
316.919	3137.06
317.148	4646.06
317.377	7046.06
317.607	10329.06
317.836	10665.06
318.065	6569.06
318.295	4217.06
318.524	3412.06
318.753	2923.06
318.983	2699.06
319.212	2566.06
319.441	2515.06
319.67	2461.06
319.9	2342.06
320.129	2353.06
320.358	2338.06
320.587	2313.06
320.816	2339.06
321.046	2340.06
321.275	2357.06
321.504	2401.06
321.733	2445.06
321.962	2470.06
322.191	2515.06
322.42	2459.06
322.649	2454.06
322.878	2489.06
323.108	2494.06
323.337	2532.06
323.566	2524.06
323.795	2615.06
324.024	2629.06
324.253	2699.06
324.482	2812.06
324.71	3007.06
324.939	3183.06
325.168	3308.06
325.397	3446.06
325.626	3996.06
325.855	5520.06
326.084	8649.06
326.313	12524.06
326.542	13337.06
326.77	9041.06
326.999	5876.06
327.228	4927.06
327.457	4711.06
327.686	4809.06
327.914	5090.06
328.143	5909.06
328.372	7029.06
328.6	7723.06
328.829	6837.06
329.058	5750.06
329.287	5001.06
329.515	4629.06
329.744	4230.06
329.972	4020.06
330.201	3810.06
330.43	3651.06
330.658	3620.06
330.887	3558.06
331.115	3422.06
331.344	3463.06
331.572	3443.06
331.801	3415.06
332.03	3483.06
332.258	3511.06
332.486	3733.06
332.715	4294.06
332.943	5300.06
333.172	6634.06
333.4	6506.06
333.629	4978.06
333.857	4497.06
334.085	4429.06
334.314	4659.06
334.542	5028.06
334.771	6043.06
334.999	7329.06
335.227	9187.06
335.455	10267.06
335.684	9188.06
335.912	7556.06
336.14	6505.06
336.369	5693.06
336.597	5234.06
336.825	4816.06
337.053	4454.06
337.281	4213.06
337.51	4046.06
337.738	3845.06
337.966	3686.06
338.194	3571.06
338.422	3445.06
338.65	3378.06
338.878	3282.06
339.106	3307.06
339.334	3175.06
339.562	3101.06
339.79	3018.06
340.018	3116.06
340.246	3031.06
340.474	2977.06
340.702	2998.06
340.93	3020.06
341.158	3025.06
341.386	2951.06
341.614	2994.06
341.842	2905.06
342.07	2829.06
342.298	2826.06
342.526	2730.06
342.754	2719.06
342.981	2693.06
343.209	2689.06
343.437	2703.06
343.665	2759.06
343.893	2745.06
344.12	2795.06
344.348	2707.06
344.576	2750.06
344.804	2665.06
345.031	2633.06
345.259	2618.06
345.487	2539.06
345.714	2543.06
345.942	2516.06
346.17	2518.06
346.397	2538.06
346.625	2521.06
346.853	2485.06
347.08	2490.06
347.308	2544.06
347.535	2499.06
347.763	2499.06
347.99	2448.06
348.218	2453.06
348.445	2471.06
348.673	2429.06
348.9	2451.06
349.128	2432.06
349.355	2396.06
349.583	2409.06
349.81	2438.06
350.037	2408.06
350.265	2381.06
350.492	2424.06
350.72	2382.06
350.947	2365.06
351.174	2409.06
351.402	2429.06
351.629	2386.06
351.856	2341.06
352.083	2384.06
352.311	2395.06
352.538	2342.06
352.765	2332.06
352.992	2356.06
353.22	2333.06
353.447	2357.06
353.674	2359.06
353.901	2353.06
354.128	2384.06
354.355	2380.06
354.583	2381.06
354.81	2413.06
355.037	2413.06
355.264	2459.06
355.491	2449.06
355.718	2400.06
355.945	2431.06
356.172	2393.06
356.399	2477.06
356.626	2448.06
356.853	2487.06
357.08	2475.06
357.307	2519.06
357.534	2563.06
357.761	2541.06
357.988	2581.06
358.215	2508.06
358.441	2570.06
358.668	2508.06
358.895	2540.06
359.122	2528.06
359.349	2491.06
359.576	2471.06
359.802	2463.06
360.029	2461.06
360.256	2525.06
360.483	2515.06
360.709	2547.06
360.936	2542.06
361.163	2554.06
361.39	2540.06
361.616	2547.06
361.843	2585.06
362.07	2569.06
362.296	2541.06
362.523	2572.06
362.749	2533.06
362.976	2508.06
363.203	2505.06
363.429	2536.06
363.656	2494.06
363.882	2540.06
364.109	2471.06
364.335	2526.06
364.562	2513.06
364.788	2566.06
365.015	2609.06
365.241	2583.06
365.468	2758.06
365.694	2870.06
365.92	2787.06
366.147	2639.06
366.373	2581.06
366.599	2595.06
366.826	2582.06
367.052	2577.06
367.278	2603.06
367.505	2594.06
367.731	2596.06
367.957	2607.06
368.184	2617.06
368.41	2655.06
368.636	2623.06
368.862	2637.06
369.089	2668.06
369.315	2591.06
369.541	2578.06
369.767	2604.06
369.993	2581.06
370.219	2626.06
370.445	2662.06
370.672	2625.06
370.898	2619.06
371.124	2674.06
371.35	2693.06
371.576	2699.06
371.802	2763.06
372.028	2708.06
372.254	2768.06
372.48	2759.06
372.706	2775.06
372.932	2749.06
373.158	2820.06
373.384	2794.06
373.61	2752.06
373.835	2789.06
374.061	2742.06
374.287	2795.06
374.513	2812.06
374.739	2877.06
374.965	2915.06
375.191	2877.06
375.416	2883.06
375.642	2849.06
375.868	2849.06
376.094	2785.06
376.319	2759.06
376.545	2754.06
376.771	2706.06
376.997	2734.06
377.222	2731.06
377.448	2698.06
377.674	2721.06
377.899	2649.06
378.125	2729.06
378.35	2675.06
378.576	2699.06
378.802	2723.06
379.027	2754.06
379.253	2863.06
379.478	3031.06
379.704	3585.06
379.929	5123.06
380.155	7940.06
380.38	8587.06
380.606	5273.06
380.831	3676.06
381.057	3204.06
381.282	2938.06
381.507	2814.06
381.733	2751.06
381.958	2710.06
382.184	2729.06
382.409	2711.06
382.634	2727.06
382.86	2682.06
383.085	2697.06
383.31	2655.06
383.535	2635.06
383.761	2669.06
383.986	2681.06
384.211	2703.06
384.436	2733.06
384.662	2727.06
384.887	2754.06
385.112	2704.06
385.337	2764.06
385.562	2771.06
385.787	2718.06
386.013	2743.06
386.238	2768.06
386.463	2794.06
386.688	2745.06
386.913	2718.06
387.138	2750.06
387.363	2765.06
387.588	2722.06
387.813	2773.06
388.038	2748.06
388.263	2698.06
388.488	2734.06
388.713	2778.06
388.938	2696.06
389.163	2702.06
389.387	2734.06
389.612	2694.06
389.837	2787.06
390.062	2745.06
390.287	2790.06
390.512	2746.06
390.736	2784.06
390.961	2870.06
391.186	2859.06
391.411	2908.06
391.636	2903.06
391.86	2942.06
392.085	2885.06
392.31	2871.06
392.534	2854.06
392.759	2807.06
392.984	2782.06
393.208	2791.06
393.433	2766.06
393.658	2738.06
393.882	2752.06
394.107	2739.06
394.331	2776.06
394.556	2725.06
394.78	2774.06
395.005	2771.06
395.229	2828.06
395.454	2881.06
395.678	2840.06
395.903	2872.06
396.127	2883.06
396.352	2846.06
396.576	2817.06
396.801	2873.06
397.025	2929.06
397.249	2897.06
397.474	2899.06
397.698	2911.06
397.922	2930.06
398.147	2901.06
398.371	2965.06
398.595	3016.06
398.82	3028.06
399.044	3208.06
399.268	3342.06
399.492	3504.06
399.717	3631.06
399.941	3640.06
400.165	3528.06
400.389	3338.06
400.613	3271.06
400.837	3121.06
401.062	3082.06
401.286	3083.06
401.51	3058.06
401.734	3020.06
401.958	3076.06
402.182	2990.06
402.406	3039.06
402.63	3023.06
402.854	3077.06
403.078	3087.06
403.302	3098.06
403.526	3147.06
403.75	3139.06
403.974	3138.06
404.198	3100.06
404.422	3154.06
404.645	3157.06
404.869	3164.06
405.093	3123.06
405.317	3130.06
405.541	3191.06
405.765	3236.06
405.988	3207.06
406.212	3235.06
406.436	3228.06
406.66	3263.06
406.883	3258.06
407.107	3397.06
407.331	3385.06
407.555	3454.06
407.778	3412.06
408.002	3383.06
408.226	3374.06
408.449	3358.06
408.673	3319.06
408.896	3209.06
409.12	3203.06
409.344	3278.06
409.567	3142.06
409.791	3162.06
410.014	3146.06
410.238	3161.06
410.461	3114.06
410.685	3043.06
410.908	3091.06
411.132	3140.06
411.355	2996.06
411.578	3071.06
411.802	3085.06
412.025	3023.06
412.249	3019.06
412.472	3093.06
412.695	2973.06
412.919	2963.06
413.142	2993.06
413.365	2977.06
413.589	3031.06
413.812	2944.06
414.035	2967.06
414.258	2995.06
414.482	2937.06
414.705	2947.06
414.928	2957.06
415.151	2956.06
415.374	2960.06
415.597	2876.06
415.821	2868.06
416.044	2848.06
416.267	2863.06
416.49	2841.06
416.713	2810.06
416.936	2920.06
417.159	2771.06
417.382	2805.06
417.605	2796.06
417.828	2798.06
418.051	2874.06
418.274	2848.06
418.497	2818.06
418.72	2934.06
418.943	2886.06
419.166	3039.06
419.389	3169.06
419.611	3129.06
419.834	3074.06
420.057	2909.06
420.28	2914.06
420.503	2833.06
420.726	2796.06
420.948	2782.06
421.171	2829.06
421.394	2844.06
421.617	2851.06
421.839	2884.06
422.062	2875.06
422.285	2827.06
422.507	2874.06
422.73	2951.06
422.953	2963.06
423.175	2941.06
423.398	2916.06
423.621	2862.06
423.843	2877.06
424.066	2869.06
424.288	2827.06
424.511	2811.06
424.733	2853.06
424.956	2840.06
425.178	2843.06
425.401	2753.06
425.623	2792.06
425.846	2719.06
426.068	2733.06
426.291	2734.06
426.513	2718.06
426.735	2755.06
426.958	2715.06
427.18	2669.06
427.402	2692.06
427.625	2689.06
427.847	2619.06
428.069	2595.06
428.292	2678.06
428.514	2636.06
428.736	2585.06
428.958	2635.06
429.181	2563.06
429.403	2548.06
429.625	2595.06
429.847	2635.06
430.069	2702.06
430.292	2777.06
430.514	2858.06
430.736	2786.06
430.958	2728.06
431.18	2632.06
431.402	2571.06
431.624	2598.06
431.846	2558.06
432.068	2579.06
432.29	2599.06
432.512	2527.06
432.734	2591.06
432.956	2609.06
433.178	2661.06
433.4	2591.06
433.622	2666.06
433.844	2628.06
434.066	2622.06
434.287	2593.06
434.509	2631.06
434.731	2670.06
434.953	2721.06
435.175	2693.06
435.397	2767.06
435.618	2633.06
435.84	2674.06
436.062	2604.06
436.284	2609.06
436.505	2547.06
436.727	2601.06
436.949	2646.06
437.17	2575.06
437.392	2583.06
437.614	2543.06
437.835	2464.06
438.057	2534.06
438.278	2495.06
438.5	2523.06
438.721	2598.06
438.943	2638.06
439.165	2693.06
439.386	2711.06
439.608	2694.06
439.829	2700.06
440.05	2799.06
440.272	2837.06
440.493	2753.06
440.715	2747.06
440.936	2700.06
441.158	2698.06
441.379	2760.06
441.6	2850.06
441.822	2959.06
442.043	3041.06
442.264	3198.06
442.486	2952.06
442.707	2827.06
442.928	2792.06
443.149	2775.06
443.371	2786.06
443.592	2785.06
443.813	2764.06
444.034	2875.06
444.255	2822.06
444.476	2888.06
444.698	2968.06
444.919	3024.06
445.14	3042.06
445.361	2940.06
445.582	2905.06
445.803	2790.06
446.024	2755.06
446.245	2825.06
446.466	2741.06
446.687	2708.06
446.908	2733.06
447.129	2651.06
447.35	2617.06
447.571	2622.06
447.792	2540.06
448.013	2577.06
448.234	2545.06
448.455	2628.06
448.675	2649.06
448.896	2682.06
449.117	2738.06
449.338	2984.06
449.559	3097.06
449.779	2836.06
450	2619.06
450.221	2542.06
450.442	2512.06
450.662	2472.06
450.883	2493.06
451.104	2554.06
451.324	2495.06
451.545	2555.06
451.766	2557.06
451.986	2593.06
452.207	2781.06
452.428	3626.06
452.648	5549.06
452.869	4547.06
453.089	3177.06
453.31	2961.06
453.53	2935.06
453.751	3013.06
453.971	3125.06
454.192	3047.06
454.412	2699.06
454.633	2504.06
454.853	2528.06
455.073	2418.06
455.294	2456.06
455.514	2443.06
455.734	2421.06
455.955	2402.06
456.175	2430.06
456.395	2381.06
456.616	2443.06
456.836	2411.06
457.056	2490.06
457.276	2463.06
457.497	2576.06
457.717	2674.06
457.937	2552.06
458.157	2533.06
458.377	2519.06
458.598	2579.06
458.818	2575.06
459.038	2578.06
459.258	2615.06
459.478	2600.06
459.698	2645.06
459.918	2719.06
460.138	2737.06
460.358	2835.06
460.578	2805.06
460.798	2835.06
461.018	2819.06
461.238	2805.06
461.458	2847.06
461.678	2898.06
461.898	2939.06
462.118	3020.06
462.338	3018.06
462.558	3071.06
462.777	3149.06
462.997	3227.06
463.217	3377.06
463.437	3477.06
463.657	3527.06
463.876	3471.06
464.096	3283.06
464.316	3148.06
464.536	3138.06
464.755	3044.06
464.975	2983.06
465.195	2910.06
465.414	2802.06
465.634	2761.06
465.854	2706.06
466.073	2689.06
466.293	2653.06
466.512	2619.06
466.732	2643.06
466.951	2784.06
467.171	2972.06
467.391	2893.06
467.61	2689.06
467.829	2604.06
468.049	2605.06
468.268	2550.06
468.488	2519.06
468.707	2523.06
468.927	2559.06
469.146	2575.06
469.365	2602.06
469.585	2611.06
469.804	2694.06
470.023	2699.06
470.243	2744.06
470.462	2783.06
470.681	2971.06
470.901	3313.06
471.12	3739.06
471.339	3784.06
471.558	3123.06
471.777	2829.06
471.997	2773.06
472.216	2696.06
472.435	2606.06
472.654	2594.06
472.873	2577.06
473.092	2629.06
473.311	2614.06
473.53	2574.06
473.749	2678.06
473.968	2778.06
474.187	2635.06
474.406	2528.06
474.625	2549.06
474.844	2587.06
475.063	2560.06
475.282	2602.06
475.501	2630.06
475.72	2640.06
475.939	2622.06
476.158	2716.06
476.377	2753.06
476.596	2709.06
476.814	2737.06
477.033	2721.06
477.252	2708.06
477.471	2813.06
477.69	2885.06
477.908	2869.06
478.127	2941.06
478.346	2922.06
478.564	2987.06
478.783	3049.06
479.002	3052.06
479.22	3088.06
479.439	3107.06
479.658	3074.06
479.876	3083.06
480.095	3093.06
480.313	3141.06
480.532	3233.06
480.751	3231.06
480.969	3158.06
481.188	3055.06
481.406	3109.06
481.624	3149.06
481.843	3199.06
482.061	3189.06
482.28	3147.06
482.498	3173.06
482.717	3115.06
482.935	3154.06
483.153	3228.06
483.372	3234.06
483.59	3213.06
483.808	3323.06
484.027	3385.06
484.245	3565.06
484.463	4033.06
484.681	4484.06
484.9	4105.06
485.118	3772.06
485.336	3713.06
485.554	3784.06
485.772	4005.06
485.99	4503.06
486.209	4790.06
486.427	4090.06
486.645	3642.06
486.863	3469.06
487.081	3429.06
487.299	3409.06
487.517	3317.06
487.735	3318.06
487.953	3391.06
