Data from SnStandardFlinnAPT0064_LampEnergy10_LIBS07252019.E.O._I.C._HRD10591_15-25-30-973.txt Node
Date: Thu Jul 25 15:25:30 EDT 2019
User: cochatt
Spectrometer: HR+D1059
Trigger mode: 1
Integration Time (sec): 1.000000E-1
Scans to average: 1
Electric dark correction enabled: true
Nonlinearity correction enabled: false
Boxcar width: 0
XAxis mode: Wavelengths
Number of Pixels in Spectrum: 2048
>>>>>Begin Spectral Data<<<<<
223.165	-23.06
223.4	-23.06
223.635	-23.06
223.869	-20.06
224.104	-16.06
224.338	-13.06
224.573	-6.06
224.808	-6.06
225.042	4.94
225.277	-12.06
225.511	-22.06
225.746	7.94
225.98	8.94
226.215	1.94
226.449	15.94
226.683	20.94
226.918	20.94
227.152	36.94
227.387	39.94
227.621	22.94
227.856	42.94
228.09	59.94
228.324	43.94
228.559	50.94
228.793	65.94
229.027	57.94
229.262	74.94
229.496	66.94
229.73	58.94
229.964	72.94
230.199	72.94
230.433	61.94
230.667	79.94
230.901	69.94
231.136	73.94
231.37	77.94
231.604	85.94
231.838	98.94
232.072	95.94
232.306	108.94
232.541	81.94
232.775	82.94
233.009	87.94
233.243	74.94
233.477	87.94
233.711	95.94
233.945	83.94
234.179	98.94
234.413	86.94
234.647	70.94
234.881	77.94
235.115	93.94
235.349	81.94
235.583	85.94
235.817	118.94
236.051	110.94
236.285	89.94
236.519	69.94
236.753	88.94
236.987	80.94
237.221	83.94
237.455	67.94
237.689	82.94
237.922	78.94
238.156	78.94
238.39	85.94
238.624	79.94
238.858	77.94
239.091	83.94
239.325	79.94
239.559	71.94
239.793	74.94
240.027	87.94
240.26	67.94
240.494	86.94
240.728	73.94
240.961	83.94
241.195	85.94
241.429	79.94
241.662	92.94
241.896	92.94
242.13	110.94
242.363	119.94
242.597	132.94
242.83	118.94
243.064	120.94
243.298	145.94
243.531	130.94
243.765	85.94
243.998	83.94
244.232	89.94
244.465	75.94
244.699	95.94
244.932	72.94
245.166	81.94
245.399	70.94
245.633	88.94
245.866	79.94
246.099	91.94
246.333	79.94
246.566	74.94
246.8	95.94
247.033	87.94
247.266	81.94
247.5	73.94
247.733	70.94
247.966	76.94
248.2	79.94
248.433	92.94
248.666	111.94
248.899	115.94
249.133	92.94
249.366	103.94
249.599	112.94
249.832	100.94
250.066	119.94
250.299	88.94
250.532	77.94
250.765	75.94
250.998	73.94
251.231	88.94
251.465	74.94
251.698	70.94
251.931	99.94
252.164	85.94
252.397	86.94
252.63	89.94
252.863	82.94
253.096	81.94
253.329	83.94
253.562	88.94
253.795	90.94
254.028	89.94
254.261	87.94
254.494	81.94
254.727	111.94
254.96	113.94
255.193	125.94
255.426	83.94
255.659	82.94
255.892	87.94
256.124	94.94
256.357	90.94
256.59	84.94
256.823	81.94
257.056	109.94
257.289	117.94
257.521	140.94
257.754	114.94
257.987	87.94
258.22	75.94
258.452	81.94
258.685	92.94
258.918	84.94
259.151	92.94
259.383	99.94
259.616	123.94
259.849	112.94
260.081	93.94
260.314	93.94
260.547	79.94
260.779	76.94
261.012	73.94
261.244	76.94
261.477	73.94
261.71	82.94
261.942	83.94
262.175	73.94
262.407	75.94
262.64	79.94
262.872	84.94
263.105	88.94
263.337	91.94
263.57	87.94
263.802	91.94
264.035	76.94
264.267	83.94
264.499	84.94
264.732	82.94
264.964	100.94
265.197	86.94
265.429	81.94
265.661	91.94
265.894	85.94
266.126	107.94
266.358	127.94
266.591	113.94
266.823	88.94
267.055	81.94
267.287	71.94
267.52	78.94
267.752	95.94
267.984	82.94
268.216	93.94
268.448	85.94
268.681	85.94
268.913	98.94
269.145	93.94
269.377	101.94
269.609	95.94
269.841	88.94
270.073	101.94
270.306	121.94
270.538	160.94
270.77	260.94
271.002	291.94
271.234	173.94
271.466	113.94
271.698	97.94
271.93	85.94
272.162	80.94
272.394	80.94
272.626	90.94
272.858	71.94
273.09	77.94
273.322	74.94
273.553	88.94
273.785	90.94
274.017	85.94
274.249	87.94
274.481	81.94
274.713	83.94
274.945	87.94
275.176	74.94
275.408	74.94
275.64	88.94
275.872	80.94
276.104	100.94
276.335	100.94
276.567	80.94
276.799	86.94
277.031	84.94
277.262	85.94
277.494	96.94
277.726	104.94
277.957	138.94
278.189	195.94
278.421	185.94
278.652	161.94
278.884	157.94
279.115	120.94
279.347	99.94
279.579	100.94
279.81	92.94
280.042	97.94
280.273	83.94
280.505	95.94
280.736	103.94
280.968	110.94
281.199	147.94
281.431	195.94
281.662	222.94
281.894	141.94
282.125	98.94
282.356	96.94
282.588	111.94
282.819	95.94
283.051	102.94
283.282	121.94
283.513	152.94
283.745	229.94
283.976	409.94
284.207	590.94
284.439	453.94
284.67	195.94
284.901	192.94
285.132	273.94
285.364	305.94
285.595	181.94
285.826	137.94
286.057	195.94
286.288	307.94
286.52	448.94
286.751	356.94
286.982	152.94
287.213	111.94
287.444	108.94
287.675	101.94
287.906	95.94
288.138	88.94
288.369	93.94
288.6	95.94
288.831	89.94
289.062	79.94
289.293	80.94
289.524	89.94
289.755	93.94
289.986	100.94
290.217	89.94
290.448	109.94
290.679	103.94
290.91	115.94
291.141	133.94
291.371	174.94
291.602	199.94
291.833	139.94
292.064	100.94
292.295	98.94
292.526	94.94
292.757	93.94
292.987	95.94
293.218	82.94
293.449	87.94
293.68	79.94
293.91	69.94
294.141	66.94
294.372	93.94
294.603	87.94
294.833	93.94
295.064	82.94
295.295	97.94
295.525	87.94
295.756	97.94
295.987	104.94
296.217	91.94
296.448	78.94
296.679	93.94
296.909	89.94
297.14	86.94
297.37	96.94
297.601	92.94
297.831	86.94
298.062	89.94
298.292	86.94
298.523	84.94
298.753	99.94
298.984	102.94
299.214	98.94
299.445	96.94
299.675	119.94
299.905	103.94
300.136	112.94
300.366	130.94
300.597	200.94
300.827	333.94
301.057	513.94
301.288	470.94
301.518	195.94
301.748	115.94
301.979	114.94
302.209	91.94
302.439	114.94
302.669	133.94
302.9	196.94
303.13	345.94
303.36	627.94
303.59	925.94
303.82	624.94
304.051	213.94
304.281	143.94
304.511	121.94
304.741	121.94
304.971	115.94
305.201	96.94
305.431	95.94
305.661	92.94
305.891	86.94
306.121	97.94
306.352	98.94
306.582	109.94
306.812	117.94
307.042	102.94
307.272	109.94
307.502	86.94
307.731	100.94
307.961	98.94
308.191	110.94
308.421	94.94
308.651	99.94
308.881	87.94
309.111	82.94
309.341	102.94
309.571	96.94
309.8	77.94
310.03	96.94
310.26	100.94
310.49	87.94
310.72	102.94
310.949	89.94
311.179	96.94
311.409	92.94
311.639	92.94
311.868	96.94
312.098	98.94
312.328	104.94
312.557	98.94
312.787	114.94
313.017	112.94
313.246	88.94
313.476	112.94
313.706	109.94
313.935	127.94
314.165	167.94
314.394	189.94
314.624	148.94
314.853	123.94
315.083	110.94
315.312	121.94
315.542	107.94
315.771	115.94
316.001	121.94
316.23	124.94
316.46	131.94
316.689	134.94
316.919	213.94
317.148	366.94
317.377	639.94
317.607	1073.94
317.836	1045.94
318.065	383.94
318.295	177.94
318.524	123.94
318.753	117.94
318.983	117.94
319.212	106.94
319.441	97.94
319.67	104.94
319.9	95.94
320.129	101.94
320.358	116.94
320.587	119.94
320.816	109.94
321.046	106.94
321.275	110.94
321.504	122.94
321.733	124.94
321.962	126.94
322.191	135.94
322.42	116.94
322.649	124.94
322.878	98.94
323.108	129.94
323.337	113.94
323.566	111.94
323.795	121.94
324.024	127.94
324.253	121.94
324.482	162.94
324.71	174.94
324.939	210.94
325.168	179.94
325.397	154.94
325.626	188.94
325.855	347.94
326.084	658.94
326.313	1153.94
326.542	1182.94
326.77	441.94
326.999	195.94
327.228	168.94
327.457	180.94
327.686	168.94
327.914	135.94
328.143	118.94
328.372	110.94
328.6	136.94
328.829	110.94
329.058	102.94
329.287	110.94
329.515	98.94
329.744	102.94
329.972	88.94
330.201	97.94
330.43	108.94
330.658	114.94
330.887	102.94
331.115	102.94
331.344	102.94
331.572	111.94
331.801	91.94
332.03	120.94
332.258	114.94
332.486	132.94
332.715	221.94
332.943	371.94
333.172	559.94
333.4	507.94
333.629	209.94
333.857	123.94
334.085	109.94
334.314	119.94
334.542	96.94
334.771	109.94
334.999	115.94
335.227	117.94
335.455	115.94
335.684	109.94
335.912	91.94
336.14	106.94
336.369	105.94
336.597	94.94
336.825	115.94
337.053	111.94
337.281	95.94
337.51	98.94
337.738	109.94
337.966	111.94
338.194	104.94
338.422	109.94
338.65	114.94
338.878	105.94
339.106	107.94
339.334	128.94
339.562	99.94
339.79	117.94
340.018	104.94
340.246	98.94
340.474	88.94
340.702	110.94
340.93	116.94
341.158	101.94
341.386	100.94
341.614	116.94
341.842	122.94
342.07	99.94
342.298	119.94
342.526	113.94
342.754	96.94
342.981	112.94
343.209	87.94
343.437	99.94
343.665	105.94
343.893	95.94
344.12	98.94
344.348	110.94
344.576	87.94
344.804	100.94
345.031	98.94
345.259	99.94
345.487	112.94
345.714	105.94
345.942	107.94
346.17	113.94
346.397	99.94
346.625	95.94
346.853	106.94
347.08	91.94
347.308	103.94
347.535	94.94
347.763	93.94
347.99	95.94
348.218	95.94
348.445	97.94
348.673	98.94
348.9	118.94
349.128	121.94
349.355	117.94
349.583	98.94
349.81	99.94
350.037	112.94
350.265	105.94
350.492	105.94
350.72	99.94
350.947	101.94
351.174	89.94
351.402	99.94
351.629	104.94
351.856	97.94
352.083	103.94
352.311	104.94
352.538	100.94
352.765	112.94
352.992	97.94
353.22	88.94
353.447	96.94
353.674	101.94
353.901	99.94
354.128	98.94
354.355	93.94
354.583	102.94
354.81	99.94
355.037	90.94
355.264	96.94
355.491	103.94
355.718	98.94
355.945	93.94
356.172	94.94
356.399	102.94
356.626	93.94
356.853	91.94
357.08	100.94
357.307	95.94
357.534	106.94
357.761	95.94
357.988	104.94
358.215	104.94
358.441	113.94
358.668	108.94
358.895	109.94
359.122	112.94
359.349	103.94
359.576	112.94
359.802	106.94
360.029	106.94
360.256	99.94
360.483	110.94
360.709	101.94
360.936	109.94
361.163	96.94
361.39	102.94
361.616	105.94
361.843	106.94
362.07	105.94
362.296	118.94
362.523	95.94
362.749	109.94
362.976	95.94
363.203	103.94
363.429	84.94
363.656	89.94
363.882	82.94
364.109	104.94
364.335	111.94
364.562	95.94
364.788	93.94
365.015	116.94
365.241	125.94
365.468	148.94
365.694	193.94
365.92	173.94
366.147	108.94
366.373	96.94
366.599	86.94
366.826	86.94
367.052	97.94
367.278	100.94
367.505	92.94
367.731	106.94
367.957	90.94
368.184	97.94
368.41	97.94
368.636	101.94
368.862	116.94
369.089	99.94
369.315	111.94
369.541	100.94
369.767	92.94
369.993	106.94
370.219	98.94
370.445	111.94
370.672	84.94
370.898	105.94
371.124	93.94
371.35	101.94
371.576	109.94
371.802	116.94
372.028	94.94
372.254	112.94
372.48	118.94
372.706	105.94
372.932	98.94
373.158	95.94
373.384	92.94
373.61	98.94
373.835	93.94
374.061	96.94
374.287	88.94
374.513	88.94
374.739	96.94
374.965	94.94
375.191	93.94
375.416	96.94
375.642	84.94
375.868	96.94
376.094	97.94
376.319	83.94
376.545	95.94
376.771	98.94
376.997	95.94
377.222	104.94
377.448	100.94
377.674	103.94
377.899	100.94
378.125	88.94
378.35	109.94
378.576	102.94
378.802	98.94
379.027	100.94
379.253	126.94
379.478	156.94
379.704	231.94
379.929	560.94
380.155	1111.94
380.38	1187.94
380.606	397.94
380.831	165.94
381.057	111.94
381.282	96.94
381.507	86.94
381.733	106.94
381.958	93.94
382.184	99.94
382.409	88.94
382.634	81.94
382.86	105.94
383.085	93.94
383.31	98.94
383.535	103.94
383.761	112.94
383.986	93.94
384.211	100.94
384.436	113.94
384.662	98.94
384.887	96.94
385.112	104.94
385.337	95.94
385.562	99.94
385.787	102.94
386.013	105.94
386.238	107.94
386.463	102.94
386.688	93.94
386.913	102.94
387.138	105.94
387.363	93.94
387.588	89.94
387.813	75.94
388.038	87.94
388.263	97.94
388.488	90.94
388.713	106.94
388.938	81.94
389.163	102.94
389.387	88.94
389.612	91.94
389.837	84.94
390.062	94.94
390.287	84.94
390.512	85.94
390.736	105.94
390.961	93.94
391.186	98.94
391.411	87.94
391.636	89.94
391.86	97.94
392.085	93.94
392.31	102.94
392.534	101.94
392.759	94.94
392.984	86.94
393.208	97.94
393.433	116.94
393.658	117.94
393.882	91.94
394.107	104.94
394.331	77.94
394.556	82.94
394.78	102.94
395.005	88.94
395.229	85.94
395.454	98.94
395.678	87.94
395.903	98.94
396.127	102.94
396.352	106.94
396.576	103.94
396.801	102.94
397.025	111.94
397.249	90.94
397.474	93.94
397.698	83.94
397.922	98.94
398.147	83.94
398.371	91.94
398.595	95.94
398.82	83.94
399.044	103.94
399.268	98.94
399.492	86.94
399.717	83.94
399.941	84.94
400.165	77.94
400.389	82.94
400.613	96.94
400.837	80.94
401.062	86.94
401.286	95.94
401.51	85.94
401.734	103.94
401.958	101.94
402.182	86.94
402.406	96.94
402.63	95.94
402.854	98.94
403.078	91.94
403.302	98.94
403.526	94.94
403.75	93.94
403.974	84.94
404.198	89.94
404.422	89.94
404.645	88.94
404.869	87.94
405.093	90.94
405.317	99.94
405.541	113.94
405.765	107.94
405.988	116.94
406.212	97.94
406.436	96.94
406.66	93.94
406.883	96.94
407.107	82.94
407.331	90.94
407.555	86.94
407.778	92.94
408.002	94.94
408.226	103.94
408.449	110.94
408.673	95.94
408.896	87.94
409.12	93.94
409.344	99.94
409.567	111.94
409.791	83.94
410.014	106.94
410.238	81.94
410.461	86.94
410.685	85.94
410.908	91.94
411.132	93.94
411.355	90.94
411.578	89.94
411.802	110.94
412.025	81.94
412.249	97.94
412.472	91.94
412.695	101.94
412.919	103.94
413.142	88.94
413.365	88.94
413.589	96.94
413.812	91.94
414.035	102.94
414.258	105.94
414.482	95.94
414.705	98.94
414.928	89.94
415.151	90.94
415.374	97.94
415.597	104.94
415.821	89.94
416.044	101.94
416.267	92.94
416.49	78.94
416.713	80.94
416.936	97.94
417.159	98.94
417.382	97.94
417.605	95.94
417.828	92.94
418.051	94.94
418.274	103.94
418.497	94.94
418.72	90.94
418.943	98.94
419.166	82.94
419.389	109.94
419.611	97.94
419.834	94.94
420.057	99.94
420.28	104.94
420.503	97.94
420.726	102.94
420.948	93.94
421.171	90.94
421.394	101.94
421.617	94.94
421.839	94.94
422.062	83.94
422.285	94.94
422.507	101.94
422.73	100.94
422.953	123.94
423.175	90.94
423.398	95.94
423.621	96.94
423.843	93.94
424.066	93.94
424.288	82.94
424.511	79.94
424.733	108.94
424.956	90.94
425.178	98.94
425.401	101.94
425.623	105.94
425.846	94.94
426.068	84.94
426.291	92.94
426.513	101.94
426.735	79.94
426.958	80.94
427.18	91.94
427.402	91.94
427.625	94.94
427.847	85.94
428.069	89.94
428.292	74.94
428.514	97.94
428.736	104.94
428.958	98.94
429.181	90.94
429.403	93.94
429.625	87.94
429.847	88.94
430.069	92.94
430.292	101.94
430.514	106.94
430.736	90.94
430.958	95.94
431.18	92.94
431.402	81.94
431.624	100.94
431.846	85.94
432.068	91.94
432.29	86.94
432.512	105.94
432.734	90.94
432.956	100.94
433.178	84.94
433.4	89.94
433.622	83.94
433.844	83.94
434.066	84.94
434.287	85.94
434.509	84.94
434.731	84.94
434.953	105.94
435.175	86.94
435.397	86.94
435.618	106.94
435.84	98.94
436.062	101.94
436.284	105.94
436.505	86.94
436.727	83.94
436.949	100.94
437.17	97.94
437.392	88.94
437.614	87.94
437.835	79.94
438.057	93.94
438.278	80.94
438.5	102.94
438.721	97.94
438.943	110.94
439.165	103.94
439.386	102.94
439.608	92.94
439.829	100.94
440.05	94.94
440.272	106.94
440.493	90.94
440.715	99.94
440.936	94.94
441.158	89.94
441.379	87.94
441.6	96.94
441.822	110.94
442.043	97.94
442.264	121.94
442.486	85.94
442.707	90.94
442.928	89.94
443.149	83.94
443.371	92.94
443.592	90.94
443.813	93.94
444.034	88.94
444.255	99.94
444.476	82.94
444.698	88.94
444.919	88.94
445.14	203.94
445.361	148.94
445.582	97.94
445.803	89.94
446.024	84.94
446.245	93.94
446.466	101.94
446.687	94.94
446.908	88.94
447.129	84.94
447.35	93.94
447.571	85.94
447.792	90.94
448.013	85.94
448.234	95.94
448.455	101.94
448.675	100.94
448.896	105.94
449.117	110.94
449.338	120.94
449.559	139.94
449.779	102.94
450	109.94
450.221	102.94
450.442	106.94
450.662	114.94
450.883	102.94
451.104	101.94
451.324	103.94
451.545	108.94
451.766	103.94
451.986	117.94
452.207	173.94
452.428	403.94
452.648	980.94
452.869	543.94
453.089	166.94
453.31	118.94
453.53	121.94
453.751	125.94
453.971	141.94
454.192	151.94
454.412	109.94
454.633	103.94
454.853	99.94
455.073	94.94
455.294	88.94
455.514	92.94
455.734	81.94
455.955	93.94
456.175	89.94
456.395	84.94
456.616	91.94
456.836	97.94
457.056	78.94
457.276	94.94
457.497	103.94
457.717	101.94
457.937	99.94
458.157	98.94
458.377	105.94
458.598	88.94
458.818	99.94
459.038	78.94
459.258	70.94
459.478	93.94
459.698	82.94
459.918	77.94
460.138	106.94
460.358	83.94
460.578	87.94
460.798	109.94
461.018	81.94
461.238	88.94
461.458	86.94
461.678	91.94
461.898	93.94
462.118	86.94
462.338	90.94
462.558	84.94
462.777	92.94
462.997	102.94
463.217	100.94
463.437	110.94
463.657	155.94
463.876	155.94
464.096	114.94
464.316	92.94
464.536	90.94
464.755	101.94
464.975	88.94
465.195	86.94
465.414	85.94
465.634	82.94
465.854	81.94
466.073	78.94
466.293	75.94
466.512	83.94
466.732	99.94
466.951	102.94
467.171	125.94
467.391	125.94
467.61	116.94
467.829	101.94
468.049	90.94
468.268	86.94
468.488	94.94
468.707	91.94
468.927	98.94
469.146	92.94
469.365	92.94
469.585	89.94
469.804	93.94
470.023	96.94
470.243	94.94
470.462	84.94
470.681	111.94
470.901	126.94
471.12	164.94
471.339	187.94
471.558	111.94
471.777	100.94
471.997	93.94
472.216	93.94
472.435	84.94
472.654	82.94
472.873	110.94
473.092	89.94
473.311	83.94
473.53	89.94
473.749	94.94
473.968	89.94
474.187	105.94
474.406	94.94
474.625	78.94
474.844	95.94
475.063	103.94
475.282	91.94
475.501	84.94
475.72	88.94
475.939	94.94
476.158	86.94
476.377	95.94
476.596	96.94
476.814	86.94
477.033	96.94
477.252	76.94
477.471	92.94
477.69	93.94
477.908	91.94
478.127	105.94
478.346	93.94
478.564	96.94
478.783	98.94
479.002	79.94
479.22	88.94
479.439	99.94
479.658	98.94
479.876	92.94
480.095	85.94
480.313	96.94
480.532	89.94
480.751	95.94
480.969	89.94
481.188	96.94
481.406	110.94
481.624	101.94
481.843	95.94
482.061	100.94
482.28	83.94
482.498	81.94
482.717	84.94
482.935	79.94
483.153	99.94
483.372	102.94
483.59	104.94
483.808	91.94
484.027	107.94
484.245	91.94
484.463	151.94
484.681	205.94
484.9	133.94
485.118	117.94
485.336	99.94
485.554	93.94
485.772	102.94
485.99	163.94
486.209	220.94
486.427	137.94
486.645	103.94
486.863	97.94
487.081	85.94
487.299	89.94
487.517	94.94
487.735	88.94
487.953	96.94
488.171	99.94
488.389	91.94
488.607	83.94
488.825	87.94
489.043	86.94
489.261	104.94
489.479	95.94
489.696	91.94
489.914	83.94
490.132	110.94
490.35	90.94
490.568	97.94
490.786	103.94
491.003	94.94
491.221	95.94
491.439	102.94
491.657	94.94
491.874	100.94
492.092	91.94
492.31	94.94
492.527	99.94
492.745	88.94
492.963	103.94
493.18	112.94
493.398	97.94
493.615	91.94
493.833	109.94
494.05	99.94
494.268	97.94
494.485	106.94
494.703	100.94
494.92	102.94
495.138	96.94
495.355	88.94
495.573	104.94
495.79	91.94
496.008	91.94
496.225	101.94
496.442	94.94
496.66	116.94
496.877	129.94
497.094	138.94
497.312	115.94
497.529	96.94
497.746	96.94
497.963	84.94
498.181	107.94
498.398	92.94
498.615	104.94
498.832	91.94
499.049	92.94
499.267	111.94
499.484	133.94
499.701	101.94
499.918	87.94
500.135	104.94
500.352	91.94
500.569	83.94
500.786	96.94
501.003	96.94
501.22	91.94
501.437	95.94
501.654	97.94
501.871	95.94
502.088	92.94
502.305	85.94
502.522	117.94
502.739	83.94
502.956	91.94
503.172	93.94
503.389	89.94
503.606	96.94
503.823	97.94
504.04	101.94
504.256	109.94
504.473	93.94
504.69	92.94
504.907	112.94
505.123	105.94
505.34	105.94
505.557	84.94
505.773	91.94
505.99	97.94
506.207	101.94
506.423	90.94
506.64	107.94
506.856	100.94
507.073	97.94
507.289	93.94
507.506	95.94
507.722	100.94
507.939	105.94
508.155	112.94
508.372	101.94
508.588	93.94
508.805	99.94
509.021	95.94
509.238	92.94
509.454	121.94
509.67	153.94
509.887	109.94
510.103	101.94
510.319	102.94
510.536	89.94
510.752	91.94
510.968	109.94
511.184	79.94
511.401	91.94
511.617	95.94
511.833	100.94
