Data from SnStandardFlinnAPT0064_QswitchEnergy10_LIBS07252019.E.O._I.C._HRD10591_15-27-33-973.txt Node
Date: Thu Jul 25 15:27:33 EDT 2019
User: cochatt
Spectrometer: HR+D1059
Trigger mode: 1
Integration Time (sec): 1.000000E-1
Scans to average: 1
Electric dark correction enabled: true
Nonlinearity correction enabled: false
Boxcar width: 0
XAxis mode: Wavelengths
Number of Pixels in Spectrum: 2048
>>>>>Begin Spectral Data<<<<<
223.165	-13.38
223.4	-13.38
223.635	-13.38
223.869	-12.38
224.104	-21.38
224.338	-21.38
224.573	-14.38
224.808	-16.38
225.042	6.62
225.277	-22.38
225.511	-9.38
225.746	3.62
225.98	3.62
226.215	16.62
226.449	25.62
226.683	25.62
226.918	37.62
227.152	11.62
227.387	27.62
227.621	29.62
227.856	57.62
228.09	41.62
228.324	40.62
228.559	52.62
228.793	55.62
229.027	72.62
229.262	86.62
229.496	71.62
229.73	78.62
229.964	72.62
230.199	79.62
230.433	60.62
230.667	75.62
230.901	84.62
231.136	81.62
231.37	81.62
231.604	86.62
231.838	87.62
232.072	118.62
232.306	114.62
232.541	104.62
232.775	85.62
233.009	82.62
233.243	92.62
233.477	91.62
233.711	101.62
233.945	97.62
234.179	93.62
234.413	73.62
234.647	90.62
234.881	97.62
235.115	92.62
235.349	94.62
235.583	95.62
235.817	126.62
236.051	122.62
236.285	97.62
236.519	85.62
236.753	86.62
236.987	92.62
237.221	81.62
237.455	80.62
237.689	72.62
237.922	81.62
238.156	79.62
238.39	88.62
238.624	82.62
238.858	78.62
239.091	84.62
239.325	85.62
239.559	74.62
239.793	85.62
240.027	76.62
240.26	64.62
240.494	84.62
240.728	83.62
240.961	79.62
241.195	103.62
241.429	89.62
241.662	85.62
241.896	96.62
242.13	92.62
242.363	132.62
242.597	170.62
242.83	131.62
243.064	121.62
243.298	178.62
243.531	145.62
243.765	94.62
243.998	70.62
244.232	85.62
244.465	79.62
244.699	86.62
244.932	87.62
245.166	86.62
245.399	83.62
245.633	61.62
245.866	91.62
246.099	102.62
246.333	83.62
246.566	85.62
246.8	88.62
247.033	95.62
247.266	74.62
247.5	74.62
247.733	78.62
247.966	96.62
248.2	81.62
248.433	90.62
248.666	126.62
248.899	129.62
249.133	99.62
249.366	96.62
249.599	93.62
249.832	122.62
250.066	135.62
250.299	96.62
250.532	102.62
250.765	75.62
250.998	93.62
251.231	79.62
251.465	84.62
251.698	92.62
251.931	78.62
252.164	90.62
252.397	83.62
252.63	88.62
252.863	104.62
253.096	95.62
253.329	88.62
253.562	80.62
253.795	82.62
254.028	86.62
254.261	89.62
254.494	99.62
254.727	112.62
254.96	147.62
255.193	116.62
255.426	89.62
255.659	92.62
255.892	83.62
256.124	94.62
256.357	100.62
256.59	106.62
256.823	83.62
257.056	127.62
257.289	159.62
257.521	176.62
257.754	138.62
257.987	82.62
258.22	79.62
258.452	101.62
258.685	82.62
258.918	99.62
259.151	99.62
259.383	107.62
259.616	131.62
259.849	165.62
260.081	101.62
260.314	85.62
260.547	90.62
260.779	88.62
261.012	84.62
261.244	93.62
261.477	97.62
261.71	90.62
261.942	87.62
262.175	92.62
262.407	56.62
262.64	85.62
262.872	76.62
263.105	80.62
263.337	101.62
263.57	91.62
263.802	94.62
264.035	88.62
264.267	74.62
264.499	101.62
264.732	83.62
264.964	85.62
265.197	93.62
265.429	89.62
265.661	85.62
265.894	103.62
266.126	121.62
266.358	170.62
266.591	147.62
266.823	97.62
267.055	99.62
267.287	89.62
267.52	79.62
267.752	81.62
267.984	82.62
268.216	85.62
268.448	87.62
268.681	94.62
268.913	94.62
269.145	89.62
269.377	89.62
269.609	96.62
269.841	101.62
270.073	112.62
270.306	125.62
270.538	196.62
270.77	319.62
271.002	369.62
271.234	217.62
271.466	117.62
271.698	91.62
271.93	91.62
272.162	95.62
272.394	85.62
272.626	72.62
272.858	83.62
273.09	81.62
273.322	91.62
273.553	75.62
273.785	78.62
274.017	87.62
274.249	81.62
274.481	89.62
274.713	88.62
274.945	90.62
275.176	90.62
275.408	82.62
275.64	79.62
275.872	81.62
276.104	87.62
276.335	97.62
276.567	93.62
276.799	93.62
277.031	98.62
277.262	98.62
277.494	101.62
277.726	126.62
277.957	185.62
278.189	239.62
278.421	229.62
278.652	181.62
278.884	178.62
279.115	147.62
279.347	111.62
279.579	90.62
279.81	98.62
280.042	87.62
280.273	107.62
280.505	98.62
280.736	99.62
280.968	121.62
281.199	159.62
281.431	214.62
281.662	254.62
281.894	145.62
282.125	101.62
282.356	96.62
282.588	116.62
282.819	105.62
283.051	131.62
283.282	135.62
283.513	194.62
283.745	301.62
283.976	547.62
284.207	798.62
284.439	622.62
284.67	257.62
284.901	266.62
285.132	342.62
285.364	377.62
285.595	237.62
285.826	183.62
286.057	247.62
286.288	409.62
286.52	610.62
286.751	513.62
286.982	200.62
287.213	117.62
287.444	111.62
287.675	94.62
287.906	102.62
288.138	97.62
288.369	106.62
288.6	107.62
288.831	102.62
289.062	84.62
289.293	87.62
289.524	81.62
289.755	100.62
289.986	84.62
290.217	105.62
290.448	99.62
290.679	99.62
290.91	118.62
291.141	168.62
291.371	208.62
291.602	279.62
291.833	203.62
292.064	106.62
292.295	102.62
292.526	111.62
292.757	104.62
292.987	102.62
293.218	85.62
293.449	105.62
293.68	77.62
293.91	89.62
294.141	98.62
294.372	96.62
294.603	113.62
294.833	91.62
295.064	81.62
295.295	94.62
295.525	84.62
295.756	101.62
295.987	91.62
296.217	86.62
296.448	98.62
296.679	85.62
296.909	79.62
297.14	93.62
297.37	82.62
297.601	102.62
297.831	95.62
298.062	93.62
298.292	107.62
298.523	113.62
298.753	111.62
298.984	95.62
299.214	97.62
299.445	117.62
299.675	113.62
299.905	113.62
300.136	118.62
300.366	166.62
300.597	272.62
300.827	469.62
301.057	674.62
301.288	641.62
301.518	239.62
301.748	135.62
301.979	139.62
302.209	137.62
302.439	146.62
302.669	163.62
302.9	265.62
303.13	493.62
303.36	915.62
303.59	1190.62
303.82	829.62
304.051	307.62
304.281	156.62
304.511	135.62
304.741	111.62
304.971	98.62
305.201	105.62
305.431	119.62
305.661	108.62
305.891	103.62
306.121	90.62
306.352	103.62
306.582	98.62
306.812	109.62
307.042	106.62
307.272	102.62
307.502	106.62
307.731	113.62
307.961	110.62
308.191	101.62
308.421	110.62
308.651	92.62
308.881	94.62
309.111	113.62
309.341	104.62
309.571	102.62
309.8	105.62
310.03	101.62
310.26	110.62
310.49	118.62
310.72	113.62
310.949	116.62
311.179	110.62
311.409	102.62
311.639	106.62
311.868	106.62
312.098	107.62
312.328	110.62
312.557	120.62
312.787	109.62
313.017	110.62
313.246	102.62
313.476	101.62
313.706	131.62
313.935	136.62
314.165	168.62
314.394	228.62
314.624	169.62
314.853	120.62
315.083	127.62
315.312	133.62
315.542	136.62
315.771	131.62
316.001	133.62
316.23	145.62
316.46	146.62
316.689	161.62
316.919	262.62
317.148	516.62
317.377	913.62
317.607	1530.62
317.836	1377.62
318.065	520.62
318.295	216.62
318.524	159.62
318.753	129.62
318.983	119.62
319.212	123.62
319.441	101.62
319.67	107.62
319.9	103.62
320.129	113.62
320.358	118.62
320.587	119.62
320.816	121.62
321.046	111.62
321.275	120.62
321.504	138.62
321.733	140.62
321.962	159.62
322.191	151.62
322.42	133.62
322.649	137.62
322.878	123.62
323.108	110.62
323.337	125.62
323.566	132.62
323.795	104.62
324.024	130.62
324.253	141.62
324.482	164.62
324.71	212.62
324.939	288.62
325.168	241.62
325.397	200.62
325.626	239.62
325.855	484.62
326.084	945.62
326.313	1582.62
326.542	1570.62
326.77	602.62
326.999	270.62
327.228	200.62
327.457	234.62
327.686	229.62
327.914	154.62
328.143	121.62
328.372	121.62
328.6	123.62
328.829	132.62
329.058	113.62
329.287	117.62
329.515	119.62
329.744	119.62
329.972	117.62
330.201	124.62
330.43	118.62
330.658	111.62
330.887	106.62
331.115	115.62
331.344	114.62
331.572	119.62
331.801	116.62
332.03	109.62
332.258	120.62
332.486	166.62
332.715	293.62
332.943	490.62
333.172	774.62
333.4	647.62
333.629	247.62
333.857	125.62
334.085	117.62
334.314	140.62
334.542	121.62
334.771	115.62
334.999	114.62
335.227	124.62
335.455	114.62
335.684	117.62
335.912	111.62
336.14	104.62
336.369	99.62
336.597	120.62
336.825	109.62
337.053	120.62
337.281	111.62
337.51	108.62
337.738	123.62
337.966	114.62
338.194	104.62
338.422	123.62
338.65	122.62
338.878	112.62
339.106	116.62
339.334	124.62
339.562	122.62
339.79	102.62
340.018	117.62
340.246	93.62
340.474	97.62
340.702	121.62
340.93	121.62
341.158	117.62
341.386	123.62
341.614	113.62
341.842	113.62
342.07	117.62
342.298	124.62
342.526	122.62
342.754	115.62
342.981	113.62
343.209	112.62
343.437	101.62
343.665	101.62
343.893	103.62
344.12	111.62
344.348	115.62
344.576	113.62
344.804	103.62
345.031	120.62
345.259	121.62
345.487	105.62
345.714	105.62
345.942	86.62
346.17	113.62
346.397	95.62
346.625	106.62
346.853	91.62
347.08	99.62
347.308	118.62
347.535	113.62
347.763	104.62
347.99	95.62
348.218	100.62
348.445	100.62
348.673	101.62
348.9	103.62
349.128	126.62
349.355	117.62
349.583	106.62
349.81	103.62
350.037	113.62
350.265	105.62
350.492	112.62
350.72	107.62
350.947	114.62
351.174	117.62
351.402	112.62
351.629	115.62
351.856	116.62
352.083	115.62
352.311	105.62
352.538	115.62
352.765	120.62
352.992	113.62
353.22	98.62
353.447	98.62
353.674	110.62
353.901	97.62
354.128	90.62
354.355	106.62
354.583	106.62
354.81	107.62
355.037	101.62
355.264	100.62
355.491	105.62
355.718	102.62
355.945	103.62
356.172	113.62
356.399	95.62
356.626	100.62
356.853	121.62
357.08	101.62
357.307	109.62
357.534	109.62
357.761	108.62
357.988	101.62
358.215	108.62
358.441	112.62
358.668	112.62
358.895	129.62
359.122	114.62
359.349	116.62
359.576	129.62
359.802	111.62
360.029	104.62
360.256	115.62
360.483	115.62
360.709	103.62
360.936	120.62
361.163	119.62
361.39	106.62
361.616	94.62
361.843	117.62
362.07	117.62
362.296	100.62
362.523	117.62
362.749	98.62
362.976	106.62
363.203	111.62
363.429	99.62
363.656	111.62
363.882	100.62
364.109	119.62
364.335	105.62
364.562	101.62
364.788	106.62
365.015	113.62
365.241	137.62
365.468	193.62
365.694	237.62
365.92	201.62
366.147	133.62
366.373	106.62
366.599	111.62
366.826	97.62
367.052	100.62
367.278	88.62
367.505	87.62
367.731	105.62
367.957	119.62
368.184	98.62
368.41	102.62
368.636	117.62
368.862	115.62
369.089	106.62
369.315	109.62
369.541	109.62
369.767	109.62
369.993	108.62
370.219	90.62
370.445	107.62
370.672	100.62
370.898	110.62
371.124	118.62
371.35	105.62
371.576	101.62
371.802	106.62
372.028	96.62
372.254	106.62
372.48	105.62
372.706	113.62
372.932	94.62
373.158	98.62
373.384	117.62
373.61	115.62
373.835	114.62
374.061	103.62
374.287	105.62
374.513	99.62
374.739	118.62
374.965	102.62
375.191	99.62
375.416	104.62
375.642	106.62
375.868	103.62
376.094	99.62
376.319	100.62
376.545	98.62
376.771	96.62
376.997	99.62
377.222	99.62
377.448	109.62
377.674	97.62
377.899	109.62
378.125	105.62
378.35	118.62
378.576	105.62
378.802	114.62
379.027	124.62
379.253	157.62
379.478	170.62
379.704	313.62
379.929	733.62
380.155	1541.62
380.38	1594.62
380.606	526.62
380.831	179.62
381.057	139.62
381.282	113.62
381.507	115.62
381.733	115.62
381.958	106.62
382.184	96.62
382.409	95.62
382.634	106.62
382.86	90.62
383.085	102.62
383.31	108.62
383.535	105.62
383.761	105.62
383.986	113.62
384.211	102.62
384.436	87.62
384.662	93.62
384.887	119.62
385.112	97.62
385.337	116.62
385.562	90.62
385.787	106.62
386.013	129.62
386.238	102.62
386.463	119.62
386.688	90.62
386.913	106.62
387.138	121.62
387.363	100.62
387.588	113.62
387.813	107.62
388.038	101.62
388.263	103.62
388.488	104.62
388.713	100.62
388.938	105.62
389.163	100.62
389.387	99.62
389.612	109.62
389.837	105.62
390.062	105.62
390.287	96.62
390.512	88.62
390.736	93.62
390.961	93.62
391.186	97.62
391.411	86.62
391.636	108.62
391.86	93.62
392.085	93.62
392.31	89.62
392.534	97.62
392.759	99.62
392.984	94.62
393.208	114.62
393.433	146.62
393.658	130.62
393.882	100.62
394.107	89.62
394.331	89.62
394.556	98.62
394.78	101.62
395.005	79.62
395.229	112.62
395.454	92.62
395.678	95.62
395.903	89.62
396.127	87.62
396.352	103.62
396.576	96.62
396.801	115.62
397.025	136.62
397.249	104.62
397.474	113.62
397.698	91.62
397.922	96.62
398.147	109.62
398.371	90.62
398.595	86.62
398.82	96.62
399.044	101.62
399.268	103.62
399.492	100.62
399.717	98.62
399.941	98.62
400.165	98.62
400.389	85.62
400.613	99.62
400.837	94.62
401.062	87.62
401.286	91.62
401.51	92.62
401.734	92.62
401.958	98.62
402.182	97.62
402.406	95.62
402.63	89.62
402.854	110.62
403.078	89.62
403.302	97.62
403.526	85.62
403.75	94.62
403.974	83.62
404.198	98.62
404.422	96.62
404.645	100.62
404.869	94.62
405.093	113.62
405.317	101.62
405.541	112.62
405.765	135.62
405.988	139.62
406.212	105.62
406.436	101.62
406.66	92.62
406.883	97.62
407.107	102.62
407.331	98.62
407.555	88.62
407.778	103.62
408.002	98.62
408.226	98.62
408.449	98.62
408.673	86.62
408.896	87.62
409.12	93.62
409.344	96.62
409.567	90.62
409.791	93.62
410.014	101.62
410.238	94.62
410.461	98.62
410.685	100.62
410.908	103.62
411.132	99.62
411.355	95.62
411.578	111.62
411.802	87.62
412.025	103.62
412.249	100.62
412.472	96.62
412.695	93.62
412.919	98.62
413.142	118.62
413.365	108.62
413.589	84.62
413.812	102.62
414.035	79.62
414.258	101.62
414.482	106.62
414.705	95.62
414.928	110.62
415.151	98.62
415.374	106.62
415.597	93.62
415.821	89.62
416.044	94.62
416.267	93.62
416.49	100.62
416.713	98.62
416.936	91.62
417.159	115.62
417.382	87.62
417.605	106.62
417.828	96.62
418.051	110.62
418.274	92.62
418.497	97.62
418.72	102.62
418.943	109.62
419.166	97.62
419.389	103.62
419.611	107.62
419.834	93.62
420.057	116.62
420.28	102.62
420.503	96.62
420.726	102.62
420.948	115.62
421.171	95.62
421.394	88.62
421.617	95.62
421.839	97.62
422.062	87.62
422.285	89.62
422.507	102.62
422.73	124.62
422.953	130.62
423.175	119.62
423.398	101.62
423.621	95.62
423.843	78.62
424.066	83.62
424.288	90.62
424.511	95.62
424.733	90.62
424.956	97.62
425.178	101.62
425.401	97.62
425.623	86.62
425.846	95.62
426.068	86.62
426.291	90.62
426.513	96.62
426.735	109.62
426.958	95.62
427.18	104.62
427.402	111.62
427.625	90.62
427.847	90.62
428.069	83.62
428.292	95.62
428.514	93.62
428.736	95.62
428.958	97.62
429.181	86.62
429.403	101.62
429.625	94.62
429.847	99.62
430.069	96.62
430.292	112.62
430.514	107.62
430.736	104.62
430.958	94.62
431.18	86.62
431.402	93.62
431.624	86.62
431.846	95.62
432.068	89.62
432.29	102.62
432.512	83.62
432.734	90.62
432.956	98.62
433.178	94.62
433.4	89.62
433.622	84.62
433.844	99.62
434.066	92.62
434.287	94.62
434.509	99.62
434.731	90.62
434.953	91.62
435.175	104.62
435.397	85.62
435.618	87.62
435.84	96.62
436.062	94.62
436.284	82.62
436.505	98.62
436.727	99.62
436.949	90.62
437.17	95.62
437.392	86.62
437.614	95.62
437.835	83.62
438.057	82.62
438.278	101.62
438.5	99.62
438.721	86.62
438.943	95.62
439.165	120.62
439.386	111.62
439.608	100.62
439.829	111.62
440.05	124.62
440.272	116.62
440.493	115.62
440.715	99.62
440.936	102.62
441.158	93.62
441.379	80.62
441.6	90.62
441.822	106.62
442.043	112.62
442.264	125.62
442.486	117.62
442.707	98.62
442.928	93.62
443.149	110.62
443.371	105.62
443.592	86.62
443.813	91.62
444.034	98.62
444.255	101.62
444.476	93.62
444.698	102.62
444.919	91.62
445.14	205.62
445.361	133.62
445.582	92.62
445.803	93.62
446.024	92.62
446.245	98.62
446.466	112.62
446.687	123.62
446.908	106.62
447.129	93.62
447.35	89.62
447.571	73.62
447.792	101.62
448.013	89.62
448.234	100.62
448.455	93.62
448.675	111.62
448.896	96.62
449.117	107.62
449.338	131.62
449.559	159.62
449.779	114.62
450	111.62
450.221	101.62
450.442	126.62
450.662	112.62
450.883	109.62
451.104	97.62
451.324	132.62
451.545	105.62
451.766	129.62
451.986	133.62
452.207	204.62
452.428	519.62
452.648	1283.62
452.869	732.62
453.089	181.62
453.31	129.62
453.53	99.62
453.751	138.62
453.971	155.62
454.192	162.62
454.412	104.62
454.633	112.62
454.853	97.62
455.073	89.62
455.294	98.62
455.514	89.62
455.734	80.62
455.955	97.62
456.175	89.62
456.395	97.62
456.616	97.62
456.836	104.62
457.056	99.62
457.276	86.62
457.497	115.62
457.717	122.62
457.937	96.62
458.157	101.62
458.377	98.62
458.598	99.62
458.818	87.62
459.038	88.62
459.258	86.62
459.478	88.62
459.698	86.62
459.918	72.62
460.138	84.62
460.358	88.62
460.578	102.62
460.798	82.62
461.018	91.62
461.238	95.62
461.458	90.62
461.678	96.62
461.898	96.62
462.118	94.62
462.338	102.62
462.558	98.62
462.777	95.62
462.997	94.62
463.217	123.62
463.437	135.62
463.657	182.62
463.876	185.62
464.096	119.62
464.316	125.62
464.536	98.62
464.755	93.62
464.975	103.62
465.195	95.62
465.414	94.62
465.634	84.62
465.854	87.62
466.073	110.62
466.293	98.62
466.512	106.62
466.732	109.62
466.951	98.62
467.171	133.62
467.391	145.62
467.61	119.62
467.829	100.62
468.049	103.62
468.268	95.62
468.488	96.62
468.707	98.62
468.927	86.62
469.146	104.62
469.365	94.62
469.585	99.62
469.804	88.62
470.023	91.62
470.243	101.62
470.462	109.62
470.681	115.62
470.901	134.62
471.12	186.62
471.339	238.62
471.558	137.62
471.777	111.62
471.997	101.62
472.216	96.62
472.435	98.62
472.654	86.62
472.873	89.62
473.092	98.62
473.311	113.62
473.53	91.62
473.749	102.62
473.968	112.62
474.187	85.62
474.406	94.62
474.625	81.62
474.844	84.62
475.063	99.62
475.282	94.62
475.501	91.62
475.72	89.62
475.939	93.62
476.158	114.62
476.377	120.62
476.596	94.62
476.814	79.62
477.033	91.62
477.252	88.62
477.471	95.62
477.69	100.62
477.908	96.62
478.127	97.62
478.346	106.62
478.564	94.62
478.783	85.62
479.002	93.62
479.22	103.62
479.439	94.62
479.658	97.62
479.876	90.62
480.095	98.62
480.313	96.62
480.532	100.62
480.751	70.62
480.969	87.62
481.188	78.62
481.406	90.62
481.624	117.62
481.843	111.62
482.061	103.62
482.28	95.62
482.498	81.62
482.717	90.62
482.935	94.62
483.153	110.62
483.372	89.62
483.59	100.62
483.808	97.62
484.027	117.62
484.245	125.62
484.463	166.62
484.681	207.62
484.9	135.62
485.118	105.62
485.336	104.62
485.554	108.62
485.772	113.62
485.99	188.62
486.209	280.62
486.427	166.62
486.645	114.62
486.863	114.62
487.081	103.62
487.299	112.62
487.517	89.62
487.735	115.62
487.953	101.62
488.171	101.62
488.389	103.62
488.607	87.62
488.825	106.62
489.043	106.62
489.261	108.62
489.479	112.62
489.696	87.62
489.914	91.62
490.132	95.62
490.35	99.62
490.568	89.62
490.786	109.62
491.003	99.62
491.221	113.62
491.439	111.62
491.657	109.62
491.874	118.62
492.092	95.62
492.31	120.62
492.527	99.62
492.745	102.62
492.963	114.62
493.18	117.62
493.398	116.62
493.615	106.62
493.833	86.62
494.05	91.62
494.268	109.62
494.485	115.62
494.703	109.62
494.92	111.62
495.138	97.62
495.355	101.62
495.573	114.62
495.79	107.62
496.008	99.62
496.225	119.62
496.442	100.62
496.66	119.62
496.877	162.62
497.094	154.62
497.312	120.62
497.529	103.62
497.746	91.62
497.963	95.62
498.181	112.62
498.398	108.62
498.615	95.62
498.832	99.62
499.049	106.62
499.267	144.62
499.484	146.62
499.701	105.62
499.918	105.62
500.135	110.62
500.352	98.62
500.569	91.62
500.786	109.62
501.003	106.62
501.22	100.62
501.437	99.62
501.654	110.62
501.871	110.62
502.088	98.62
502.305	99.62
502.522	99.62
502.739	102.62
502.956	85.62
503.172	90.62
503.389	92.62
503.606	97.62
503.823	101.62
504.04	100.62
504.256	112.62
504.473	93.62
504.69	94.62
504.907	110.62
505.123	115.62
505.34	95.62
505.557	99.62
505.773	102.62
505.99	97.62
506.207	92.62
506.423	99.62
506.64	107.62
506.856	102.62
507.073	97.62
507.289	104.62
507.506	95.62
507.722	108.62
507.939	92.62
508.155	108.62
508.372	82.62
508.588	90.62
508.805	102.62
509.021	113.62
