Data from SnStandardFlinnAPT0064_LampEnergy10_LIBS07252019.E.O._I.C._HRD10591_15-22-38-495.txt Node
Date: Thu Jul 25 15:22:38 EDT 2019
User: cochatt
Spectrometer: HR+D1059
Trigger mode: 1
Integration Time (sec): 1.000000E-1
Scans to average: 1
Electric dark correction enabled: true
Nonlinearity correction enabled: false
Boxcar width: 0
XAxis mode: Wavelengths
Number of Pixels in Spectrum: 2048
>>>>>Begin Spectral Data<<<<<
223.165	-14.25
223.4	-14.25
223.635	-14.25
223.869	-22.25
224.104	-18.25
224.338	-26.25
224.573	-6.25
224.808	-22.25
225.042	0.75
225.277	-1.25
225.511	-8.25
225.746	-1.25
225.98	8.75
226.215	3.75
226.449	22.75
226.683	19.75
226.918	30.75
227.152	33.75
227.387	35.75
227.621	49.75
227.856	42.75
228.09	46.75
228.324	49.75
228.559	49.75
228.793	122.75
229.027	280.75
229.262	336.75
229.496	309.75
229.73	288.75
229.964	291.75
230.199	286.75
230.433	315.75
230.667	297.75
230.901	307.75
231.136	306.75
231.37	330.75
231.604	370.75
231.838	431.75
232.072	493.75
232.306	543.75
232.541	458.75
232.775	410.75
233.009	407.75
233.243	404.75
233.477	442.75
233.711	493.75
233.945	573.75
234.179	490.75
234.413	438.75
234.647	466.75
234.881	447.75
235.115	473.75
235.349	570.75
235.583	718.75
235.817	938.75
236.051	929.75
236.285	629.75
236.519	509.75
236.753	462.75
236.987	484.75
237.221	519.75
237.455	504.75
237.689	438.75
237.922	448.75
238.156	473.75
238.39	470.75
238.624	481.75
238.858	472.75
239.091	461.75
239.325	503.75
239.559	500.75
239.793	501.75
240.027	524.75
240.26	517.75
240.494	549.75
240.728	550.75
240.961	595.75
241.195	633.75
241.429	660.75
241.662	661.75
241.896	764.75
242.13	905.75
242.363	1181.75
242.597	1529.75
242.83	1488.75
243.064	1482.75
243.298	1702.75
243.531	1390.75
243.765	909.75
243.998	743.75
244.232	667.75
244.465	645.75
244.699	625.75
244.932	634.75
245.166	642.75
245.399	643.75
245.633	649.75
245.866	646.75
246.099	649.75
246.333	620.75
246.566	630.75
246.8	614.75
247.033	633.75
247.266	653.75
247.5	631.75
247.733	649.75
247.966	673.75
248.2	746.75
248.433	858.75
248.666	952.75
248.899	937.75
249.133	819.75
249.366	833.75
249.599	924.75
249.832	1040.75
250.066	1073.75
250.299	853.75
250.532	778.75
250.765	737.75
250.998	731.75
251.231	702.75
251.465	721.75
251.698	722.75
251.931	720.75
252.164	709.75
252.397	761.75
252.63	756.75
252.863	783.75
253.096	780.75
253.329	748.75
253.562	769.75
253.795	759.75
254.028	795.75
254.261	831.75
254.494	867.75
254.727	1003.75
254.96	1185.75
255.193	1162.75
255.426	918.75
255.659	869.75
255.892	857.75
256.124	869.75
256.357	846.75
256.59	874.75
256.823	939.75
257.056	1062.75
257.289	1276.75
257.521	1409.75
257.754	1169.75
257.987	971.75
258.22	896.75
258.452	904.75
258.685	897.75
258.918	920.75
259.151	969.75
259.383	1093.75
259.616	1172.75
259.849	1231.75
260.081	1070.75
260.314	986.75
260.547	938.75
260.779	932.75
261.012	915.75
261.244	956.75
261.477	979.75
261.71	978.75
261.942	985.75
262.175	1017.75
262.407	1060.75
262.64	1064.75
262.872	1095.75
263.105	1122.75
263.337	1159.75
263.57	1210.75
263.802	1286.75
264.035	1333.75
264.267	1303.75
264.499	1381.75
264.732	1423.75
264.964	1434.75
265.197	1413.75
265.429	1412.75
265.661	1429.75
265.894	1534.75
266.126	1745.75
266.358	1915.75
266.591	1843.75
266.823	1583.75
267.055	1427.75
267.287	1361.75
267.52	1275.75
267.752	1255.75
267.984	1261.75
268.216	1231.75
268.448	1210.75
268.681	1228.75
268.913	1199.75
269.145	1205.75
269.377	1199.75
269.609	1210.75
269.841	1291.75
270.073	1337.75
270.306	1557.75
270.538	2082.75
270.77	3047.75
271.002	3796.75
271.234	2704.75
271.466	1831.75
271.698	1474.75
271.93	1378.75
272.162	1327.75
272.394	1254.75
272.626	1208.75
272.858	1208.75
273.09	1206.75
273.322	1208.75
273.553	1170.75
273.785	1200.75
274.017	1175.75
274.249	1166.75
274.481	1222.75
274.713	1197.75
274.945	1178.75
275.176	1186.75
275.408	1189.75
275.64	1173.75
275.872	1210.75
276.104	1218.75
276.335	1256.75
276.567	1261.75
276.799	1249.75
277.031	1283.75
277.262	1283.75
277.494	1401.75
277.726	1556.75
277.957	1761.75
278.189	2043.75
278.421	1892.75
278.652	1726.75
278.884	1610.75
279.115	1458.75
279.347	1384.75
279.579	1361.75
279.81	1332.75
280.042	1355.75
280.273	1395.75
280.505	1418.75
280.736	1478.75
280.968	1589.75
281.199	1773.75
281.431	1974.75
281.662	2063.75
281.894	1759.75
282.125	1604.75
282.356	1591.75
282.588	1624.75
282.819	1667.75
283.051	1775.75
283.282	1930.75
283.513	2425.75
283.745	3437.75
283.976	5463.75
284.207	7757.75
284.439	6999.75
284.67	4353.75
284.901	3571.75
285.132	3583.75
285.364	3451.75
285.595	2583.75
285.826	2363.75
286.057	2748.75
286.288	3735.75
286.52	4998.75
286.751	4706.75
286.982	2936.75
287.213	2211.75
287.444	1912.75
287.675	1775.75
287.906	1737.75
288.138	1709.75
288.369	1686.75
288.6	1665.75
288.831	1626.75
289.062	1659.75
289.293	1663.75
289.524	1669.75
289.755	1639.75
289.986	1701.75
290.217	1690.75
290.448	1661.75
290.679	1670.75
290.91	1758.75
291.141	1819.75
291.371	1976.75
291.602	2081.75
291.833	1949.75
292.064	1739.75
292.295	1631.75
292.526	1642.75
292.757	1538.75
292.987	1589.75
293.218	1539.75
293.449	1618.75
293.68	1574.75
293.91	1550.75
294.141	1562.75
294.372	1529.75
294.603	1540.75
294.833	1547.75
295.064	1536.75
295.295	1511.75
295.525	1533.75
295.756	1546.75
295.987	1585.75
296.217	1601.75
296.448	1545.75
296.679	1545.75
296.909	1557.75
297.14	1559.75
297.37	1591.75
297.601	1592.75
297.831	1622.75
298.062	1645.75
298.292	1640.75
298.523	1645.75
298.753	1655.75
298.984	1693.75
299.214	1691.75
299.445	1694.75
299.675	1727.75
299.905	1811.75
300.136	1895.75
300.366	2114.75
300.597	2699.75
300.827	3722.75
301.057	4987.75
301.288	5029.75
301.518	3212.75
301.748	2497.75
301.979	2317.75
302.209	2225.75
302.439	2219.75
302.669	2387.75
302.9	2851.75
303.13	4016.75
303.36	5978.75
303.59	7971.75
303.82	6857.75
304.051	4057.75
304.281	2892.75
304.511	2452.75
304.741	2257.75
304.971	2132.75
305.201	1999.75
305.431	1965.75
305.661	1943.75
305.891	1855.75
306.121	1834.75
306.352	1855.75
306.582	1816.75
306.812	1851.75
307.042	1805.75
307.272	1821.75
307.502	1786.75
307.731	1803.75
307.961	1819.75
308.191	1837.75
308.421	1802.75
308.651	1800.75
308.881	1756.75
309.111	1791.75
309.341	1739.75
309.571	1816.75
309.8	1817.75
310.03	1827.75
310.26	1809.75
310.49	1794.75
310.72	1888.75
310.949	1866.75
311.179	1851.75
311.409	1839.75
311.639	1875.75
311.868	1909.75
312.098	1926.75
312.328	1921.75
312.557	1928.75
312.787	1925.75
313.017	1919.75
313.246	1961.75
313.476	1994.75
313.706	2060.75
313.935	2214.75
314.165	2303.75
314.394	2412.75
314.624	2289.75
314.853	2152.75
315.083	2081.75
315.312	2148.75
315.542	2164.75
315.771	2175.75
316.001	2207.75
316.23	2242.75
316.46	2416.75
316.689	2619.75
316.919	3071.75
317.148	4507.75
317.377	6873.75
317.607	10137.75
317.836	10429.75
318.065	6282.75
318.295	4060.75
318.524	3310.75
318.753	2907.75
318.983	2723.75
319.212	2520.75
319.441	2400.75
319.67	2431.75
319.9	2343.75
320.129	2337.75
320.358	2350.75
320.587	2317.75
320.816	2312.75
321.046	2276.75
321.275	2297.75
321.504	2378.75
321.733	2383.75
321.962	2435.75
322.191	2496.75
322.42	2490.75
322.649	2513.75
322.878	2482.75
323.108	2407.75
323.337	2497.75
323.566	2485.75
323.795	2585.75
324.024	2627.75
324.253	2647.75
324.482	2817.75
324.71	2967.75
324.939	3121.75
325.168	3196.75
325.397	3329.75
325.626	3931.75
325.855	5425.75
326.084	8506.75
326.313	12317.75
326.542	13073.75
326.77	8741.75
326.999	5713.75
327.228	4792.75
327.457	4554.75
327.686	4631.75
327.914	4948.75
328.143	5773.75
328.372	6823.75
328.6	7422.75
328.829	6639.75
329.058	5577.75
329.287	4863.75
329.515	4480.75
329.744	4198.75
329.972	3963.75
330.201	3790.75
330.43	3640.75
330.658	3554.75
330.887	3501.75
331.115	3494.75
331.344	3428.75
331.572	3419.75
331.801	3437.75
332.03	3514.75
332.258	3493.75
332.486	3667.75
332.715	4227.75
332.943	5152.75
333.172	6449.75
333.4	6338.75
333.629	4886.75
333.857	4375.75
334.085	4364.75
334.314	4623.75
334.542	4943.75
334.771	5777.75
334.999	7177.75
335.227	8981.75
335.455	9943.75
335.684	8958.75
335.912	7425.75
336.14	6302.75
336.369	5620.75
336.597	5080.75
336.825	4743.75
337.053	4402.75
337.281	4181.75
337.51	3896.75
337.738	3800.75
337.966	3605.75
338.194	3538.75
338.422	3450.75
338.65	3350.75
338.878	3271.75
339.106	3201.75
339.334	3190.75
339.562	3127.75
339.79	3061.75
340.018	3085.75
340.246	3026.75
340.474	2991.75
340.702	3009.75
340.93	2990.75
341.158	2998.75
341.386	2961.75
341.614	2947.75
341.842	2825.75
342.07	2828.75
342.298	2770.75
342.526	2765.75
342.754	2695.75
342.981	2681.75
343.209	2682.75
343.437	2681.75
343.665	2765.75
343.893	2771.75
344.12	2819.75
344.348	2737.75
344.576	2714.75
344.804	2663.75
345.031	2602.75
345.259	2599.75
345.487	2596.75
345.714	2515.75
345.942	2571.75
346.17	2538.75
346.397	2509.75
346.625	2497.75
346.853	2492.75
347.08	2518.75
347.308	2517.75
347.535	2465.75
347.763	2542.75
347.99	2429.75
348.218	2444.75
348.445	2413.75
348.673	2427.75
348.9	2442.75
349.128	2498.75
349.355	2429.75
349.583	2427.75
349.81	2356.75
350.037	2338.75
350.265	2375.75
350.492	2399.75
350.72	2376.75
350.947	2353.75
351.174	2372.75
351.402	2374.75
351.629	2403.75
351.856	2431.75
352.083	2380.75
352.311	2377.75
352.538	2346.75
352.765	2377.75
352.992	2361.75
353.22	2293.75
353.447	2344.75
353.674	2370.75
353.901	2335.75
354.128	2425.75
354.355	2377.75
354.583	2327.75
354.81	2379.75
355.037	2413.75
355.264	2382.75
355.491	2383.75
355.718	2393.75
355.945	2374.75
356.172	2421.75
356.399	2410.75
356.626	2462.75
356.853	2499.75
357.08	2419.75
357.307	2491.75
357.534	2566.75
357.761	2520.75
357.988	2524.75
358.215	2470.75
358.441	2499.75
358.668	2561.75
358.895	2526.75
359.122	2502.75
359.349	2508.75
359.576	2447.75
359.802	2549.75
360.029	2536.75
360.256	2532.75
360.483	2524.75
360.709	2522.75
360.936	2518.75
361.163	2514.75
361.39	2565.75
361.616	2553.75
361.843	2584.75
362.07	2554.75
362.296	2606.75
362.523	2503.75
362.749	2583.75
362.976	2503.75
363.203	2546.75
363.429	2489.75
363.656	2512.75
363.882	2498.75
364.109	2473.75
364.335	2545.75
364.562	2519.75
364.788	2528.75
365.015	2547.75
365.241	2620.75
365.468	2717.75
365.694	2927.75
365.92	2817.75
366.147	2598.75
366.373	2571.75
366.599	2612.75
366.826	2586.75
367.052	2585.75
367.278	2576.75
367.505	2596.75
367.731	2582.75
367.957	2600.75
368.184	2621.75
368.41	2638.75
368.636	2636.75
368.862	2642.75
369.089	2601.75
369.315	2589.75
369.541	2635.75
369.767	2606.75
369.993	2633.75
370.219	2606.75
370.445	2647.75
370.672	2690.75
370.898	2653.75
371.124	2631.75
371.35	2689.75
371.576	2705.75
371.802	2730.75
372.028	2691.75
372.254	2748.75
372.48	2737.75
372.706	2781.75
372.932	2761.75
373.158	2759.75
373.384	2711.75
373.61	2750.75
373.835	2744.75
374.061	2758.75
374.287	2818.75
374.513	2793.75
374.739	2847.75
374.965	2847.75
375.191	2878.75
375.416	2897.75
375.642	2836.75
375.868	2877.75
376.094	2786.75
376.319	2775.75
376.545	2772.75
376.771	2722.75
376.997	2699.75
377.222	2670.75
377.448	2742.75
377.674	2743.75
377.899	2705.75
378.125	2764.75
378.35	2680.75
378.576	2701.75
378.802	2737.75
379.027	2783.75
379.253	2869.75
379.478	2974.75
379.704	3539.75
379.929	5071.75
380.155	7763.75
380.38	8353.75
380.606	5058.75
380.831	3552.75
381.057	3143.75
381.282	2921.75
381.507	2793.75
381.733	2729.75
381.958	2675.75
382.184	2758.75
382.409	2656.75
382.634	2621.75
382.86	2609.75
383.085	2650.75
383.31	2659.75
383.535	2687.75
383.761	2690.75
383.986	2698.75
384.211	2771.75
384.436	2689.75
384.662	2738.75
384.887	2776.75
385.112	2697.75
385.337	2743.75
385.562	2768.75
385.787	2818.75
386.013	2786.75
386.238	2766.75
386.463	2797.75
386.688	2754.75
386.913	2689.75
387.138	2721.75
387.363	2774.75
387.588	2769.75
387.813	2746.75
388.038	2749.75
388.263	2758.75
388.488	2704.75
388.713	2744.75
388.938	2768.75
389.163	2727.75
389.387	2774.75
389.612	2691.75
389.837	2712.75
390.062	2744.75
390.287	2779.75
390.512	2783.75
390.736	2761.75
390.961	2871.75
391.186	2848.75
391.411	2897.75
391.636	2890.75
391.86	2891.75
392.085	2918.75
392.31	2937.75
392.534	2850.75
392.759	2861.75
392.984	2800.75
393.208	2845.75
393.433	2953.75
393.658	2884.75
393.882	2773.75
394.107	2788.75
394.331	2797.75
394.556	2826.75
394.78	2792.75
395.005	2823.75
395.229	2825.75
395.454	2852.75
395.678	2882.75
395.903	2871.75
396.127	2913.75
396.352	2786.75
396.576	2817.75
396.801	2837.75
397.025	2917.75
397.249	2927.75
397.474	2937.75
397.698	2883.75
397.922	2900.75
398.147	2939.75
398.371	2981.75
398.595	3023.75
398.82	3045.75
399.044	3158.75
399.268	3294.75
399.492	3525.75
399.717	3607.75
399.941	3652.75
400.165	3479.75
400.389	3399.75
400.613	3234.75
400.837	3149.75
401.062	3129.75
401.286	3052.75
401.51	3030.75
401.734	3019.75
401.958	3082.75
402.182	3028.75
402.406	3073.75
402.63	3074.75
402.854	3070.75
403.078	3079.75
403.302	3112.75
403.526	3151.75
403.75	3141.75
403.974	3185.75
404.198	3088.75
404.422	3161.75
404.645	3155.75
404.869	3151.75
405.093	3196.75
405.317	3142.75
405.541	3176.75
405.765	3206.75
405.988	3254.75
406.212	3243.75
406.436	3217.75
406.66	3286.75
406.883	3266.75
407.107	3343.75
407.331	3377.75
407.555	3444.75
407.778	3443.75
408.002	3396.75
408.226	3357.75
408.449	3385.75
408.673	3336.75
408.896	3255.75
409.12	3178.75
409.344	3231.75
409.567	3151.75
409.791	3145.75
410.014	3192.75
410.238	3175.75
410.461	3136.75
410.685	3085.75
410.908	3102.75
411.132	3074.75
411.355	2992.75
411.578	3109.75
411.802	3057.75
412.025	3009.75
412.249	3032.75
412.472	3034.75
412.695	3011.75
412.919	3014.75
413.142	3009.75
413.365	2998.75
413.589	2999.75
413.812	2934.75
414.035	2949.75
414.258	2959.75
414.482	2929.75
414.705	3014.75
414.928	2969.75
415.151	2991.75
415.374	2911.75
415.597	2933.75
415.821	2849.75
416.044	2857.75
416.267	2873.75
416.49	2875.75
416.713	2849.75
416.936	2840.75
417.159	2829.75
417.382	2826.75
417.605	2838.75
417.828	2799.75
418.051	2909.75
418.274	2880.75
418.497	2825.75
418.72	2943.75
418.943	2915.75
419.166	2983.75
419.389	3206.75
419.611	3170.75
419.834	3025.75
420.057	2938.75
420.28	2832.75
420.503	2867.75
420.726	2832.75
420.948	2804.75
421.171	2869.75
421.394	2904.75
421.617	2837.75
421.839	2906.75
422.062	2914.75
422.285	2836.75
422.507	2901.75
422.73	2929.75
422.953	2967.75
423.175	2965.75
423.398	2920.75
423.621	2884.75
423.843	2847.75
424.066	2845.75
424.288	2822.75
424.511	2863.75
424.733	2846.75
424.956	2853.75
425.178	2802.75
425.401	2816.75
425.623	2817.75
425.846	2775.75
426.068	2798.75
426.291	2749.75
426.513	2691.75
426.735	2706.75
426.958	2710.75
427.18	2707.75
427.402	2704.75
427.625	2711.75
427.847	2660.75
428.069	2604.75
428.292	2674.75
428.514	2654.75
428.736	2631.75
428.958	2657.75
429.181	2614.75
429.403	2613.75
429.625	2637.75
429.847	2669.75
430.069	2677.75
430.292	2762.75
430.514	2884.75
430.736	2832.75
430.958	2660.75
431.18	2612.75
431.402	2599.75
431.624	2583.75
431.846	2590.75
432.068	2574.75
432.29	2632.75
432.512	2574.75
432.734	2611.75
432.956	2578.75
433.178	2579.75
433.4	2644.75
433.622	2625.75
433.844	2643.75
434.066	2666.75
434.287	2643.75
434.509	2651.75
434.731	2709.75
434.953	2702.75
435.175	2701.75
435.397	2738.75
435.618	2664.75
435.84	2602.75
436.062	2598.75
436.284	2577.75
436.505	2613.75
436.727	2612.75
436.949	2578.75
437.17	2572.75
437.392	2571.75
437.614	2544.75
437.835	2474.75
438.057	2539.75
438.278	2500.75
438.5	2531.75
438.721	2627.75
438.943	2652.75
439.165	2703.75
439.386	2767.75
439.608	2694.75
439.829	2693.75
440.05	2823.75
440.272	2848.75
440.493	2685.75
440.715	2679.75
440.936	2693.75
441.158	2717.75
441.379	2753.75
441.6	2826.75
441.822	2870.75
442.043	3011.75
442.264	3088.75
442.486	2918.75
442.707	2822.75
442.928	2748.75
443.149	2786.75
443.371	2761.75
443.592	2827.75
443.813	2801.75
444.034	2832.75
444.255	2837.75
444.476	2939.75
444.698	2983.75
444.919	3019.75
445.14	3122.75
445.361	2961.75
445.582	2865.75
445.803	2837.75
446.024	2762.75
446.245	2753.75
446.466	2770.75
446.687	2699.75
446.908	2712.75
447.129	2657.75
447.35	2629.75
447.571	2605.75
447.792	2515.75
448.013	2551.75
448.234	2591.75
448.455	2579.75
448.675	2606.75
448.896	2670.75
449.117	2745.75
449.338	2998.75
449.559	3073.75
449.779	2779.75
450	2575.75
450.221	2594.75
450.442	2576.75
450.662	2456.75
450.883	2468.75
451.104	2485.75
451.324	2525.75
451.545	2452.75
451.766	2485.75
451.986	2583.75
452.207	2699.75
452.428	3546.75
452.648	5407.75
452.869	4427.75
453.089	3099.75
453.31	2869.75
453.53	2876.75
453.751	2978.75
453.971	3080.75
454.192	3064.75
454.412	2677.75
454.633	2477.75
454.853	2436.75
455.073	2416.75
455.294	2418.75
455.514	2420.75
455.734	2393.75
455.955	2377.75
456.175	2383.75
456.395	2378.75
456.616	2379.75
456.836	2485.75
457.056	2429.75
457.276	2456.75
457.497	2610.75
457.717	2612.75
457.937	2543.75
458.157	2546.75
458.377	2558.75
458.598	2578.75
458.818	2580.75
459.038	2579.75
459.258	2590.75
459.478	2619.75
459.698	2674.75
459.918	2680.75
460.138	2693.75
460.358	2795.75
460.578	2815.75
460.798	2802.75
461.018	2847.75
461.238	2800.75
461.458	2849.75
461.678	2889.75
461.898	2951.75
462.118	2921.75
462.338	3030.75
462.558	3057.75
462.777	3082.75
462.997	3181.75
463.217	3341.75
463.437	3442.75
463.657	3507.75
463.876	3470.75
464.096	3309.75
464.316	3210.75
464.536	3115.75
464.755	3025.75
464.975	3030.75
465.195	2833.75
465.414	2853.75
465.634	2705.75
465.854	2658.75
466.073	2676.75
466.293	2654.75
466.512	2646.75
466.732	2686.75
466.951	2748.75
467.171	2941.75
467.391	2906.75
467.61	2650.75
467.829	2608.75
468.049	2535.75
468.268	2527.75
468.488	2574.75
468.707	2547.75
468.927	2544.75
469.146	2563.75
469.365	2602.75
469.585	2581.75
469.804	2660.75
470.023	2723.75
470.243	2722.75
470.462	2859.75
470.681	2973.75
470.901	3225.75
471.12	3691.75
471.339	3677.75
471.558	3073.75
471.777	2817.75
471.997	2714.75
472.216	2671.75
472.435	2629.75
472.654	2603.75
472.873	2559.75
473.092	2616.75
473.311	2575.75
473.53	2624.75
473.749	2687.75
473.968	2729.75
474.187	2607.75
474.406	2570.75
474.625	2565.75
474.844	2596.75
475.063	2566.75
475.282	2583.75
475.501	2581.75
475.72	2683.75
475.939	2615.75
476.158	2701.75
476.377	2753.75
476.596	2696.75
476.814	2715.75
477.033	2766.75
477.252	2727.75
477.471	2798.75
477.69	2819.75
477.908	2824.75
478.127	2897.75
478.346	2921.75
478.564	3009.75
478.783	2957.75
479.002	3075.75
479.22	3051.75
479.439	3084.75
479.658	3062.75
479.876	3120.75
480.095	3110.75
480.313	3190.75
480.532	3177.75
480.751	3201.75
480.969	3154.75
481.188	3157.75
481.406	3119.75
481.624	3106.75
481.843	3144.75
482.061	3190.75
482.28	3067.75
482.498	3176.75
482.717	3124.75
482.935	3120.75
483.153	3174.75
483.372	3212.75
483.59	3264.75
483.808	3309.75
484.027	3383.75
484.245	3610.75
484.463	3970.75
484.681	4366.75
484.9	4094.75
485.118	3759.75
485.336	3718.75
485.554	3729.75
485.772	4018.75
485.99	4450.75
486.209	4779.75
486.427	4076.75
486.645	3681.75
486.863	3494.75
487.081	3410.75
487.299	3325.75
487.517	3352.75
487.735	3309.75
