Data from SnStandardFlinnAPT0064_LampEnergy5.5_LIBS07252019.E.O._I.C._HRD10591_15-16-26-491.txt Node
Date: Thu Jul 25 15:16:26 EDT 2019
User: cochatt
Spectrometer: HR+D1059
Trigger mode: 1
Integration Time (sec): 1.000000E-1
Scans to average: 1
Electric dark correction enabled: true
Nonlinearity correction enabled: false
Boxcar width: 0
XAxis mode: Wavelengths
Number of Pixels in Spectrum: 2048
>>>>>Begin Spectral Data<<<<<
223.165	-15.94
223.4	-15.94
223.635	-15.94
223.869	-16.94
224.104	-23.94
224.338	-23.94
224.573	-21.94
224.808	-10.94
225.042	-8.94
225.277	2.06
225.511	-0.94
225.746	7.06
225.98	2.06
226.215	8.06
226.449	21.06
226.683	33.06
226.918	30.06
227.152	20.06
227.387	42.06
227.621	37.06
227.856	51.06
228.09	31.06
228.324	59.06
228.559	49.06
228.793	101.06
229.027	144.06
229.262	164.06
229.496	145.06
229.73	153.06
229.964	153.06
230.199	146.06
230.433	166.06
230.667	186.06
230.901	159.06
231.136	177.06
231.37	173.06
231.604	195.06
231.838	209.06
232.072	249.06
232.306	258.06
232.541	215.06
232.775	197.06
233.009	223.06
233.243	205.06
233.477	213.06
233.711	234.06
233.945	275.06
234.179	236.06
234.413	229.06
234.647	228.06
234.881	232.06
235.115	255.06
235.349	289.06
235.583	326.06
235.817	442.06
236.051	422.06
236.285	312.06
236.519	250.06
236.753	231.06
236.987	236.06
237.221	231.06
237.455	235.06
237.689	238.06
237.922	229.06
238.156	219.06
238.39	244.06
238.624	237.06
238.858	253.06
239.091	239.06
239.325	248.06
239.559	244.06
239.793	234.06
240.027	253.06
240.26	244.06
240.494	263.06
240.728	268.06
240.961	283.06
241.195	289.06
241.429	313.06
241.662	298.06
241.896	326.06
242.13	399.06
242.363	513.06
242.597	660.06
242.83	629.06
243.064	636.06
243.298	693.06
243.531	630.06
243.765	389.06
243.998	349.06
244.232	316.06
244.465	292.06
244.699	296.06
244.932	299.06
245.166	299.06
245.399	305.06
245.633	307.06
245.866	301.06
246.099	305.06
246.333	299.06
246.566	309.06
246.8	309.06
247.033	296.06
247.266	302.06
247.5	295.06
247.733	324.06
247.966	340.06
248.2	347.06
248.433	367.06
248.666	427.06
248.899	409.06
249.133	356.06
249.366	383.06
249.599	401.06
249.832	449.06
250.066	467.06
250.299	383.06
250.532	339.06
250.765	337.06
250.998	338.06
251.231	330.06
251.465	340.06
251.698	326.06
251.931	326.06
252.164	337.06
252.397	324.06
252.63	368.06
252.863	342.06
253.096	349.06
253.329	347.06
253.562	351.06
253.795	374.06
254.028	362.06
254.261	400.06
254.494	387.06
254.727	449.06
254.96	535.06
255.193	511.06
255.426	426.06
255.659	392.06
255.892	387.06
256.124	361.06
256.357	393.06
256.59	421.06
256.823	426.06
257.056	486.06
257.289	578.06
257.521	591.06
257.754	495.06
257.987	421.06
258.22	400.06
258.452	403.06
258.685	401.06
258.918	417.06
259.151	447.06
259.383	458.06
259.616	493.06
259.849	539.06
260.081	491.06
260.314	456.06
260.547	431.06
260.779	420.06
261.012	436.06
261.244	433.06
261.477	447.06
261.71	431.06
261.942	450.06
262.175	454.06
262.407	468.06
262.64	474.06
262.872	481.06
263.105	521.06
263.337	567.06
263.57	573.06
263.802	555.06
264.035	570.06
264.267	587.06
264.499	604.06
264.732	642.06
264.964	618.06
265.197	630.06
265.429	655.06
265.661	653.06
265.894	672.06
266.126	744.06
266.358	813.06
266.591	784.06
266.823	687.06
267.055	647.06
267.287	611.06
267.52	598.06
267.752	590.06
267.984	553.06
268.216	586.06
268.448	547.06
268.681	562.06
268.913	535.06
269.145	561.06
269.377	548.06
269.609	567.06
269.841	575.06
270.073	601.06
270.306	691.06
270.538	910.06
270.77	1292.06
271.002	1525.06
271.234	1143.06
271.466	753.06
271.698	639.06
271.93	628.06
272.162	571.06
272.394	587.06
272.626	562.06
272.858	533.06
273.09	523.06
273.322	535.06
273.553	536.06
273.785	523.06
274.017	532.06
274.249	548.06
274.481	539.06
274.713	526.06
274.945	538.06
275.176	555.06
275.408	535.06
275.64	529.06
275.872	552.06
276.104	543.06
276.335	560.06
276.567	556.06
276.799	553.06
277.031	574.06
277.262	590.06
277.494	599.06
277.726	656.06
277.957	738.06
278.189	802.06
278.421	776.06
278.652	716.06
278.884	663.06
279.115	618.06
279.347	619.06
279.579	589.06
279.81	617.06
280.042	599.06
280.273	618.06
280.505	618.06
280.736	672.06
280.968	667.06
281.199	723.06
281.431	806.06
281.662	811.06
281.894	719.06
282.125	670.06
282.356	676.06
282.588	701.06
282.819	709.06
283.051	766.06
283.282	764.06
283.513	996.06
283.745	1447.06
283.976	2279.06
284.207	3152.06
284.439	2812.06
284.67	1713.06
284.901	1405.06
285.132	1380.06
285.364	1335.06
285.595	1031.06
285.826	973.06
286.057	1141.06
286.288	1529.06
286.52	2043.06
286.751	1910.06
286.982	1194.06
287.213	886.06
287.444	827.06
287.675	763.06
287.906	760.06
288.138	734.06
288.369	740.06
288.6	723.06
288.831	696.06
289.062	683.06
289.293	715.06
289.524	727.06
289.755	715.06
289.986	721.06
290.217	727.06
290.448	712.06
290.679	737.06
290.91	740.06
291.141	773.06
291.371	820.06
291.602	832.06
291.833	784.06
292.064	749.06
292.295	725.06
292.526	716.06
292.757	701.06
292.987	701.06
293.218	697.06
293.449	693.06
293.68	683.06
293.91	676.06
294.141	692.06
294.372	681.06
294.603	682.06
294.833	658.06
295.064	672.06
295.295	669.06
295.525	681.06
295.756	681.06
295.987	669.06
296.217	692.06
296.448	648.06
296.679	663.06
296.909	675.06
297.14	673.06
297.37	681.06
297.601	692.06
297.831	691.06
298.062	684.06
298.292	714.06
298.523	711.06
298.753	722.06
298.984	729.06
299.214	740.06
299.445	730.06
299.675	764.06
299.905	787.06
300.136	803.06
300.366	890.06
300.597	1125.06
300.827	1491.06
301.057	2020.06
301.288	2000.06
301.518	1313.06
301.748	1014.06
301.979	951.06
302.209	923.06
302.439	925.06
302.669	978.06
302.9	1181.06
303.13	1615.06
303.36	2380.06
303.59	3099.06
303.82	2713.06
304.051	1576.06
304.281	1155.06
304.511	1000.06
304.741	936.06
304.971	880.06
305.201	862.06
305.431	823.06
305.661	811.06
305.891	797.06
306.121	793.06
306.352	816.06
306.582	771.06
306.812	812.06
307.042	786.06
307.272	797.06
307.502	768.06
307.731	801.06
307.961	764.06
308.191	789.06
308.421	744.06
308.651	795.06
308.881	791.06
309.111	794.06
309.341	777.06
309.571	780.06
309.8	762.06
310.03	771.06
310.26	771.06
310.49	779.06
310.72	793.06
310.949	819.06
311.179	785.06
311.409	821.06
311.639	829.06
311.868	805.06
312.098	832.06
312.328	841.06
312.557	841.06
312.787	809.06
313.017	870.06
313.246	859.06
313.476	853.06
313.706	901.06
313.935	924.06
314.165	948.06
314.394	964.06
314.624	967.06
314.853	909.06
315.083	873.06
315.312	882.06
315.542	911.06
315.771	924.06
316.001	944.06
316.23	983.06
316.46	1004.06
316.689	1075.06
316.919	1253.06
317.148	1819.06
317.377	2830.06
317.607	4144.06
317.836	4217.06
318.065	2503.06
318.295	1623.06
318.524	1302.06
318.753	1149.06
318.983	1084.06
319.212	1045.06
319.441	1029.06
319.67	1024.06
319.9	960.06
320.129	978.06
320.358	966.06
320.587	985.06
320.816	969.06
321.046	987.06
321.275	993.06
321.504	978.06
321.733	1010.06
321.962	1004.06
322.191	1060.06
322.42	1046.06
322.649	1062.06
322.878	1024.06
323.108	1020.06
323.337	1062.06
323.566	1080.06
323.795	1073.06
324.024	1098.06
324.253	1114.06
324.482	1160.06
324.71	1234.06
324.939	1291.06
325.168	1343.06
325.397	1357.06
325.626	1610.06
325.855	2181.06
326.084	3418.06
326.313	5051.06
326.542	5305.06
326.77	3284.06
326.999	2225.06
327.228	1870.06
327.457	1826.06
327.686	1818.06
327.914	1922.06
328.143	2192.06
328.372	2513.06
328.6	2677.06
328.829	2524.06
329.058	2209.06
329.287	1992.06
329.515	1803.06
329.744	1716.06
329.972	1620.06
330.201	1541.06
330.43	1498.06
330.658	1475.06
330.887	1452.06
331.115	1443.06
331.344	1391.06
331.572	1409.06
331.801	1413.06
332.03	1419.06
332.258	1432.06
332.486	1515.06
332.715	1706.06
332.943	2055.06
333.172	2485.06
333.4	2455.06
333.629	1965.06
333.857	1749.06
334.085	1766.06
334.314	1834.06
334.542	2008.06
334.771	2291.06
334.999	2670.06
335.227	3237.06
335.455	3623.06
335.684	3388.06
335.912	2891.06
336.14	2482.06
336.369	2223.06
336.597	2082.06
336.825	1923.06
337.053	1795.06
337.281	1744.06
337.51	1623.06
337.738	1584.06
337.966	1511.06
338.194	1479.06
338.422	1435.06
338.65	1407.06
338.878	1394.06
339.106	1349.06
339.334	1351.06
339.562	1327.06
339.79	1285.06
340.018	1297.06
340.246	1285.06
340.474	1232.06
340.702	1235.06
340.93	1253.06
341.158	1268.06
341.386	1232.06
341.614	1209.06
341.842	1233.06
342.07	1185.06
342.298	1187.06
342.526	1182.06
342.754	1154.06
342.981	1180.06
343.209	1130.06
343.437	1137.06
343.665	1181.06
343.893	1209.06
344.12	1172.06
344.348	1155.06
344.576	1117.06
344.804	1148.06
345.031	1107.06
345.259	1129.06
345.487	1076.06
345.714	1071.06
345.942	1043.06
346.17	1089.06
346.397	1061.06
346.625	1081.06
346.853	1048.06
347.08	1081.06
347.308	1093.06
347.535	1078.06
347.763	1044.06
347.99	1058.06
348.218	1055.06
348.445	1036.06
348.673	1049.06
348.9	1043.06
349.128	1044.06
349.355	1037.06
349.583	1027.06
349.81	1052.06
350.037	1028.06
350.265	1044.06
350.492	1033.06
350.72	1042.06
350.947	1025.06
351.174	1037.06
351.402	1007.06
351.629	1020.06
351.856	1044.06
352.083	1044.06
352.311	1043.06
352.538	1001.06
352.765	1002.06
352.992	1031.06
353.22	1007.06
353.447	1007.06
353.674	1017.06
353.901	1011.06
354.128	1011.06
354.355	1014.06
354.583	990.06
354.81	1020.06
355.037	1043.06
355.264	1079.06
355.491	1060.06
355.718	1038.06
355.945	1001.06
356.172	1019.06
356.399	1023.06
356.626	1035.06
356.853	1058.06
357.08	1078.06
357.307	1089.06
357.534	1076.06
357.761	1101.06
357.988	1069.06
358.215	1113.06
358.441	1088.06
358.668	1058.06
358.895	1066.06
359.122	1089.06
359.349	1068.06
359.576	1075.06
359.802	1055.06
360.029	1080.06
360.256	1099.06
360.483	1087.06
360.709	1099.06
360.936	1080.06
361.163	1107.06
361.39	1087.06
361.616	1082.06
361.843	1068.06
362.07	1077.06
362.296	1078.06
362.523	1096.06
362.749	1078.06
362.976	1082.06
363.203	1052.06
363.429	1076.06
363.656	1083.06
363.882	1104.06
364.109	1094.06
364.335	1081.06
364.562	1107.06
364.788	1091.06
365.015	1095.06
365.241	1140.06
365.468	1169.06
365.694	1185.06
365.92	1158.06
366.147	1112.06
366.373	1097.06
366.599	1116.06
366.826	1107.06
367.052	1094.06
367.278	1132.06
367.505	1110.06
367.731	1100.06
367.957	1099.06
368.184	1114.06
368.41	1134.06
368.636	1159.06
368.862	1127.06
369.089	1152.06
369.315	1098.06
369.541	1083.06
369.767	1123.06
369.993	1143.06
370.219	1107.06
370.445	1130.06
370.672	1153.06
370.898	1171.06
371.124	1116.06
371.35	1157.06
371.576	1171.06
371.802	1157.06
372.028	1188.06
372.254	1178.06
372.48	1184.06
372.706	1173.06
372.932	1205.06
373.158	1191.06
373.384	1203.06
373.61	1203.06
373.835	1211.06
374.061	1206.06
374.287	1220.06
374.513	1215.06
374.739	1201.06
374.965	1251.06
375.191	1225.06
375.416	1209.06
375.642	1220.06
375.868	1221.06
376.094	1189.06
376.319	1173.06
376.545	1199.06
376.771	1183.06
376.997	1187.06
377.222	1181.06
377.448	1172.06
377.674	1171.06
377.899	1172.06
378.125	1147.06
378.35	1176.06
378.576	1165.06
378.802	1167.06
379.027	1167.06
379.253	1220.06
379.478	1301.06
379.704	1476.06
379.929	2035.06
380.155	3069.06
380.38	3302.06
380.606	2014.06
380.831	1504.06
381.057	1339.06
381.282	1256.06
381.507	1229.06
381.733	1172.06
381.958	1175.06
382.184	1179.06
382.409	1155.06
382.634	1139.06
382.86	1147.06
383.085	1138.06
383.31	1180.06
383.535	1175.06
383.761	1167.06
383.986	1203.06
384.211	1186.06
384.436	1183.06
384.662	1164.06
384.887	1191.06
385.112	1174.06
385.337	1191.06
385.562	1191.06
385.787	1229.06
386.013	1220.06
386.238	1189.06
386.463	1208.06
386.688	1199.06
386.913	1177.06
387.138	1185.06
387.363	1203.06
387.588	1185.06
387.813	1190.06
388.038	1142.06
388.263	1169.06
388.488	1180.06
388.713	1200.06
388.938	1207.06
389.163	1199.06
389.387	1203.06
389.612	1194.06
389.837	1199.06
390.062	1196.06
390.287	1203.06
390.512	1214.06
390.736	1225.06
390.961	1234.06
391.186	1258.06
391.411	1224.06
391.636	1255.06
391.86	1283.06
392.085	1277.06
392.31	1238.06
392.534	1199.06
392.759	1212.06
392.984	1214.06
393.208	1242.06
393.433	1270.06
393.658	1250.06
393.882	1219.06
394.107	1210.06
394.331	1223.06
394.556	1200.06
394.78	1244.06
395.005	1212.06
395.229	1242.06
395.454	1247.06
395.678	1266.06
395.903	1217.06
396.127	1260.06
396.352	1251.06
396.576	1239.06
396.801	1261.06
397.025	1292.06
397.249	1280.06
397.474	1267.06
397.698	1235.06
397.922	1270.06
398.147	1251.06
398.371	1301.06
398.595	1317.06
398.82	1362.06
399.044	1427.06
399.268	1477.06
399.492	1545.06
399.717	1546.06
399.941	1586.06
400.165	1509.06
400.389	1459.06
400.613	1433.06
400.837	1361.06
401.062	1388.06
401.286	1348.06
401.51	1319.06
401.734	1316.06
401.958	1362.06
402.182	1315.06
402.406	1340.06
402.63	1341.06
402.854	1338.06
403.078	1341.06
403.302	1347.06
403.526	1359.06
403.75	1378.06
403.974	1371.06
404.198	1391.06
404.422	1396.06
404.645	1386.06
404.869	1353.06
405.093	1399.06
405.317	1355.06
405.541	1382.06
405.765	1378.06
405.988	1397.06
406.212	1384.06
406.436	1420.06
406.66	1446.06
406.883	1429.06
407.107	1475.06
407.331	1465.06
407.555	1501.06
407.778	1539.06
408.002	1503.06
408.226	1431.06
408.449	1441.06
408.673	1428.06
408.896	1388.06
409.12	1397.06
409.344	1403.06
409.567	1387.06
409.791	1351.06
410.014	1364.06
410.238	1346.06
410.461	1363.06
410.685	1347.06
410.908	1350.06
411.132	1353.06
411.355	1334.06
411.578	1339.06
411.802	1329.06
412.025	1319.06
412.249	1316.06
412.472	1318.06
412.695	1322.06
412.919	1282.06
413.142	1331.06
413.365	1291.06
413.589	1304.06
413.812	1292.06
414.035	1297.06
414.258	1331.06
414.482	1287.06
414.705	1315.06
414.928	1279.06
415.151	1289.06
415.374	1296.06
415.597	1279.06
415.821	1230.06
416.044	1227.06
416.267	1233.06
416.49	1253.06
416.713	1248.06
416.936	1251.06
417.159	1243.06
417.382	1217.06
417.605	1247.06
417.828	1227.06
418.051	1292.06
418.274	1288.06
418.497	1276.06
418.72	1301.06
418.943	1267.06
419.166	1346.06
419.389	1372.06
419.611	1341.06
419.834	1307.06
420.057	1257.06
420.28	1271.06
420.503	1235.06
420.726	1240.06
420.948	1244.06
421.171	1287.06
421.394	1287.06
421.617	1267.06
421.839	1270.06
422.062	1282.06
422.285	1264.06
422.507	1284.06
422.73	1304.06
422.953	1279.06
423.175	1307.06
423.398	1307.06
423.621	1286.06
423.843	1254.06
424.066	1281.06
424.288	1247.06
424.511	1279.06
424.733	1245.06
424.956	1247.06
425.178	1244.06
425.401	1235.06
425.623	1240.06
425.846	1233.06
426.068	1228.06
426.291	1208.06
426.513	1219.06
426.735	1225.06
426.958	1182.06
427.18	1175.06
427.402	1183.06
427.625	1174.06
427.847	1162.06
428.069	1157.06
428.292	1189.06
428.514	1188.06
428.736	1172.06
428.958	1207.06
429.181	1153.06
429.403	1147.06
429.625	1153.06
429.847	1163.06
430.069	1178.06
430.292	1239.06
430.514	1233.06
430.736	1247.06
430.958	1186.06
431.18	1170.06
431.402	1165.06
431.624	1131.06
431.846	1131.06
432.068	1117.06
432.29	1143.06
432.512	1135.06
432.734	1146.06
432.956	1165.06
433.178	1171.06
433.4	1193.06
433.622	1195.06
433.844	1180.06
434.066	1188.06
434.287	1136.06
434.509	1156.06
434.731	1165.06
434.953	1157.06
435.175	1189.06
435.397	1185.06
435.618	1140.06
435.84	1166.06
436.062	1139.06
436.284	1164.06
436.505	1141.06
436.727	1163.06
436.949	1174.06
437.17	1151.06
437.392	1133.06
437.614	1159.06
437.835	1083.06
438.057	1116.06
438.278	1092.06
438.5	1134.06
438.721	1144.06
438.943	1169.06
439.165	1186.06
439.386	1186.06
439.608	1162.06
439.829	1196.06
440.05	1209.06
440.272	1235.06
440.493	1199.06
440.715	1177.06
440.936	1208.06
441.158	1237.06
441.379	1242.06
441.6	1277.06
441.822	1292.06
442.043	1309.06
442.264	1377.06
442.486	1290.06
442.707	1253.06
442.928	1253.06
443.149	1287.06
443.371	1221.06
443.592	1226.06
443.813	1227.06
444.034	1249.06
444.255	1286.06
444.476	1293.06
444.698	1330.06
444.919	1319.06
445.14	1381.06
445.361	1329.06
445.582	1274.06
445.803	1234.06
446.024	1243.06
446.245	1249.06
446.466	1244.06
446.687	1199.06
446.908	1210.06
447.129	1161.06
447.35	1175.06
447.571	1183.06
447.792	1119.06
448.013	1176.06
448.234	1167.06
448.455	1140.06
448.675	1137.06
448.896	1199.06
449.117	1228.06
449.338	1321.06
449.559	1334.06
449.779	1202.06
450	1132.06
450.221	1122.06
450.442	1109.06
450.662	1142.06
450.883	1124.06
451.104	1103.06
451.324	1113.06
451.545	1091.06
451.766	1115.06
451.986	1133.06
452.207	1203.06
452.428	1467.06
452.648	2011.06
452.869	1717.06
453.089	1282.06
453.31	1217.06
453.53	1218.06
453.751	1249.06
453.971	1313.06
454.192	1285.06
454.412	1127.06
454.633	1114.06
454.853	1082.06
455.073	1084.06
455.294	1067.06
455.514	1073.06
455.734	1038.06
455.955	1040.06
456.175	1057.06
456.395	1069.06
456.616	1063.06
456.836	1064.06
457.056	1077.06
457.276	1081.06
457.497	1130.06
457.717	1128.06
457.937	1103.06
458.157	1141.06
458.377	1096.06
458.598	1112.06
458.818	1143.06
459.038	1125.06
459.258	1133.06
459.478	1161.06
459.698	1171.06
459.918	1157.06
460.138	1210.06
460.358	1212.06
460.578	1255.06
460.798	1249.06
461.018	1272.06
461.238	1266.06
461.458	1256.06
461.678	1247.06
461.898	1275.06
462.118	1283.06
462.338	1315.06
462.558	1320.06
462.777	1345.06
462.997	1424.06
463.217	1460.06
463.437	1510.06
463.657	1492.06
463.876	1487.06
464.096	1442.06
464.316	1344.06
464.536	1369.06
464.755	1322.06
464.975	1315.06
465.195	1258.06
465.414	1236.06
465.634	1193.06
465.854	1205.06
466.073	1161.06
466.293	1186.06
466.512	1149.06
466.732	1196.06
466.951	1214.06
467.171	1289.06
467.391	1254.06
467.61	1183.06
467.829	1168.06
468.049	1159.06
468.268	1108.06
468.488	1126.06
468.707	1121.06
468.927	1129.06
469.146	1123.06
469.365	1146.06
469.585	1156.06
469.804	1185.06
470.023	1201.06
470.243	1188.06
470.462	1252.06
470.681	1282.06
470.901	1404.06
471.12	1590.06
471.339	1631.06
471.558	1343.06
471.777	1250.06
471.997	1207.06
472.216	1171.06
472.435	1162.06
472.654	1153.06
472.873	1111.06
473.092	1116.06
473.311	1115.06
473.53	1149.06
473.749	1154.06
473.968	1199.06
474.187	1157.06
474.406	1135.06
474.625	1141.06
474.844	1144.06
475.063	1161.06
475.282	1155.06
475.501	1143.06
475.72	1172.06
475.939	1179.06
476.158	1209.06
476.377	1195.06
476.596	1195.06
476.814	1207.06
477.033	1159.06
477.252	1213.06
477.471	1238.06
477.69	1271.06
477.908	1288.06
478.127	1308.06
478.346	1277.06
478.564	1339.06
478.783	1347.06
479.002	1360.06
479.22	1335.06
479.439	1341.06
479.658	1349.06
479.876	1365.06
480.095	1395.06
480.313	1396.06
480.532	1394.06
480.751	1380.06
480.969	1345.06
481.188	1352.06
481.406	1357.06
481.624	1379.06
481.843	1361.06
482.061	1364.06
482.28	1360.06
482.498	1340.06
482.717	1350.06
482.935	1397.06
483.153	1377.06
483.372	1415.06
483.59	1431.06
483.808	1438.06
484.027	1489.06
484.245	1563.06
484.463	1701.06
484.681	1888.06
484.9	1733.06
485.118	1587.06
485.336	1593.06
485.554	1567.06
485.772	1673.06
485.99	1891.06
486.209	2063.06
486.427	1741.06
486.645	1561.06
486.863	1511.06
487.081	1512.06
487.299	1464.06
487.517	1434.06
487.735	1497.06
487.953	1536.06
488.171	1464.06
488.389	1467.06
488.607	1435.06
488.825	1401.06
489.043	1416.06
489.261	1440.06
489.479	1415.06
489.696	1403.06
489.914	1450.06
490.132	1405.06
490.35	1440.06
490.568	1411.06
490.786	1507.06
