Data from SnStandardFlinnAPT0064_QswitchEnergy10_LIBS07252019.E.O._I.C._HRD10591_15-27-41-973.txt Node
Date: Thu Jul 25 15:27:41 EDT 2019
User: cochatt
Spectrometer: HR+D1059
Trigger mode: 1
Integration Time (sec): 1.000000E-1
Scans to average: 1
Electric dark correction enabled: true
Nonlinearity correction enabled: false
Boxcar width: 0
XAxis mode: Wavelengths
Number of Pixels in Spectrum: 2048
>>>>>Begin Spectral Data<<<<<
223.165	-17.69
223.4	-17.69
223.635	-17.69
223.869	-24.69
224.104	-20.69
224.338	-6.69
224.573	1.31
224.808	-16.69
225.042	-3.69
225.277	3.31
225.511	4.31
225.746	6.31
225.98	4.31
226.215	9.31
226.449	9.31
226.683	15.31
226.918	23.31
227.152	13.31
227.387	23.31
227.621	44.31
227.856	40.31
228.09	42.31
228.324	51.31
228.559	39.31
228.793	61.31
229.027	77.31
229.262	72.31
229.496	74.31
229.73	70.31
229.964	72.31
230.199	92.31
230.433	73.31
230.667	92.31
230.901	93.31
231.136	82.31
231.37	85.31
231.604	99.31
231.838	103.31
232.072	115.31
232.306	118.31
232.541	97.31
232.775	89.31
233.009	98.31
233.243	102.31
233.477	81.31
233.711	84.31
233.945	101.31
234.179	102.31
234.413	86.31
234.647	83.31
234.881	84.31
235.115	83.31
235.349	78.31
235.583	114.31
235.817	137.31
236.051	119.31
236.285	94.31
236.519	89.31
236.753	93.31
236.987	72.31
237.221	70.31
237.455	73.31
237.689	67.31
237.922	86.31
238.156	77.31
238.39	94.31
238.624	109.31
238.858	95.31
239.091	84.31
239.325	63.31
239.559	76.31
239.793	82.31
240.027	97.31
240.26	87.31
240.494	77.31
240.728	81.31
240.961	108.31
241.195	103.31
241.429	95.31
241.662	79.31
241.896	87.31
242.13	108.31
242.363	137.31
242.597	168.31
242.83	143.31
243.064	125.31
243.298	162.31
243.531	140.31
243.765	91.31
243.998	89.31
244.232	82.31
244.465	79.31
244.699	79.31
244.932	76.31
245.166	90.31
245.399	95.31
245.633	83.31
245.866	83.31
246.099	78.31
246.333	90.31
246.566	78.31
246.8	83.31
247.033	87.31
247.266	92.31
247.5	85.31
247.733	73.31
247.966	86.31
248.2	96.31
248.433	95.31
248.666	125.31
248.899	110.31
249.133	79.31
249.366	93.31
249.599	124.31
249.832	131.31
250.066	124.31
250.299	91.31
250.532	87.31
250.765	82.31
250.998	79.31
251.231	85.31
251.465	79.31
251.698	98.31
251.931	87.31
252.164	83.31
252.397	82.31
252.63	101.31
252.863	114.31
253.096	79.31
253.329	94.31
253.562	82.31
253.795	92.31
254.028	101.31
254.261	95.31
254.494	107.31
254.727	128.31
254.96	150.31
255.193	127.31
255.426	101.31
255.659	78.31
255.892	94.31
256.124	100.31
256.357	98.31
256.59	86.31
256.823	82.31
257.056	102.31
257.289	133.31
257.521	166.31
257.754	128.31
257.987	94.31
258.22	101.31
258.452	80.31
258.685	98.31
258.918	86.31
259.151	90.31
259.383	96.31
259.616	136.31
259.849	122.31
260.081	119.31
260.314	94.31
260.547	83.31
260.779	82.31
261.012	80.31
261.244	79.31
261.477	90.31
261.71	86.31
261.942	106.31
262.175	93.31
262.407	85.31
262.64	86.31
262.872	88.31
263.105	79.31
263.337	87.31
263.57	82.31
263.802	102.31
264.035	85.31
264.267	100.31
264.499	94.31
264.732	87.31
264.964	79.31
265.197	98.31
265.429	90.31
265.661	100.31
265.894	93.31
266.126	122.31
266.358	158.31
266.591	136.31
266.823	107.31
267.055	90.31
267.287	91.31
267.52	91.31
267.752	80.31
267.984	88.31
268.216	90.31
268.448	86.31
268.681	86.31
268.913	92.31
269.145	68.31
269.377	78.31
269.609	100.31
269.841	93.31
270.073	96.31
270.306	118.31
270.538	189.31
270.77	318.31
271.002	363.31
271.234	196.31
271.466	121.31
271.698	83.31
271.93	94.31
272.162	94.31
272.394	101.31
272.626	81.31
272.858	97.31
273.09	91.31
273.322	93.31
273.553	78.31
273.785	92.31
274.017	77.31
274.249	98.31
274.481	90.31
274.713	97.31
274.945	85.31
275.176	99.31
275.408	92.31
275.64	85.31
275.872	83.31
276.104	90.31
276.335	99.31
276.567	97.31
276.799	91.31
277.031	88.31
277.262	103.31
277.494	102.31
277.726	122.31
277.957	166.31
278.189	241.31
278.421	229.31
278.652	180.31
278.884	168.31
279.115	151.31
279.347	103.31
279.579	95.31
279.81	100.31
280.042	92.31
280.273	92.31
280.505	88.31
280.736	96.31
280.968	114.31
281.199	159.31
281.431	227.31
281.662	246.31
281.894	148.31
282.125	109.31
282.356	118.31
282.588	114.31
282.819	120.31
283.051	115.31
283.282	132.31
283.513	195.31
283.745	291.31
283.976	504.31
284.207	723.31
284.439	558.31
284.67	261.31
284.901	259.31
285.132	332.31
285.364	362.31
285.595	215.31
285.826	166.31
286.057	226.31
286.288	406.31
286.52	576.31
286.751	456.31
286.982	203.31
287.213	120.31
287.444	103.31
287.675	99.31
287.906	102.31
288.138	75.31
288.369	91.31
288.6	92.31
288.831	82.31
289.062	98.31
289.293	109.31
289.524	87.31
289.755	84.31
289.986	79.31
290.217	87.31
290.448	94.31
290.679	120.31
290.91	128.31
291.141	155.31
291.371	206.31
291.602	250.31
291.833	189.31
292.064	119.31
292.295	92.31
292.526	81.31
292.757	88.31
292.987	93.31
293.218	92.31
293.449	85.31
293.68	91.31
293.91	84.31
294.141	102.31
294.372	86.31
294.603	101.31
294.833	89.31
295.064	102.31
295.295	96.31
295.525	91.31
295.756	92.31
295.987	95.31
296.217	107.31
296.448	85.31
296.679	93.31
296.909	104.31
297.14	101.31
297.37	102.31
297.601	96.31
297.831	88.31
298.062	101.31
298.292	113.31
298.523	105.31
298.753	110.31
298.984	88.31
299.214	109.31
299.445	101.31
299.675	106.31
299.905	122.31
300.136	125.31
300.366	159.31
300.597	243.31
300.827	414.31
301.057	640.31
301.288	568.31
301.518	249.31
301.748	133.31
301.979	130.31
302.209	138.31
302.439	140.31
302.669	174.31
302.9	252.31
303.13	469.31
303.36	821.31
303.59	1149.31
303.82	783.31
304.051	279.31
304.281	133.31
304.511	127.31
304.741	107.31
304.971	109.31
305.201	109.31
305.431	113.31
305.661	122.31
305.891	111.31
306.121	115.31
306.352	99.31
306.582	107.31
306.812	119.31
307.042	118.31
307.272	103.31
307.502	115.31
307.731	97.31
307.961	102.31
308.191	97.31
308.421	108.31
308.651	116.31
308.881	105.31
309.111	99.31
309.341	103.31
309.571	98.31
309.8	102.31
310.03	113.31
310.26	110.31
310.49	99.31
310.72	116.31
310.949	110.31
311.179	114.31
311.409	97.31
311.639	122.31
311.868	109.31
312.098	114.31
312.328	113.31
312.557	117.31
312.787	111.31
313.017	113.31
313.246	115.31
313.476	126.31
313.706	124.31
313.935	147.31
314.165	188.31
314.394	201.31
314.624	149.31
314.853	132.31
315.083	114.31
315.312	115.31
315.542	144.31
315.771	129.31
316.001	134.31
316.23	133.31
316.46	164.31
316.689	161.31
316.919	234.31
317.148	446.31
317.377	830.31
317.607	1389.31
317.836	1303.31
318.065	517.31
318.295	200.31
318.524	149.31
318.753	136.31
318.983	115.31
319.212	114.31
319.441	131.31
319.67	111.31
319.9	114.31
320.129	106.31
320.358	120.31
320.587	125.31
320.816	126.31
321.046	122.31
321.275	113.31
321.504	122.31
321.733	145.31
321.962	153.31
322.191	158.31
322.42	128.31
322.649	115.31
322.878	110.31
323.108	110.31
323.337	106.31
323.566	124.31
323.795	121.31
324.024	144.31
324.253	130.31
324.482	165.31
324.71	222.31
324.939	279.31
325.168	222.31
325.397	173.31
325.626	238.31
325.855	450.31
326.084	885.31
326.313	1477.31
326.542	1471.31
326.77	586.31
326.999	252.31
327.228	211.31
327.457	226.31
327.686	213.31
327.914	155.31
328.143	139.31
328.372	116.31
328.6	120.31
328.829	107.31
329.058	113.31
329.287	116.31
329.515	118.31
329.744	120.31
329.972	103.31
330.201	113.31
330.43	113.31
330.658	114.31
330.887	109.31
331.115	107.31
331.344	116.31
331.572	116.31
331.801	127.31
332.03	122.31
332.258	128.31
332.486	185.31
332.715	257.31
332.943	453.31
333.172	709.31
333.4	618.31
333.629	240.31
333.857	147.31
334.085	120.31
334.314	124.31
334.542	119.31
334.771	113.31
334.999	120.31
335.227	111.31
335.455	124.31
335.684	115.31
335.912	106.31
336.14	123.31
336.369	120.31
336.597	99.31
336.825	117.31
337.053	115.31
337.281	116.31
337.51	110.31
337.738	113.31
337.966	107.31
338.194	102.31
338.422	93.31
338.65	102.31
338.878	109.31
339.106	125.31
339.334	115.31
339.562	121.31
339.79	116.31
340.018	113.31
340.246	122.31
340.474	125.31
340.702	115.31
340.93	114.31
341.158	117.31
341.386	126.31
341.614	117.31
341.842	127.31
342.07	128.31
342.298	109.31
342.526	110.31
342.754	116.31
342.981	115.31
343.209	122.31
343.437	117.31
343.665	117.31
343.893	119.31
344.12	116.31
344.348	110.31
344.576	108.31
344.804	121.31
345.031	117.31
345.259	109.31
345.487	97.31
345.714	113.31
345.942	106.31
346.17	115.31
346.397	121.31
346.625	103.31
346.853	101.31
347.08	106.31
347.308	111.31
347.535	104.31
347.763	102.31
347.99	108.31
348.218	96.31
348.445	116.31
348.673	120.31
348.9	123.31
349.128	130.31
349.355	120.31
349.583	117.31
349.81	108.31
350.037	122.31
350.265	125.31
350.492	107.31
350.72	110.31
350.947	121.31
351.174	113.31
351.402	103.31
351.629	113.31
351.856	113.31
352.083	120.31
352.311	111.31
352.538	107.31
352.765	109.31
352.992	123.31
353.22	95.31
353.447	98.31
353.674	110.31
353.901	110.31
354.128	113.31
354.355	99.31
354.583	115.31
354.81	115.31
355.037	106.31
355.264	87.31
355.491	117.31
355.718	95.31
355.945	100.31
356.172	111.31
356.399	102.31
356.626	106.31
356.853	109.31
357.08	106.31
357.307	110.31
357.534	119.31
357.761	123.31
357.988	115.31
358.215	106.31
358.441	117.31
358.668	108.31
358.895	133.31
359.122	120.31
359.349	129.31
359.576	119.31
359.802	110.31
360.029	105.31
360.256	108.31
360.483	112.31
360.709	129.31
360.936	118.31
361.163	110.31
361.39	115.31
361.616	107.31
361.843	113.31
362.07	118.31
362.296	114.31
362.523	116.31
362.749	110.31
362.976	108.31
363.203	112.31
363.429	110.31
363.656	113.31
363.882	123.31
364.109	107.31
364.335	96.31
364.562	101.31
364.788	109.31
365.015	127.31
365.241	136.31
365.468	177.31
365.694	229.31
365.92	181.31
366.147	118.31
366.373	106.31
366.599	110.31
366.826	110.31
367.052	110.31
367.278	94.31
367.505	102.31
367.731	117.31
367.957	103.31
368.184	121.31
368.41	119.31
368.636	114.31
368.862	112.31
369.089	101.31
369.315	115.31
369.541	106.31
369.767	107.31
369.993	110.31
370.219	114.31
370.445	110.31
370.672	103.31
370.898	103.31
371.124	108.31
371.35	116.31
371.576	109.31
371.802	98.31
372.028	129.31
372.254	108.31
372.48	120.31
372.706	110.31
372.932	130.31
373.158	93.31
373.384	117.31
373.61	127.31
373.835	116.31
374.061	107.31
374.287	126.31
374.513	112.31
374.739	117.31
374.965	120.31
375.191	114.31
375.416	109.31
375.642	109.31
375.868	106.31
376.094	108.31
376.319	115.31
376.545	106.31
376.771	91.31
376.997	103.31
377.222	114.31
377.448	108.31
377.674	94.31
377.899	117.31
378.125	113.31
378.35	98.31
378.576	103.31
378.802	117.31
379.027	121.31
379.253	138.31
379.478	180.31
379.704	286.31
379.929	730.31
380.155	1469.31
380.38	1518.31
380.606	490.31
380.831	184.31
381.057	129.31
381.282	125.31
381.507	123.31
381.733	121.31
381.958	108.31
382.184	103.31
382.409	117.31
382.634	103.31
382.86	105.31
383.085	111.31
383.31	94.31
383.535	95.31
383.761	101.31
383.986	100.31
384.211	109.31
384.436	97.31
384.662	91.31
384.887	93.31
385.112	92.31
385.337	108.31
385.562	101.31
385.787	109.31
386.013	116.31
386.238	101.31
386.463	117.31
386.688	109.31
386.913	102.31
387.138	106.31
387.363	102.31
387.588	111.31
387.813	111.31
388.038	125.31
388.263	97.31
388.488	113.31
388.713	104.31
388.938	107.31
389.163	101.31
389.387	97.31
389.612	106.31
389.837	109.31
390.062	114.31
390.287	107.31
390.512	99.31
390.736	103.31
390.961	115.31
391.186	101.31
391.411	107.31
391.636	93.31
391.86	97.31
392.085	99.31
392.31	92.31
392.534	99.31
392.759	99.31
392.984	99.31
393.208	102.31
393.433	118.31
393.658	129.31
393.882	111.31
394.107	93.31
394.331	104.31
394.556	101.31
394.78	95.31
395.005	96.31
395.229	113.31
395.454	102.31
395.678	99.31
395.903	101.31
396.127	112.31
396.352	99.31
396.576	103.31
396.801	104.31
397.025	104.31
397.249	95.31
397.474	106.31
397.698	105.31
397.922	83.31
398.147	92.31
398.371	103.31
398.595	103.31
398.82	91.31
399.044	106.31
399.268	102.31
399.492	86.31
399.717	85.31
399.941	97.31
400.165	88.31
400.389	103.31
400.613	91.31
400.837	104.31
401.062	102.31
401.286	92.31
401.51	99.31
401.734	101.31
401.958	93.31
402.182	109.31
402.406	99.31
402.63	118.31
402.854	115.31
403.078	119.31
403.302	111.31
403.526	112.31
403.75	97.31
403.974	93.31
404.198	98.31
404.422	115.31
404.645	94.31
404.869	97.31
405.093	83.31
405.317	91.31
405.541	96.31
405.765	128.31
405.988	133.31
406.212	129.31
406.436	99.31
406.66	99.31
406.883	110.31
407.107	99.31
407.331	92.31
407.555	92.31
407.778	84.31
408.002	101.31
408.226	120.31
408.449	117.31
408.673	110.31
408.896	103.31
409.12	108.31
409.344	107.31
409.567	90.31
409.791	100.31
410.014	105.31
410.238	102.31
410.461	109.31
410.685	86.31
410.908	101.31
411.132	98.31
411.355	101.31
411.578	96.31
411.802	94.31
412.025	113.31
412.249	101.31
412.472	99.31
412.695	96.31
412.919	92.31
413.142	87.31
413.365	99.31
413.589	98.31
413.812	92.31
414.035	113.31
414.258	94.31
414.482	103.31
414.705	94.31
414.928	101.31
415.151	96.31
415.374	100.31
415.597	95.31
415.821	92.31
416.044	99.31
416.267	92.31
416.49	109.31
416.713	95.31
416.936	105.31
417.159	104.31
417.382	91.31
417.605	98.31
417.828	107.31
418.051	88.31
418.274	93.31
418.497	103.31
418.72	101.31
418.943	94.31
419.166	110.31
419.389	99.31
419.611	102.31
419.834	112.31
420.057	117.31
420.28	104.31
420.503	98.31
420.726	98.31
420.948	101.31
421.171	88.31
421.394	95.31
421.617	93.31
421.839	90.31
422.062	99.31
422.285	102.31
422.507	98.31
422.73	107.31
422.953	122.31
423.175	106.31
423.398	89.31
423.621	89.31
423.843	99.31
424.066	91.31
424.288	114.31
424.511	116.31
424.733	99.31
424.956	93.31
425.178	91.31
425.401	103.31
425.623	99.31
425.846	104.31
426.068	87.31
426.291	97.31
426.513	101.31
426.735	98.31
426.958	101.31
427.18	99.31
427.402	96.31
427.625	79.31
427.847	93.31
428.069	96.31
428.292	111.31
428.514	97.31
428.736	96.31
428.958	101.31
429.181	92.31
429.403	102.31
429.625	106.31
429.847	106.31
430.069	111.31
430.292	104.31
430.514	105.31
430.736	103.31
430.958	98.31
431.18	88.31
431.402	100.31
431.624	96.31
431.846	90.31
432.068	85.31
432.29	86.31
432.512	98.31
432.734	90.31
432.956	94.31
433.178	90.31
433.4	104.31
433.622	97.31
433.844	105.31
434.066	97.31
434.287	100.31
434.509	93.31
434.731	100.31
434.953	84.31
435.175	94.31
435.397	92.31
435.618	85.31
435.84	100.31
436.062	84.31
436.284	96.31
436.505	94.31
436.727	99.31
436.949	87.31
437.17	83.31
437.392	77.31
437.614	101.31
437.835	89.31
438.057	101.31
438.278	92.31
438.5	76.31
438.721	103.31
438.943	108.31
439.165	111.31
439.386	108.31
439.608	97.31
439.829	115.31
440.05	111.31
440.272	131.31
440.493	108.31
440.715	98.31
440.936	108.31
441.158	101.31
441.379	111.31
441.6	84.31
441.822	98.31
442.043	115.31
442.264	123.31
442.486	103.31
442.707	77.31
442.928	94.31
443.149	108.31
443.371	100.31
443.592	87.31
443.813	70.31
444.034	89.31
444.255	99.31
444.476	99.31
444.698	96.31
444.919	106.31
445.14	193.31
445.361	131.31
445.582	101.31
445.803	110.31
446.024	114.31
446.245	98.31
446.466	109.31
446.687	102.31
446.908	110.31
447.129	107.31
447.35	111.31
447.571	91.31
447.792	97.31
448.013	98.31
448.234	98.31
448.455	96.31
448.675	96.31
448.896	88.31
449.117	127.31
449.338	112.31
449.559	141.31
449.779	118.31
450	122.31
450.221	113.31
450.442	116.31
450.662	120.31
450.883	117.31
451.104	115.31
451.324	123.31
451.545	123.31
451.766	109.31
451.986	129.31
452.207	191.31
452.428	495.31
452.648	1211.31
452.869	684.31
453.089	214.31
453.31	129.31
453.53	122.31
453.751	138.31
453.971	169.31
454.192	166.31
454.412	106.31
454.633	101.31
454.853	93.31
455.073	76.31
455.294	92.31
455.514	111.31
455.734	95.31
455.955	89.31
456.175	101.31
456.395	105.31
456.616	84.31
456.836	93.31
457.056	97.31
457.276	101.31
457.497	94.31
457.717	121.31
457.937	95.31
458.157	104.31
458.377	97.31
458.598	97.31
458.818	98.31
459.038	98.31
459.258	89.31
459.478	92.31
459.698	96.31
459.918	106.31
460.138	81.31
460.358	93.31
460.578	86.31
460.798	101.31
461.018	94.31
461.238	97.31
461.458	96.31
461.678	87.31
461.898	103.31
462.118	88.31
462.338	82.31
462.558	97.31
462.777	101.31
462.997	101.31
463.217	110.31
463.437	128.31
463.657	195.31
463.876	180.31
464.096	110.31
464.316	98.31
464.536	103.31
464.755	107.31
464.975	96.31
465.195	88.31
465.414	105.31
465.634	86.31
465.854	97.31
466.073	94.31
466.293	98.31
466.512	101.31
466.732	92.31
466.951	123.31
467.171	149.31
467.391	147.31
467.61	114.31
467.829	117.31
468.049	109.31
468.268	89.31
468.488	102.31
468.707	95.31
468.927	108.31
469.146	93.31
469.365	87.31
469.585	91.31
469.804	111.31
470.023	118.31
470.243	91.31
470.462	96.31
470.681	90.31
470.901	141.31
471.12	189.31
471.339	208.31
471.558	121.31
471.777	107.31
471.997	119.31
472.216	106.31
472.435	88.31
472.654	85.31
472.873	103.31
473.092	115.31
473.311	99.31
473.53	100.31
473.749	102.31
473.968	111.31
474.187	104.31
474.406	89.31
474.625	99.31
474.844	97.31
475.063	92.31
475.282	97.31
475.501	98.31
475.72	110.31
475.939	84.31
476.158	111.31
476.377	116.31
476.596	121.31
476.814	102.31
477.033	115.31
477.252	97.31
477.471	99.31
477.69	100.31
477.908	89.31
478.127	97.31
478.346	89.31
478.564	97.31
478.783	90.31
479.002	89.31
479.22	94.31
479.439	89.31
479.658	94.31
479.876	79.31
480.095	93.31
480.313	90.31
480.532	99.31
480.751	105.31
480.969	92.31
481.188	79.31
481.406	95.31
481.624	110.31
481.843	125.31
482.061	110.31
482.28	96.31
482.498	89.31
482.717	86.31
482.935	85.31
483.153	96.31
483.372	109.31
483.59	95.31
483.808	106.31
484.027	116.31
484.245	99.31
484.463	165.31
484.681	216.31
484.9	143.31
485.118	109.31
485.336	110.31
485.554	113.31
485.772	121.31
485.99	190.31
486.209	250.31
486.427	172.31
486.645	108.31
486.863	98.31
487.081	110.31
487.299	105.31
487.517	105.31
487.735	91.31
487.953	99.31
488.171	104.31
488.389	110.31
488.607	103.31
488.825	107.31
489.043	93.31
489.261	111.31
489.479	110.31
489.696	100.31
489.914	104.31
490.132	92.31
490.35	105.31
490.568	104.31
490.786	104.31
491.003	113.31
491.221	127.31
491.439	113.31
491.657	101.31
491.874	103.31
492.092	108.31
492.31	107.31
492.527	105.31
492.745	98.31
492.963	117.31
493.18	115.31
493.398	114.31
493.615	100.31
493.833	109.31
494.05	92.31
494.268	116.31
494.485	100.31
494.703	96.31
494.92	96.31
495.138	109.31
495.355	94.31
495.573	97.31
495.79	116.31
496.008	100.31
496.225	117.31
496.442	111.31
496.66	121.31
496.877	159.31
497.094	142.31
497.312	115.31
497.529	108.31
497.746	107.31
497.963	106.31
498.181	98.31
498.398	105.31
498.615	108.31
498.832	108.31
499.049	100.31
499.267	140.31
499.484	157.31
499.701	114.31
499.918	107.31
500.135	88.31
500.352	102.31
500.569	106.31
500.786	116.31
501.003	113.31
501.22	96.31
501.437	109.31
501.654	97.31
501.871	101.31
502.088	86.31
502.305	90.31
502.522	101.31
502.739	91.31
502.956	101.31
503.172	103.31
503.389	102.31
503.606	92.31
503.823	115.31
504.04	99.31
504.256	97.31
504.473	100.31
504.69	102.31
504.907	95.31
505.123	119.31
505.34	85.31
505.557	104.31
505.773	88.31
505.99	105.31
506.207	92.31
506.423	105.31
506.64	104.31
506.856	116.31
507.073	88.31
507.289	99.31
507.506	104.31
507.722	90.31
507.939	98.31
508.155	118.31
