Data from SnStandardFlinnAPT0064_LampEnergy10_LIBS07252019.E.O._I.C._HRD10591_15-20-17-494.txt Node
Date: Thu Jul 25 15:20:17 EDT 2019
User: cochatt
Spectrometer: HR+D1059
Trigger mode: 1
Integration Time (sec): 1.000000E-1
Scans to average: 1
Electric dark correction enabled: true
Nonlinearity correction enabled: false
Boxcar width: 0
XAxis mode: Wavelengths
Number of Pixels in Spectrum: 2048
>>>>>Begin Spectral Data<<<<<
223.165	-23
223.4	-23
223.635	-23
223.869	-21
224.104	-30
224.338	-17
224.573	-9
224.808	-15
225.042	-12
225.277	11
225.511	-6
225.746	4
225.98	0
226.215	5
226.449	24
226.683	36
226.918	21
227.152	32
227.387	34
227.621	46
227.856	40
228.09	60
228.324	54
228.559	57
228.793	127
229.027	321
229.262	341
229.496	333
229.73	308
229.964	301
230.199	324
230.433	325
230.667	333
230.901	332
231.136	334
231.37	363
231.604	395
231.838	468
232.072	548
232.306	588
232.541	500
232.775	434
233.009	429
233.243	429
233.477	483
233.711	530
233.945	587
234.179	504
234.413	458
234.647	468
234.881	469
235.115	533
235.349	619
235.583	791
235.817	1056
236.051	1006
236.285	677
236.519	556
236.753	505
236.987	519
237.221	532
237.455	518
237.689	498
237.922	484
238.156	493
238.39	488
238.624	500
238.858	488
239.091	484
239.325	489
239.559	526
239.793	515
240.027	524
240.26	544
240.494	581
240.728	606
240.961	630
241.195	662
241.429	721
241.662	740
241.896	802
242.13	991
242.363	1286
242.597	1720
242.83	1636
243.064	1607
243.298	1908
243.531	1599
243.765	975
243.998	760
244.232	714
244.465	702
244.699	677
244.932	668
245.166	673
245.399	676
245.633	683
245.866	702
246.099	689
246.333	678
246.566	642
246.8	637
247.033	629
247.266	633
247.5	678
247.733	672
247.966	722
248.2	771
248.433	883
248.666	1036
248.899	985
249.133	834
249.366	864
249.599	979
249.832	1104
250.066	1125
250.299	883
250.532	776
250.765	796
250.998	732
251.231	723
251.465	729
251.698	762
251.931	758
252.164	756
252.397	772
252.63	780
252.863	809
253.096	792
253.329	799
253.562	782
253.795	768
254.028	799
254.261	845
254.494	860
254.727	1014
254.96	1236
255.193	1216
255.426	988
255.659	890
255.892	877
256.124	869
256.357	884
256.59	929
256.823	979
257.056	1138
257.289	1422
257.521	1524
257.754	1220
257.987	957
258.22	956
258.452	902
258.685	965
258.918	967
259.151	979
259.383	1109
259.616	1219
259.849	1326
260.081	1114
260.314	1013
260.547	948
260.779	942
261.012	969
261.244	966
261.477	967
261.71	971
261.942	993
262.175	1018
262.407	1037
262.64	1063
262.872	1091
263.105	1162
263.337	1216
263.57	1230
263.802	1259
264.035	1300
264.267	1334
264.499	1357
264.732	1413
264.964	1434
265.197	1409
265.429	1436
265.661	1449
265.894	1555
266.126	1766
266.358	1968
266.591	1916
266.823	1620
267.055	1434
267.287	1361
267.52	1321
267.752	1284
267.984	1263
268.216	1249
268.448	1240
268.681	1244
268.913	1239
269.145	1192
269.377	1274
269.609	1293
269.841	1292
270.073	1416
270.306	1670
270.538	2216
270.77	3325
271.002	4103
271.234	2906
271.466	1904
271.698	1526
271.93	1406
272.162	1356
272.394	1310
272.626	1244
272.858	1240
273.09	1245
273.322	1206
273.553	1204
273.785	1214
274.017	1202
274.249	1212
274.481	1189
274.713	1210
274.945	1220
275.176	1219
275.408	1243
275.64	1204
275.872	1224
276.104	1246
276.335	1271
276.567	1288
276.799	1284
277.031	1318
277.262	1320
277.494	1400
277.726	1553
277.957	1910
278.189	2196
278.421	2045
278.652	1795
278.884	1712
279.115	1512
279.347	1422
279.579	1410
279.81	1390
280.042	1436
280.273	1438
280.505	1452
280.736	1491
280.968	1610
281.199	1796
281.431	2097
281.662	2141
281.894	1820
282.125	1635
282.356	1699
282.588	1686
282.819	1715
283.051	1821
283.282	2036
283.513	2508
283.745	3746
283.976	5920
284.207	8399
284.439	7696
284.67	4734
284.901	3920
285.132	3919
285.364	3710
285.595	2778
285.826	2489
286.057	2942
286.288	4056
286.52	5531
286.751	5112
286.982	3161
287.213	2323
287.444	2034
287.675	1846
287.906	1795
288.138	1732
288.369	1724
288.6	1709
288.831	1669
289.062	1657
289.293	1698
289.524	1688
289.755	1721
289.986	1720
290.217	1714
290.448	1708
290.679	1746
290.91	1787
291.141	1922
291.371	2063
291.602	2125
291.833	1944
292.064	1763
292.295	1664
292.526	1670
292.757	1619
292.987	1594
293.218	1574
293.449	1616
293.68	1621
293.91	1589
294.141	1572
294.372	1518
294.603	1533
294.833	1552
295.064	1555
295.295	1584
295.525	1547
295.756	1566
295.987	1552
296.217	1572
296.448	1564
296.679	1540
296.909	1569
297.14	1593
297.37	1632
297.601	1604
297.831	1629
298.062	1657
298.292	1663
298.523	1716
298.753	1712
298.984	1706
299.214	1717
299.445	1733
299.675	1782
299.905	1865
300.136	1953
300.366	2217
300.597	2806
300.827	4012
301.057	5502
301.288	5522
301.518	3468
301.748	2628
301.979	2421
302.209	2362
302.439	2360
302.669	2470
302.9	3044
303.13	4349
303.36	6509
303.59	8616
303.82	7437
304.051	4364
304.281	3101
304.511	2583
304.741	2296
304.971	2219
305.201	2090
305.431	2020
305.661	1987
305.891	1919
306.121	1891
306.352	1851
306.582	1890
306.812	1832
307.042	1875
307.272	1856
307.502	1797
307.731	1826
307.961	1836
308.191	1851
308.421	1792
308.651	1829
308.881	1788
309.111	1834
309.341	1857
309.571	1859
309.8	1829
310.03	1851
310.26	1880
310.49	1860
310.72	1869
310.949	1848
311.179	1860
311.409	1869
311.639	1919
311.868	1894
312.098	1992
312.328	1936
312.557	1974
312.787	1944
313.017	2004
313.246	1990
313.476	2015
313.706	2096
313.935	2202
314.165	2384
314.394	2485
314.624	2341
314.853	2196
315.083	2151
315.312	2128
315.542	2224
315.771	2253
316.001	2264
316.23	2340
316.46	2494
316.689	2712
316.919	3234
317.148	4766
317.377	7353
317.607	11010
317.836	11444
318.065	6814
318.295	4395
318.524	3500
318.753	2939
318.983	2756
319.212	2600
319.441	2534
319.67	2478
319.9	2382
320.129	2364
320.358	2368
320.587	2416
320.816	2329
321.046	2382
321.275	2375
321.504	2402
321.733	2418
321.962	2537
322.191	2572
322.42	2522
322.649	2506
322.878	2474
323.108	2482
323.337	2570
323.566	2589
323.795	2636
324.024	2715
324.253	2752
324.482	2826
324.71	3136
324.939	3278
325.168	3364
325.397	3513
325.626	4058
325.855	5784
326.084	9092
326.313	13200
326.542	13920
326.77	9443
326.999	6120
327.228	5122
327.457	4883
327.686	4878
327.914	5182
328.143	6117
328.372	7302
328.6	7920
328.829	7068
329.058	5882
329.287	5073
329.515	4660
329.744	4304
329.972	4096
330.201	3904
330.43	3728
330.658	3636
330.887	3585
331.115	3472
331.344	3467
331.572	3446
331.801	3476
332.03	3485
332.258	3555
332.486	3725
332.715	4364
332.943	5364
333.172	6770
333.4	6809
333.629	4972
333.857	4567
334.085	4584
334.314	4748
334.542	5128
334.771	6077
334.999	7580
335.227	9502
335.455	10640
335.684	9500
335.912	7866
336.14	6534
336.369	5780
336.597	5215
336.825	4826
337.053	4562
337.281	4183
337.51	4013
337.738	3842
337.966	3662
338.194	3580
338.422	3511
338.65	3350
338.878	3308
339.106	3292
339.334	3198
339.562	3140
339.79	3109
340.018	3039
340.246	2972
340.474	3062
340.702	3033
340.93	3031
341.158	3029
341.386	3024
341.614	2958
341.842	2896
342.07	2775
342.298	2785
342.526	2819
342.754	2746
342.981	2648
343.209	2676
343.437	2707
343.665	2776
343.893	2860
344.12	2803
344.348	2788
344.576	2744
344.804	2673
345.031	2600
345.259	2619
345.487	2580
345.714	2517
345.942	2501
346.17	2571
346.397	2548
346.625	2523
346.853	2572
347.08	2507
347.308	2491
347.535	2524
347.763	2534
347.99	2460
348.218	2465
348.445	2459
348.673	2448
348.9	2455
349.128	2447
349.355	2413
349.583	2446
349.81	2395
350.037	2425
350.265	2394
350.492	2390
350.72	2442
350.947	2410
351.174	2363
351.402	2407
351.629	2429
351.856	2384
352.083	2405
352.311	2357
352.538	2338
352.765	2381
352.992	2329
353.22	2360
353.447	2365
353.674	2363
353.901	2380
354.128	2410
354.355	2419
354.583	2381
354.81	2453
355.037	2418
355.264	2404
355.491	2408
355.718	2470
355.945	2460
356.172	2450
356.399	2474
356.626	2449
356.853	2502
357.08	2513
357.307	2490
357.534	2575
357.761	2570
357.988	2630
358.215	2517
358.441	2570
358.668	2572
358.895	2521
359.122	2525
359.349	2525
359.576	2494
359.802	2538
360.029	2589
360.256	2535
360.483	2582
360.709	2502
360.936	2523
361.163	2550
361.39	2522
361.616	2581
361.843	2516
362.07	2544
362.296	2559
362.523	2566
362.749	2571
362.976	2593
363.203	2522
363.429	2477
363.656	2525
363.882	2549
364.109	2522
364.335	2498
364.562	2474
364.788	2541
365.015	2558
365.241	2660
365.468	2797
365.694	2903
365.92	2850
366.147	2614
366.373	2580
366.599	2591
366.826	2588
367.052	2611
367.278	2626
367.505	2603
367.731	2605
367.957	2628
368.184	2646
368.41	2658
368.636	2705
368.862	2641
369.089	2661
369.315	2684
369.541	2645
369.767	2644
369.993	2654
370.219	2621
370.445	2662
370.672	2670
370.898	2644
371.124	2654
371.35	2696
371.576	2712
371.802	2669
372.028	2710
372.254	2731
372.48	2727
372.706	2773
372.932	2811
373.158	2753
373.384	2790
373.61	2799
373.835	2808
374.061	2784
374.287	2862
374.513	2811
374.739	2851
374.965	2884
375.191	2892
375.416	2834
375.642	2844
375.868	2874
376.094	2811
376.319	2731
376.545	2745
376.771	2738
376.997	2744
377.222	2760
377.448	2661
377.674	2746
377.899	2718
378.125	2698
378.35	2719
378.576	2762
378.802	2725
379.027	2792
379.253	2887
379.478	3040
379.704	3676
379.929	5252
380.155	8212
380.38	9048
380.606	5466
380.831	3721
381.057	3208
381.282	2998
381.507	2853
381.733	2810
381.958	2746
382.184	2700
382.409	2731
382.634	2684
382.86	2627
383.085	2661
383.31	2681
383.535	2640
383.761	2693
383.986	2721
384.211	2739
384.436	2814
384.662	2787
384.887	2809
385.112	2752
385.337	2770
385.562	2757
385.787	2780
386.013	2742
386.238	2721
386.463	2708
386.688	2825
386.913	2695
387.138	2760
387.363	2737
387.588	2727
387.813	2750
388.038	2731
388.263	2710
388.488	2767
388.713	2770
388.938	2724
389.163	2718
389.387	2770
389.612	2732
389.837	2741
390.062	2761
390.287	2777
390.512	2757
390.736	2856
390.961	2859
391.186	2852
391.411	2842
391.636	2899
391.86	2921
392.085	2917
392.31	2875
392.534	2827
392.759	2859
392.984	2819
393.208	2838
393.433	2830
393.658	2805
393.882	2746
394.107	2786
394.331	2797
394.556	2781
394.78	2864
395.005	2780
395.229	2854
395.454	2859
395.678	2888
395.903	2901
396.127	2864
396.352	2840
396.576	2853
396.801	2870
397.025	2860
397.249	2896
397.474	2908
397.698	2909
397.922	2972
398.147	2860
398.371	2956
398.595	2986
398.82	3093
399.044	3215
399.268	3317
399.492	3505
399.717	3662
399.941	3596
400.165	3504
400.389	3359
400.613	3204
400.837	3174
401.062	3106
401.286	3053
401.51	3069
401.734	3008
401.958	3027
402.182	3043
402.406	3010
402.63	3046
402.854	3129
403.078	3056
403.302	3081
403.526	3140
403.75	3128
403.974	3180
404.198	3109
404.422	3143
404.645	3092
404.869	3130
405.093	3152
405.317	3121
405.541	3179
405.765	3189
405.988	3272
406.212	3267
406.436	3249
406.66	3288
406.883	3268
407.107	3355
407.331	3423
407.555	3454
407.778	3410
408.002	3364
408.226	3379
408.449	3370
408.673	3252
408.896	3224
409.12	3212
409.344	3188
409.567	3163
409.791	3185
410.014	3168
410.238	3143
410.461	3120
410.685	3059
410.908	3120
411.132	3054
411.355	3013
411.578	3034
411.802	2948
412.025	3013
412.249	3090
412.472	3094
412.695	3014
412.919	3008
413.142	2969
413.365	2987
413.589	3019
413.812	2997
414.035	3012
414.258	2996
414.482	2946
414.705	3019
414.928	2998
415.151	2952
415.374	2961
415.597	2875
415.821	2871
416.044	2824
416.267	2862
416.49	2883
416.713	2844
416.936	2913
417.159	2867
417.382	2846
417.605	2823
417.828	2809
418.051	2878
418.274	2868
418.497	2869
418.72	2938
418.943	2872
419.166	3022
419.389	3186
419.611	3165
419.834	3066
420.057	2972
420.28	2938
420.503	2901
420.726	2855
420.948	2838
421.171	2814
421.394	2880
421.617	2852
421.839	2884
422.062	2853
422.285	2779
422.507	2910
422.73	2938
422.953	3017
423.175	2918
423.398	2983
423.621	2909
423.843	2884
424.066	2880
424.288	2860
424.511	2838
424.733	2877
424.956	2839
425.178	2830
425.401	2804
425.623	2855
425.846	2760
426.068	2773
426.291	2741
426.513	2739
426.735	2718
426.958	2711
427.18	2666
427.402	2752
427.625	2756
427.847	2663
428.069	2645
428.292	2667
428.514	2623
428.736	2667
428.958	2665
429.181	2627
429.403	2600
429.625	2608
429.847	2666
430.069	2718
430.292	2802
430.514	2877
430.736	2836
430.958	2668
431.18	2610
431.402	2612
431.624	2582
431.846	2611
432.068	2618
432.29	2612
432.512	2588
432.734	2638
432.956	2582
433.178	2612
433.4	2611
433.622	2695
433.844	2690
434.066	2640
434.287	2621
434.509	2672
434.731	2730
434.953	2748
435.175	2761
435.397	2755
435.618	2710
435.84	2712
436.062	2602
436.284	2639
436.505	2596
436.727	2584
436.949	2626
437.17	2615
437.392	2597
437.614	2568
437.835	2513
438.057	2519
438.278	2516
438.5	2562
438.721	2587
438.943	2700
439.165	2752
439.386	2746
439.608	2738
439.829	2723
440.05	2836
440.272	2830
440.493	2759
440.715	2673
440.936	2712
441.158	2741
441.379	2795
441.6	2864
441.822	2947
442.043	3124
442.264	3196
442.486	2971
442.707	2928
442.928	2836
443.149	2789
443.371	2737
443.592	2787
443.813	2810
444.034	2790
444.255	2830
444.476	2880
444.698	2992
444.919	3022
445.14	3053
445.361	2966
445.582	2890
445.803	2820
446.024	2730
446.245	2766
446.466	2824
446.687	2718
446.908	2786
447.129	2712
447.35	2662
447.571	2656
447.792	2600
448.013	2591
448.234	2582
448.455	2624
448.675	2620
448.896	2736
449.117	2772
449.338	3070
449.559	3180
449.779	2841
450	2636
450.221	2572
450.442	2554
450.662	2503
450.883	2502
451.104	2508
451.324	2512
451.545	2540
451.766	2531
451.986	2601
452.207	2802
452.428	3660
452.648	5630
452.869	4706
453.089	3165
453.31	3003
453.53	2972
453.751	3103
453.971	3263
454.192	3131
454.412	2703
454.633	2540
454.853	2513
455.073	2446
455.294	2447
455.514	2404
455.734	2450
455.955	2428
456.175	2397
456.395	2427
456.616	2416
456.836	2500
457.056	2454
457.276	2474
457.497	2662
457.717	2653
457.937	2588
458.157	2576
458.377	2602
458.598	2549
458.818	2592
459.038	2598
459.258	2589
459.478	2614
459.698	2610
459.918	2704
460.138	2758
460.358	2831
460.578	2840
460.798	2843
461.018	2808
461.238	2849
461.458	2894
461.678	2883
461.898	2965
462.118	2962
462.338	3074
462.558	3163
462.777	3130
462.997	3195
463.217	3399
463.437	3497
463.657	3614
463.876	3588
464.096	3412
464.316	3200
464.536	3159
464.755	3108
464.975	2986
465.195	2917
465.414	2826
465.634	2685
465.854	2724
466.073	2713
466.293	2686
466.512	2684
466.732	2750
466.951	2838
467.171	3073
467.391	2960
467.61	2739
467.829	2648
468.049	2618
468.268	2524
468.488	2531
468.707	2609
468.927	2592
469.146	2549
469.365	2590
469.585	2642
469.804	2683
470.023	2727
470.243	2762
470.462	2874
470.681	3006
470.901	3373
471.12	3881
471.339	3908
471.558	3223
471.777	2939
471.997	2764
472.216	2676
472.435	2662
472.654	2583
472.873	2574
473.092	2610
473.311	2604
473.53	2635
473.749	2710
473.968	2820
474.187	2693
474.406	2624
474.625	2632
474.844	2596
475.063	2652
475.282	2630
475.501	2619
475.72	2666
475.939	2692
476.158	2732
476.377	2779
476.596	2692
476.814	2769
477.033	2698
477.252	2789
477.471	2791
477.69	2885
477.908	2904
478.127	2941
478.346	2946
478.564	2987
478.783	3020
479.002	3035
479.22	3090
479.439	3070
479.658	3127
479.876	3128
480.095	3129
480.313	3176
480.532	3261
480.751	3213
480.969	3192
481.188	3106
481.406	3113
481.624	3169
481.843	3154
482.061	3164
482.28	3174
482.498	3153
482.717	3175
482.935	3182
483.153	3226
483.372	3209
483.59	3308
483.808	3355
484.027	3437
484.245	3654
484.463	4178
484.681	4575
484.9	4197
485.118	3858
485.336	3742
485.554	3821
485.772	4062
485.99	4619
486.209	4970
486.427	4197
486.645	3667
486.863	3566
487.081	3492
487.299	3425
487.517	3378
487.735	3300
487.953	3380
488.171	3370
488.389	3336
488.607	3265
488.825	3250
489.043	3194
489.261	3189
489.479	3261
489.696	3230
489.914	3262
490.132	3338
490.35	3288
490.568	3346
490.786	3330
491.003	3306
491.221	3410
491.439	3399
491.657	3416
491.874	3389
492.092	3430
492.31	3414
492.527	3400
492.745	3360
492.963	3401
493.18	3362
493.398	3405
493.615	3411
493.833	3364
494.05	3394
494.268	3383
494.485	3468
494.703	3469
494.92	3435
495.138	3414
495.355	3374
495.573	3420
495.79	3463
496.008	3469
496.225	3448
496.442	3532
496.66	3667
496.877	3916
497.094	3884
497.312	3685
497.529	3728
497.746	3713
497.963	3764
498.181	3910
498.398	3950
498.615	4130
498.832	4188
499.049	4367
499.267	4798
499.484	5060
499.701	5033
499.918	5085
500.135	5474
500.352	5716
500.569	5710
500.786	5727
501.003	5497
501.22	5274
501.437	4952
501.654	4711
501.871	4530
502.088	4360
502.305	4205
502.522	4089
502.739	3947
502.956	3874
503.172	3761
503.389	3712
503.606	3654
503.823	3569
504.04	3605
504.256	3539
504.473	3485
504.69	3537
504.907	3517
505.123	3440
505.34	3393
505.557	3296
505.773	3211
505.99	3254
506.207	3191
506.423	3123
506.64	3095
506.856	3044
507.073	3082
507.289	3056
507.506	3001
507.722	3030
507.939	2963
508.155	2955
508.372	2916
508.588	2941
508.805	2938
509.021	2949
509.238	3006
509.454	3171
509.67	3401
509.887	3156
510.103	3000
510.319	2936
510.536	2913
510.752	2929
510.968	2882
511.184	2831
511.401	2859
511.617	2824
511.833	2848
512.049	2844
512.265	2790
512.481	2816
512.698	2791
512.914	2758
513.13	2790
513.346	2841
513.562	2802
513.778	2813
513.994	2907
514.21	2997
514.426	3186
514.642	3287
514.858	3044
515.074	2903
515.29	2903
515.506	2879
515.721	2932
515.937	2903
516.153	2929
516.369	2908
516.585	2979
516.801	2995
517.016	3048
517.232	3115
517.448	3149
517.664	3230
517.879	3235
518.095	3213
518.311	3226
518.527	3105
518.742	3181
518.958	3189
519.173	3255
519.389	3180
519.605	2987
519.82	2982
520.036	2882
520.251	2832
520.467	2864
520.682	2853
520.898	2808
521.113	2787
521.329	2772
521.544	2785
521.76	2802
521.975	2793
522.19	2779
522.406	2744
522.621	2710
522.836	2726
523.052	2732
523.267	2691
523.482	2724
523.698	2706
523.913	2722
524.128	2686
524.343	2762
524.559	2720
524.774	2701
524.989	2657
525.204	2744
525.419	2687
525.634	2709
525.849	2722
526.064	2714
526.28	2676
526.495	2703
526.71	2702
526.925	2712
527.14	2715
527.355	2704
527.57	2759
527.785	2721
527.999	2760
528.214	2764
528.429	2820
528.644	2845
528.859	2824
529.074	2847
529.289	2917
529.503	2878
529.718	2919
529.933	2887
530.148	2891
530.363	2872
530.577	2889
530.792	2878
531.007	2936
531.221	2998
531.436	2974
531.651	2997
531.865	3072
532.08	3117
532.295	3188
532.509	3395
532.724	3444
532.938	3398
533.153	3517
533.367	3896
533.582	4052
533.796	4046
534.011	3830
534.225	3590
534.44	3478
534.654	3433
534.868	3386
535.083	3269
535.297	3226
535.511	3149
535.726	3126
535.94	3156
536.154	3016
536.369	3024
536.583	2929
536.797	2909
537.011	2905
537.225	2822
537.44	2842
537.654	2836
537.868	2772
538.082	2713
538.296	2749
538.51	2752
538.724	2750
538.938	2698
539.153	2687
539.367	2644
539.581	2683
539.795	2601
540.009	2608
540.222	2629
540.436	2642
540.65	2627
540.864	2612
541.078	2710
541.292	2868
541.506	3344
541.72	3592
541.934	3092
542.147	2884
542.361	2788
