Data from SnStandardFlinnAPT0064_LampEnergy10_LIBS07252019.E.O._I.C._HRD10591_15-22-13-494.txt Node
Date: Thu Jul 25 15:22:13 EDT 2019
User: cochatt
Spectrometer: HR+D1059
Trigger mode: 1
Integration Time (sec): 1.000000E-1
Scans to average: 1
Electric dark correction enabled: true
Nonlinearity correction enabled: false
Boxcar width: 0
XAxis mode: Wavelengths
Number of Pixels in Spectrum: 2048
>>>>>Begin Spectral Data<<<<<
223.165	-19.31
223.4	-19.31
223.635	-19.31
223.869	-24.31
224.104	-18.31
224.338	-13.31
224.573	-8.31
224.808	-14.31
225.042	-5.31
225.277	-4.31
225.511	-9.31
225.746	-2.31
225.98	15.69
226.215	15.69
226.449	14.69
226.683	31.69
226.918	12.69
227.152	28.69
227.387	36.69
227.621	39.69
227.856	54.69
228.09	48.69
228.324	41.69
228.559	37.69
228.793	117.69
229.027	322.69
229.262	340.69
229.496	299.69
229.73	278.69
229.964	280.69
230.199	296.69
230.433	301.69
230.667	316.69
230.901	330.69
231.136	335.69
231.37	344.69
231.604	361.69
231.838	454.69
232.072	535.69
232.306	592.69
232.541	472.69
232.775	422.69
233.009	387.69
233.243	427.69
233.477	434.69
233.711	512.69
233.945	593.69
234.179	513.69
234.413	473.69
234.647	428.69
234.881	455.69
235.115	523.69
235.349	624.69
235.583	757.69
235.817	1016.69
236.051	1009.69
236.285	652.69
236.519	547.69
236.753	495.69
236.987	496.69
237.221	521.69
237.455	511.69
237.689	468.69
237.922	467.69
238.156	484.69
238.39	493.69
238.624	516.69
238.858	491.69
239.091	478.69
239.325	470.69
239.559	506.69
239.793	502.69
240.027	502.69
240.26	553.69
240.494	547.69
240.728	556.69
240.961	599.69
241.195	661.69
241.429	659.69
241.662	681.69
241.896	754.69
242.13	932.69
242.363	1268.69
242.597	1652.69
242.83	1529.69
243.064	1525.69
243.298	1848.69
243.531	1504.69
243.765	936.69
243.998	760.69
244.232	701.69
244.465	680.69
244.699	639.69
244.932	644.69
245.166	654.69
245.399	669.69
245.633	657.69
245.866	649.69
246.099	647.69
246.333	647.69
246.566	633.69
246.8	640.69
247.033	620.69
247.266	630.69
247.5	641.69
247.733	663.69
247.966	699.69
248.2	785.69
248.433	853.69
248.666	984.69
248.899	974.69
249.133	841.69
249.366	883.69
249.599	919.69
249.832	1084.69
250.066	1061.69
250.299	857.69
250.532	769.69
250.765	733.69
250.998	739.69
251.231	723.69
251.465	722.69
251.698	738.69
251.931	738.69
252.164	731.69
252.397	775.69
252.63	791.69
252.863	811.69
253.096	780.69
253.329	748.69
253.562	780.69
253.795	778.69
254.028	802.69
254.261	817.69
254.494	871.69
254.727	1059.69
254.96	1253.69
255.193	1225.69
255.426	936.69
255.659	879.69
255.892	856.69
256.124	862.69
256.357	879.69
256.59	888.69
256.823	943.69
257.056	1120.69
257.289	1352.69
257.521	1479.69
257.754	1189.69
257.987	975.69
258.22	915.69
258.452	904.69
258.685	943.69
258.918	952.69
259.151	953.69
259.383	1062.69
259.616	1242.69
259.849	1305.69
260.081	1106.69
260.314	979.69
260.547	959.69
260.779	917.69
261.012	924.69
261.244	954.69
261.477	968.69
261.71	979.69
261.942	988.69
262.175	997.69
262.407	1052.69
262.64	1052.69
262.872	1083.69
263.105	1148.69
263.337	1193.69
263.57	1238.69
263.802	1267.69
264.035	1318.69
264.267	1351.69
264.499	1405.69
264.732	1395.69
264.964	1458.69
265.197	1415.69
265.429	1444.69
265.661	1467.69
265.894	1599.69
266.126	1731.69
266.358	1952.69
266.591	1918.69
266.823	1613.69
267.055	1439.69
267.287	1381.69
267.52	1351.69
267.752	1287.69
267.984	1272.69
268.216	1244.69
268.448	1237.69
268.681	1264.69
268.913	1210.69
269.145	1196.69
269.377	1232.69
269.609	1220.69
269.841	1279.69
270.073	1356.69
270.306	1611.69
270.538	2167.69
270.77	3238.69
271.002	3957.69
271.234	2732.69
271.466	1862.69
271.698	1498.69
271.93	1380.69
272.162	1292.69
272.394	1228.69
272.626	1233.69
272.858	1265.69
273.09	1195.69
273.322	1199.69
273.553	1194.69
273.785	1195.69
274.017	1178.69
274.249	1194.69
274.481	1204.69
274.713	1191.69
274.945	1196.69
275.176	1217.69
275.408	1232.69
275.64	1203.69
275.872	1238.69
276.104	1235.69
276.335	1226.69
276.567	1271.69
276.799	1245.69
277.031	1264.69
277.262	1307.69
277.494	1386.69
277.726	1565.69
277.957	1850.69
278.189	2123.69
278.421	1975.69
278.652	1744.69
278.884	1666.69
279.115	1527.69
279.347	1405.69
279.579	1402.69
279.81	1363.69
280.042	1389.69
280.273	1381.69
280.505	1435.69
280.736	1521.69
280.968	1557.69
281.199	1747.69
281.431	2034.69
281.662	2076.69
281.894	1777.69
282.125	1568.69
282.356	1615.69
282.588	1639.69
282.819	1701.69
283.051	1775.69
283.282	1978.69
283.513	2451.69
283.745	3643.69
283.976	5811.69
284.207	8300.69
284.439	7398.69
284.67	4476.69
284.901	3761.69
285.132	3717.69
285.364	3590.69
285.595	2715.69
285.826	2427.69
286.057	2804.69
286.288	3932.69
286.52	5321.69
286.751	4899.69
286.982	3011.69
287.213	2211.69
287.444	1979.69
287.675	1857.69
287.906	1767.69
288.138	1708.69
288.369	1679.69
288.6	1631.69
288.831	1675.69
289.062	1656.69
289.293	1658.69
289.524	1660.69
289.755	1652.69
289.986	1664.69
290.217	1715.69
290.448	1713.69
290.679	1696.69
290.91	1713.69
291.141	1851.69
291.371	2014.69
291.602	2124.69
291.833	1892.69
292.064	1751.69
292.295	1686.69
292.526	1650.69
292.757	1588.69
292.987	1612.69
293.218	1583.69
293.449	1592.69
293.68	1563.69
293.91	1549.69
294.141	1562.69
294.372	1561.69
294.603	1564.69
294.833	1556.69
295.064	1557.69
295.295	1584.69
295.525	1567.69
295.756	1529.69
295.987	1530.69
296.217	1558.69
296.448	1559.69
296.679	1583.69
296.909	1538.69
297.14	1569.69
297.37	1605.69
297.601	1623.69
297.831	1647.69
298.062	1611.69
298.292	1597.69
298.523	1661.69
298.753	1675.69
298.984	1681.69
299.214	1717.69
299.445	1769.69
299.675	1763.69
299.905	1795.69
300.136	1874.69
300.366	2155.69
300.597	2723.69
300.827	3819.69
301.057	5320.69
301.288	5339.69
301.518	3313.69
301.748	2543.69
301.979	2320.69
302.209	2240.69
302.439	2282.69
302.669	2426.69
302.9	2936.69
303.13	4246.69
303.36	6311.69
303.59	8476.69
303.82	7200.69
304.051	4160.69
304.281	2979.69
304.511	2505.69
304.741	2277.69
304.971	2161.69
305.201	2105.69
305.431	2006.69
305.661	1936.69
305.891	1873.69
306.121	1858.69
306.352	1838.69
306.582	1804.69
306.812	1797.69
307.042	1866.69
307.272	1817.69
307.502	1804.69
307.731	1844.69
307.961	1834.69
308.191	1833.69
308.421	1755.69
308.651	1804.69
308.881	1779.69
309.111	1801.69
309.341	1783.69
309.571	1847.69
309.8	1836.69
310.03	1854.69
310.26	1856.69
310.49	1824.69
310.72	1859.69
310.949	1824.69
311.179	1855.69
311.409	1895.69
311.639	1880.69
311.868	1916.69
312.098	1864.69
312.328	1918.69
312.557	1967.69
312.787	1934.69
313.017	1958.69
313.246	2001.69
313.476	2007.69
313.706	2091.69
313.935	2172.69
314.165	2299.69
314.394	2455.69
314.624	2343.69
314.853	2166.69
315.083	2132.69
315.312	2170.69
315.542	2195.69
315.771	2181.69
316.001	2201.69
316.23	2333.69
316.46	2446.69
316.689	2691.69
316.919	3201.69
317.148	4689.69
317.377	7335.69
317.607	10760.69
317.836	11057.69
318.065	6535.69
318.295	4152.69
318.524	3377.69
318.753	2927.69
318.983	2696.69
319.212	2575.69
319.441	2467.69
319.67	2438.69
319.9	2375.69
320.129	2337.69
320.358	2337.69
320.587	2323.69
320.816	2321.69
321.046	2326.69
321.275	2339.69
321.504	2328.69
321.733	2377.69
321.962	2486.69
322.191	2532.69
322.42	2521.69
322.649	2489.69
322.878	2443.69
323.108	2457.69
323.337	2521.69
323.566	2559.69
323.795	2602.69
324.024	2618.69
324.253	2695.69
324.482	2805.69
324.71	2992.69
324.939	3146.69
325.168	3212.69
325.397	3340.69
325.626	4003.69
325.855	5661.69
326.084	8917.69
326.313	12969.69
326.542	13580.69
326.77	8994.69
326.999	5771.69
327.228	4895.69
327.457	4694.69
327.686	4749.69
327.914	5039.69
328.143	5909.69
328.372	7079.69
328.6	7699.69
328.829	6812.69
329.058	5620.69
329.287	5011.69
329.515	4545.69
329.744	4206.69
329.972	4005.69
330.201	3812.69
330.43	3723.69
330.658	3597.69
330.887	3463.69
331.115	3473.69
331.344	3536.69
331.572	3419.69
331.801	3467.69
332.03	3479.69
332.258	3536.69
332.486	3690.69
332.715	4286.69
332.943	5321.69
333.172	6630.69
333.4	6673.69
333.629	4956.69
333.857	4452.69
334.085	4384.69
334.314	4647.69
334.542	5011.69
334.771	5937.69
334.999	7237.69
335.227	9223.69
335.455	10291.69
335.684	9137.69
335.912	7465.69
336.14	6311.69
336.369	5593.69
336.597	5139.69
336.825	4697.69
337.053	4484.69
337.281	4249.69
337.51	3987.69
337.738	3834.69
337.966	3664.69
338.194	3543.69
338.422	3435.69
338.65	3345.69
338.878	3290.69
339.106	3214.69
339.334	3183.69
339.562	3130.69
339.79	3058.69
340.018	3031.69
340.246	3035.69
340.474	3050.69
340.702	3008.69
340.93	2975.69
341.158	2986.69
341.386	2948.69
341.614	2951.69
341.842	2911.69
342.07	2814.69
342.298	2868.69
342.526	2755.69
342.754	2748.69
342.981	2686.69
343.209	2716.69
343.437	2728.69
343.665	2815.69
343.893	2775.69
344.12	2799.69
344.348	2744.69
344.576	2744.69
344.804	2681.69
345.031	2607.69
345.259	2596.69
345.487	2549.69
345.714	2560.69
345.942	2522.69
346.17	2505.69
346.397	2530.69
346.625	2561.69
346.853	2513.69
347.08	2499.69
347.308	2490.69
347.535	2492.69
347.763	2507.69
347.99	2454.69
348.218	2495.69
348.445	2402.69
348.673	2465.69
348.9	2508.69
349.128	2427.69
349.355	2427.69
349.583	2423.69
349.81	2433.69
350.037	2419.69
350.265	2382.69
350.492	2387.69
350.72	2344.69
350.947	2380.69
351.174	2403.69
351.402	2351.69
351.629	2361.69
351.856	2359.69
352.083	2336.69
352.311	2415.69
352.538	2373.69
352.765	2370.69
352.992	2275.69
353.22	2396.69
353.447	2357.69
353.674	2371.69
353.901	2388.69
354.128	2456.69
354.355	2356.69
354.583	2360.69
354.81	2361.69
355.037	2426.69
355.264	2421.69
355.491	2422.69
355.718	2396.69
355.945	2463.69
356.172	2455.69
356.399	2426.69
356.626	2477.69
356.853	2487.69
357.08	2457.69
357.307	2532.69
357.534	2563.69
357.761	2545.69
357.988	2597.69
358.215	2543.69
358.441	2565.69
358.668	2564.69
358.895	2543.69
359.122	2527.69
359.349	2505.69
359.576	2506.69
359.802	2559.69
360.029	2483.69
360.256	2563.69
360.483	2573.69
360.709	2508.69
360.936	2536.69
361.163	2499.69
361.39	2550.69
361.616	2545.69
361.843	2524.69
362.07	2586.69
362.296	2545.69
362.523	2507.69
362.749	2552.69
362.976	2520.69
363.203	2525.69
363.429	2497.69
363.656	2528.69
363.882	2503.69
364.109	2498.69
364.335	2503.69
364.562	2494.69
364.788	2521.69
365.015	2565.69
365.241	2655.69
365.468	2764.69
365.694	2920.69
365.92	2836.69
366.147	2614.69
366.373	2531.69
366.599	2617.69
366.826	2592.69
367.052	2586.69
367.278	2615.69
367.505	2636.69
367.731	2572.69
367.957	2558.69
368.184	2621.69
368.41	2647.69
368.636	2648.69
368.862	2645.69
369.089	2608.69
369.315	2597.69
369.541	2595.69
369.767	2630.69
369.993	2638.69
370.219	2649.69
370.445	2599.69
370.672	2645.69
370.898	2647.69
371.124	2599.69
371.35	2680.69
371.576	2671.69
371.802	2728.69
372.028	2779.69
372.254	2758.69
372.48	2776.69
372.706	2752.69
372.932	2811.69
373.158	2788.69
373.384	2783.69
373.61	2717.69
373.835	2773.69
374.061	2783.69
374.287	2829.69
374.513	2832.69
374.739	2897.69
374.965	2863.69
375.191	2908.69
375.416	2884.69
375.642	2820.69
375.868	2855.69
376.094	2800.69
376.319	2780.69
376.545	2776.69
376.771	2740.69
376.997	2758.69
377.222	2762.69
377.448	2696.69
377.674	2723.69
377.899	2723.69
378.125	2702.69
378.35	2685.69
378.576	2739.69
378.802	2764.69
379.027	2780.69
379.253	2865.69
379.478	3084.69
379.704	3632.69
379.929	5217.69
380.155	8080.69
380.38	8712.69
380.606	5198.69
380.831	3622.69
381.057	3206.69
381.282	2945.69
381.507	2814.69
381.733	2754.69
381.958	2672.69
382.184	2713.69
382.409	2692.69
382.634	2664.69
382.86	2660.69
383.085	2613.69
383.31	2666.69
383.535	2727.69
383.761	2673.69
383.986	2698.69
384.211	2708.69
384.436	2737.69
384.662	2754.69
384.887	2808.69
385.112	2754.69
385.337	2769.69
385.562	2742.69
385.787	2762.69
386.013	2793.69
386.238	2755.69
386.463	2757.69
386.688	2753.69
386.913	2711.69
387.138	2770.69
387.363	2765.69
387.588	2745.69
387.813	2762.69
388.038	2754.69
388.263	2731.69
388.488	2786.69
388.713	2768.69
388.938	2818.69
389.163	2717.69
389.387	2791.69
389.612	2744.69
389.837	2707.69
390.062	2784.69
390.287	2793.69
390.512	2768.69
390.736	2831.69
390.961	2881.69
391.186	2807.69
391.411	2937.69
391.636	2886.69
391.86	2890.69
392.085	2947.69
392.31	2908.69
392.534	2886.69
392.759	2851.69
392.984	2827.69
393.208	2831.69
393.433	2847.69
393.658	2847.69
393.882	2818.69
394.107	2761.69
394.331	2805.69
394.556	2774.69
394.78	2819.69
395.005	2801.69
395.229	2769.69
395.454	2839.69
395.678	2861.69
395.903	2871.69
396.127	2872.69
396.352	2846.69
396.576	2846.69
396.801	2871.69
397.025	2908.69
397.249	2884.69
397.474	2905.69
397.698	2884.69
397.922	2958.69
398.147	2887.69
398.371	2965.69
398.595	3024.69
398.82	3090.69
399.044	3198.69
399.268	3296.69
399.492	3554.69
399.717	3661.69
399.941	3636.69
400.165	3564.69
400.389	3403.69
400.613	3223.69
400.837	3176.69
401.062	3096.69
401.286	3103.69
401.51	3046.69
401.734	3007.69
401.958	3050.69
402.182	3058.69
402.406	3012.69
402.63	3076.69
402.854	3064.69
403.078	3048.69
403.302	3116.69
403.526	3160.69
403.75	3167.69
403.974	3164.69
404.198	3121.69
404.422	3149.69
404.645	3137.69
404.869	3114.69
405.093	3213.69
405.317	3212.69
405.541	3225.69
405.765	3256.69
405.988	3304.69
406.212	3240.69
406.436	3256.69
406.66	3279.69
406.883	3305.69
407.107	3347.69
407.331	3397.69
407.555	3448.69
407.778	3403.69
408.002	3385.69
408.226	3386.69
408.449	3386.69
408.673	3301.69
408.896	3229.69
409.12	3217.69
409.344	3202.69
409.567	3135.69
409.791	3195.69
410.014	3136.69
410.238	3138.69
410.461	3203.69
410.685	3088.69
410.908	3073.69
411.132	3068.69
411.355	3044.69
411.578	3046.69
411.802	3006.69
412.025	3037.69
412.249	3018.69
412.472	3042.69
412.695	3026.69
412.919	2980.69
413.142	2976.69
413.365	2996.69
413.589	3029.69
413.812	3024.69
414.035	2988.69
414.258	2993.69
414.482	2996.69
414.705	3010.69
414.928	2940.69
415.151	2943.69
415.374	2946.69
415.597	2923.69
415.821	2863.69
416.044	2842.69
416.267	2888.69
416.49	2918.69
416.713	2853.69
416.936	2828.69
417.159	2826.69
417.382	2848.69
417.605	2795.69
417.828	2850.69
418.051	2895.69
418.274	2896.69
418.497	2847.69
418.72	2981.69
418.943	2887.69
419.166	2989.69
419.389	3185.69
419.611	3150.69
419.834	3037.69
420.057	3040.69
420.28	2923.69
420.503	2845.69
420.726	2809.69
420.948	2805.69
421.171	2826.69
421.394	2894.69
421.617	2856.69
421.839	2875.69
422.062	2918.69
422.285	2879.69
422.507	2888.69
422.73	2955.69
422.953	2949.69
423.175	2984.69
423.398	2955.69
423.621	2906.69
423.843	2906.69
424.066	2881.69
424.288	2863.69
424.511	2855.69
424.733	2805.69
424.956	2791.69
425.178	2826.69
425.401	2809.69
425.623	2801.69
425.846	2729.69
426.068	2716.69
426.291	2786.69
426.513	2750.69
426.735	2719.69
426.958	2751.69
427.18	2728.69
427.402	2713.69
427.625	2723.69
427.847	2680.69
428.069	2653.69
428.292	2683.69
428.514	2630.69
428.736	2587.69
428.958	2687.69
429.181	2614.69
429.403	2603.69
429.625	2574.69
429.847	2626.69
430.069	2709.69
430.292	2729.69
430.514	2816.69
430.736	2865.69
430.958	2699.69
431.18	2607.69
431.402	2628.69
431.624	2635.69
431.846	2601.69
432.068	2589.69
432.29	2607.69
432.512	2605.69
432.734	2620.69
432.956	2642.69
433.178	2637.69
433.4	2654.69
433.622	2672.69
433.844	2643.69
434.066	2635.69
434.287	2601.69
434.509	2707.69
434.731	2689.69
434.953	2712.69
435.175	2765.69
435.397	2756.69
435.618	2648.69
435.84	2643.69
436.062	2578.69
436.284	2580.69
436.505	2624.69
436.727	2630.69
436.949	2604.69
437.17	2579.69
437.392	2553.69
437.614	2577.69
437.835	2525.69
438.057	2508.69
438.278	2496.69
438.5	2509.69
438.721	2566.69
438.943	2655.69
439.165	2724.69
439.386	2746.69
439.608	2719.69
439.829	2680.69
440.05	2819.69
440.272	2844.69
440.493	2757.69
440.715	2669.69
440.936	2739.69
441.158	2733.69
441.379	2804.69
441.6	2876.69
441.822	2924.69
442.043	3091.69
442.264	3209.69
442.486	3000.69
442.707	2865.69
442.928	2781.69
443.149	2776.69
443.371	2746.69
443.592	2808.69
443.813	2802.69
444.034	2813.69
444.255	2823.69
444.476	2913.69
444.698	2973.69
444.919	2993.69
445.14	3100.69
445.361	2909.69
445.582	2869.69
445.803	2794.69
446.024	2774.69
446.245	2772.69
446.466	2792.69
446.687	2767.69
446.908	2775.69
447.129	2666.69
447.35	2671.69
447.571	2677.69
447.792	2614.69
448.013	2540.69
448.234	2578.69
448.455	2564.69
448.675	2611.69
448.896	2681.69
449.117	2724.69
449.338	3020.69
449.559	3123.69
449.779	2779.69
450	2585.69
450.221	2538.69
450.442	2557.69
450.662	2574.69
450.883	2487.69
451.104	2517.69
451.324	2492.69
451.545	2505.69
451.766	2544.69
451.986	2588.69
452.207	2809.69
452.428	3583.69
452.648	5481.69
452.869	4527.69
453.089	3125.69
453.31	2910.69
453.53	2917.69
453.751	3044.69
453.971	3216.69
454.192	3147.69
454.412	2700.69
454.633	2533.69
454.853	2479.69
455.073	2465.69
455.294	2492.69
455.514	2426.69
455.734	2443.69
455.955	2388.69
456.175	2400.69
456.395	2409.69
456.616	2450.69
456.836	2451.69
457.056	2441.69
457.276	2458.69
457.497	2620.69
457.717	2667.69
457.937	2548.69
458.157	2530.69
458.377	2561.69
458.598	2547.69
458.818	2610.69
459.038	2628.69
459.258	2590.69
459.478	2623.69
459.698	2671.69
459.918	2708.69
460.138	2699.69
460.358	2755.69
460.578	2812.69
460.798	2838.69
461.018	2915.69
461.238	2823.69
461.458	2897.69
461.678	2885.69
461.898	2966.69
462.118	2953.69
462.338	3015.69
462.558	3069.69
462.777	3115.69
462.997	3246.69
463.217	3364.69
463.437	3546.69
463.657	3599.69
463.876	3663.69
464.096	3378.69
464.316	3168.69
464.536	3148.69
464.755	3086.69
464.975	3020.69
465.195	2940.69
465.414	2767.69
465.634	2786.69
465.854	2719.69
466.073	2668.69
466.293	2677.69
466.512	2657.69
466.732	2701.69
466.951	2839.69
467.171	2984.69
467.391	2966.69
467.61	2745.69
467.829	2648.69
468.049	2607.69
468.268	2567.69
468.488	2541.69
468.707	2588.69
468.927	2522.69
469.146	2536.69
469.365	2596.69
469.585	2615.69
469.804	2704.69
470.023	2705.69
470.243	2770.69
470.462	2879.69
470.681	2979.69
470.901	3311.69
471.12	3820.69
471.339	3819.69
471.558	3174.69
471.777	2845.69
471.997	2765.69
472.216	2691.69
472.435	2633.69
472.654	2625.69
472.873	2535.69
473.092	2586.69
473.311	2584.69
473.53	2562.69
473.749	2708.69
473.968	2758.69
474.187	2601.69
474.406	2581.69
474.625	2592.69
474.844	2605.69
475.063	2603.69
475.282	2574.69
475.501	2599.69
475.72	2636.69
475.939	2617.69
476.158	2676.69
476.377	2727.69
476.596	2749.69
476.814	2745.69
477.033	2713.69
477.252	2773.69
477.471	2773.69
477.69	2848.69
477.908	2879.69
478.127	2941.69
478.346	2939.69
478.564	2992.69
478.783	2968.69
479.002	3120.69
479.22	3079.69
479.439	3107.69
479.658	3112.69
479.876	3144.69
480.095	3133.69
480.313	3165.69
480.532	3190.69
480.751	3203.69
480.969	3148.69
481.188	3137.69
481.406	3113.69
481.624	3099.69
481.843	3155.69
482.061	3166.69
482.28	3131.69
482.498	3106.69
482.717	3120.69
482.935	3175.69
483.153	3242.69
483.372	3210.69
483.59	3277.69
483.808	3336.69
484.027	3367.69
484.245	3663.69
484.463	4060.69
484.681	4595.69
484.9	4083.69
485.118	3852.69
485.336	3719.69
485.554	3714.69
485.772	4031.69
485.99	4587.69
486.209	4978.69
486.427	4151.69
486.645	3715.69
486.863	3537.69
487.081	3400.69
487.299	3358.69
487.517	3303.69
487.735	3336.69
