Data from SnStandardFlinnAPT0064_LampEnergy10_LIBS07252019.E.O._I.C._HRD10591_15-19-55-493.txt Node
Date: Thu Jul 25 15:19:55 EDT 2019
User: cochatt
Spectrometer: HR+D1059
Trigger mode: 1
Integration Time (sec): 1.000000E-1
Scans to average: 1
Electric dark correction enabled: true
Nonlinearity correction enabled: false
Boxcar width: 0
XAxis mode: Wavelengths
Number of Pixels in Spectrum: 2048
>>>>>Begin Spectral Data<<<<<
223.165	-22.69
223.4	-22.69
223.635	-22.69
223.869	-16.69
224.104	-14.69
224.338	-16.69
224.573	-21.69
224.808	-24.69
225.042	-13.69
225.277	-14.69
225.511	4.31
225.746	10.31
225.98	4.31
226.215	22.31
226.449	18.31
226.683	18.31
226.918	31.31
227.152	36.31
227.387	47.31
227.621	45.31
227.856	37.31
228.09	27.31
228.324	29.31
228.559	43.31
228.793	123.31
229.027	307.31
229.262	344.31
229.496	303.31
229.73	303.31
229.964	301.31
230.199	308.31
230.433	308.31
230.667	313.31
230.901	313.31
231.136	319.31
231.37	366.31
231.604	387.31
231.838	435.31
232.072	519.31
232.306	551.31
232.541	484.31
232.775	436.31
233.009	415.31
233.243	432.31
233.477	462.31
233.711	517.31
233.945	604.31
234.179	520.31
234.413	448.31
234.647	429.31
234.881	512.31
235.115	531.31
235.349	621.31
235.583	777.31
235.817	1035.31
236.051	992.31
236.285	678.31
236.519	551.31
236.753	520.31
236.987	539.31
237.221	517.31
237.455	520.31
237.689	459.31
237.922	447.31
238.156	479.31
238.39	475.31
238.624	509.31
238.858	480.31
239.091	496.31
239.325	477.31
239.559	488.31
239.793	511.31
240.027	527.31
240.26	534.31
240.494	560.31
240.728	579.31
240.961	620.31
241.195	687.31
241.429	702.31
241.662	703.31
241.896	803.31
242.13	980.31
242.363	1248.31
242.597	1620.31
242.83	1589.31
243.064	1568.31
243.298	1829.31
243.531	1540.31
243.765	970.31
243.998	836.31
244.232	707.31
244.465	663.31
244.699	658.31
244.932	666.31
245.166	656.31
245.399	658.31
245.633	687.31
245.866	695.31
246.099	667.31
246.333	669.31
246.566	626.31
246.8	628.31
247.033	621.31
247.266	645.31
247.5	635.31
247.733	668.31
247.966	704.31
248.2	758.31
248.433	871.31
248.666	1019.31
248.899	952.31
249.133	871.31
249.366	893.31
249.599	984.31
249.832	1085.31
250.066	1122.31
250.299	886.31
250.532	808.31
250.765	744.31
250.998	758.31
251.231	749.31
251.465	731.31
251.698	722.31
251.931	745.31
252.164	743.31
252.397	769.31
252.63	823.31
252.863	819.31
253.096	795.31
253.329	767.31
253.562	776.31
253.795	793.31
254.028	796.31
254.261	827.31
254.494	895.31
254.727	1033.31
254.96	1272.31
255.193	1272.31
255.426	1007.31
255.659	871.31
255.892	838.31
256.124	858.31
256.357	884.31
256.59	911.31
256.823	984.31
257.056	1131.31
257.289	1409.31
257.521	1499.31
257.754	1227.31
257.987	1019.31
258.22	931.31
258.452	909.31
258.685	940.31
258.918	945.31
259.151	1003.31
259.383	1121.31
259.616	1264.31
259.849	1343.31
260.081	1103.31
260.314	997.31
260.547	964.31
260.779	963.31
261.012	967.31
261.244	965.31
261.477	974.31
261.71	1012.31
261.942	1003.31
262.175	1014.31
262.407	1034.31
262.64	1063.31
262.872	1089.31
263.105	1118.31
263.337	1187.31
263.57	1250.31
263.802	1267.31
264.035	1285.31
264.267	1310.31
264.499	1324.31
264.732	1358.31
264.964	1404.31
265.197	1397.31
265.429	1394.31
265.661	1452.31
265.894	1520.31
266.126	1743.31
266.358	1944.31
266.591	1880.31
266.823	1596.31
267.055	1444.31
267.287	1352.31
267.52	1318.31
267.752	1282.31
267.984	1266.31
268.216	1243.31
268.448	1224.31
268.681	1259.31
268.913	1241.31
269.145	1228.31
269.377	1220.31
269.609	1259.31
269.841	1279.31
270.073	1385.31
270.306	1619.31
270.538	2207.31
270.77	3235.31
271.002	3942.31
271.234	2837.31
271.466	1923.31
271.698	1593.31
271.93	1437.31
272.162	1342.31
272.394	1295.31
272.626	1287.31
272.858	1234.31
273.09	1215.31
273.322	1239.31
273.553	1205.31
273.785	1217.31
274.017	1202.31
274.249	1216.31
274.481	1199.31
274.713	1226.31
274.945	1219.31
275.176	1231.31
275.408	1215.31
275.64	1218.31
275.872	1252.31
276.104	1252.31
276.335	1232.31
276.567	1280.31
276.799	1297.31
277.031	1320.31
277.262	1347.31
277.494	1430.31
277.726	1613.31
277.957	1871.31
278.189	2140.31
278.421	1975.31
278.652	1763.31
278.884	1688.31
279.115	1513.31
279.347	1453.31
279.579	1403.31
279.81	1384.31
280.042	1417.31
280.273	1431.31
280.505	1472.31
280.736	1500.31
280.968	1600.31
281.199	1808.31
281.431	2051.31
281.662	2134.31
281.894	1809.31
282.125	1680.31
282.356	1654.31
282.588	1689.31
282.819	1711.31
283.051	1843.31
283.282	2064.31
283.513	2511.31
283.745	3629.31
283.976	5685.31
284.207	8067.31
284.439	7422.31
284.67	4741.31
284.901	3838.31
285.132	3814.31
285.364	3615.31
285.595	2756.31
285.826	2497.31
286.057	2882.31
286.288	3907.31
286.52	5269.31
286.751	4986.31
286.982	3127.31
287.213	2349.31
287.444	1987.31
287.675	1893.31
287.906	1819.31
288.138	1772.31
288.369	1716.31
288.6	1692.31
288.831	1706.31
289.062	1679.31
289.293	1697.31
289.524	1737.31
289.755	1708.31
289.986	1678.31
290.217	1741.31
290.448	1710.31
290.679	1705.31
290.91	1763.31
291.141	1878.31
291.371	2068.31
291.602	2136.31
291.833	1961.31
292.064	1798.31
292.295	1731.31
292.526	1726.31
292.757	1651.31
292.987	1620.31
293.218	1599.31
293.449	1576.31
293.68	1598.31
293.91	1575.31
294.141	1593.31
294.372	1550.31
294.603	1571.31
294.833	1606.31
295.064	1576.31
295.295	1577.31
295.525	1544.31
295.756	1580.31
295.987	1577.31
296.217	1610.31
296.448	1587.31
296.679	1553.31
296.909	1582.31
297.14	1599.31
297.37	1621.31
297.601	1646.31
297.831	1628.31
298.062	1613.31
298.292	1672.31
298.523	1691.31
298.753	1727.31
298.984	1751.31
299.214	1753.31
299.445	1750.31
299.675	1789.31
299.905	1857.31
300.136	1943.31
300.366	2182.31
300.597	2732.31
300.827	3850.31
301.057	5348.31
301.288	5367.31
301.518	3480.31
301.748	2639.31
301.979	2405.31
302.209	2349.31
302.439	2348.31
302.669	2464.31
302.9	2953.31
303.13	4192.31
303.36	6194.31
303.59	8313.31
303.82	7295.31
304.051	4393.31
304.281	3227.31
304.511	2594.31
304.741	2405.31
304.971	2219.31
305.201	2121.31
305.431	2071.31
305.661	2011.31
305.891	1935.31
306.121	1888.31
306.352	1887.31
306.582	1907.31
306.812	1823.31
307.042	1900.31
307.272	1833.31
307.502	1839.31
307.731	1851.31
307.961	1840.31
308.191	1819.31
308.421	1827.31
308.651	1818.31
308.881	1808.31
309.111	1832.31
309.341	1800.31
309.571	1839.31
309.8	1861.31
310.03	1870.31
310.26	1845.31
310.49	1855.31
310.72	1879.31
310.949	1859.31
311.179	1923.31
311.409	1891.31
311.639	1909.31
311.868	1949.31
312.098	1937.31
312.328	1936.31
312.557	1989.31
312.787	1951.31
313.017	1970.31
313.246	1978.31
313.476	1999.31
313.706	2115.31
313.935	2220.31
314.165	2390.31
314.394	2512.31
314.624	2389.31
314.853	2212.31
315.083	2172.31
315.312	2229.31
315.542	2228.31
315.771	2227.31
316.001	2268.31
316.23	2357.31
316.46	2475.31
316.689	2718.31
316.919	3205.31
317.148	4628.31
317.377	7091.31
317.607	10402.31
317.836	10987.31
318.065	6843.31
318.295	4423.31
318.524	3544.31
318.753	3057.31
318.983	2816.31
319.212	2633.31
319.441	2574.31
319.67	2469.31
319.9	2415.31
320.129	2418.31
320.358	2358.31
320.587	2361.31
320.816	2352.31
321.046	2352.31
321.275	2346.31
321.504	2395.31
321.733	2456.31
321.962	2509.31
322.191	2542.31
322.42	2525.31
322.649	2522.31
322.878	2495.31
323.108	2489.31
323.337	2587.31
323.566	2575.31
323.795	2639.31
324.024	2676.31
324.253	2783.31
324.482	2899.31
324.71	3033.31
324.939	3279.31
325.168	3285.31
325.397	3446.31
325.626	4103.31
325.855	5685.31
326.084	8791.31
326.313	12673.31
326.542	13511.31
326.77	9436.31
326.999	6139.31
327.228	5172.31
327.457	4937.31
327.686	4875.31
327.914	5193.31
328.143	6027.31
328.372	7170.31
328.6	7794.31
328.829	6979.31
329.058	5928.31
329.287	5137.31
329.515	4694.31
329.744	4334.31
329.972	4111.31
330.201	3892.31
330.43	3769.31
330.658	3612.31
330.887	3588.31
331.115	3552.31
331.344	3517.31
331.572	3473.31
331.801	3493.31
332.03	3522.31
332.258	3550.31
332.486	3763.31
332.715	4303.31
332.943	5271.31
333.172	6624.31
333.4	6660.31
333.629	5037.31
333.857	4623.31
334.085	4527.31
334.314	4732.31
334.542	5129.31
334.771	6051.31
334.999	7411.31
335.227	9253.31
335.455	10365.31
335.684	9344.31
335.912	7718.31
336.14	6555.31
336.369	5794.31
336.597	5315.31
336.825	4860.31
337.053	4575.31
337.281	4272.31
337.51	3992.31
337.738	3803.31
337.966	3711.31
338.194	3584.31
338.422	3492.31
338.65	3380.31
338.878	3335.31
339.106	3249.31
339.334	3194.31
339.562	3094.31
339.79	3109.31
340.018	3068.31
340.246	3052.31
340.474	3053.31
340.702	3000.31
340.93	3041.31
341.158	3003.31
341.386	3017.31
341.614	2942.31
341.842	2835.31
342.07	2825.31
342.298	2859.31
342.526	2757.31
342.754	2749.31
342.981	2737.31
343.209	2720.31
343.437	2728.31
343.665	2759.31
343.893	2819.31
344.12	2785.31
344.348	2746.31
344.576	2701.31
344.804	2644.31
345.031	2659.31
345.259	2574.31
345.487	2584.31
345.714	2557.31
345.942	2547.31
346.17	2569.31
346.397	2571.31
346.625	2531.31
346.853	2507.31
347.08	2512.31
347.308	2517.31
347.535	2517.31
347.763	2511.31
347.99	2488.31
348.218	2498.31
348.445	2449.31
348.673	2465.31
348.9	2488.31
349.128	2484.31
349.355	2442.31
349.583	2407.31
349.81	2402.31
350.037	2395.31
350.265	2421.31
350.492	2413.31
350.72	2398.31
350.947	2388.31
351.174	2450.31
351.402	2422.31
351.629	2372.31
351.856	2373.31
352.083	2359.31
352.311	2349.31
352.538	2354.31
352.765	2374.31
352.992	2377.31
353.22	2388.31
353.447	2336.31
353.674	2379.31
353.901	2411.31
354.128	2384.31
354.355	2338.31
354.583	2379.31
354.81	2459.31
355.037	2493.31
355.264	2414.31
355.491	2427.31
355.718	2417.31
355.945	2395.31
356.172	2431.31
356.399	2447.31
356.626	2434.31
356.853	2498.31
357.08	2569.31
357.307	2508.31
357.534	2573.31
357.761	2601.31
357.988	2595.31
358.215	2534.31
358.441	2527.31
358.668	2514.31
358.895	2531.31
359.122	2532.31
359.349	2513.31
359.576	2555.31
359.802	2537.31
360.029	2527.31
360.256	2505.31
360.483	2587.31
360.709	2479.31
360.936	2512.31
361.163	2571.31
361.39	2561.31
361.616	2559.31
361.843	2516.31
362.07	2565.31
362.296	2543.31
362.523	2493.31
362.749	2545.31
362.976	2573.31
363.203	2537.31
363.429	2543.31
363.656	2494.31
363.882	2551.31
364.109	2546.31
364.335	2510.31
364.562	2502.31
364.788	2555.31
365.015	2609.31
365.241	2661.31
365.468	2794.31
365.694	2990.31
365.92	2806.31
366.147	2592.31
366.373	2632.31
366.599	2578.31
366.826	2596.31
367.052	2576.31
367.278	2538.31
367.505	2619.31
367.731	2645.31
367.957	2583.31
368.184	2601.31
368.41	2622.31
368.636	2685.31
368.862	2689.31
369.089	2645.31
369.315	2627.31
369.541	2639.31
369.767	2613.31
369.993	2577.31
370.219	2616.31
370.445	2644.31
370.672	2655.31
370.898	2627.31
371.124	2680.31
371.35	2680.31
371.576	2682.31
371.802	2697.31
372.028	2697.31
372.254	2754.31
372.48	2731.31
372.706	2748.31
372.932	2792.31
373.158	2769.31
373.384	2758.31
373.61	2748.31
373.835	2715.31
374.061	2773.31
374.287	2781.31
374.513	2831.31
374.739	2837.31
374.965	2873.31
375.191	2883.31
375.416	2895.31
375.642	2830.31
375.868	2833.31
376.094	2743.31
376.319	2748.31
376.545	2758.31
376.771	2703.31
376.997	2695.31
377.222	2710.31
377.448	2688.31
377.674	2701.31
377.899	2714.31
378.125	2683.31
378.35	2685.31
378.576	2724.31
378.802	2719.31
379.027	2780.31
379.253	2870.31
379.478	3045.31
379.704	3597.31
379.929	5140.31
380.155	7920.31
380.38	8697.31
380.606	5472.31
380.831	3782.31
381.057	3252.31
381.282	3052.31
381.507	2814.31
381.733	2787.31
381.958	2778.31
382.184	2726.31
382.409	2733.31
382.634	2675.31
382.86	2674.31
383.085	2679.31
383.31	2727.31
383.535	2706.31
383.761	2691.31
383.986	2689.31
384.211	2701.31
384.436	2749.31
384.662	2760.31
384.887	2767.31
385.112	2805.31
385.337	2798.31
385.562	2773.31
385.787	2716.31
386.013	2751.31
386.238	2768.31
386.463	2744.31
386.688	2781.31
386.913	2743.31
387.138	2698.31
387.363	2709.31
387.588	2710.31
387.813	2715.31
388.038	2717.31
388.263	2741.31
388.488	2747.31
388.713	2764.31
388.938	2734.31
389.163	2719.31
389.387	2770.31
389.612	2740.31
389.837	2774.31
390.062	2773.31
390.287	2763.31
390.512	2784.31
390.736	2825.31
390.961	2831.31
391.186	2846.31
391.411	2878.31
391.636	2906.31
391.86	2928.31
392.085	2929.31
392.31	2865.31
392.534	2872.31
392.759	2871.31
392.984	2800.31
393.208	2839.31
393.433	2776.31
393.658	2850.31
393.882	2740.31
394.107	2747.31
394.331	2800.31
394.556	2770.31
394.78	2806.31
395.005	2856.31
395.229	2787.31
395.454	2848.31
395.678	2875.31
395.903	2887.31
396.127	2869.31
396.352	2822.31
396.576	2831.31
396.801	2887.31
397.025	2861.31
397.249	2912.31
397.474	2861.31
397.698	2897.31
397.922	2915.31
398.147	2944.31
398.371	2953.31
398.595	3016.31
398.82	3070.31
399.044	3184.31
399.268	3335.31
399.492	3477.31
399.717	3647.31
399.941	3631.31
400.165	3487.31
400.389	3348.31
400.613	3217.31
400.837	3125.31
401.062	3112.31
401.286	3086.31
401.51	3051.31
401.734	3023.31
401.958	3085.31
402.182	3036.31
402.406	3043.31
402.63	3045.31
402.854	3073.31
403.078	3080.31
403.302	3099.31
403.526	3183.31
403.75	3139.31
403.974	3154.31
404.198	3136.31
404.422	3177.31
404.645	3154.31
404.869	3177.31
405.093	3177.31
405.317	3156.31
405.541	3231.31
405.765	3229.31
405.988	3296.31
406.212	3255.31
406.436	3236.31
406.66	3244.31
406.883	3217.31
407.107	3318.31
407.331	3388.31
407.555	3444.31
407.778	3423.31
408.002	3405.31
408.226	3329.31
408.449	3386.31
408.673	3288.31
408.896	3235.31
409.12	3201.31
409.344	3229.31
409.567	3196.31
409.791	3159.31
410.014	3195.31
410.238	3183.31
410.461	3175.31
410.685	3046.31
410.908	3156.31
411.132	3085.31
411.355	2939.31
411.578	3031.31
411.802	3054.31
412.025	3069.31
412.249	3023.31
412.472	3013.31
412.695	3009.31
412.919	2938.31
413.142	2972.31
413.365	2997.31
413.589	2983.31
413.812	2962.31
414.035	2988.31
414.258	2954.31
414.482	2987.31
414.705	3012.31
414.928	2971.31
415.151	2975.31
415.374	2918.31
415.597	2954.31
415.821	2879.31
416.044	2901.31
416.267	2884.31
416.49	2862.31
416.713	2824.31
416.936	2886.31
417.159	2822.31
417.382	2835.31
417.605	2832.31
417.828	2833.31
418.051	2847.31
418.274	2858.31
418.497	2854.31
418.72	2936.31
418.943	2888.31
419.166	3046.31
419.389	3197.31
419.611	3149.31
419.834	3061.31
420.057	3000.31
420.28	2920.31
420.503	2859.31
420.726	2857.31
420.948	2891.31
421.171	2844.31
421.394	2910.31
421.617	2829.31
421.839	2883.31
422.062	2893.31
422.285	2840.31
422.507	2935.31
422.73	2866.31
422.953	2941.31
423.175	2963.31
423.398	2944.31
423.621	2854.31
423.843	2854.31
424.066	2882.31
424.288	2822.31
424.511	2882.31
424.733	2873.31
424.956	2803.31
425.178	2791.31
425.401	2813.31
425.623	2760.31
425.846	2805.31
426.068	2765.31
426.291	2775.31
426.513	2745.31
426.735	2747.31
426.958	2759.31
427.18	2695.31
427.402	2741.31
427.625	2722.31
427.847	2675.31
428.069	2653.31
428.292	2696.31
428.514	2641.31
428.736	2675.31
428.958	2677.31
429.181	2637.31
429.403	2564.31
429.625	2613.31
429.847	2613.31
430.069	2664.31
430.292	2763.31
430.514	2872.31
430.736	2819.31
430.958	2710.31
431.18	2638.31
431.402	2607.31
431.624	2647.31
431.846	2599.31
432.068	2594.31
432.29	2584.31
432.512	2591.31
432.734	2659.31
432.956	2574.31
433.178	2658.31
433.4	2607.31
433.622	2605.31
433.844	2679.31
434.066	2736.31
434.287	2652.31
434.509	2632.31
434.731	2721.31
434.953	2697.31
435.175	2749.31
435.397	2732.31
435.618	2627.31
435.84	2672.31
436.062	2640.31
436.284	2661.31
436.505	2629.31
436.727	2646.31
436.949	2645.31
437.17	2599.31
437.392	2577.31
437.614	2573.31
437.835	2537.31
438.057	2549.31
438.278	2536.31
438.5	2589.31
438.721	2587.31
438.943	2731.31
439.165	2720.31
439.386	2717.31
439.608	2704.31
439.829	2746.31
440.05	2812.31
440.272	2780.31
440.493	2739.31
440.715	2717.31
440.936	2706.31
441.158	2800.31
441.379	2753.31
441.6	2859.31
441.822	2916.31
442.043	3072.31
442.264	3171.31
442.486	2959.31
442.707	2898.31
442.928	2825.31
443.149	2821.31
443.371	2783.31
443.592	2773.31
443.813	2826.31
444.034	2827.31
444.255	2929.31
444.476	2909.31
444.698	2936.31
444.919	2975.31
445.14	3069.31
445.361	2926.31
445.582	2859.31
445.803	2886.31
446.024	2760.31
446.245	2822.31
446.466	2827.31
446.687	2739.31
446.908	2716.31
447.129	2663.31
447.35	2660.31
447.571	2636.31
447.792	2635.31
448.013	2607.31
448.234	2606.31
448.455	2570.31
448.675	2627.31
448.896	2727.31
449.117	2764.31
449.338	3051.31
449.559	3109.31
449.779	2824.31
450	2600.31
450.221	2604.31
450.442	2596.31
450.662	2579.31
450.883	2506.31
451.104	2564.31
451.324	2555.31
451.545	2513.31
451.766	2570.31
451.986	2632.31
452.207	2815.31
452.428	3577.31
452.648	5574.31
452.869	4675.31
453.089	3186.31
453.31	3007.31
453.53	2981.31
453.751	3056.31
453.971	3177.31
454.192	3047.31
454.412	2710.31
454.633	2595.31
454.853	2553.31
455.073	2444.31
455.294	2477.31
455.514	2461.31
455.734	2415.31
455.955	2355.31
456.175	2370.31
456.395	2411.31
456.616	2439.31
456.836	2453.31
457.056	2495.31
457.276	2471.31
457.497	2649.31
457.717	2651.31
457.937	2573.31
458.157	2523.31
458.377	2577.31
458.598	2514.31
458.818	2581.31
459.038	2636.31
459.258	2648.31
459.478	2636.31
459.698	2686.31
459.918	2703.31
460.138	2715.31
460.358	2832.31
460.578	2816.31
460.798	2836.31
461.018	2876.31
461.238	2913.31
461.458	2922.31
461.678	2908.31
461.898	2950.31
462.118	2939.31
462.338	3060.31
462.558	3053.31
462.777	3104.31
462.997	3310.31
463.217	3313.31
463.437	3511.31
463.657	3601.31
463.876	3489.31
464.096	3404.31
464.316	3252.31
464.536	3184.31
464.755	3085.31
464.975	3027.31
465.195	2917.31
465.414	2838.31
465.634	2753.31
465.854	2686.31
466.073	2675.31
466.293	2706.31
466.512	2696.31
466.732	2728.31
466.951	2860.31
467.171	3033.31
467.391	2957.31
467.61	2712.31
467.829	2610.31
468.049	2636.31
468.268	2587.31
468.488	2568.31
468.707	2545.31
468.927	2609.31
469.146	2573.31
469.365	2595.31
469.585	2641.31
469.804	2735.31
470.023	2725.31
470.243	2780.31
470.462	2840.31
470.681	3007.31
470.901	3330.31
471.12	3728.31
471.339	3779.31
471.558	3165.31
471.777	2943.31
471.997	2798.31
472.216	2677.31
472.435	2650.31
472.654	2579.31
472.873	2557.31
473.092	2607.31
473.311	2593.31
473.53	2664.31
473.749	2740.31
473.968	2764.31
474.187	2713.31
474.406	2579.31
474.625	2648.31
474.844	2604.31
475.063	2607.31
475.282	2565.31
475.501	2607.31
475.72	2648.31
475.939	2660.31
476.158	2656.31
476.377	2793.31
476.596	2733.31
476.814	2761.31
477.033	2739.31
477.252	2784.31
477.471	2829.31
477.69	2867.31
477.908	2861.31
478.127	2936.31
478.346	2976.31
478.564	2991.31
478.783	3071.31
479.002	3055.31
479.22	3071.31
479.439	3139.31
479.658	3146.31
479.876	3117.31
480.095	3108.31
480.313	3222.31
480.532	3263.31
480.751	3219.31
480.969	3193.31
481.188	3176.31
481.406	3167.31
481.624	3164.31
481.843	3195.31
482.061	3151.31
482.28	3156.31
482.498	3172.31
482.717	3111.31
482.935	3167.31
483.153	3226.31
483.372	3270.31
483.59	3339.31
483.808	3388.31
484.027	3423.31
484.245	3662.31
484.463	4071.31
484.681	4475.31
484.9	4108.31
485.118	3824.31
485.336	3744.31
485.554	3836.31
485.772	4053.31
485.99	4543.31
486.209	4821.31
486.427	4149.31
486.645	3682.31
486.863	3507.31
487.081	3449.31
487.299	3360.31
487.517	3360.31
487.735	3399.31
