Data from SnStandardFlinnAPT0064_QswitchEnergy10_LIBS07252019.E.O._I.C._HRD10591_15-25-46-973.txt Node
Date: Thu Jul 25 15:25:46 EDT 2019
User: cochatt
Spectrometer: HR+D1059
Trigger mode: 1
Integration Time (sec): 1.000000E-1
Scans to average: 1
Electric dark correction enabled: true
Nonlinearity correction enabled: false
Boxcar width: 0
XAxis mode: Wavelengths
Number of Pixels in Spectrum: 2048
>>>>>Begin Spectral Data<<<<<
223.165	-8.19
223.4	-8.19
223.635	-8.19
223.869	-7.19
224.104	-26.19
224.338	-4.19
224.573	-19.19
224.808	-10.19
225.042	-6.19
225.277	-18.19
225.511	2.81
225.746	9.81
225.98	10.81
226.215	6.81
226.449	16.81
226.683	12.81
226.918	13.81
227.152	25.81
227.387	31.81
227.621	35.81
227.856	43.81
228.09	57.81
228.324	44.81
228.559	70.81
228.793	49.81
229.027	56.81
229.262	66.81
229.496	68.81
229.73	73.81
229.964	78.81
230.199	85.81
230.433	71.81
230.667	75.81
230.901	81.81
231.136	72.81
231.37	96.81
231.604	68.81
231.838	99.81
232.072	108.81
232.306	111.81
232.541	92.81
232.775	74.81
233.009	83.81
233.243	88.81
233.477	92.81
233.711	94.81
233.945	81.81
234.179	101.81
234.413	95.81
234.647	80.81
234.881	80.81
235.115	92.81
235.349	93.81
235.583	113.81
235.817	122.81
236.051	142.81
236.285	97.81
236.519	81.81
236.753	84.81
236.987	78.81
237.221	86.81
237.455	87.81
237.689	85.81
237.922	77.81
238.156	83.81
238.39	87.81
238.624	80.81
238.858	80.81
239.091	82.81
239.325	86.81
239.559	81.81
239.793	89.81
240.027	75.81
240.26	92.81
240.494	81.81
240.728	78.81
240.961	80.81
241.195	99.81
241.429	79.81
241.662	93.81
241.896	100.81
242.13	80.81
242.363	137.81
242.597	149.81
242.83	123.81
243.064	111.81
243.298	155.81
243.531	133.81
243.765	106.81
243.998	94.81
244.232	74.81
244.465	73.81
244.699	79.81
244.932	80.81
245.166	68.81
245.399	78.81
245.633	79.81
245.866	93.81
246.099	96.81
246.333	90.81
246.566	79.81
246.8	93.81
247.033	92.81
247.266	73.81
247.5	92.81
247.733	83.81
247.966	87.81
248.2	87.81
248.433	102.81
248.666	118.81
248.899	122.81
249.133	91.81
249.366	84.81
249.599	103.81
249.832	125.81
250.066	151.81
250.299	92.81
250.532	83.81
250.765	84.81
250.998	83.81
251.231	90.81
251.465	76.81
251.698	83.81
251.931	85.81
252.164	77.81
252.397	82.81
252.63	93.81
252.863	105.81
253.096	102.81
253.329	101.81
253.562	95.81
253.795	100.81
254.028	103.81
254.261	83.81
254.494	108.81
254.727	95.81
254.96	127.81
255.193	110.81
255.426	87.81
255.659	83.81
255.892	105.81
256.124	87.81
256.357	93.81
256.59	95.81
256.823	88.81
257.056	115.81
257.289	128.81
257.521	161.81
257.754	115.81
257.987	94.81
258.22	90.81
258.452	88.81
258.685	90.81
258.918	101.81
259.151	96.81
259.383	107.81
259.616	139.81
259.849	135.81
260.081	107.81
260.314	97.81
260.547	87.81
260.779	87.81
261.012	77.81
261.244	76.81
261.477	95.81
261.71	94.81
261.942	90.81
262.175	102.81
262.407	83.81
262.64	86.81
262.872	95.81
263.105	102.81
263.337	80.81
263.57	85.81
263.802	96.81
264.035	104.81
264.267	80.81
264.499	90.81
264.732	75.81
264.964	90.81
265.197	89.81
265.429	87.81
265.661	91.81
265.894	110.81
266.126	120.81
266.358	138.81
266.591	130.81
266.823	97.81
267.055	87.81
267.287	91.81
267.52	95.81
267.752	83.81
267.984	80.81
268.216	91.81
268.448	101.81
268.681	85.81
268.913	102.81
269.145	100.81
269.377	88.81
269.609	95.81
269.841	96.81
270.073	97.81
270.306	124.81
270.538	177.81
270.77	281.81
271.002	329.81
271.234	173.81
271.466	118.81
271.698	77.81
271.93	93.81
272.162	103.81
272.394	103.81
272.626	97.81
272.858	92.81
273.09	88.81
273.322	96.81
273.553	92.81
273.785	97.81
274.017	83.81
274.249	89.81
274.481	105.81
274.713	89.81
274.945	96.81
275.176	92.81
275.408	86.81
275.64	94.81
275.872	87.81
276.104	95.81
276.335	99.81
276.567	111.81
276.799	85.81
277.031	85.81
277.262	102.81
277.494	101.81
277.726	121.81
277.957	192.81
278.189	216.81
278.421	213.81
278.652	172.81
278.884	157.81
279.115	128.81
279.347	113.81
279.579	99.81
279.81	112.81
280.042	95.81
280.273	97.81
280.505	95.81
280.736	106.81
280.968	125.81
281.199	160.81
281.431	224.81
281.662	228.81
281.894	142.81
282.125	121.81
282.356	106.81
282.588	102.81
282.819	103.81
283.051	118.81
283.282	125.81
283.513	181.81
283.745	277.81
283.976	458.81
284.207	657.81
284.439	497.81
284.67	245.81
284.901	221.81
285.132	281.81
285.364	317.81
285.595	219.81
285.826	171.81
286.057	221.81
286.288	369.81
286.52	533.81
286.751	429.81
286.982	160.81
287.213	127.81
287.444	105.81
287.675	109.81
287.906	102.81
288.138	106.81
288.369	95.81
288.6	104.81
288.831	95.81
289.062	93.81
289.293	95.81
289.524	104.81
289.755	111.81
289.986	80.81
290.217	106.81
290.448	104.81
290.679	97.81
290.91	119.81
291.141	145.81
291.371	222.81
291.602	250.81
291.833	186.81
292.064	123.81
292.295	96.81
292.526	104.81
292.757	99.81
292.987	106.81
293.218	95.81
293.449	100.81
293.68	119.81
293.91	96.81
294.141	98.81
294.372	81.81
294.603	93.81
294.833	83.81
295.064	80.81
295.295	94.81
295.525	81.81
295.756	109.81
295.987	98.81
296.217	87.81
296.448	95.81
296.679	103.81
296.909	95.81
297.14	111.81
297.37	99.81
297.601	115.81
297.831	96.81
298.062	109.81
298.292	95.81
298.523	101.81
298.753	98.81
298.984	91.81
299.214	88.81
299.445	106.81
299.675	127.81
299.905	101.81
300.136	130.81
300.366	155.81
300.597	223.81
300.827	377.81
301.057	569.81
301.288	536.81
301.518	220.81
301.748	134.81
301.979	130.81
302.209	134.81
302.439	120.81
302.669	133.81
302.9	222.81
303.13	443.81
303.36	759.81
303.59	1023.81
303.82	723.81
304.051	267.81
304.281	149.81
304.511	122.81
304.741	130.81
304.971	100.81
305.201	113.81
305.431	111.81
305.661	104.81
305.891	94.81
306.121	104.81
306.352	115.81
306.582	91.81
306.812	100.81
307.042	114.81
307.272	109.81
307.502	103.81
307.731	105.81
307.961	109.81
308.191	108.81
308.421	95.81
308.651	93.81
308.881	109.81
309.111	100.81
309.341	106.81
309.571	111.81
309.8	104.81
310.03	109.81
310.26	98.81
310.49	111.81
310.72	111.81
310.949	103.81
311.179	107.81
311.409	106.81
311.639	108.81
311.868	117.81
312.098	134.81
312.328	116.81
312.557	113.81
312.787	111.81
313.017	116.81
313.246	109.81
313.476	108.81
313.706	113.81
313.935	151.81
314.165	190.81
314.394	216.81
314.624	172.81
314.853	145.81
315.083	121.81
315.312	138.81
315.542	135.81
315.771	126.81
316.001	136.81
316.23	129.81
316.46	139.81
316.689	159.81
316.919	220.81
317.148	418.81
317.377	742.81
317.607	1222.81
317.836	1183.81
318.065	437.81
318.295	193.81
318.524	143.81
318.753	122.81
318.983	129.81
319.212	110.81
319.441	117.81
319.67	100.81
319.9	110.81
320.129	103.81
320.358	107.81
320.587	117.81
320.816	117.81
321.046	130.81
321.275	127.81
321.504	121.81
321.733	145.81
321.962	141.81
322.191	145.81
322.42	126.81
322.649	132.81
322.878	119.81
323.108	122.81
323.337	117.81
323.566	116.81
323.795	131.81
324.024	120.81
324.253	128.81
324.482	172.81
324.71	204.81
324.939	226.81
325.168	209.81
325.397	173.81
325.626	219.81
325.855	404.81
326.084	784.81
326.313	1358.81
326.542	1315.81
326.77	521.81
326.999	232.81
327.228	186.81
327.457	188.81
327.686	183.81
327.914	146.81
328.143	127.81
328.372	129.81
328.6	102.81
328.829	106.81
329.058	101.81
329.287	122.81
329.515	127.81
329.744	118.81
329.972	128.81
330.201	125.81
330.43	107.81
330.658	120.81
330.887	127.81
331.115	129.81
331.344	107.81
331.572	117.81
331.801	112.81
332.03	137.81
332.258	128.81
332.486	160.81
332.715	235.81
332.943	431.81
333.172	624.81
333.4	568.81
333.629	245.81
333.857	137.81
334.085	128.81
334.314	120.81
334.542	116.81
334.771	131.81
334.999	126.81
335.227	111.81
335.455	129.81
335.684	133.81
335.912	130.81
336.14	112.81
336.369	121.81
336.597	111.81
336.825	119.81
337.053	110.81
337.281	117.81
337.51	103.81
337.738	110.81
337.966	124.81
338.194	120.81
338.422	109.81
338.65	121.81
338.878	115.81
339.106	121.81
339.334	120.81
339.562	111.81
339.79	103.81
340.018	109.81
340.246	98.81
340.474	111.81
340.702	112.81
340.93	109.81
341.158	112.81
341.386	109.81
341.614	115.81
341.842	105.81
342.07	107.81
342.298	115.81
342.526	112.81
342.754	125.81
342.981	116.81
343.209	115.81
343.437	117.81
343.665	112.81
343.893	103.81
344.12	118.81
344.348	113.81
344.576	117.81
344.804	103.81
345.031	105.81
345.259	117.81
345.487	113.81
345.714	119.81
345.942	107.81
346.17	112.81
346.397	101.81
346.625	103.81
346.853	112.81
347.08	111.81
347.308	104.81
347.535	115.81
347.763	111.81
347.99	107.81
348.218	113.81
348.445	107.81
348.673	118.81
348.9	123.81
349.128	123.81
349.355	123.81
349.583	118.81
349.81	117.81
350.037	111.81
350.265	115.81
350.492	103.81
350.72	98.81
350.947	103.81
351.174	110.81
351.402	106.81
351.629	124.81
351.856	109.81
352.083	107.81
352.311	96.81
352.538	107.81
352.765	110.81
352.992	112.81
353.22	100.81
353.447	109.81
353.674	103.81
353.901	104.81
354.128	109.81
354.355	108.81
354.583	118.81
354.81	117.81
355.037	125.81
355.264	109.81
355.491	119.81
355.718	105.81
355.945	112.81
356.172	108.81
356.399	111.81
356.626	110.81
356.853	113.81
357.08	110.81
357.307	102.81
357.534	103.81
357.761	109.81
357.988	107.81
358.215	92.81
358.441	106.81
358.668	116.81
358.895	137.81
359.122	125.81
359.349	117.81
359.576	111.81
359.802	99.81
360.029	118.81
360.256	107.81
360.483	105.81
360.709	89.81
360.936	107.81
361.163	106.81
361.39	108.81
361.616	103.81
361.843	101.81
362.07	95.81
362.296	111.81
362.523	117.81
362.749	107.81
362.976	106.81
363.203	109.81
363.429	103.81
363.656	108.81
363.882	108.81
364.109	124.81
364.335	100.81
364.562	113.81
364.788	110.81
365.015	91.81
365.241	122.81
365.468	163.81
365.694	216.81
365.92	190.81
366.147	118.81
366.373	110.81
366.599	111.81
366.826	97.81
367.052	94.81
367.278	102.81
367.505	94.81
367.731	100.81
367.957	115.81
368.184	107.81
368.41	123.81
368.636	116.81
368.862	96.81
369.089	98.81
369.315	106.81
369.541	122.81
369.767	116.81
369.993	104.81
370.219	107.81
370.445	111.81
370.672	105.81
370.898	92.81
371.124	106.81
371.35	101.81
371.576	97.81
371.802	100.81
372.028	116.81
372.254	116.81
372.48	124.81
372.706	105.81
372.932	115.81
373.158	116.81
373.384	110.81
373.61	115.81
373.835	105.81
374.061	139.81
374.287	126.81
374.513	117.81
374.739	113.81
374.965	113.81
375.191	99.81
375.416	112.81
375.642	108.81
375.868	124.81
376.094	108.81
376.319	110.81
376.545	112.81
376.771	122.81
376.997	107.81
377.222	109.81
377.448	112.81
377.674	104.81
377.899	107.81
378.125	107.81
378.35	124.81
378.576	121.81
378.802	121.81
379.027	112.81
379.253	139.81
379.478	176.81
379.704	273.81
379.929	636.81
380.155	1296.81
380.38	1377.81
380.606	448.81
380.831	171.81
381.057	141.81
381.282	113.81
381.507	123.81
381.733	117.81
381.958	110.81
382.184	103.81
382.409	129.81
382.634	103.81
382.86	104.81
383.085	102.81
383.31	110.81
383.535	115.81
383.761	109.81
383.986	109.81
384.211	96.81
384.436	98.81
384.662	99.81
384.887	93.81
385.112	100.81
385.337	101.81
385.562	109.81
385.787	100.81
386.013	94.81
386.238	108.81
386.463	89.81
386.688	124.81
386.913	100.81
387.138	103.81
387.363	105.81
387.588	110.81
387.813	126.81
388.038	117.81
388.263	96.81
388.488	95.81
388.713	109.81
388.938	107.81
389.163	104.81
389.387	105.81
389.612	104.81
389.837	101.81
390.062	102.81
390.287	93.81
390.512	101.81
390.736	87.81
390.961	102.81
391.186	108.81
391.411	93.81
391.636	95.81
391.86	100.81
392.085	95.81
392.31	100.81
392.534	103.81
392.759	100.81
392.984	115.81
393.208	109.81
393.433	120.81
393.658	124.81
393.882	97.81
394.107	108.81
394.331	91.81
394.556	92.81
394.78	98.81
395.005	82.81
395.229	95.81
395.454	103.81
395.678	88.81
395.903	103.81
396.127	101.81
396.352	106.81
396.576	111.81
396.801	101.81
397.025	122.81
397.249	102.81
397.474	107.81
397.698	113.81
397.922	105.81
398.147	101.81
398.371	103.81
398.595	99.81
398.82	95.81
399.044	110.81
399.268	96.81
399.492	100.81
399.717	94.81
399.941	94.81
400.165	89.81
400.389	99.81
400.613	97.81
400.837	109.81
401.062	96.81
401.286	96.81
401.51	93.81
401.734	99.81
401.958	101.81
402.182	103.81
402.406	104.81
402.63	97.81
402.854	103.81
403.078	76.81
403.302	89.81
403.526	90.81
403.75	111.81
403.974	119.81
404.198	99.81
404.422	108.81
404.645	102.81
404.869	104.81
405.093	93.81
405.317	116.81
405.541	124.81
405.765	131.81
405.988	127.81
406.212	131.81
406.436	101.81
406.66	112.81
406.883	90.81
407.107	102.81
407.331	116.81
407.555	95.81
407.778	103.81
408.002	97.81
408.226	95.81
408.449	102.81
408.673	113.81
408.896	98.81
409.12	85.81
409.344	104.81
409.567	95.81
409.791	110.81
410.014	96.81
410.238	110.81
410.461	107.81
410.685	95.81
410.908	93.81
411.132	112.81
411.355	98.81
411.578	108.81
411.802	117.81
412.025	95.81
412.249	100.81
412.472	100.81
412.695	89.81
412.919	79.81
413.142	109.81
413.365	92.81
413.589	91.81
413.812	87.81
414.035	96.81
414.258	109.81
414.482	110.81
414.705	107.81
414.928	100.81
415.151	96.81
415.374	92.81
415.597	104.81
415.821	98.81
416.044	110.81
416.267	92.81
416.49	98.81
416.713	100.81
416.936	97.81
417.159	100.81
417.382	100.81
417.605	97.81
417.828	81.81
418.051	93.81
418.274	99.81
418.497	101.81
418.72	96.81
418.943	96.81
419.166	91.81
419.389	107.81
419.611	96.81
419.834	101.81
420.057	103.81
420.28	101.81
420.503	104.81
420.726	104.81
420.948	104.81
421.171	100.81
421.394	103.81
421.617	89.81
421.839	102.81
422.062	101.81
422.285	111.81
422.507	104.81
422.73	112.81
422.953	136.81
423.175	114.81
423.398	105.81
423.621	103.81
423.843	106.81
424.066	102.81
424.288	92.81
424.511	107.81
424.733	99.81
424.956	102.81
425.178	93.81
425.401	86.81
425.623	78.81
425.846	103.81
426.068	97.81
426.291	107.81
426.513	96.81
426.735	106.81
426.958	104.81
427.18	87.81
427.402	98.81
427.625	93.81
427.847	106.81
428.069	110.81
428.292	110.81
428.514	96.81
428.736	101.81
428.958	90.81
429.181	95.81
429.403	92.81
429.625	100.81
429.847	108.81
430.069	136.81
430.292	110.81
430.514	111.81
430.736	106.81
430.958	93.81
431.18	89.81
431.402	97.81
431.624	108.81
431.846	81.81
432.068	96.81
432.29	95.81
432.512	103.81
432.734	101.81
432.956	104.81
433.178	103.81
433.4	99.81
433.622	95.81
433.844	79.81
434.066	98.81
434.287	96.81
434.509	95.81
434.731	103.81
434.953	99.81
435.175	81.81
435.397	89.81
435.618	104.81
435.84	85.81
436.062	95.81
436.284	85.81
436.505	88.81
436.727	99.81
436.949	97.81
437.17	83.81
437.392	79.81
437.614	89.81
437.835	101.81
438.057	106.81
438.278	105.81
438.5	106.81
438.721	101.81
438.943	100.81
439.165	131.81
439.386	99.81
439.608	103.81
439.829	101.81
440.05	118.81
440.272	127.81
440.493	102.81
440.715	111.81
440.936	99.81
441.158	90.81
441.379	87.81
441.6	101.81
441.822	92.81
442.043	112.81
442.264	126.81
442.486	109.81
442.707	103.81
442.928	104.81
443.149	95.81
443.371	106.81
443.592	108.81
443.813	93.81
444.034	103.81
444.255	96.81
444.476	101.81
444.698	90.81
444.919	96.81
445.14	234.81
445.361	151.81
445.582	101.81
445.803	103.81
446.024	103.81
446.245	110.81
446.466	112.81
446.687	116.81
446.908	95.81
447.129	91.81
447.35	105.81
447.571	95.81
447.792	101.81
448.013	92.81
448.234	109.81
448.455	107.81
448.675	90.81
448.896	94.81
449.117	112.81
449.338	134.81
449.559	145.81
449.779	126.81
450	83.81
450.221	104.81
450.442	119.81
450.662	128.81
450.883	115.81
451.104	106.81
451.324	109.81
451.545	145.81
451.766	123.81
451.986	139.81
452.207	188.81
452.428	484.81
452.648	1125.81
452.869	641.81
453.089	188.81
453.31	112.81
453.53	107.81
453.751	148.81
453.971	163.81
454.192	148.81
454.412	116.81
454.633	103.81
454.853	101.81
455.073	88.81
455.294	99.81
455.514	118.81
455.734	85.81
455.955	102.81
456.175	101.81
456.395	104.81
456.616	97.81
456.836	92.81
457.056	101.81
457.276	106.81
457.497	110.81
457.717	131.81
457.937	98.81
458.157	87.81
458.377	99.81
458.598	87.81
458.818	89.81
459.038	107.81
459.258	95.81
459.478	89.81
459.698	105.81
459.918	99.81
460.138	89.81
460.358	86.81
460.578	85.81
460.798	89.81
461.018	98.81
461.238	92.81
461.458	99.81
461.678	94.81
461.898	95.81
462.118	94.81
462.338	103.81
462.558	101.81
462.777	91.81
462.997	102.81
463.217	97.81
463.437	115.81
463.657	191.81
463.876	201.81
464.096	135.81
464.316	101.81
464.536	88.81
464.755	99.81
464.975	102.81
465.195	91.81
465.414	97.81
465.634	106.81
465.854	94.81
466.073	94.81
466.293	104.81
466.512	96.81
466.732	91.81
466.951	115.81
467.171	143.81
467.391	131.81
467.61	105.81
467.829	101.81
468.049	96.81
468.268	100.81
468.488	96.81
468.707	95.81
468.927	99.81
469.146	101.81
469.365	110.81
469.585	94.81
469.804	88.81
470.023	85.81
470.243	104.81
470.462	105.81
470.681	96.81
470.901	131.81
471.12	177.81
471.339	195.81
471.558	133.81
471.777	104.81
471.997	95.81
472.216	90.81
472.435	86.81
472.654	90.81
472.873	104.81
473.092	107.81
473.311	103.81
473.53	88.81
473.749	100.81
473.968	88.81
474.187	90.81
474.406	96.81
474.625	106.81
474.844	103.81
475.063	97.81
475.282	102.81
475.501	102.81
475.72	106.81
475.939	97.81
476.158	110.81
476.377	116.81
476.596	99.81
476.814	103.81
477.033	91.81
477.252	108.81
477.471	89.81
477.69	97.81
477.908	92.81
478.127	91.81
478.346	100.81
478.564	102.81
478.783	95.81
479.002	94.81
479.22	97.81
479.439	96.81
479.658	98.81
479.876	87.81
480.095	89.81
480.313	107.81
480.532	101.81
480.751	88.81
480.969	90.81
481.188	89.81
481.406	96.81
481.624	92.81
481.843	103.81
482.061	117.81
482.28	110.81
482.498	96.81
482.717	104.81
482.935	88.81
483.153	95.81
483.372	120.81
483.59	105.81
483.808	111.81
484.027	103.81
484.245	120.81
484.463	156.81
484.681	223.81
484.9	140.81
485.118	107.81
485.336	97.81
485.554	107.81
485.772	96.81
485.99	178.81
486.209	216.81
486.427	148.81
486.645	118.81
486.863	101.81
487.081	101.81
487.299	100.81
487.517	113.81
487.735	105.81
487.953	112.81
488.171	98.81
488.389	103.81
488.607	100.81
488.825	112.81
489.043	95.81
489.261	97.81
489.479	104.81
489.696	95.81
489.914	95.81
490.132	93.81
490.35	88.81
490.568	94.81
490.786	93.81
491.003	108.81
491.221	112.81
491.439	123.81
491.657	92.81
491.874	104.81
492.092	112.81
492.31	110.81
492.527	104.81
492.745	111.81
492.963	106.81
493.18	101.81
493.398	113.81
493.615	94.81
493.833	102.81
494.05	107.81
494.268	102.81
494.485	101.81
494.703	105.81
494.92	94.81
495.138	113.81
495.355	115.81
495.573	94.81
495.79	91.81
496.008	108.81
496.225	131.81
496.442	103.81
496.66	119.81
496.877	148.81
497.094	148.81
497.312	104.81
497.529	100.81
497.746	107.81
497.963	102.81
498.181	105.81
498.398	90.81
498.615	119.81
498.832	126.81
499.049	116.81
499.267	132.81
499.484	157.81
499.701	126.81
499.918	96.81
500.135	93.81
500.352	104.81
500.569	86.81
500.786	93.81
501.003	102.81
501.22	112.81
501.437	110.81
501.654	101.81
501.871	111.81
502.088	97.81
502.305	104.81
502.522	106.81
502.739	87.81
502.956	99.81
503.172	103.81
503.389	93.81
503.606	100.81
503.823	86.81
504.04	99.81
504.256	110.81
504.473	108.81
504.69	91.81
504.907	112.81
505.123	113.81
505.34	98.81
505.557	107.81
505.773	100.81
505.99	99.81
506.207	112.81
506.423	120.81
506.64	94.81
506.856	99.81
507.073	84.81
507.289	104.81
507.506	107.81
507.722	89.81
