Data from SnStandardFlinnAPT0064_LampEnergy10_LIBS07252019.E.O._I.C._HRD10591_15-19-21-493.txt Node
Date: Thu Jul 25 15:19:21 EDT 2019
User: cochatt
Spectrometer: HR+D1059
Trigger mode: 1
Integration Time (sec): 1.000000E-1
Scans to average: 1
Electric dark correction enabled: true
Nonlinearity correction enabled: false
Boxcar width: 0
XAxis mode: Wavelengths
Number of Pixels in Spectrum: 2048
>>>>>Begin Spectral Data<<<<<
223.165	-17.19
223.4	-17.19
223.635	-17.19
223.869	-15.19
224.104	-15.19
224.338	-24.19
224.573	-12.19
224.808	-10.19
225.042	-7.19
225.277	-1.19
225.511	-0.19
225.746	-12.19
225.98	-2.19
226.215	6.81
226.449	17.81
226.683	31.81
226.918	23.81
227.152	36.81
227.387	30.81
227.621	22.81
227.856	33.81
228.09	34.81
228.324	48.81
228.559	39.81
228.793	126.81
229.027	310.81
229.262	345.81
229.496	298.81
229.73	297.81
229.964	291.81
230.199	318.81
230.433	303.81
230.667	322.81
230.901	320.81
231.136	323.81
231.37	360.81
231.604	377.81
231.838	439.81
232.072	530.81
232.306	582.81
232.541	493.81
232.775	425.81
233.009	441.81
233.243	434.81
233.477	459.81
233.711	528.81
233.945	581.81
234.179	529.81
234.413	462.81
234.647	453.81
234.881	463.81
235.115	537.81
235.349	638.81
235.583	823.81
235.817	999.81
236.051	1021.81
236.285	668.81
236.519	522.81
236.753	497.81
236.987	488.81
237.221	545.81
237.455	506.81
237.689	467.81
237.922	463.81
238.156	447.81
238.39	478.81
238.624	474.81
238.858	470.81
239.091	473.81
239.325	477.81
239.559	494.81
239.793	522.81
240.027	529.81
240.26	536.81
240.494	544.81
240.728	593.81
240.961	597.81
241.195	650.81
241.429	705.81
241.662	730.81
241.896	818.81
242.13	1016.81
242.363	1344.81
242.597	1742.81
242.83	1625.81
243.064	1609.81
243.298	1926.81
243.531	1615.81
243.765	996.81
243.998	802.81
244.232	689.81
244.465	647.81
244.699	652.81
244.932	657.81
245.166	657.81
245.399	686.81
245.633	683.81
245.866	677.81
246.099	645.81
246.333	644.81
246.566	652.81
246.8	625.81
247.033	649.81
247.266	633.81
247.5	637.81
247.733	640.81
247.966	712.81
248.2	756.81
248.433	886.81
248.666	1049.81
248.899	973.81
249.133	835.81
249.366	868.81
249.599	979.81
249.832	1108.81
250.066	1119.81
250.299	836.81
250.532	744.81
250.765	724.81
250.998	732.81
251.231	701.81
251.465	710.81
251.698	710.81
251.931	713.81
252.164	719.81
252.397	739.81
252.63	792.81
252.863	791.81
253.096	774.81
253.329	772.81
253.562	772.81
253.795	772.81
254.028	808.81
254.261	802.81
254.494	901.81
254.727	1044.81
254.96	1279.81
255.193	1278.81
255.426	972.81
255.659	855.81
255.892	855.81
256.124	847.81
256.357	857.81
256.59	887.81
256.823	999.81
257.056	1129.81
257.289	1395.81
257.521	1537.81
257.754	1201.81
257.987	959.81
258.22	890.81
258.452	873.81
258.685	885.81
258.918	925.81
259.151	974.81
259.383	1071.81
259.616	1204.81
259.849	1298.81
260.081	1095.81
260.314	1001.81
260.547	919.81
260.779	915.81
261.012	934.81
261.244	897.81
261.477	982.81
261.71	958.81
261.942	956.81
262.175	948.81
262.407	963.81
262.64	983.81
262.872	996.81
263.105	1064.81
263.337	1142.81
263.57	1173.81
263.802	1190.81
264.035	1216.81
264.267	1260.81
264.499	1269.81
264.732	1287.81
264.964	1309.81
265.197	1315.81
265.429	1318.81
265.661	1357.81
265.894	1421.81
266.126	1622.81
266.358	1920.81
266.591	1828.81
266.823	1542.81
267.055	1346.81
267.287	1309.81
267.52	1228.81
267.752	1199.81
267.984	1180.81
268.216	1192.81
268.448	1161.81
268.681	1158.81
268.913	1212.81
269.145	1165.81
269.377	1197.81
269.609	1180.81
269.841	1250.81
270.073	1333.81
270.306	1582.81
270.538	2256.81
270.77	3422.81
271.002	4180.81
271.234	2933.81
271.466	1942.81
271.698	1573.81
271.93	1383.81
272.162	1319.81
272.394	1277.81
272.626	1218.81
272.858	1170.81
273.09	1173.81
273.322	1179.81
273.553	1183.81
273.785	1150.81
274.017	1159.81
274.249	1167.81
274.481	1175.81
274.713	1153.81
274.945	1176.81
275.176	1163.81
275.408	1179.81
275.64	1189.81
275.872	1213.81
276.104	1228.81
276.335	1204.81
276.567	1240.81
276.799	1253.81
277.031	1265.81
277.262	1305.81
277.494	1372.81
277.726	1566.81
277.957	1880.81
278.189	2143.81
278.421	2032.81
278.652	1807.81
278.884	1685.81
279.115	1475.81
279.347	1407.81
279.579	1370.81
279.81	1360.81
280.042	1421.81
280.273	1401.81
280.505	1430.81
280.736	1451.81
280.968	1590.81
281.199	1776.81
281.431	2115.81
281.662	2164.81
281.894	1808.81
282.125	1648.81
282.356	1632.81
282.588	1637.81
282.819	1672.81
283.051	1875.81
283.282	2063.81
283.513	2548.81
283.745	3750.81
283.976	6075.81
284.207	8567.81
284.439	7851.81
284.67	4907.81
284.901	4020.81
285.132	4022.81
285.364	3770.81
285.595	2836.81
285.826	2567.81
286.057	2993.81
286.288	4135.81
286.52	5645.81
286.751	5235.81
286.982	3231.81
287.213	2428.81
287.444	2020.81
287.675	1887.81
287.906	1739.81
288.138	1720.81
288.369	1669.81
288.6	1704.81
288.831	1619.81
289.062	1599.81
289.293	1604.81
289.524	1618.81
289.755	1619.81
289.986	1649.81
290.217	1664.81
290.448	1661.81
290.679	1665.81
290.91	1741.81
291.141	1854.81
291.371	2016.81
291.602	2147.81
291.833	1883.81
292.064	1743.81
292.295	1627.81
292.526	1585.81
292.757	1588.81
292.987	1569.81
293.218	1537.81
293.449	1522.81
293.68	1526.81
293.91	1535.81
294.141	1536.81
294.372	1533.81
294.603	1504.81
294.833	1495.81
295.064	1518.81
295.295	1558.81
295.525	1479.81
295.756	1508.81
295.987	1509.81
296.217	1504.81
296.448	1528.81
296.679	1529.81
296.909	1485.81
297.14	1521.81
297.37	1570.81
297.601	1607.81
297.831	1568.81
298.062	1575.81
298.292	1599.81
298.523	1651.81
298.753	1629.81
298.984	1671.81
299.214	1676.81
299.445	1707.81
299.675	1723.81
299.905	1827.81
300.136	1912.81
300.366	2146.81
300.597	2819.81
300.827	4095.81
301.057	5611.81
301.288	5662.81
301.518	3543.81
301.748	2736.81
301.979	2391.81
302.209	2345.81
302.439	2332.81
302.669	2474.81
302.9	3057.81
303.13	4350.81
303.36	6573.81
303.59	8865.81
303.82	7659.81
304.051	4527.81
304.281	3209.81
304.511	2642.81
304.741	2321.81
304.971	2171.81
305.201	2073.81
305.431	1976.81
305.661	1949.81
305.891	1858.81
306.121	1834.81
306.352	1828.81
306.582	1800.81
306.812	1758.81
307.042	1778.81
307.272	1756.81
307.502	1787.81
307.731	1743.81
307.961	1793.81
308.191	1755.81
308.421	1729.81
308.651	1715.81
308.881	1769.81
309.111	1765.81
309.341	1749.81
309.571	1776.81
309.8	1816.81
310.03	1806.81
310.26	1798.81
310.49	1766.81
310.72	1808.81
310.949	1828.81
311.179	1809.81
311.409	1831.81
311.639	1837.81
311.868	1861.81
312.098	1851.81
312.328	1832.81
312.557	1900.81
312.787	1887.81
313.017	1870.81
313.246	1919.81
313.476	1909.81
313.706	1993.81
313.935	2179.81
314.165	2338.81
314.394	2483.81
314.624	2335.81
314.853	2144.81
315.083	2116.81
315.312	2143.81
315.542	2161.81
315.771	2141.81
316.001	2235.81
316.23	2301.81
316.46	2392.81
316.689	2712.81
316.919	3295.81
317.148	4937.81
317.377	7584.81
317.607	11115.81
317.836	11629.81
318.065	7257.81
318.295	4593.81
318.524	3596.81
318.753	3034.81
318.983	2792.81
319.212	2569.81
319.441	2493.81
319.67	2412.81
319.9	2348.81
320.129	2352.81
320.358	2326.81
320.587	2255.81
320.816	2264.81
321.046	2304.81
321.275	2312.81
321.504	2319.81
321.733	2357.81
321.962	2418.81
322.191	2433.81
322.42	2435.81
322.649	2438.81
322.878	2413.81
323.108	2404.81
323.337	2453.81
323.566	2454.81
323.795	2534.81
324.024	2587.81
324.253	2724.81
324.482	2774.81
324.71	2967.81
324.939	3171.81
325.168	3296.81
325.397	3426.81
325.626	4126.81
325.855	5815.81
326.084	9163.81
326.313	13217.81
326.542	14015.81
326.77	9722.81
326.999	6291.81
327.228	5172.81
327.457	4785.81
327.686	4725.81
327.914	5028.81
328.143	5811.81
328.372	6797.81
328.6	7409.81
328.829	6621.81
329.058	5553.81
329.287	4940.81
329.515	4447.81
329.744	4145.81
329.972	3847.81
330.201	3637.81
330.43	3557.81
330.658	3463.81
330.887	3384.81
331.115	3375.81
331.344	3342.81
331.572	3304.81
331.801	3273.81
332.03	3362.81
332.258	3408.81
332.486	3629.81
332.715	4258.81
332.943	5327.81
333.172	6717.81
333.4	6775.81
333.629	4986.81
333.857	4366.81
334.085	4315.81
334.314	4488.81
334.542	4821.81
334.771	5677.81
334.999	7044.81
335.227	8744.81
335.455	9846.81
335.684	8831.81
335.912	7223.81
336.14	6103.81
336.369	5329.81
336.597	4949.81
336.825	4546.81
337.053	4291.81
337.281	4085.81
337.51	3804.81
337.738	3657.81
337.966	3532.81
338.194	3439.81
338.422	3237.81
338.65	3217.81
338.878	3151.81
339.106	3118.81
339.334	3027.81
339.562	2998.81
339.79	2886.81
340.018	2918.81
340.246	2890.81
340.474	2879.81
340.702	2835.81
340.93	2865.81
341.158	2907.81
341.386	2847.81
341.614	2828.81
341.842	2767.81
342.07	2654.81
342.298	2663.81
342.526	2619.81
342.754	2628.81
342.981	2605.81
343.209	2560.81
343.437	2616.81
343.665	2669.81
343.893	2661.81
344.12	2721.81
344.348	2669.81
344.576	2611.81
344.804	2594.81
345.031	2525.81
345.259	2517.81
345.487	2423.81
345.714	2393.81
345.942	2419.81
346.17	2421.81
346.397	2400.81
346.625	2402.81
346.853	2412.81
347.08	2347.81
347.308	2372.81
347.535	2404.81
347.763	2369.81
347.99	2354.81
348.218	2349.81
348.445	2361.81
348.673	2349.81
348.9	2344.81
349.128	2340.81
349.355	2231.81
349.583	2317.81
349.81	2299.81
350.037	2315.81
350.265	2270.81
350.492	2324.81
350.72	2303.81
350.947	2307.81
351.174	2313.81
351.402	2296.81
351.629	2316.81
351.856	2295.81
352.083	2264.81
352.311	2229.81
352.538	2275.81
352.765	2277.81
352.992	2244.81
353.22	2261.81
353.447	2231.81
353.674	2292.81
353.901	2232.81
354.128	2275.81
354.355	2251.81
354.583	2267.81
354.81	2317.81
355.037	2319.81
355.264	2278.81
355.491	2311.81
355.718	2325.81
355.945	2342.81
356.172	2330.81
356.399	2327.81
356.626	2364.81
356.853	2417.81
357.08	2358.81
357.307	2437.81
357.534	2441.81
357.761	2454.81
357.988	2432.81
358.215	2425.81
358.441	2431.81
358.668	2411.81
358.895	2416.81
359.122	2385.81
359.349	2399.81
359.576	2421.81
359.802	2441.81
360.029	2416.81
360.256	2388.81
360.483	2375.81
360.709	2396.81
360.936	2414.81
361.163	2398.81
361.39	2443.81
361.616	2431.81
361.843	2405.81
362.07	2393.81
362.296	2414.81
362.523	2408.81
362.749	2460.81
362.976	2379.81
363.203	2380.81
363.429	2391.81
363.656	2408.81
363.882	2370.81
364.109	2421.81
364.335	2411.81
364.562	2409.81
364.788	2445.81
365.015	2453.81
365.241	2513.81
365.468	2703.81
365.694	2853.81
365.92	2711.81
366.147	2501.81
366.373	2500.81
366.599	2515.81
366.826	2452.81
367.052	2438.81
367.278	2469.81
367.505	2457.81
367.731	2439.81
367.957	2464.81
368.184	2523.81
368.41	2564.81
368.636	2532.81
368.862	2498.81
369.089	2523.81
369.315	2513.81
369.541	2454.81
369.767	2470.81
369.993	2486.81
370.219	2476.81
370.445	2491.81
370.672	2525.81
370.898	2547.81
371.124	2496.81
371.35	2542.81
371.576	2548.81
371.802	2576.81
372.028	2583.81
372.254	2589.81
372.48	2597.81
372.706	2635.81
372.932	2607.81
373.158	2623.81
373.384	2641.81
373.61	2624.81
373.835	2632.81
374.061	2587.81
374.287	2675.81
374.513	2673.81
374.739	2681.81
374.965	2709.81
375.191	2697.81
375.416	2671.81
375.642	2631.81
375.868	2637.81
376.094	2603.81
376.319	2568.81
376.545	2636.81
376.771	2556.81
376.997	2561.81
377.222	2611.81
377.448	2536.81
377.674	2596.81
377.899	2547.81
378.125	2593.81
378.35	2548.81
378.576	2625.81
378.802	2608.81
379.027	2666.81
379.253	2804.81
379.478	2935.81
379.704	3514.81
379.929	5261.81
380.155	8338.81
380.38	9171.81
380.606	5565.81
380.831	3733.81
381.057	3241.81
381.282	2962.81
381.507	2810.81
381.733	2731.81
381.958	2677.81
382.184	2642.81
382.409	2587.81
382.634	2515.81
382.86	2552.81
383.085	2551.81
383.31	2583.81
383.535	2584.81
383.761	2551.81
383.986	2592.81
384.211	2596.81
384.436	2621.81
384.662	2605.81
384.887	2655.81
385.112	2647.81
385.337	2652.81
385.562	2657.81
385.787	2614.81
386.013	2644.81
386.238	2638.81
386.463	2616.81
386.688	2628.81
386.913	2599.81
387.138	2629.81
387.363	2633.81
387.588	2599.81
387.813	2595.81
388.038	2617.81
388.263	2677.81
388.488	2641.81
388.713	2661.81
388.938	2658.81
389.163	2573.81
389.387	2644.81
389.612	2643.81
389.837	2645.81
390.062	2622.81
390.287	2717.81
390.512	2664.81
390.736	2640.81
390.961	2718.81
391.186	2693.81
391.411	2749.81
391.636	2734.81
391.86	2803.81
392.085	2784.81
392.31	2741.81
392.534	2755.81
392.759	2680.81
392.984	2695.81
393.208	2743.81
393.433	2853.81
393.658	2784.81
393.882	2695.81
394.107	2645.81
394.331	2699.81
394.556	2672.81
394.78	2709.81
395.005	2731.81
395.229	2655.81
395.454	2736.81
395.678	2783.81
395.903	2738.81
396.127	2762.81
396.352	2708.81
396.576	2782.81
396.801	2771.81
397.025	2839.81
397.249	2811.81
397.474	2806.81
397.698	2843.81
397.922	2846.81
398.147	2831.81
398.371	2810.81
398.595	2894.81
398.82	2911.81
399.044	3110.81
399.268	3193.81
399.492	3386.81
399.717	3466.81
399.941	3471.81
400.165	3387.81
400.389	3196.81
400.613	3163.81
400.837	3032.81
401.062	2959.81
401.286	2934.81
401.51	2936.81
401.734	2931.81
401.958	2951.81
402.182	2931.81
402.406	2929.81
402.63	2918.81
402.854	2894.81
403.078	2991.81
403.302	2958.81
403.526	3031.81
403.75	3005.81
403.974	3019.81
404.198	2970.81
404.422	2990.81
404.645	2998.81
404.869	3033.81
405.093	3054.81
405.317	2995.81
405.541	3020.81
405.765	3114.81
405.988	3160.81
406.212	3145.81
406.436	3087.81
406.66	3122.81
406.883	3119.81
407.107	3263.81
407.331	3289.81
407.555	3295.81
407.778	3266.81
408.002	3316.81
408.226	3220.81
408.449	3251.81
408.673	3182.81
408.896	3104.81
409.12	3057.81
409.344	3102.81
409.567	3008.81
409.791	3046.81
410.014	3021.81
410.238	3070.81
410.461	3025.81
410.685	2981.81
410.908	2983.81
411.132	2997.81
411.355	2901.81
411.578	2950.81
411.802	2911.81
412.025	2867.81
412.249	2927.81
412.472	2940.81
412.695	2879.81
412.919	2855.81
413.142	2816.81
413.365	2880.81
413.589	2883.81
413.812	2917.81
414.035	2831.81
414.258	2859.81
414.482	2927.81
414.705	2897.81
414.928	2820.81
415.151	2865.81
415.374	2854.81
415.597	2807.81
415.821	2785.81
416.044	2757.81
416.267	2695.81
416.49	2766.81
416.713	2790.81
416.936	2741.81
417.159	2691.81
417.382	2720.81
417.605	2675.81
417.828	2724.81
418.051	2734.81
418.274	2819.81
418.497	2789.81
418.72	2811.81
418.943	2799.81
419.166	2937.81
419.389	3037.81
419.611	3071.81
419.834	2958.81
420.057	2829.81
420.28	2808.81
420.503	2724.81
420.726	2748.81
420.948	2775.81
421.171	2749.81
421.394	2759.81
421.617	2737.81
421.839	2801.81
422.062	2812.81
422.285	2763.81
422.507	2823.81
422.73	2855.81
422.953	2870.81
423.175	2875.81
423.398	2848.81
423.621	2746.81
423.843	2782.81
424.066	2801.81
424.288	2743.81
424.511	2691.81
424.733	2752.81
424.956	2675.81
425.178	2751.81
425.401	2738.81
425.623	2722.81
425.846	2683.81
426.068	2670.81
426.291	2641.81
426.513	2615.81
426.735	2592.81
426.958	2671.81
427.18	2555.81
427.402	2631.81
427.625	2629.81
427.847	2597.81
428.069	2510.81
428.292	2624.81
428.514	2508.81
428.736	2508.81
428.958	2575.81
429.181	2539.81
429.403	2513.81
429.625	2509.81
429.847	2584.81
430.069	2665.81
430.292	2685.81
430.514	2791.81
430.736	2763.81
430.958	2611.81
431.18	2565.81
431.402	2523.81
431.624	2523.81
431.846	2519.81
432.068	2560.81
432.29	2540.81
432.512	2473.81
432.734	2545.81
432.956	2498.81
433.178	2550.81
433.4	2497.81
433.622	2513.81
433.844	2531.81
434.066	2537.81
434.287	2545.81
434.509	2571.81
434.731	2605.81
434.953	2649.81
435.175	2639.81
435.397	2646.81
435.618	2613.81
435.84	2530.81
436.062	2549.81
436.284	2497.81
436.505	2474.81
436.727	2526.81
436.949	2516.81
437.17	2493.81
437.392	2472.81
437.614	2497.81
437.835	2429.81
438.057	2451.81
438.278	2432.81
438.5	2502.81
438.721	2521.81
438.943	2648.81
439.165	2644.81
439.386	2659.81
439.608	2638.81
439.829	2689.81
440.05	2795.81
440.272	2823.81
440.493	2637.81
440.715	2650.81
440.936	2654.81
441.158	2623.81
441.379	2709.81
441.6	2825.81
441.822	2868.81
442.043	3026.81
442.264	3091.81
442.486	2879.81
442.707	2781.81
442.928	2659.81
443.149	2682.81
443.371	2691.81
443.592	2709.81
443.813	2726.81
444.034	2676.81
444.255	2757.81
444.476	2852.81
444.698	2842.81
444.919	2916.81
445.14	2931.81
445.361	2802.81
445.582	2745.81
445.803	2704.81
446.024	2705.81
446.245	2718.81
446.466	2727.81
446.687	2626.81
446.908	2650.81
447.129	2577.81
447.35	2555.81
447.571	2569.81
447.792	2552.81
448.013	2508.81
448.234	2515.81
448.455	2562.81
448.675	2517.81
448.896	2627.81
449.117	2743.81
449.338	2924.81
449.559	3080.81
449.779	2782.81
450	2574.81
450.221	2519.81
450.442	2464.81
450.662	2486.81
450.883	2462.81
451.104	2444.81
451.324	2451.81
451.545	2481.81
451.766	2462.81
451.986	2553.81
452.207	2756.81
452.428	3633.81
452.648	5827.81
452.869	4883.81
453.089	3196.81
453.31	2991.81
453.53	2916.81
453.751	3014.81
453.971	3200.81
454.192	3072.81
454.412	2670.81
454.633	2499.81
454.853	2452.81
455.073	2372.81
455.294	2366.81
455.514	2326.81
455.734	2317.81
455.955	2281.81
456.175	2274.81
456.395	2303.81
456.616	2289.81
456.836	2394.81
457.056	2387.81
457.276	2388.81
457.497	2567.81
457.717	2557.81
457.937	2469.81
458.157	2488.81
458.377	2494.81
458.598	2481.81
458.818	2485.81
459.038	2534.81
459.258	2508.81
459.478	2528.81
459.698	2569.81
459.918	2581.81
460.138	2707.81
460.358	2674.81
460.578	2763.81
460.798	2727.81
461.018	2763.81
461.238	2788.81
461.458	2811.81
461.678	2809.81
461.898	2856.81
462.118	2905.81
462.338	2907.81
462.558	2991.81
462.777	3030.81
462.997	3161.81
463.217	3267.81
463.437	3397.81
463.657	3487.81
463.876	3485.81
464.096	3290.81
464.316	3158.81
464.536	3067.81
464.755	2997.81
464.975	2925.81
465.195	2824.81
465.414	2735.81
465.634	2638.81
465.854	2651.81
466.073	2619.81
466.293	2607.81
466.512	2671.81
466.732	2661.81
466.951	2788.81
467.171	2981.81
467.391	2923.81
467.61	2642.81
467.829	2551.81
468.049	2564.81
468.268	2518.81
468.488	2472.81
468.707	2533.81
468.927	2507.81
469.146	2516.81
469.365	2556.81
469.585	2596.81
469.804	2615.81
470.023	2659.81
470.243	2670.81
470.462	2840.81
470.681	2981.81
470.901	3331.81
471.12	3787.81
471.339	3701.81
471.558	3151.81
471.777	2887.81
471.997	2771.81
472.216	2624.81
472.435	2609.81
472.654	2518.81
472.873	2521.81
473.092	2493.81
473.311	2494.81
473.53	2529.81
473.749	2613.81
473.968	2701.81
474.187	2583.81
474.406	2493.81
474.625	2532.81
474.844	2547.81
475.063	2558.81
475.282	2527.81
475.501	2529.81
475.72	2568.81
475.939	2573.81
476.158	2594.81
476.377	2687.81
476.596	2622.81
476.814	2655.81
477.033	2645.81
477.252	2667.81
477.471	2707.81
477.69	2806.81
477.908	2781.81
478.127	2817.81
478.346	2855.81
478.564	2911.81
478.783	2945.81
479.002	2975.81
479.22	2965.81
479.439	3022.81
479.658	2982.81
479.876	3006.81
480.095	3050.81
480.313	3097.81
480.532	3109.81
480.751	3190.81
480.969	3060.81
481.188	3011.81
481.406	3040.81
481.624	3037.81
481.843	3069.81
482.061	3086.81
482.28	3071.81
482.498	3034.81
482.717	3049.81
482.935	3110.81
483.153	3139.81
483.372	3188.81
483.59	3196.81
483.808	3265.81
484.027	3331.81
484.245	3585.81
484.463	4029.81
484.681	4500.81
484.9	4127.81
485.118	3818.81
485.336	3641.81
485.554	3747.81
485.772	3986.81
485.99	4543.81
486.209	4888.81
486.427	4111.81
486.645	3639.81
486.863	3460.81
487.081	3317.81
487.299	3307.81
487.517	3280.81
487.735	3290.81
