Data from SnStandardFlinnAPT0064_LampEnergy10_LIBS07252019.E.O._I.C._HRD10591_15-21-12-494.txt Node
Date: Thu Jul 25 15:21:12 EDT 2019
User: cochatt
Spectrometer: HR+D1059
Trigger mode: 1
Integration Time (sec): 1.000000E-1
Scans to average: 1
Electric dark correction enabled: true
Nonlinearity correction enabled: false
Boxcar width: 0
XAxis mode: Wavelengths
Number of Pixels in Spectrum: 2048
>>>>>Begin Spectral Data<<<<<
223.165	-14.31
223.4	-14.31
223.635	-14.31
223.869	-32.31
224.104	-9.31
224.338	-20.31
224.573	0.69
224.808	-13.31
225.042	2.69
225.277	-5.31
225.511	-12.31
225.746	11.69
225.98	16.69
226.215	4.69
226.449	13.69
226.683	3.69
226.918	29.69
227.152	23.69
227.387	29.69
227.621	36.69
227.856	50.69
228.09	50.69
228.324	49.69
228.559	43.69
228.793	134.69
229.027	317.69
229.262	329.69
229.496	297.69
229.73	299.69
229.964	326.69
230.199	298.69
230.433	291.69
230.667	308.69
230.901	332.69
231.136	334.69
231.37	329.69
231.604	382.69
231.838	438.69
232.072	542.69
232.306	553.69
232.541	465.69
232.775	411.69
233.009	392.69
233.243	407.69
233.477	452.69
233.711	521.69
233.945	583.69
234.179	508.69
234.413	460.69
234.647	446.69
234.881	463.69
235.115	504.69
235.349	600.69
235.583	781.69
235.817	982.69
236.051	991.69
236.285	653.69
236.519	530.69
236.753	465.69
236.987	490.69
237.221	530.69
237.455	517.69
237.689	477.69
237.922	429.69
238.156	468.69
238.39	478.69
238.624	493.69
238.858	471.69
239.091	473.69
239.325	474.69
239.559	495.69
239.793	496.69
240.027	525.69
240.26	539.69
240.494	554.69
240.728	575.69
240.961	614.69
241.195	642.69
241.429	674.69
241.662	704.69
241.896	761.69
242.13	926.69
242.363	1241.69
242.597	1626.69
242.83	1520.69
243.064	1520.69
243.298	1794.69
243.531	1459.69
243.765	909.69
243.998	790.69
244.232	708.69
244.465	662.69
244.699	644.69
244.932	642.69
245.166	640.69
245.399	664.69
245.633	664.69
245.866	658.69
246.099	653.69
246.333	617.69
246.566	635.69
246.8	630.69
247.033	636.69
247.266	631.69
247.5	649.69
247.733	681.69
247.966	692.69
248.2	741.69
248.433	862.69
248.666	987.69
248.899	932.69
249.133	861.69
249.366	853.69
249.599	940.69
249.832	1097.69
250.066	1067.69
250.299	840.69
250.532	775.69
250.765	742.69
250.998	744.69
251.231	731.69
251.465	729.69
251.698	723.69
251.931	728.69
252.164	721.69
252.397	754.69
252.63	785.69
252.863	793.69
253.096	795.69
253.329	773.69
253.562	741.69
253.795	781.69
254.028	772.69
254.261	818.69
254.494	865.69
254.727	1003.69
254.96	1192.69
255.193	1202.69
255.426	960.69
255.659	874.69
255.892	860.69
256.124	843.69
256.357	858.69
256.59	911.69
256.823	982.69
257.056	1106.69
257.289	1342.69
257.521	1470.69
257.754	1187.69
257.987	935.69
258.22	934.69
258.452	912.69
258.685	924.69
258.918	935.69
259.151	972.69
259.383	1048.69
259.616	1191.69
259.849	1253.69
260.081	1076.69
260.314	968.69
260.547	962.69
260.779	955.69
261.012	947.69
261.244	955.69
261.477	963.69
261.71	993.69
261.942	996.69
262.175	989.69
262.407	1015.69
262.64	1047.69
262.872	1105.69
263.105	1123.69
263.337	1168.69
263.57	1251.69
263.802	1294.69
264.035	1278.69
264.267	1344.69
264.499	1366.69
264.732	1420.69
264.964	1424.69
265.197	1426.69
265.429	1404.69
265.661	1435.69
265.894	1555.69
266.126	1744.69
266.358	1959.69
266.591	1872.69
266.823	1589.69
267.055	1400.69
267.287	1368.69
267.52	1296.69
267.752	1277.69
267.984	1262.69
268.216	1249.69
268.448	1245.69
268.681	1233.69
268.913	1227.69
269.145	1237.69
269.377	1182.69
269.609	1224.69
269.841	1258.69
270.073	1334.69
270.306	1571.69
270.538	2168.69
270.77	3093.69
271.002	3895.69
271.234	2756.69
271.466	1806.69
271.698	1486.69
271.93	1359.69
272.162	1312.69
272.394	1278.69
272.626	1238.69
272.858	1212.69
273.09	1193.69
273.322	1210.69
273.553	1178.69
273.785	1162.69
274.017	1140.69
274.249	1188.69
274.481	1181.69
274.713	1183.69
274.945	1201.69
275.176	1192.69
275.408	1210.69
275.64	1206.69
275.872	1242.69
276.104	1229.69
276.335	1266.69
276.567	1250.69
276.799	1243.69
277.031	1313.69
277.262	1293.69
277.494	1357.69
277.726	1551.69
277.957	1823.69
278.189	2076.69
278.421	1934.69
278.652	1732.69
278.884	1630.69
279.115	1501.69
279.347	1405.69
279.579	1339.69
279.81	1358.69
280.042	1390.69
280.273	1384.69
280.505	1433.69
280.736	1461.69
280.968	1567.69
281.199	1759.69
281.431	2004.69
281.662	2091.69
281.894	1755.69
282.125	1625.69
282.356	1598.69
282.588	1644.69
282.819	1694.69
283.051	1778.69
283.282	1970.69
283.513	2397.69
283.745	3511.69
283.976	5582.69
284.207	7856.69
284.439	7196.69
284.67	4409.69
284.901	3702.69
285.132	3659.69
285.364	3527.69
285.595	2634.69
285.826	2423.69
286.057	2803.69
286.288	3866.69
286.52	5202.69
286.751	4815.69
286.982	2965.69
287.213	2240.69
287.444	1959.69
287.675	1869.69
287.906	1736.69
288.138	1715.69
288.369	1631.69
288.6	1652.69
288.831	1665.69
289.062	1646.69
289.293	1659.69
289.524	1696.69
289.755	1692.69
289.986	1659.69
290.217	1711.69
290.448	1678.69
290.679	1664.69
290.91	1735.69
291.141	1816.69
291.371	1971.69
291.602	2068.69
291.833	1895.69
292.064	1743.69
292.295	1666.69
292.526	1637.69
292.757	1600.69
292.987	1559.69
293.218	1577.69
293.449	1585.69
293.68	1585.69
293.91	1555.69
294.141	1555.69
294.372	1499.69
294.603	1532.69
294.833	1515.69
295.064	1551.69
295.295	1556.69
295.525	1540.69
295.756	1525.69
295.987	1519.69
296.217	1545.69
296.448	1552.69
296.679	1516.69
296.909	1550.69
297.14	1597.69
297.37	1601.69
297.601	1585.69
297.831	1609.69
298.062	1602.69
298.292	1605.69
298.523	1625.69
298.753	1645.69
298.984	1689.69
299.214	1688.69
299.445	1707.69
299.675	1716.69
299.905	1792.69
300.136	1852.69
300.366	2144.69
300.597	2734.69
300.827	3795.69
301.057	5166.69
301.288	5199.69
301.518	3323.69
301.748	2490.69
301.979	2298.69
302.209	2194.69
302.439	2219.69
302.669	2373.69
302.9	2888.69
303.13	4084.69
303.36	6157.69
303.59	8177.69
303.82	7044.69
304.051	4100.69
304.281	3002.69
304.511	2480.69
304.741	2278.69
304.971	2140.69
305.201	2063.69
305.431	1949.69
305.661	1905.69
305.891	1883.69
306.121	1848.69
306.352	1860.69
306.582	1801.69
306.812	1821.69
307.042	1820.69
307.272	1804.69
307.502	1752.69
307.731	1774.69
307.961	1786.69
308.191	1771.69
308.421	1791.69
308.651	1758.69
308.881	1748.69
309.111	1806.69
309.341	1798.69
309.571	1792.69
309.8	1811.69
310.03	1829.69
310.26	1851.69
310.49	1808.69
310.72	1856.69
310.949	1857.69
311.179	1856.69
311.409	1856.69
311.639	1859.69
311.868	1893.69
312.098	1910.69
312.328	1900.69
312.557	1976.69
312.787	1940.69
313.017	1927.69
313.246	1965.69
313.476	1985.69
313.706	2022.69
313.935	2178.69
314.165	2303.69
314.394	2444.69
314.624	2331.69
314.853	2140.69
315.083	2089.69
315.312	2120.69
315.542	2173.69
315.771	2136.69
316.001	2174.69
316.23	2270.69
316.46	2371.69
316.689	2645.69
316.919	3142.69
317.148	4528.69
317.377	7017.69
317.607	10283.69
317.836	10642.69
318.065	6440.69
318.295	4175.69
318.524	3332.69
318.753	2938.69
318.983	2680.69
319.212	2538.69
319.441	2501.69
319.67	2344.69
319.9	2377.69
320.129	2299.69
320.358	2300.69
320.587	2282.69
320.816	2341.69
321.046	2328.69
321.275	2321.69
321.504	2364.69
321.733	2420.69
321.962	2474.69
322.191	2451.69
322.42	2454.69
322.649	2424.69
322.878	2384.69
323.108	2402.69
323.337	2490.69
323.566	2535.69
323.795	2580.69
324.024	2664.69
324.253	2678.69
324.482	2748.69
324.71	3030.69
324.939	3102.69
325.168	3256.69
325.397	3323.69
325.626	3960.69
325.855	5500.69
326.084	8648.69
326.313	12495.69
326.542	13292.69
326.77	8880.69
326.999	5774.69
327.228	4821.69
327.457	4644.69
327.686	4736.69
327.914	4988.69
328.143	5790.69
328.372	6866.69
328.6	7456.69
328.829	6683.69
329.058	5640.69
329.287	4978.69
329.515	4524.69
329.744	4208.69
329.972	4024.69
330.201	3786.69
330.43	3713.69
330.658	3596.69
330.887	3421.69
331.115	3364.69
331.344	3433.69
331.572	3374.69
331.801	3483.69
332.03	3436.69
332.258	3514.69
332.486	3705.69
332.715	4193.69
332.943	5275.69
333.172	6590.69
333.4	6443.69
333.629	4845.69
333.857	4419.69
334.085	4396.69
334.314	4606.69
334.542	5016.69
334.771	5889.69
334.999	7181.69
335.227	8984.69
335.455	10062.69
335.684	9033.69
335.912	7456.69
336.14	6329.69
336.369	5574.69
336.597	5166.69
336.825	4696.69
337.053	4354.69
337.281	4197.69
337.51	3964.69
337.738	3801.69
337.966	3648.69
338.194	3514.69
338.422	3425.69
338.65	3261.69
338.878	3254.69
339.106	3221.69
339.334	3174.69
339.562	3091.69
339.79	3041.69
340.018	3026.69
340.246	2972.69
340.474	2969.69
340.702	3032.69
340.93	2948.69
341.158	2962.69
341.386	3010.69
341.614	2968.69
341.842	2884.69
342.07	2808.69
342.298	2722.69
342.526	2752.69
342.754	2718.69
342.981	2676.69
343.209	2684.69
343.437	2721.69
343.665	2800.69
343.893	2772.69
344.12	2754.69
344.348	2700.69
344.576	2713.69
344.804	2620.69
345.031	2610.69
345.259	2545.69
345.487	2510.69
345.714	2537.69
345.942	2522.69
346.17	2473.69
346.397	2474.69
346.625	2536.69
346.853	2489.69
347.08	2485.69
347.308	2431.69
347.535	2457.69
347.763	2480.69
347.99	2424.69
348.218	2405.69
348.445	2399.69
348.673	2418.69
348.9	2402.69
349.128	2378.69
349.355	2380.69
349.583	2423.69
349.81	2405.69
350.037	2398.69
350.265	2361.69
350.492	2380.69
350.72	2396.69
350.947	2323.69
351.174	2347.69
351.402	2362.69
351.629	2381.69
351.856	2342.69
352.083	2347.69
352.311	2360.69
352.538	2365.69
352.765	2380.69
352.992	2324.69
353.22	2291.69
353.447	2339.69
353.674	2281.69
353.901	2330.69
354.128	2340.69
354.355	2360.69
354.583	2379.69
354.81	2399.69
355.037	2392.69
355.264	2386.69
355.491	2358.69
355.718	2373.69
355.945	2382.69
356.172	2436.69
356.399	2400.69
356.626	2420.69
356.853	2454.69
357.08	2458.69
357.307	2464.69
357.534	2541.69
357.761	2554.69
357.988	2535.69
358.215	2540.69
358.441	2521.69
358.668	2508.69
358.895	2516.69
359.122	2468.69
359.349	2468.69
359.576	2494.69
359.802	2482.69
360.029	2522.69
360.256	2493.69
360.483	2505.69
360.709	2512.69
360.936	2511.69
361.163	2537.69
361.39	2536.69
361.616	2532.69
361.843	2515.69
362.07	2544.69
362.296	2525.69
362.523	2492.69
362.749	2519.69
362.976	2473.69
363.203	2450.69
363.429	2506.69
363.656	2532.69
363.882	2486.69
364.109	2497.69
364.335	2503.69
364.562	2491.69
364.788	2498.69
365.015	2570.69
365.241	2594.69
365.468	2755.69
365.694	2884.69
365.92	2790.69
366.147	2582.69
366.373	2600.69
366.599	2586.69
366.826	2540.69
367.052	2540.69
367.278	2573.69
367.505	2567.69
367.731	2580.69
367.957	2531.69
368.184	2573.69
368.41	2602.69
368.636	2588.69
368.862	2602.69
369.089	2584.69
369.315	2641.69
369.541	2568.69
369.767	2582.69
369.993	2567.69
370.219	2545.69
370.445	2612.69
370.672	2643.69
370.898	2634.69
371.124	2607.69
371.35	2658.69
371.576	2683.69
371.802	2680.69
372.028	2688.69
372.254	2696.69
372.48	2681.69
372.706	2741.69
372.932	2763.69
373.158	2746.69
373.384	2784.69
373.61	2750.69
373.835	2756.69
374.061	2739.69
374.287	2769.69
374.513	2801.69
374.739	2857.69
374.965	2843.69
375.191	2860.69
375.416	2839.69
375.642	2777.69
375.868	2811.69
376.094	2773.69
376.319	2768.69
376.545	2727.69
376.771	2706.69
376.997	2650.69
377.222	2701.69
377.448	2695.69
377.674	2748.69
377.899	2695.69
378.125	2696.69
378.35	2686.69
378.576	2728.69
378.802	2729.69
379.027	2739.69
379.253	2854.69
379.478	2992.69
379.704	3588.69
379.929	5081.69
380.155	7850.69
380.38	8640.69
380.606	5165.69
380.831	3642.69
381.057	3165.69
381.282	2894.69
381.507	2830.69
381.733	2774.69
381.958	2655.69
382.184	2665.69
382.409	2698.69
382.634	2685.69
382.86	2683.69
383.085	2644.69
383.31	2669.69
383.535	2655.69
383.761	2673.69
383.986	2686.69
384.211	2691.69
384.436	2732.69
384.662	2740.69
384.887	2749.69
385.112	2706.69
385.337	2713.69
385.562	2696.69
385.787	2723.69
386.013	2706.69
386.238	2744.69
386.463	2716.69
386.688	2755.69
386.913	2698.69
387.138	2733.69
387.363	2743.69
387.588	2682.69
387.813	2704.69
388.038	2706.69
388.263	2750.69
388.488	2743.69
388.713	2728.69
388.938	2722.69
389.163	2652.69
389.387	2712.69
389.612	2692.69
389.837	2730.69
390.062	2698.69
390.287	2790.69
390.512	2699.69
390.736	2801.69
390.961	2848.69
391.186	2809.69
391.411	2836.69
391.636	2935.69
391.86	2873.69
392.085	2900.69
392.31	2834.69
392.534	2833.69
392.759	2802.69
392.984	2794.69
393.208	2726.69
393.433	2810.69
393.658	2773.69
393.882	2754.69
394.107	2722.69
394.331	2736.69
394.556	2763.69
394.78	2761.69
395.005	2805.69
395.229	2801.69
395.454	2822.69
395.678	2848.69
395.903	2914.69
396.127	2836.69
396.352	2803.69
396.576	2828.69
396.801	2814.69
397.025	2873.69
397.249	2876.69
397.474	2923.69
397.698	2905.69
397.922	2900.69
398.147	2881.69
398.371	2962.69
398.595	3028.69
398.82	3023.69
399.044	3173.69
399.268	3296.69
399.492	3477.69
399.717	3594.69
399.941	3605.69
400.165	3454.69
400.389	3372.69
400.613	3227.69
400.837	3063.69
401.062	3042.69
401.286	2992.69
401.51	3008.69
401.734	2954.69
401.958	3064.69
402.182	3051.69
402.406	3008.69
402.63	2995.69
402.854	3062.69
403.078	3037.69
403.302	3041.69
403.526	3131.69
403.75	3068.69
403.974	3229.69
404.198	3180.69
404.422	3145.69
404.645	3113.69
404.869	3137.69
405.093	3152.69
405.317	3087.69
405.541	3156.69
405.765	3213.69
405.988	3234.69
406.212	3236.69
406.436	3192.69
406.66	3209.69
406.883	3231.69
407.107	3256.69
407.331	3334.69
407.555	3456.69
407.778	3470.69
408.002	3391.69
408.226	3367.69
408.449	3385.69
408.673	3224.69
408.896	3173.69
409.12	3181.69
409.344	3169.69
409.567	3113.69
409.791	3145.69
410.014	3141.69
410.238	3101.69
410.461	3131.69
410.685	3078.69
410.908	3048.69
411.132	3046.69
411.355	3017.69
411.578	3031.69
411.802	3045.69
412.025	2988.69
412.249	3013.69
412.472	2985.69
412.695	2935.69
412.919	2930.69
413.142	2957.69
413.365	2944.69
413.589	2969.69
413.812	2959.69
414.035	2940.69
414.258	2994.69
414.482	2951.69
414.705	2977.69
414.928	2946.69
415.151	2909.69
415.374	2912.69
415.597	2923.69
415.821	2855.69
416.044	2847.69
416.267	2801.69
416.49	2864.69
416.713	2901.69
416.936	2867.69
417.159	2761.69
417.382	2786.69
417.605	2771.69
417.828	2830.69
418.051	2848.69
418.274	2836.69
418.497	2884.69
418.72	2962.69
418.943	2874.69
419.166	2981.69
419.389	3230.69
419.611	3136.69
419.834	2977.69
420.057	2939.69
420.28	2894.69
420.503	2797.69
420.726	2810.69
420.948	2787.69
421.171	2796.69
421.394	2845.69
421.617	2854.69
421.839	2816.69
422.062	2838.69
422.285	2796.69
422.507	2859.69
422.73	2899.69
422.953	2905.69
423.175	2932.69
423.398	2939.69
423.621	2830.69
423.843	2830.69
424.066	2838.69
424.288	2836.69
424.511	2794.69
424.733	2851.69
424.956	2838.69
425.178	2797.69
425.401	2800.69
425.623	2824.69
425.846	2728.69
426.068	2769.69
426.291	2725.69
426.513	2750.69
426.735	2659.69
426.958	2706.69
427.18	2622.69
427.402	2712.69
427.625	2712.69
427.847	2622.69
428.069	2624.69
428.292	2684.69
428.514	2606.69
428.736	2624.69
428.958	2644.69
429.181	2597.69
429.403	2588.69
429.625	2582.69
429.847	2590.69
430.069	2695.69
430.292	2771.69
430.514	2805.69
430.736	2785.69
430.958	2678.69
431.18	2640.69
431.402	2608.69
431.624	2565.69
431.846	2596.69
432.068	2614.69
432.29	2594.69
432.512	2576.69
432.734	2616.69
432.956	2566.69
433.178	2586.69
433.4	2606.69
433.622	2602.69
433.844	2644.69
434.066	2595.69
434.287	2630.69
434.509	2677.69
434.731	2708.69
434.953	2703.69
435.175	2723.69
435.397	2726.69
435.618	2659.69
435.84	2622.69
436.062	2594.69
436.284	2574.69
436.505	2528.69
436.727	2574.69
436.949	2541.69
437.17	2547.69
437.392	2508.69
437.614	2550.69
437.835	2471.69
438.057	2500.69
438.278	2491.69
438.5	2513.69
438.721	2540.69
438.943	2640.69
439.165	2682.69
439.386	2698.69
439.608	2692.69
439.829	2708.69
440.05	2810.69
440.272	2792.69
440.493	2713.69
440.715	2647.69
440.936	2688.69
441.158	2670.69
441.379	2744.69
441.6	2784.69
441.822	2890.69
442.043	3017.69
442.264	3152.69
442.486	2932.69
442.707	2819.69
442.928	2777.69
443.149	2726.69
443.371	2721.69
443.592	2746.69
443.813	2788.69
444.034	2804.69
444.255	2823.69
444.476	2889.69
444.698	2929.69
444.919	2960.69
445.14	3056.69
445.361	2939.69
445.582	2828.69
445.803	2754.69
446.024	2751.69
446.245	2793.69
446.466	2746.69
446.687	2687.69
446.908	2737.69
447.129	2586.69
447.35	2625.69
447.571	2590.69
447.792	2522.69
448.013	2549.69
448.234	2549.69
448.455	2558.69
448.675	2574.69
448.896	2665.69
449.117	2744.69
449.338	2932.69
449.559	3044.69
449.779	2759.69
450	2582.69
450.221	2504.69
450.442	2546.69
450.662	2497.69
450.883	2468.69
451.104	2470.69
451.324	2488.69
451.545	2525.69
451.766	2482.69
451.986	2552.69
452.207	2751.69
452.428	3588.69
452.648	5364.69
452.869	4474.69
453.089	3060.69
453.31	2906.69
453.53	2938.69
453.751	2989.69
453.971	3148.69
454.192	3050.69
454.412	2677.69
454.633	2494.69
454.853	2469.69
455.073	2430.69
455.294	2418.69
455.514	2412.69
455.734	2397.69
455.955	2326.69
456.175	2375.69
456.395	2340.69
456.616	2400.69
456.836	2484.69
457.056	2416.69
457.276	2451.69
457.497	2642.69
457.717	2666.69
457.937	2499.69
458.157	2496.69
458.377	2522.69
458.598	2547.69
458.818	2546.69
459.038	2618.69
459.258	2564.69
459.478	2624.69
459.698	2573.69
459.918	2682.69
460.138	2736.69
460.358	2774.69
460.578	2720.69
460.798	2845.69
461.018	2801.69
461.238	2857.69
461.458	2865.69
461.678	2843.69
461.898	2932.69
462.118	2988.69
462.338	3033.69
462.558	3022.69
462.777	3129.69
462.997	3224.69
463.217	3341.69
463.437	3423.69
463.657	3531.69
463.876	3477.69
464.096	3293.69
464.316	3141.69
464.536	3099.69
464.755	3017.69
464.975	2927.69
465.195	2896.69
465.414	2834.69
465.634	2749.69
465.854	2687.69
466.073	2647.69
466.293	2642.69
466.512	2676.69
466.732	2643.69
466.951	2802.69
467.171	2964.69
467.391	2898.69
467.61	2671.69
467.829	2642.69
468.049	2623.69
468.268	2529.69
468.488	2514.69
468.707	2560.69
468.927	2507.69
469.146	2522.69
469.365	2577.69
469.585	2543.69
469.804	2668.69
470.023	2692.69
470.243	2663.69
470.462	2788.69
470.681	2933.69
470.901	3224.69
471.12	3706.69
471.339	3710.69
471.558	3157.69
471.777	2862.69
471.997	2731.69
472.216	2657.69
472.435	2601.69
472.654	2519.69
472.873	2534.69
473.092	2593.69
473.311	2556.69
473.53	2596.69
473.749	2635.69
473.968	2753.69
474.187	2595.69
474.406	2525.69
474.625	2524.69
474.844	2559.69
475.063	2582.69
475.282	2582.69
475.501	2596.69
475.72	2583.69
475.939	2622.69
476.158	2693.69
476.377	2722.69
476.596	2639.69
476.814	2692.69
477.033	2670.69
477.252	2740.69
477.471	2809.69
477.69	2856.69
477.908	2893.69
478.127	2874.69
478.346	2909.69
478.564	2934.69
478.783	2975.69
479.002	3021.69
479.22	3059.69
479.439	3087.69
479.658	3035.69
479.876	3094.69
480.095	3136.69
480.313	3136.69
480.532	3161.69
480.751	3098.69
480.969	3107.69
481.188	3104.69
481.406	3085.69
481.624	3061.69
481.843	3115.69
482.061	3122.69
482.28	3122.69
482.498	3098.69
482.717	3123.69
482.935	3168.69
483.153	3188.69
483.372	3172.69
483.59	3250.69
483.808	3301.69
484.027	3378.69
484.245	3584.69
484.463	4020.69
484.681	4416.69
484.9	4052.69
485.118	3800.69
485.336	3712.69
485.554	3742.69
485.772	3910.69
485.99	4478.69
486.209	4790.69
486.427	4039.69
486.645	3600.69
486.863	3456.69
487.081	3424.69
487.299	3334.69
487.517	3288.69
487.735	3358.69
487.953	3339.69
