Data from SnStandardFlinnAPT0064_QswitchEnergy10_LIBS07252019.E.O._I.C._HRD10591_15-26-37-973.txt Node
Date: Thu Jul 25 15:26:37 EDT 2019
User: cochatt
Spectrometer: HR+D1059
Trigger mode: 1
Integration Time (sec): 1.000000E-1
Scans to average: 1
Electric dark correction enabled: true
Nonlinearity correction enabled: false
Boxcar width: 0
XAxis mode: Wavelengths
Number of Pixels in Spectrum: 2048
>>>>>Begin Spectral Data<<<<<
223.165	-18.5
223.4	-18.5
223.635	-18.5
223.869	-12.5
224.104	-23.5
224.338	-23.5
224.573	-11.5
224.808	-13.5
225.042	-14.5
225.277	-12.5
225.511	6.5
225.746	1.5
225.98	8.5
226.215	13.5
226.449	18.5
226.683	22.5
226.918	18.5
227.152	40.5
227.387	53.5
227.621	47.5
227.856	51.5
228.09	56.5
228.324	51.5
228.559	50.5
228.793	58.5
229.027	77.5
229.262	75.5
229.496	72.5
229.73	71.5
229.964	67.5
230.199	81.5
230.433	75.5
230.667	86.5
230.901	84.5
231.136	84.5
231.37	92.5
231.604	91.5
231.838	97.5
232.072	105.5
232.306	126.5
232.541	88.5
232.775	84.5
233.009	79.5
233.243	87.5
233.477	104.5
233.711	97.5
233.945	101.5
234.179	98.5
234.413	70.5
234.647	91.5
234.881	88.5
235.115	89.5
235.349	84.5
235.583	100.5
235.817	124.5
236.051	120.5
236.285	102.5
236.519	83.5
236.753	74.5
236.987	79.5
237.221	84.5
237.455	68.5
237.689	77.5
237.922	81.5
238.156	85.5
238.39	88.5
238.624	84.5
238.858	95.5
239.091	73.5
239.325	79.5
239.559	86.5
239.793	93.5
240.027	91.5
240.26	76.5
240.494	90.5
240.728	79.5
240.961	80.5
241.195	92.5
241.429	105.5
241.662	80.5
241.896	91.5
242.13	101.5
242.363	120.5
242.597	168.5
242.83	149.5
243.064	150.5
243.298	174.5
243.531	164.5
243.765	97.5
243.998	93.5
244.232	76.5
244.465	83.5
244.699	83.5
244.932	75.5
245.166	73.5
245.399	85.5
245.633	90.5
245.866	93.5
246.099	90.5
246.333	83.5
246.566	89.5
246.8	86.5
247.033	85.5
247.266	85.5
247.5	86.5
247.733	81.5
247.966	97.5
248.2	97.5
248.433	111.5
248.666	126.5
248.899	122.5
249.133	80.5
249.366	98.5
249.599	104.5
249.832	126.5
250.066	124.5
250.299	103.5
250.532	88.5
250.765	87.5
250.998	96.5
251.231	73.5
251.465	94.5
251.698	87.5
251.931	84.5
252.164	95.5
252.397	94.5
252.63	98.5
252.863	93.5
253.096	90.5
253.329	92.5
253.562	93.5
253.795	86.5
254.028	82.5
254.261	89.5
254.494	115.5
254.727	123.5
254.96	153.5
255.193	140.5
255.426	97.5
255.659	90.5
255.892	98.5
256.124	79.5
256.357	98.5
256.59	87.5
256.823	95.5
257.056	113.5
257.289	153.5
257.521	173.5
257.754	125.5
257.987	92.5
258.22	79.5
258.452	86.5
258.685	93.5
258.918	88.5
259.151	86.5
259.383	113.5
259.616	124.5
259.849	148.5
260.081	94.5
260.314	97.5
260.547	81.5
260.779	87.5
261.012	88.5
261.244	84.5
261.477	82.5
261.71	87.5
261.942	90.5
262.175	97.5
262.407	85.5
262.64	105.5
262.872	101.5
263.105	88.5
263.337	74.5
263.57	97.5
263.802	98.5
264.035	89.5
264.267	92.5
264.499	81.5
264.732	77.5
264.964	99.5
265.197	74.5
265.429	96.5
265.661	104.5
265.894	106.5
266.126	122.5
266.358	148.5
266.591	138.5
266.823	96.5
267.055	96.5
267.287	80.5
267.52	90.5
267.752	100.5
267.984	89.5
268.216	92.5
268.448	90.5
268.681	94.5
268.913	103.5
269.145	102.5
269.377	91.5
269.609	110.5
269.841	92.5
270.073	124.5
270.306	135.5
270.538	196.5
270.77	322.5
271.002	384.5
271.234	192.5
271.466	105.5
271.698	88.5
271.93	93.5
272.162	84.5
272.394	85.5
272.626	80.5
272.858	89.5
273.09	82.5
273.322	85.5
273.553	87.5
273.785	105.5
274.017	75.5
274.249	81.5
274.481	85.5
274.713	94.5
274.945	81.5
275.176	81.5
275.408	89.5
275.64	102.5
275.872	101.5
276.104	106.5
276.335	96.5
276.567	110.5
276.799	101.5
277.031	88.5
277.262	89.5
277.494	109.5
277.726	125.5
277.957	158.5
278.189	232.5
278.421	230.5
278.652	174.5
278.884	200.5
279.115	136.5
279.347	102.5
279.579	114.5
279.81	103.5
280.042	98.5
280.273	108.5
280.505	102.5
280.736	109.5
280.968	133.5
281.199	166.5
281.431	255.5
281.662	266.5
281.894	180.5
282.125	110.5
282.356	116.5
282.588	118.5
282.819	109.5
283.051	124.5
283.282	147.5
283.513	183.5
283.745	306.5
283.976	508.5
284.207	738.5
284.439	589.5
284.67	266.5
284.901	245.5
285.132	355.5
285.364	375.5
285.595	225.5
285.826	157.5
286.057	232.5
286.288	402.5
286.52	612.5
286.751	483.5
286.982	188.5
287.213	106.5
287.444	106.5
287.675	109.5
287.906	111.5
288.138	91.5
288.369	89.5
288.6	86.5
288.831	94.5
289.062	94.5
289.293	94.5
289.524	104.5
289.755	100.5
289.986	93.5
290.217	101.5
290.448	89.5
290.679	113.5
290.91	124.5
291.141	156.5
291.371	221.5
291.602	291.5
291.833	169.5
292.064	102.5
292.295	97.5
292.526	76.5
292.757	102.5
292.987	98.5
293.218	102.5
293.449	95.5
293.68	99.5
293.91	88.5
294.141	99.5
294.372	101.5
294.603	106.5
294.833	79.5
295.064	97.5
295.295	85.5
295.525	94.5
295.756	96.5
295.987	99.5
296.217	94.5
296.448	105.5
296.679	83.5
296.909	94.5
297.14	110.5
297.37	98.5
297.601	84.5
297.831	114.5
298.062	100.5
298.292	101.5
298.523	120.5
298.753	97.5
298.984	114.5
299.214	102.5
299.445	125.5
299.675	121.5
299.905	100.5
300.136	116.5
300.366	157.5
300.597	280.5
300.827	434.5
301.057	667.5
301.288	603.5
301.518	246.5
301.748	141.5
301.979	144.5
302.209	136.5
302.439	129.5
302.669	174.5
302.9	267.5
303.13	480.5
303.36	862.5
303.59	1181.5
303.82	807.5
304.051	294.5
304.281	164.5
304.511	118.5
304.741	118.5
304.971	105.5
305.201	105.5
305.431	114.5
305.661	99.5
305.891	88.5
306.121	105.5
306.352	116.5
306.582	109.5
306.812	106.5
307.042	130.5
307.272	104.5
307.502	103.5
307.731	116.5
307.961	117.5
308.191	104.5
308.421	110.5
308.651	106.5
308.881	99.5
309.111	106.5
309.341	113.5
309.571	106.5
309.8	115.5
310.03	122.5
310.26	106.5
310.49	123.5
310.72	111.5
310.949	112.5
311.179	119.5
311.409	113.5
311.639	123.5
311.868	101.5
312.098	120.5
312.328	114.5
312.557	122.5
312.787	117.5
313.017	121.5
313.246	111.5
313.476	107.5
313.706	121.5
313.935	148.5
314.165	200.5
314.394	235.5
314.624	179.5
314.853	128.5
315.083	108.5
315.312	124.5
315.542	122.5
315.771	117.5
316.001	142.5
316.23	143.5
316.46	146.5
316.689	155.5
316.919	232.5
317.148	465.5
317.377	875.5
317.607	1402.5
317.836	1360.5
318.065	512.5
318.295	215.5
318.524	148.5
318.753	129.5
318.983	125.5
319.212	127.5
319.441	130.5
319.67	116.5
319.9	124.5
320.129	128.5
320.358	112.5
320.587	112.5
320.816	93.5
321.046	112.5
321.275	117.5
321.504	137.5
321.733	132.5
321.962	162.5
322.191	164.5
322.42	134.5
322.649	125.5
322.878	134.5
323.108	116.5
323.337	126.5
323.566	122.5
323.795	121.5
324.024	146.5
324.253	142.5
324.482	192.5
324.71	231.5
324.939	266.5
325.168	225.5
325.397	181.5
325.626	246.5
325.855	440.5
326.084	873.5
326.313	1523.5
326.542	1511.5
326.77	600.5
326.999	257.5
327.228	219.5
327.457	228.5
327.686	236.5
327.914	158.5
328.143	136.5
328.372	128.5
328.6	128.5
328.829	110.5
329.058	124.5
329.287	106.5
329.515	122.5
329.744	119.5
329.972	116.5
330.201	117.5
330.43	121.5
330.658	108.5
330.887	120.5
331.115	96.5
331.344	107.5
331.572	117.5
331.801	120.5
332.03	123.5
332.258	137.5
332.486	169.5
332.715	285.5
332.943	484.5
333.172	728.5
333.4	653.5
333.629	258.5
333.857	148.5
334.085	141.5
334.314	130.5
334.542	116.5
334.771	122.5
334.999	113.5
335.227	112.5
335.455	134.5
335.684	126.5
335.912	110.5
336.14	109.5
336.369	103.5
336.597	114.5
336.825	106.5
337.053	106.5
337.281	101.5
337.51	95.5
337.738	121.5
337.966	112.5
338.194	108.5
338.422	112.5
338.65	117.5
338.878	98.5
339.106	112.5
339.334	117.5
339.562	109.5
339.79	107.5
340.018	118.5
340.246	96.5
340.474	106.5
340.702	113.5
340.93	110.5
341.158	132.5
341.386	117.5
341.614	123.5
341.842	122.5
342.07	129.5
342.298	115.5
342.526	108.5
342.754	104.5
342.981	115.5
343.209	108.5
343.437	107.5
343.665	100.5
343.893	104.5
344.12	109.5
344.348	114.5
344.576	100.5
344.804	103.5
345.031	111.5
345.259	86.5
345.487	113.5
345.714	114.5
345.942	107.5
346.17	130.5
346.397	117.5
346.625	100.5
346.853	107.5
347.08	97.5
347.308	117.5
347.535	108.5
347.763	96.5
347.99	104.5
348.218	87.5
348.445	102.5
348.673	108.5
348.9	125.5
349.128	121.5
349.355	125.5
349.583	117.5
349.81	127.5
350.037	119.5
350.265	101.5
350.492	106.5
350.72	116.5
350.947	112.5
351.174	115.5
351.402	105.5
351.629	89.5
351.856	102.5
352.083	102.5
352.311	99.5
352.538	114.5
352.765	122.5
352.992	112.5
353.22	100.5
353.447	108.5
353.674	116.5
353.901	108.5
354.128	109.5
354.355	109.5
354.583	103.5
354.81	99.5
355.037	97.5
355.264	102.5
355.491	105.5
355.718	94.5
355.945	102.5
356.172	100.5
356.399	103.5
356.626	110.5
356.853	101.5
357.08	105.5
357.307	102.5
357.534	106.5
357.761	113.5
357.988	134.5
358.215	97.5
358.441	114.5
358.668	113.5
358.895	103.5
359.122	120.5
359.349	120.5
359.576	115.5
359.802	121.5
360.029	112.5
360.256	113.5
360.483	105.5
360.709	109.5
360.936	117.5
361.163	112.5
361.39	97.5
361.616	109.5
361.843	117.5
362.07	116.5
362.296	104.5
362.523	109.5
362.749	105.5
362.976	118.5
363.203	97.5
363.429	113.5
363.656	101.5
363.882	121.5
364.109	118.5
364.335	105.5
364.562	116.5
364.788	96.5
365.015	102.5
365.241	140.5
365.468	204.5
365.694	225.5
365.92	210.5
366.147	126.5
366.373	80.5
366.599	97.5
366.826	107.5
367.052	108.5
367.278	78.5
367.505	87.5
367.731	93.5
367.957	103.5
368.184	106.5
368.41	124.5
368.636	120.5
368.862	121.5
369.089	99.5
369.315	108.5
369.541	108.5
369.767	110.5
369.993	97.5
370.219	118.5
370.445	108.5
370.672	120.5
370.898	98.5
371.124	112.5
371.35	103.5
371.576	105.5
371.802	106.5
372.028	93.5
372.254	113.5
372.48	106.5
372.706	109.5
372.932	103.5
373.158	109.5
373.384	113.5
373.61	124.5
373.835	112.5
374.061	107.5
374.287	108.5
374.513	111.5
374.739	102.5
374.965	107.5
375.191	106.5
375.416	110.5
375.642	116.5
375.868	107.5
376.094	99.5
376.319	104.5
376.545	98.5
376.771	106.5
376.997	109.5
377.222	108.5
377.448	106.5
377.674	91.5
377.899	105.5
378.125	118.5
378.35	120.5
378.576	110.5
378.802	116.5
379.027	123.5
379.253	139.5
379.478	159.5
379.704	298.5
379.929	728.5
380.155	1508.5
380.38	1584.5
380.606	519.5
380.831	187.5
381.057	128.5
381.282	112.5
381.507	91.5
381.733	103.5
381.958	105.5
382.184	109.5
382.409	106.5
382.634	103.5
382.86	96.5
383.085	110.5
383.31	94.5
383.535	89.5
383.761	106.5
383.986	98.5
384.211	98.5
384.436	97.5
384.662	116.5
384.887	102.5
385.112	124.5
385.337	83.5
385.562	88.5
385.787	105.5
386.013	107.5
386.238	105.5
386.463	106.5
386.688	101.5
386.913	97.5
387.138	105.5
387.363	105.5
387.588	106.5
387.813	99.5
388.038	107.5
388.263	104.5
388.488	92.5
388.713	103.5
388.938	112.5
389.163	101.5
389.387	89.5
389.612	98.5
389.837	113.5
390.062	106.5
390.287	93.5
390.512	99.5
390.736	97.5
390.961	96.5
391.186	99.5
391.411	96.5
391.636	100.5
391.86	95.5
392.085	94.5
392.31	91.5
392.534	89.5
392.759	107.5
392.984	120.5
393.208	109.5
393.433	144.5
393.658	131.5
393.882	106.5
394.107	105.5
394.331	102.5
394.556	81.5
394.78	86.5
395.005	94.5
395.229	93.5
395.454	109.5
395.678	93.5
395.903	102.5
396.127	105.5
396.352	95.5
396.576	126.5
396.801	114.5
397.025	131.5
397.249	108.5
397.474	101.5
397.698	93.5
397.922	88.5
398.147	104.5
398.371	104.5
398.595	96.5
398.82	114.5
399.044	73.5
399.268	94.5
399.492	97.5
399.717	102.5
399.941	93.5
400.165	104.5
400.389	97.5
400.613	92.5
400.837	87.5
401.062	110.5
401.286	96.5
401.51	88.5
401.734	99.5
401.958	95.5
402.182	110.5
402.406	102.5
402.63	96.5
402.854	100.5
403.078	91.5
403.302	96.5
403.526	92.5
403.75	93.5
403.974	92.5
404.198	114.5
404.422	104.5
404.645	95.5
404.869	97.5
405.093	98.5
405.317	98.5
405.541	113.5
405.765	128.5
405.988	150.5
406.212	122.5
406.436	98.5
406.66	116.5
406.883	101.5
407.107	101.5
407.331	93.5
407.555	94.5
407.778	86.5
408.002	102.5
408.226	102.5
408.449	125.5
408.673	101.5
408.896	106.5
409.12	90.5
409.344	98.5
409.567	103.5
409.791	94.5
410.014	100.5
410.238	109.5
410.461	104.5
410.685	90.5
410.908	88.5
411.132	98.5
411.355	100.5
411.578	91.5
411.802	99.5
412.025	99.5
412.249	101.5
412.472	90.5
412.695	94.5
412.919	101.5
413.142	94.5
413.365	93.5
413.589	109.5
413.812	102.5
414.035	91.5
414.258	111.5
414.482	110.5
414.705	101.5
414.928	95.5
415.151	117.5
415.374	92.5
415.597	90.5
415.821	108.5
416.044	103.5
416.267	97.5
416.49	108.5
416.713	94.5
416.936	96.5
417.159	89.5
417.382	98.5
417.605	84.5
417.828	91.5
418.051	98.5
418.274	97.5
418.497	94.5
418.72	105.5
418.943	113.5
419.166	111.5
419.389	101.5
419.611	114.5
419.834	90.5
420.057	110.5
420.28	94.5
420.503	116.5
420.726	96.5
420.948	112.5
421.171	86.5
421.394	85.5
421.617	98.5
421.839	107.5
422.062	107.5
422.285	99.5
422.507	107.5
422.73	123.5
422.953	129.5
423.175	122.5
423.398	94.5
423.621	83.5
423.843	92.5
424.066	85.5
424.288	99.5
424.511	115.5
424.733	92.5
424.956	90.5
425.178	87.5
425.401	87.5
425.623	107.5
425.846	95.5
426.068	92.5
426.291	88.5
426.513	84.5
426.735	113.5
426.958	100.5
427.18	90.5
427.402	101.5
427.625	82.5
427.847	106.5
428.069	91.5
428.292	108.5
428.514	87.5
428.736	88.5
428.958	90.5
429.181	116.5
429.403	75.5
429.625	94.5
429.847	104.5
430.069	116.5
430.292	103.5
430.514	102.5
430.736	109.5
430.958	93.5
431.18	92.5
431.402	85.5
431.624	92.5
431.846	96.5
432.068	99.5
432.29	94.5
432.512	96.5
432.734	92.5
432.956	93.5
433.178	114.5
433.4	90.5
433.622	96.5
433.844	89.5
434.066	92.5
434.287	89.5
434.509	100.5
434.731	95.5
434.953	87.5
435.175	100.5
435.397	92.5
435.618	86.5
435.84	98.5
436.062	105.5
436.284	96.5
436.505	105.5
436.727	88.5
436.949	95.5
437.17	86.5
437.392	87.5
437.614	101.5
437.835	89.5
438.057	98.5
438.278	96.5
438.5	107.5
438.721	92.5
438.943	112.5
439.165	124.5
439.386	102.5
439.608	98.5
439.829	109.5
440.05	117.5
440.272	130.5
440.493	93.5
440.715	90.5
440.936	105.5
441.158	95.5
441.379	102.5
441.6	106.5
441.822	102.5
442.043	103.5
442.264	126.5
442.486	107.5
442.707	92.5
442.928	96.5
443.149	103.5
443.371	102.5
443.592	94.5
443.813	97.5
444.034	104.5
444.255	103.5
444.476	99.5
444.698	96.5
444.919	84.5
445.14	229.5
445.361	156.5
445.582	116.5
445.803	97.5
446.024	105.5
446.245	99.5
446.466	105.5
446.687	112.5
446.908	103.5
447.129	92.5
447.35	99.5
447.571	101.5
447.792	86.5
448.013	86.5
448.234	96.5
448.455	94.5
448.675	96.5
448.896	106.5
449.117	94.5
449.338	132.5
449.559	148.5
449.779	123.5
450	113.5
450.221	94.5
450.442	110.5
450.662	119.5
450.883	119.5
451.104	107.5
451.324	112.5
451.545	114.5
451.766	117.5
451.986	141.5
452.207	213.5
452.428	536.5
452.648	1316.5
452.869	743.5
453.089	216.5
453.31	129.5
453.53	105.5
453.751	147.5
453.971	169.5
454.192	139.5
454.412	100.5
454.633	85.5
454.853	99.5
455.073	85.5
455.294	94.5
455.514	108.5
455.734	93.5
455.955	100.5
456.175	108.5
456.395	104.5
456.616	107.5
456.836	100.5
457.056	99.5
457.276	111.5
457.497	136.5
457.717	134.5
457.937	94.5
458.157	78.5
458.377	86.5
458.598	89.5
458.818	77.5
459.038	84.5
459.258	94.5
459.478	93.5
459.698	89.5
459.918	88.5
460.138	97.5
460.358	97.5
460.578	103.5
460.798	94.5
461.018	90.5
461.238	84.5
461.458	105.5
461.678	100.5
461.898	110.5
462.118	83.5
462.338	86.5
462.558	113.5
462.777	103.5
462.997	105.5
463.217	113.5
463.437	129.5
463.657	187.5
463.876	189.5
464.096	134.5
464.316	97.5
464.536	96.5
464.755	101.5
464.975	94.5
465.195	94.5
465.414	89.5
465.634	105.5
465.854	101.5
466.073	93.5
466.293	97.5
466.512	96.5
466.732	97.5
466.951	125.5
467.171	147.5
467.391	157.5
467.61	110.5
467.829	103.5
468.049	93.5
468.268	96.5
468.488	106.5
468.707	101.5
468.927	82.5
469.146	102.5
469.365	105.5
469.585	90.5
469.804	99.5
470.023	112.5
470.243	109.5
470.462	104.5
470.681	101.5
470.901	116.5
471.12	188.5
471.339	200.5
471.558	122.5
471.777	112.5
471.997	98.5
472.216	99.5
472.435	102.5
472.654	85.5
472.873	104.5
473.092	106.5
473.311	90.5
473.53	100.5
473.749	100.5
473.968	91.5
474.187	91.5
474.406	95.5
474.625	93.5
474.844	86.5
475.063	87.5
475.282	95.5
475.501	101.5
475.72	103.5
475.939	101.5
476.158	106.5
476.377	105.5
476.596	105.5
476.814	101.5
477.033	97.5
477.252	97.5
477.471	108.5
477.69	101.5
477.908	101.5
478.127	84.5
478.346	84.5
478.564	102.5
478.783	93.5
479.002	112.5
479.22	97.5
479.439	110.5
479.658	106.5
479.876	86.5
480.095	74.5
480.313	83.5
480.532	94.5
480.751	84.5
480.969	89.5
481.188	97.5
481.406	110.5
481.624	98.5
481.843	124.5
482.061	106.5
482.28	102.5
482.498	99.5
482.717	100.5
482.935	109.5
483.153	106.5
483.372	106.5
483.59	94.5
483.808	107.5
484.027	96.5
484.245	114.5
484.463	192.5
484.681	224.5
484.9	153.5
485.118	129.5
485.336	116.5
485.554	114.5
485.772	133.5
485.99	183.5
486.209	237.5
486.427	157.5
486.645	104.5
486.863	107.5
487.081	103.5
487.299	110.5
487.517	89.5
487.735	99.5
487.953	91.5
488.171	107.5
488.389	117.5
488.607	103.5
488.825	102.5
489.043	108.5
489.261	109.5
489.479	108.5
489.696	101.5
489.914	99.5
490.132	91.5
490.35	93.5
490.568	101.5
490.786	116.5
491.003	99.5
491.221	104.5
491.439	117.5
491.657	112.5
491.874	88.5
492.092	106.5
492.31	99.5
492.527	112.5
492.745	115.5
492.963	109.5
493.18	96.5
493.398	105.5
493.615	109.5
493.833	100.5
494.05	93.5
494.268	109.5
494.485	109.5
494.703	112.5
494.92	102.5
495.138	104.5
495.355	96.5
495.573	101.5
495.79	104.5
496.008	104.5
496.225	110.5
496.442	105.5
496.66	108.5
496.877	154.5
497.094	135.5
497.312	99.5
497.529	101.5
497.746	107.5
497.963	113.5
498.181	110.5
498.398	102.5
498.615	88.5
498.832	114.5
499.049	121.5
499.267	128.5
499.484	153.5
499.701	119.5
499.918	113.5
500.135	92.5
500.352	105.5
500.569	88.5
500.786	107.5
501.003	107.5
501.22	104.5
501.437	106.5
501.654	78.5
501.871	87.5
502.088	101.5
502.305	92.5
502.522	108.5
502.739	101.5
502.956	87.5
503.172	100.5
503.389	105.5
503.606	100.5
503.823	102.5
504.04	97.5
504.256	101.5
504.473	93.5
504.69	98.5
504.907	113.5
505.123	120.5
505.34	113.5
505.557	104.5
505.773	103.5
505.99	98.5
506.207	104.5
506.423	103.5
506.64	112.5
506.856	102.5
507.073	97.5
507.289	97.5
507.506	106.5
507.722	100.5
507.939	99.5
508.155	99.5
508.372	102.5
508.588	96.5
508.805	96.5
509.021	90.5
509.238	106.5
509.454	129.5
509.67	146.5
509.887	99.5
510.103	101.5
510.319	105.5
510.536	106.5
510.752	106.5
510.968	97.5
511.184	107.5
511.401	92.5
511.617	107.5
511.833	114.5
512.049	102.5
512.265	94.5
512.481	99.5
512.698	84.5
512.914	105.5
513.13	102.5
513.346	97.5
513.562	103.5
513.778	89.5
513.994	91.5
514.21	107.5
514.426	120.5
514.642	171.5
514.858	114.5
515.074	96.5
515.29	109.5
515.506	100.5
515.721	116.5
515.937	96.5
516.153	86.5
516.369	105.5
516.585	101.5
516.801	79.5
517.016	105.5
517.232	100.5
517.448	111.5
517.664	93.5
517.879	99.5
518.095	94.5
518.311	94.5
518.527	94.5
518.742	105.5
518.958	133.5
519.173	143.5
519.389	123.5
519.605	92.5
519.82	100.5
520.036	109.5
520.251	96.5
520.467	96.5
520.682	92.5
520.898	102.5
521.113	99.5
521.329	93.5
521.544	101.5
521.76	104.5
521.975	104.5
522.19	100.5
522.406	92.5
522.621	91.5
522.836	104.5
523.052	84.5
523.267	101.5
523.482	101.5
523.698	97.5
523.913	96.5
524.128	99.5
524.343	100.5
524.559	104.5
524.774	93.5
524.989	107.5
525.204	94.5
525.419	96.5
525.634	102.5
525.849	113.5
526.064	99.5
526.28	106.5
526.495	115.5
526.71	82.5
526.925	108.5
