Data from SnStandardFlinnAPT0064_QswitchEnergy10_LIBS07252019.E.O._I.C._HRD10591_15-27-28-974.txt Node
Date: Thu Jul 25 15:27:28 EDT 2019
User: cochatt
Spectrometer: HR+D1059
Trigger mode: 1
Integration Time (sec): 1.000000E-1
Scans to average: 1
Electric dark correction enabled: true
Nonlinearity correction enabled: false
Boxcar width: 0
XAxis mode: Wavelengths
Number of Pixels in Spectrum: 2048
>>>>>Begin Spectral Data<<<<<
223.165	-18.25
223.4	-18.25
223.635	-18.25
223.869	-6.25
224.104	-4.25
224.338	-8.25
224.573	-25.25
224.808	-12.25
225.042	-6.25
225.277	-27.25
225.511	-3.25
225.746	5.75
225.98	21.75
226.215	-4.25
226.449	21.75
226.683	14.75
226.918	31.75
227.152	19.75
227.387	40.75
227.621	39.75
227.856	40.75
228.09	39.75
228.324	54.75
228.559	65.75
228.793	56.75
229.027	71.75
229.262	77.75
229.496	69.75
229.73	71.75
229.964	86.75
230.199	81.75
230.433	76.75
230.667	89.75
230.901	68.75
231.136	92.75
231.37	86.75
231.604	82.75
231.838	92.75
232.072	114.75
232.306	109.75
232.541	94.75
232.775	82.75
233.009	87.75
233.243	88.75
233.477	98.75
233.711	109.75
233.945	107.75
234.179	101.75
234.413	83.75
234.647	83.75
234.881	86.75
235.115	96.75
235.349	81.75
235.583	101.75
235.817	125.75
236.051	128.75
236.285	99.75
236.519	79.75
236.753	65.75
236.987	94.75
237.221	89.75
237.455	76.75
237.689	84.75
237.922	79.75
238.156	75.75
238.39	83.75
238.624	104.75
238.858	110.75
239.091	83.75
239.325	76.75
239.559	85.75
239.793	94.75
240.027	83.75
240.26	81.75
240.494	96.75
240.728	83.75
240.961	76.75
241.195	97.75
241.429	89.75
241.662	95.75
241.896	83.75
242.13	93.75
242.363	116.75
242.597	151.75
242.83	132.75
243.064	142.75
243.298	166.75
243.531	144.75
243.765	100.75
243.998	84.75
244.232	80.75
244.465	84.75
244.699	76.75
244.932	79.75
245.166	87.75
245.399	84.75
245.633	88.75
245.866	88.75
246.099	86.75
246.333	70.75
246.566	70.75
246.8	91.75
247.033	69.75
247.266	68.75
247.5	102.75
247.733	79.75
247.966	83.75
248.2	102.75
248.433	120.75
248.666	129.75
248.899	122.75
249.133	99.75
249.366	90.75
249.599	98.75
249.832	133.75
250.066	121.75
250.299	93.75
250.532	73.75
250.765	74.75
250.998	86.75
251.231	74.75
251.465	84.75
251.698	89.75
251.931	88.75
252.164	75.75
252.397	93.75
252.63	95.75
252.863	86.75
253.096	100.75
253.329	89.75
253.562	88.75
253.795	75.75
254.028	81.75
254.261	86.75
254.494	88.75
254.727	115.75
254.96	141.75
255.193	139.75
255.426	84.75
255.659	88.75
255.892	93.75
256.124	102.75
256.357	78.75
256.59	90.75
256.823	90.75
257.056	107.75
257.289	136.75
257.521	180.75
257.754	117.75
257.987	102.75
258.22	82.75
258.452	91.75
258.685	95.75
258.918	76.75
259.151	104.75
259.383	98.75
259.616	124.75
259.849	129.75
260.081	106.75
260.314	87.75
260.547	79.75
260.779	86.75
261.012	102.75
261.244	78.75
261.477	79.75
261.71	92.75
261.942	87.75
262.175	99.75
262.407	76.75
262.64	92.75
262.872	88.75
263.105	81.75
263.337	89.75
263.57	66.75
263.802	100.75
264.035	90.75
264.267	93.75
264.499	87.75
264.732	100.75
264.964	90.75
265.197	89.75
265.429	85.75
265.661	105.75
265.894	98.75
266.126	118.75
266.358	155.75
266.591	153.75
266.823	85.75
267.055	89.75
267.287	98.75
267.52	83.75
267.752	93.75
267.984	86.75
268.216	95.75
268.448	84.75
268.681	81.75
268.913	90.75
269.145	111.75
269.377	88.75
269.609	102.75
269.841	101.75
270.073	106.75
270.306	111.75
270.538	188.75
270.77	301.75
271.002	329.75
271.234	201.75
271.466	126.75
271.698	100.75
271.93	87.75
272.162	94.75
272.394	101.75
272.626	75.75
272.858	91.75
273.09	67.75
273.322	86.75
273.553	98.75
273.785	93.75
274.017	86.75
274.249	91.75
274.481	94.75
274.713	74.75
274.945	90.75
275.176	87.75
275.408	90.75
275.64	90.75
275.872	94.75
276.104	97.75
276.335	118.75
276.567	106.75
276.799	93.75
277.031	73.75
277.262	106.75
277.494	104.75
277.726	131.75
277.957	167.75
278.189	236.75
278.421	208.75
278.652	179.75
278.884	154.75
279.115	135.75
279.347	97.75
279.579	92.75
279.81	97.75
280.042	113.75
280.273	102.75
280.505	102.75
280.736	100.75
280.968	110.75
281.199	162.75
281.431	212.75
281.662	229.75
281.894	152.75
282.125	106.75
282.356	126.75
282.588	106.75
282.819	103.75
283.051	120.75
283.282	153.75
283.513	165.75
283.745	292.75
283.976	508.75
284.207	748.75
284.439	551.75
284.67	241.75
284.901	245.75
285.132	308.75
285.364	363.75
285.595	206.75
285.826	168.75
286.057	236.75
286.288	373.75
286.52	561.75
286.751	461.75
286.982	167.75
287.213	128.75
287.444	110.75
287.675	85.75
287.906	105.75
288.138	91.75
288.369	85.75
288.6	78.75
288.831	101.75
289.062	78.75
289.293	94.75
289.524	97.75
289.755	102.75
289.986	89.75
290.217	100.75
290.448	99.75
290.679	113.75
290.91	127.75
291.141	156.75
291.371	205.75
291.602	229.75
291.833	162.75
292.064	102.75
292.295	94.75
292.526	98.75
292.757	103.75
292.987	100.75
293.218	89.75
293.449	97.75
293.68	83.75
293.91	90.75
294.141	87.75
294.372	101.75
294.603	97.75
294.833	93.75
295.064	93.75
295.295	94.75
295.525	112.75
295.756	105.75
295.987	98.75
296.217	100.75
296.448	92.75
296.679	106.75
296.909	106.75
297.14	100.75
297.37	111.75
297.601	97.75
297.831	112.75
298.062	106.75
298.292	98.75
298.523	93.75
298.753	97.75
298.984	110.75
299.214	101.75
299.445	101.75
299.675	99.75
299.905	115.75
300.136	116.75
300.366	149.75
300.597	259.75
300.827	418.75
301.057	662.75
301.288	572.75
301.518	236.75
301.748	131.75
301.979	121.75
302.209	125.75
302.439	124.75
302.669	155.75
302.9	272.75
303.13	445.75
303.36	780.75
303.59	1089.75
303.82	760.75
304.051	261.75
304.281	144.75
304.511	120.75
304.741	122.75
304.971	110.75
305.201	118.75
305.431	106.75
305.661	99.75
305.891	100.75
306.121	104.75
306.352	95.75
306.582	109.75
306.812	108.75
307.042	106.75
307.272	106.75
307.502	93.75
307.731	113.75
307.961	100.75
308.191	92.75
308.421	114.75
308.651	94.75
308.881	99.75
309.111	100.75
309.341	107.75
309.571	116.75
309.8	111.75
310.03	97.75
310.26	97.75
310.49	107.75
310.72	103.75
310.949	111.75
311.179	102.75
311.409	115.75
311.639	107.75
311.868	113.75
312.098	126.75
312.328	119.75
312.557	118.75
312.787	101.75
313.017	119.75
313.246	118.75
313.476	117.75
313.706	124.75
313.935	144.75
314.165	179.75
314.394	196.75
314.624	148.75
314.853	124.75
315.083	137.75
315.312	118.75
315.542	118.75
315.771	121.75
316.001	137.75
316.23	143.75
316.46	149.75
316.689	167.75
316.919	230.75
317.148	457.75
317.377	847.75
317.607	1366.75
317.836	1246.75
318.065	462.75
318.295	206.75
318.524	152.75
318.753	139.75
318.983	125.75
319.212	129.75
319.441	127.75
319.67	113.75
319.9	123.75
320.129	124.75
320.358	119.75
320.587	106.75
320.816	98.75
321.046	117.75
321.275	127.75
321.504	115.75
321.733	131.75
321.962	145.75
322.191	150.75
322.42	142.75
322.649	123.75
322.878	115.75
323.108	125.75
323.337	122.75
323.566	113.75
323.795	121.75
324.024	131.75
324.253	134.75
324.482	163.75
324.71	218.75
324.939	242.75
325.168	212.75
325.397	185.75
325.626	233.75
325.855	444.75
326.084	842.75
326.313	1403.75
326.542	1435.75
326.77	553.75
326.999	239.75
327.228	203.75
327.457	191.75
327.686	211.75
327.914	146.75
328.143	130.75
328.372	129.75
328.6	120.75
328.829	108.75
329.058	107.75
329.287	99.75
329.515	119.75
329.744	122.75
329.972	113.75
330.201	105.75
330.43	97.75
330.658	100.75
330.887	116.75
331.115	124.75
331.344	124.75
331.572	110.75
331.801	112.75
332.03	122.75
332.258	139.75
332.486	165.75
332.715	271.75
332.943	464.75
333.172	694.75
333.4	586.75
333.629	241.75
333.857	149.75
334.085	125.75
334.314	110.75
334.542	119.75
334.771	123.75
334.999	127.75
335.227	120.75
335.455	122.75
335.684	127.75
335.912	102.75
336.14	116.75
336.369	105.75
336.597	120.75
336.825	124.75
337.053	93.75
337.281	110.75
337.51	125.75
337.738	90.75
337.966	106.75
338.194	117.75
338.422	108.75
338.65	111.75
338.878	114.75
339.106	126.75
339.334	124.75
339.562	115.75
339.79	115.75
340.018	95.75
340.246	108.75
340.474	106.75
340.702	114.75
340.93	109.75
341.158	108.75
341.386	108.75
341.614	112.75
341.842	121.75
342.07	117.75
342.298	102.75
342.526	120.75
342.754	113.75
342.981	111.75
343.209	105.75
343.437	108.75
343.665	97.75
343.893	101.75
344.12	98.75
344.348	125.75
344.576	106.75
344.804	119.75
345.031	118.75
345.259	105.75
345.487	105.75
345.714	106.75
345.942	105.75
346.17	108.75
346.397	104.75
346.625	95.75
346.853	112.75
347.08	100.75
347.308	121.75
347.535	113.75
347.763	117.75
347.99	100.75
348.218	114.75
348.445	106.75
348.673	115.75
348.9	111.75
349.128	121.75
349.355	124.75
349.583	120.75
349.81	104.75
350.037	133.75
350.265	101.75
350.492	114.75
350.72	104.75
350.947	109.75
351.174	109.75
351.402	95.75
351.629	125.75
351.856	105.75
352.083	113.75
352.311	118.75
352.538	114.75
352.765	106.75
352.992	102.75
353.22	109.75
353.447	97.75
353.674	106.75
353.901	109.75
354.128	108.75
354.355	93.75
354.583	100.75
354.81	94.75
355.037	91.75
355.264	115.75
355.491	108.75
355.718	98.75
355.945	97.75
356.172	103.75
356.399	117.75
356.626	94.75
356.853	108.75
357.08	102.75
357.307	118.75
357.534	107.75
357.761	102.75
357.988	93.75
358.215	110.75
358.441	110.75
358.668	99.75
358.895	127.75
359.122	115.75
359.349	124.75
359.576	120.75
359.802	116.75
360.029	99.75
360.256	107.75
360.483	96.75
360.709	107.75
360.936	95.75
361.163	109.75
361.39	105.75
361.616	117.75
361.843	108.75
362.07	110.75
362.296	106.75
362.523	116.75
362.749	106.75
362.976	101.75
363.203	99.75
363.429	109.75
363.656	106.75
363.882	104.75
364.109	110.75
364.335	125.75
364.562	100.75
364.788	112.75
365.015	110.75
365.241	127.75
365.468	168.75
365.694	214.75
365.92	193.75
366.147	121.75
366.373	114.75
366.599	101.75
366.826	103.75
367.052	101.75
367.278	87.75
367.505	77.75
367.731	108.75
367.957	96.75
368.184	110.75
368.41	114.75
368.636	118.75
368.862	92.75
369.089	101.75
369.315	107.75
369.541	115.75
369.767	127.75
369.993	115.75
370.219	77.75
370.445	98.75
370.672	108.75
370.898	102.75
371.124	107.75
371.35	118.75
371.576	107.75
371.802	100.75
372.028	106.75
372.254	114.75
372.48	103.75
372.706	116.75
372.932	113.75
373.158	117.75
373.384	110.75
373.61	108.75
373.835	129.75
374.061	113.75
374.287	96.75
374.513	103.75
374.739	107.75
374.965	129.75
375.191	114.75
375.416	98.75
375.642	107.75
375.868	110.75
376.094	91.75
376.319	100.75
376.545	101.75
376.771	109.75
376.997	102.75
377.222	111.75
377.448	105.75
377.674	114.75
377.899	103.75
378.125	103.75
378.35	99.75
378.576	114.75
378.802	131.75
379.027	130.75
379.253	142.75
379.478	161.75
379.704	248.75
379.929	708.75
380.155	1413.75
380.38	1437.75
380.606	476.75
380.831	174.75
381.057	115.75
381.282	109.75
381.507	121.75
381.733	102.75
381.958	97.75
382.184	103.75
382.409	104.75
382.634	113.75
382.86	105.75
383.085	106.75
383.31	93.75
383.535	125.75
383.761	94.75
383.986	106.75
384.211	95.75
384.436	93.75
384.662	98.75
384.887	114.75
385.112	117.75
385.337	92.75
385.562	94.75
385.787	107.75
386.013	118.75
386.238	110.75
386.463	99.75
386.688	113.75
386.913	112.75
387.138	106.75
387.363	102.75
387.588	101.75
387.813	117.75
388.038	108.75
388.263	119.75
388.488	113.75
388.713	89.75
388.938	102.75
389.163	98.75
389.387	86.75
389.612	114.75
389.837	109.75
390.062	111.75
390.287	90.75
390.512	109.75
390.736	103.75
390.961	102.75
391.186	109.75
391.411	101.75
391.636	107.75
391.86	102.75
392.085	83.75
392.31	92.75
392.534	107.75
392.759	94.75
392.984	114.75
393.208	114.75
393.433	135.75
393.658	134.75
393.882	117.75
394.107	110.75
394.331	106.75
394.556	101.75
394.78	116.75
395.005	108.75
395.229	99.75
395.454	107.75
395.678	97.75
395.903	102.75
396.127	116.75
396.352	120.75
396.576	98.75
396.801	125.75
397.025	125.75
397.249	116.75
397.474	101.75
397.698	87.75
397.922	89.75
398.147	76.75
398.371	103.75
398.595	95.75
398.82	114.75
399.044	80.75
399.268	111.75
399.492	103.75
399.717	93.75
399.941	79.75
400.165	101.75
400.389	88.75
400.613	94.75
400.837	97.75
401.062	102.75
401.286	93.75
401.51	89.75
401.734	94.75
401.958	106.75
402.182	109.75
402.406	87.75
402.63	106.75
402.854	95.75
403.078	96.75
403.302	92.75
403.526	105.75
403.75	114.75
403.974	95.75
404.198	93.75
404.422	90.75
404.645	108.75
404.869	102.75
405.093	98.75
405.317	99.75
405.541	103.75
405.765	129.75
405.988	137.75
406.212	122.75
406.436	114.75
406.66	107.75
406.883	94.75
407.107	93.75
407.331	97.75
407.555	95.75
407.778	100.75
408.002	110.75
408.226	98.75
408.449	94.75
408.673	104.75
408.896	106.75
409.12	110.75
409.344	101.75
409.567	108.75
409.791	100.75
410.014	113.75
410.238	113.75
410.461	100.75
410.685	96.75
410.908	103.75
411.132	107.75
411.355	108.75
411.578	109.75
411.802	95.75
412.025	85.75
412.249	115.75
412.472	105.75
412.695	101.75
412.919	106.75
413.142	93.75
413.365	92.75
413.589	78.75
413.812	98.75
414.035	108.75
414.258	104.75
414.482	100.75
414.705	109.75
414.928	97.75
415.151	94.75
415.374	103.75
415.597	93.75
415.821	95.75
416.044	102.75
416.267	100.75
416.49	99.75
416.713	99.75
416.936	96.75
417.159	81.75
417.382	98.75
417.605	86.75
417.828	99.75
418.051	98.75
418.274	86.75
418.497	97.75
418.72	101.75
418.943	84.75
419.166	91.75
419.389	119.75
419.611	97.75
419.834	110.75
420.057	99.75
420.28	90.75
420.503	106.75
420.726	96.75
420.948	100.75
421.171	107.75
421.394	112.75
421.617	99.75
421.839	103.75
422.062	98.75
422.285	101.75
422.507	107.75
422.73	120.75
422.953	133.75
423.175	99.75
423.398	101.75
423.621	97.75
423.843	95.75
424.066	92.75
424.288	98.75
424.511	102.75
424.733	93.75
424.956	121.75
425.178	101.75
425.401	97.75
425.623	88.75
425.846	88.75
426.068	96.75
426.291	100.75
426.513	99.75
426.735	100.75
426.958	84.75
427.18	95.75
427.402	111.75
427.625	107.75
427.847	101.75
428.069	101.75
428.292	95.75
428.514	87.75
428.736	106.75
428.958	87.75
429.181	110.75
429.403	102.75
429.625	94.75
429.847	102.75
430.069	106.75
430.292	102.75
430.514	97.75
430.736	98.75
430.958	90.75
431.18	96.75
431.402	91.75
431.624	109.75
431.846	92.75
432.068	95.75
432.29	101.75
432.512	103.75
432.734	113.75
432.956	92.75
433.178	99.75
433.4	83.75
433.622	98.75
433.844	89.75
434.066	95.75
434.287	97.75
434.509	107.75
434.731	92.75
434.953	88.75
435.175	82.75
435.397	97.75
435.618	90.75
435.84	86.75
436.062	85.75
436.284	97.75
436.505	102.75
436.727	95.75
436.949	97.75
437.17	107.75
437.392	91.75
437.614	107.75
437.835	92.75
438.057	98.75
438.278	95.75
438.5	96.75
438.721	100.75
438.943	118.75
439.165	100.75
439.386	88.75
439.608	100.75
439.829	106.75
440.05	113.75
440.272	117.75
440.493	99.75
440.715	92.75
440.936	96.75
441.158	91.75
441.379	96.75
441.6	102.75
441.822	106.75
442.043	124.75
442.264	151.75
442.486	113.75
442.707	110.75
442.928	84.75
443.149	89.75
443.371	97.75
443.592	90.75
443.813	101.75
444.034	115.75
444.255	108.75
444.476	113.75
444.698	97.75
444.919	91.75
445.14	188.75
445.361	137.75
445.582	87.75
445.803	101.75
446.024	91.75
446.245	100.75
446.466	99.75
446.687	119.75
446.908	113.75
447.129	90.75
447.35	98.75
447.571	97.75
447.792	84.75
448.013	102.75
448.234	102.75
448.455	102.75
448.675	94.75
448.896	100.75
449.117	110.75
449.338	126.75
449.559	143.75
449.779	116.75
450	118.75
450.221	109.75
450.442	108.75
450.662	119.75
450.883	115.75
451.104	110.75
451.324	123.75
451.545	106.75
451.766	106.75
451.986	126.75
452.207	187.75
452.428	467.75
452.648	1126.75
452.869	635.75
453.089	177.75
453.31	129.75
453.53	115.75
453.751	126.75
453.971	151.75
454.192	149.75
454.412	107.75
454.633	101.75
454.853	102.75
455.073	98.75
455.294	102.75
455.514	110.75
455.734	90.75
455.955	87.75
456.175	103.75
456.395	105.75
456.616	114.75
456.836	113.75
457.056	94.75
457.276	89.75
457.497	109.75
457.717	121.75
457.937	113.75
458.157	99.75
458.377	104.75
458.598	80.75
458.818	104.75
459.038	85.75
459.258	88.75
459.478	91.75
459.698	80.75
459.918	100.75
460.138	94.75
460.358	102.75
460.578	86.75
460.798	90.75
461.018	83.75
461.238	99.75
461.458	93.75
461.678	91.75
461.898	95.75
462.118	95.75
462.338	97.75
462.558	99.75
462.777	84.75
462.997	82.75
463.217	92.75
463.437	135.75
463.657	172.75
463.876	184.75
464.096	119.75
464.316	97.75
464.536	109.75
464.755	117.75
464.975	87.75
465.195	91.75
465.414	101.75
465.634	106.75
465.854	105.75
466.073	95.75
466.293	93.75
466.512	102.75
466.732	115.75
466.951	105.75
467.171	125.75
467.391	143.75
467.61	110.75
467.829	105.75
468.049	113.75
468.268	102.75
468.488	101.75
468.707	88.75
468.927	113.75
469.146	89.75
469.365	102.75
469.585	103.75
469.804	113.75
470.023	97.75
470.243	101.75
470.462	105.75
470.681	96.75
470.901	124.75
471.12	175.75
471.339	213.75
471.558	127.75
471.777	128.75
471.997	107.75
472.216	109.75
472.435	98.75
472.654	94.75
472.873	98.75
473.092	93.75
473.311	92.75
473.53	98.75
473.749	91.75
473.968	104.75
474.187	91.75
474.406	86.75
474.625	93.75
474.844	98.75
475.063	95.75
475.282	104.75
475.501	106.75
475.72	99.75
475.939	101.75
476.158	107.75
476.377	111.75
476.596	96.75
476.814	119.75
477.033	87.75
477.252	89.75
477.471	99.75
477.69	101.75
477.908	114.75
478.127	101.75
478.346	95.75
478.564	93.75
478.783	106.75
479.002	113.75
479.22	103.75
479.439	102.75
479.658	96.75
479.876	97.75
480.095	89.75
480.313	100.75
480.532	107.75
480.751	96.75
480.969	100.75
481.188	85.75
481.406	98.75
481.624	108.75
481.843	101.75
482.061	114.75
482.28	107.75
482.498	96.75
482.717	91.75
482.935	96.75
483.153	94.75
483.372	102.75
483.59	100.75
483.808	102.75
484.027	117.75
484.245	121.75
484.463	165.75
484.681	217.75
484.9	145.75
485.118	111.75
485.336	107.75
485.554	99.75
485.772	121.75
485.99	188.75
486.209	270.75
486.427	163.75
486.645	124.75
486.863	112.75
487.081	106.75
487.299	98.75
487.517	92.75
487.735	100.75
487.953	103.75
488.171	113.75
488.389	89.75
488.607	101.75
488.825	109.75
489.043	99.75
489.261	109.75
489.479	105.75
489.696	111.75
489.914	96.75
490.132	109.75
490.35	95.75
490.568	105.75
490.786	89.75
491.003	101.75
491.221	113.75
491.439	116.75
491.657	116.75
491.874	103.75
492.092	94.75
492.31	105.75
492.527	99.75
492.745	110.75
492.963	96.75
493.18	98.75
493.398	116.75
493.615	104.75
493.833	109.75
494.05	100.75
494.268	98.75
494.485	105.75
494.703	107.75
494.92	110.75
495.138	105.75
495.355	107.75
495.573	115.75
495.79	109.75
496.008	101.75
496.225	102.75
496.442	117.75
496.66	107.75
496.877	159.75
497.094	161.75
497.312	110.75
497.529	106.75
497.746	104.75
497.963	102.75
498.181	89.75
498.398	98.75
498.615	110.75
498.832	92.75
499.049	109.75
499.267	137.75
499.484	149.75
499.701	101.75
499.918	104.75
500.135	105.75
500.352	110.75
500.569	105.75
500.786	107.75
501.003	89.75
501.22	92.75
501.437	94.75
501.654	90.75
501.871	94.75
502.088	89.75
502.305	109.75
502.522	98.75
502.739	74.75
502.956	86.75
503.172	106.75
503.389	87.75
503.606	91.75
503.823	109.75
504.04	113.75
504.256	99.75
504.473	92.75
504.69	91.75
504.907	99.75
505.123	119.75
505.34	111.75
505.557	106.75
505.773	97.75
505.99	97.75
506.207	108.75
506.423	110.75
506.64	107.75
506.856	103.75
507.073	102.75
507.289	118.75
507.506	91.75
507.722	93.75
507.939	94.75
