Data from SnStandardFlinnAPT0064_QswitchEnergy10_LIBS07252019.E.O._I.C._HRD10591_15-25-49-973.txt Node
Date: Thu Jul 25 15:25:49 EDT 2019
User: cochatt
Spectrometer: HR+D1059
Trigger mode: 1
Integration Time (sec): 1.000000E-1
Scans to average: 1
Electric dark correction enabled: true
Nonlinearity correction enabled: false
Boxcar width: 0
XAxis mode: Wavelengths
Number of Pixels in Spectrum: 2048
>>>>>Begin Spectral Data<<<<<
223.165	-19.19
223.4	-19.19
223.635	-19.19
223.869	-26.19
224.104	-31.19
224.338	-18.19
224.573	-12.19
224.808	-6.19
225.042	6.81
225.277	-14.19
225.511	0.81
225.746	11.81
225.98	13.81
226.215	11.81
226.449	9.81
226.683	19.81
226.918	17.81
227.152	34.81
227.387	32.81
227.621	40.81
227.856	41.81
228.09	52.81
228.324	46.81
228.559	64.81
228.793	59.81
229.027	75.81
229.262	81.81
229.496	75.81
229.73	65.81
229.964	81.81
230.199	80.81
230.433	88.81
230.667	83.81
230.901	74.81
231.136	65.81
231.37	66.81
231.604	81.81
231.838	94.81
232.072	115.81
232.306	109.81
232.541	80.81
232.775	85.81
233.009	83.81
233.243	78.81
233.477	83.81
233.711	83.81
233.945	104.81
234.179	86.81
234.413	86.81
234.647	92.81
234.881	78.81
235.115	84.81
235.349	94.81
235.583	84.81
235.817	116.81
236.051	125.81
236.285	80.81
236.519	84.81
236.753	79.81
236.987	90.81
237.221	86.81
237.455	74.81
237.689	81.81
237.922	82.81
238.156	90.81
238.39	73.81
238.624	87.81
238.858	81.81
239.091	85.81
239.325	72.81
239.559	78.81
239.793	79.81
240.027	87.81
240.26	82.81
240.494	75.81
240.728	79.81
240.961	96.81
241.195	85.81
241.429	99.81
241.662	86.81
241.896	92.81
242.13	102.81
242.363	119.81
242.597	173.81
242.83	123.81
243.064	122.81
243.298	155.81
243.531	149.81
243.765	104.81
243.998	81.81
244.232	75.81
244.465	70.81
244.699	74.81
244.932	72.81
245.166	68.81
245.399	75.81
245.633	76.81
245.866	81.81
246.099	81.81
246.333	86.81
246.566	77.81
246.8	76.81
247.033	80.81
247.266	87.81
247.5	83.81
247.733	77.81
247.966	90.81
248.2	79.81
248.433	114.81
248.666	121.81
248.899	121.81
249.133	94.81
249.366	87.81
249.599	100.81
249.832	117.81
250.066	114.81
250.299	95.81
250.532	82.81
250.765	69.81
250.998	74.81
251.231	81.81
251.465	82.81
251.698	66.81
251.931	79.81
252.164	74.81
252.397	86.81
252.63	87.81
252.863	93.81
253.096	85.81
253.329	98.81
253.562	101.81
253.795	75.81
254.028	78.81
254.261	90.81
254.494	105.81
254.727	120.81
254.96	137.81
255.193	107.81
255.426	89.81
255.659	90.81
255.892	97.81
256.124	97.81
256.357	98.81
256.59	80.81
256.823	94.81
257.056	109.81
257.289	151.81
257.521	171.81
257.754	117.81
257.987	73.81
258.22	81.81
258.452	102.81
258.685	89.81
258.918	97.81
259.151	87.81
259.383	106.81
259.616	126.81
259.849	142.81
260.081	102.81
260.314	88.81
260.547	90.81
260.779	82.81
261.012	86.81
261.244	85.81
261.477	89.81
261.71	84.81
261.942	77.81
262.175	73.81
262.407	87.81
262.64	90.81
262.872	87.81
263.105	86.81
263.337	97.81
263.57	81.81
263.802	87.81
264.035	95.81
264.267	88.81
264.499	81.81
264.732	83.81
264.964	69.81
265.197	83.81
265.429	84.81
265.661	79.81
265.894	91.81
266.126	121.81
266.358	134.81
266.591	115.81
266.823	95.81
267.055	74.81
267.287	94.81
267.52	90.81
267.752	82.81
267.984	81.81
268.216	82.81
268.448	85.81
268.681	92.81
268.913	90.81
269.145	99.81
269.377	83.81
269.609	88.81
269.841	94.81
270.073	90.81
270.306	102.81
270.538	178.81
270.77	292.81
271.002	343.81
271.234	182.81
271.466	115.81
271.698	86.81
271.93	88.81
272.162	90.81
272.394	82.81
272.626	75.81
272.858	83.81
273.09	93.81
273.322	89.81
273.553	81.81
273.785	94.81
274.017	88.81
274.249	69.81
274.481	80.81
274.713	88.81
274.945	92.81
275.176	86.81
275.408	78.81
275.64	92.81
275.872	98.81
276.104	91.81
276.335	101.81
276.567	103.81
276.799	92.81
277.031	96.81
277.262	90.81
277.494	115.81
277.726	119.81
277.957	177.81
278.189	231.81
278.421	206.81
278.652	168.81
278.884	169.81
279.115	117.81
279.347	97.81
279.579	87.81
279.81	97.81
280.042	93.81
280.273	89.81
280.505	102.81
280.736	102.81
280.968	117.81
281.199	162.81
281.431	222.81
281.662	242.81
281.894	141.81
282.125	103.81
282.356	95.81
282.588	96.81
282.819	105.81
283.051	109.81
283.282	121.81
283.513	173.81
283.745	295.81
283.976	491.81
284.207	749.81
284.439	538.81
284.67	251.81
284.901	236.81
285.132	330.81
285.364	338.81
285.595	209.81
285.826	155.81
286.057	207.81
286.288	400.81
286.52	553.81
286.751	454.81
286.982	176.81
287.213	112.81
287.444	102.81
287.675	92.81
287.906	96.81
288.138	102.81
288.369	89.81
288.6	76.81
288.831	74.81
289.062	86.81
289.293	114.81
289.524	94.81
289.755	103.81
289.986	96.81
290.217	107.81
290.448	106.81
290.679	89.81
290.91	111.81
291.141	138.81
291.371	216.81
291.602	240.81
291.833	180.81
292.064	97.81
292.295	99.81
292.526	91.81
292.757	84.81
292.987	92.81
293.218	89.81
293.449	83.81
293.68	94.81
293.91	99.81
294.141	107.81
294.372	78.81
294.603	87.81
294.833	87.81
295.064	110.81
295.295	91.81
295.525	89.81
295.756	89.81
295.987	96.81
296.217	88.81
296.448	96.81
296.679	93.81
296.909	101.81
297.14	81.81
297.37	106.81
297.601	98.81
297.831	105.81
298.062	106.81
298.292	74.81
298.523	87.81
298.753	96.81
298.984	95.81
299.214	112.81
299.445	103.81
299.675	109.81
299.905	117.81
300.136	133.81
300.366	148.81
300.597	240.81
300.827	376.81
301.057	641.81
301.288	570.81
301.518	217.81
301.748	145.81
301.979	133.81
302.209	103.81
302.439	127.81
302.669	143.81
302.9	261.81
303.13	449.81
303.36	781.81
303.59	1091.81
303.82	755.81
304.051	269.81
304.281	140.81
304.511	117.81
304.741	113.81
304.971	111.81
305.201	104.81
305.431	98.81
305.661	102.81
305.891	93.81
306.121	102.81
306.352	96.81
306.582	98.81
306.812	103.81
307.042	106.81
307.272	106.81
307.502	107.81
307.731	101.81
307.961	101.81
308.191	98.81
308.421	98.81
308.651	96.81
308.881	114.81
309.111	98.81
309.341	103.81
309.571	101.81
309.8	106.81
310.03	106.81
310.26	109.81
310.49	91.81
310.72	101.81
310.949	90.81
311.179	91.81
311.409	104.81
311.639	103.81
311.868	103.81
312.098	115.81
312.328	110.81
312.557	111.81
312.787	109.81
313.017	117.81
313.246	101.81
313.476	105.81
313.706	122.81
313.935	141.81
314.165	163.81
314.394	209.81
314.624	165.81
314.853	129.81
315.083	112.81
315.312	127.81
315.542	125.81
315.771	123.81
316.001	127.81
316.23	144.81
316.46	152.81
316.689	161.81
316.919	217.81
317.148	446.81
317.377	785.81
317.607	1325.81
317.836	1283.81
318.065	481.81
318.295	208.81
318.524	152.81
318.753	130.81
318.983	126.81
319.212	115.81
319.441	111.81
319.67	119.81
319.9	105.81
320.129	116.81
320.358	111.81
320.587	104.81
320.816	115.81
321.046	116.81
321.275	106.81
321.504	119.81
321.733	129.81
321.962	161.81
322.191	143.81
322.42	118.81
322.649	124.81
322.878	121.81
323.108	117.81
323.337	118.81
323.566	110.81
323.795	113.81
324.024	112.81
324.253	139.81
324.482	164.81
324.71	203.81
324.939	267.81
325.168	204.81
325.397	158.81
325.626	230.81
325.855	431.81
326.084	859.81
326.313	1409.81
326.542	1430.81
326.77	552.81
326.999	234.81
327.228	191.81
327.457	196.81
327.686	187.81
327.914	151.81
328.143	133.81
328.372	131.81
328.6	113.81
328.829	97.81
329.058	123.81
329.287	122.81
329.515	107.81
329.744	99.81
329.972	104.81
330.201	102.81
330.43	101.81
330.658	109.81
330.887	121.81
331.115	105.81
331.344	109.81
331.572	105.81
331.801	111.81
332.03	105.81
332.258	119.81
332.486	157.81
332.715	272.81
332.943	440.81
333.172	685.81
333.4	595.81
333.629	218.81
333.857	138.81
334.085	115.81
334.314	128.81
334.542	118.81
334.771	115.81
334.999	111.81
335.227	126.81
335.455	115.81
335.684	114.81
335.912	110.81
336.14	102.81
336.369	103.81
336.597	115.81
336.825	119.81
337.053	106.81
337.281	94.81
337.51	96.81
337.738	104.81
337.966	94.81
338.194	123.81
338.422	124.81
338.65	119.81
338.878	106.81
339.106	95.81
339.334	120.81
339.562	106.81
339.79	118.81
340.018	115.81
340.246	101.81
340.474	106.81
340.702	104.81
340.93	117.81
341.158	105.81
341.386	104.81
341.614	107.81
341.842	98.81
342.07	107.81
342.298	98.81
342.526	110.81
342.754	106.81
342.981	106.81
343.209	103.81
343.437	114.81
343.665	121.81
343.893	104.81
344.12	101.81
344.348	115.81
344.576	111.81
344.804	114.81
345.031	115.81
345.259	98.81
345.487	113.81
345.714	91.81
345.942	107.81
346.17	106.81
346.397	107.81
346.625	95.81
346.853	105.81
347.08	104.81
347.308	101.81
347.535	105.81
347.763	96.81
347.99	89.81
348.218	99.81
348.445	99.81
348.673	118.81
348.9	119.81
349.128	120.81
349.355	105.81
349.583	109.81
349.81	107.81
350.037	117.81
350.265	121.81
350.492	97.81
350.72	98.81
350.947	106.81
351.174	113.81
351.402	106.81
351.629	93.81
351.856	95.81
352.083	106.81
352.311	100.81
352.538	102.81
352.765	99.81
352.992	107.81
353.22	110.81
353.447	98.81
353.674	106.81
353.901	83.81
354.128	112.81
354.355	104.81
354.583	105.81
354.81	107.81
355.037	96.81
355.264	100.81
355.491	105.81
355.718	118.81
355.945	104.81
356.172	93.81
356.399	101.81
356.626	87.81
356.853	101.81
357.08	98.81
357.307	107.81
357.534	95.81
357.761	95.81
357.988	95.81
358.215	100.81
358.441	92.81
358.668	110.81
358.895	111.81
359.122	117.81
359.349	110.81
359.576	110.81
359.802	103.81
360.029	122.81
360.256	89.81
360.483	103.81
360.709	86.81
360.936	91.81
361.163	110.81
361.39	116.81
361.616	95.81
361.843	106.81
362.07	109.81
362.296	118.81
362.523	91.81
362.749	98.81
362.976	104.81
363.203	99.81
363.429	107.81
363.656	103.81
363.882	110.81
364.109	104.81
364.335	119.81
364.562	105.81
364.788	96.81
365.015	114.81
365.241	134.81
365.468	160.81
365.694	209.81
365.92	171.81
366.147	119.81
366.373	106.81
366.599	98.81
366.826	95.81
367.052	82.81
367.278	100.81
367.505	89.81
367.731	99.81
367.957	106.81
368.184	99.81
368.41	113.81
368.636	120.81
368.862	105.81
369.089	95.81
369.315	94.81
369.541	96.81
369.767	88.81
369.993	104.81
370.219	98.81
370.445	93.81
370.672	90.81
370.898	101.81
371.124	92.81
371.35	104.81
371.576	88.81
371.802	93.81
372.028	107.81
372.254	102.81
372.48	103.81
372.706	119.81
372.932	100.81
373.158	102.81
373.384	117.81
373.61	99.81
373.835	103.81
374.061	102.81
374.287	102.81
374.513	102.81
374.739	100.81
374.965	101.81
375.191	97.81
375.416	105.81
375.642	100.81
375.868	100.81
376.094	117.81
376.319	95.81
376.545	102.81
376.771	93.81
376.997	119.81
377.222	96.81
377.448	103.81
377.674	113.81
377.899	94.81
378.125	117.81
378.35	89.81
378.576	98.81
378.802	111.81
379.027	117.81
379.253	130.81
379.478	151.81
379.704	269.81
379.929	675.81
380.155	1396.81
380.38	1460.81
380.606	483.81
380.831	177.81
381.057	132.81
381.282	94.81
381.507	108.81
381.733	118.81
381.958	99.81
382.184	107.81
382.409	98.81
382.634	111.81
382.86	113.81
383.085	98.81
383.31	94.81
383.535	90.81
383.761	107.81
383.986	97.81
384.211	103.81
384.436	93.81
384.662	88.81
384.887	100.81
385.112	95.81
385.337	100.81
385.562	89.81
385.787	102.81
386.013	106.81
386.238	93.81
386.463	103.81
386.688	102.81
386.913	101.81
387.138	99.81
387.363	97.81
387.588	118.81
387.813	103.81
388.038	91.81
388.263	91.81
388.488	90.81
388.713	100.81
388.938	92.81
389.163	114.81
389.387	91.81
389.612	95.81
389.837	102.81
390.062	99.81
390.287	99.81
390.512	98.81
390.736	89.81
390.961	100.81
391.186	81.81
391.411	96.81
391.636	89.81
391.86	101.81
392.085	74.81
392.31	88.81
392.534	92.81
392.759	105.81
392.984	94.81
393.208	105.81
393.433	115.81
393.658	127.81
393.882	92.81
394.107	84.81
394.331	82.81
394.556	90.81
394.78	104.81
395.005	95.81
395.229	100.81
395.454	82.81
395.678	96.81
395.903	98.81
396.127	100.81
396.352	93.81
396.576	105.81
396.801	104.81
397.025	101.81
397.249	106.81
397.474	90.81
397.698	110.81
397.922	105.81
398.147	96.81
398.371	92.81
398.595	83.81
398.82	102.81
399.044	88.81
399.268	97.81
399.492	99.81
399.717	80.81
399.941	86.81
400.165	95.81
400.389	94.81
400.613	111.81
400.837	113.81
401.062	93.81
401.286	93.81
401.51	83.81
401.734	102.81
401.958	105.81
402.182	112.81
402.406	103.81
402.63	88.81
402.854	92.81
403.078	82.81
403.302	109.81
403.526	80.81
403.75	88.81
403.974	95.81
404.198	84.81
404.422	89.81
404.645	93.81
404.869	88.81
405.093	97.81
405.317	107.81
405.541	94.81
405.765	125.81
405.988	135.81
406.212	108.81
406.436	95.81
406.66	105.81
406.883	99.81
407.107	102.81
407.331	89.81
407.555	81.81
407.778	99.81
408.002	104.81
408.226	100.81
408.449	95.81
408.673	104.81
408.896	93.81
409.12	74.81
409.344	77.81
409.567	108.81
409.791	84.81
410.014	98.81
410.238	113.81
410.461	93.81
410.685	84.81
410.908	110.81
411.132	95.81
411.355	102.81
411.578	86.81
411.802	89.81
412.025	94.81
412.249	87.81
412.472	105.81
412.695	97.81
412.919	89.81
413.142	105.81
413.365	92.81
413.589	99.81
413.812	94.81
414.035	93.81
414.258	91.81
414.482	115.81
414.705	108.81
414.928	99.81
415.151	85.81
415.374	94.81
415.597	94.81
415.821	87.81
416.044	99.81
416.267	93.81
416.49	85.81
416.713	96.81
416.936	97.81
417.159	81.81
417.382	105.81
417.605	92.81
417.828	78.81
418.051	113.81
418.274	95.81
418.497	97.81
418.72	105.81
418.943	103.81
419.166	98.81
419.389	114.81
419.611	96.81
419.834	112.81
420.057	95.81
420.28	102.81
420.503	109.81
420.726	91.81
420.948	103.81
421.171	85.81
421.394	92.81
421.617	94.81
421.839	78.81
422.062	86.81
422.285	89.81
422.507	92.81
422.73	119.81
422.953	119.81
423.175	117.81
423.398	87.81
423.621	91.81
423.843	99.81
424.066	83.81
424.288	91.81
424.511	103.81
424.733	91.81
424.956	90.81
425.178	87.81
425.401	82.81
425.623	86.81
425.846	98.81
426.068	86.81
426.291	92.81
426.513	98.81
426.735	97.81
426.958	109.81
427.18	93.81
427.402	96.81
427.625	98.81
427.847	102.81
428.069	97.81
428.292	104.81
428.514	91.81
428.736	94.81
428.958	105.81
429.181	95.81
429.403	89.81
429.625	84.81
429.847	99.81
430.069	88.81
430.292	102.81
430.514	88.81
430.736	84.81
430.958	105.81
431.18	93.81
431.402	93.81
431.624	99.81
431.846	80.81
432.068	78.81
432.29	84.81
432.512	82.81
432.734	95.81
432.956	94.81
433.178	99.81
433.4	89.81
433.622	99.81
433.844	90.81
434.066	94.81
434.287	94.81
434.509	99.81
434.731	93.81
434.953	84.81
435.175	93.81
435.397	98.81
435.618	82.81
435.84	80.81
436.062	80.81
436.284	93.81
436.505	86.81
436.727	79.81
436.949	90.81
437.17	99.81
437.392	92.81
437.614	98.81
437.835	101.81
438.057	92.81
438.278	95.81
438.5	93.81
438.721	101.81
438.943	107.81
439.165	123.81
439.386	102.81
439.608	105.81
439.829	91.81
440.05	109.81
440.272	113.81
440.493	96.81
440.715	96.81
440.936	95.81
441.158	77.81
441.379	81.81
441.6	84.81
441.822	97.81
442.043	123.81
442.264	140.81
442.486	106.81
442.707	106.81
442.928	93.81
443.149	97.81
443.371	98.81
443.592	95.81
443.813	101.81
444.034	101.81
444.255	100.81
444.476	81.81
444.698	93.81
444.919	91.81
445.14	217.81
445.361	157.81
445.582	99.81
445.803	81.81
446.024	88.81
446.245	92.81
446.466	97.81
446.687	101.81
446.908	94.81
447.129	100.81
447.35	85.81
447.571	95.81
447.792	99.81
448.013	92.81
448.234	104.81
448.455	99.81
448.675	98.81
448.896	95.81
449.117	102.81
449.338	121.81
449.559	150.81
449.779	114.81
450	119.81
450.221	102.81
450.442	108.81
450.662	106.81
450.883	112.81
451.104	110.81
451.324	106.81
451.545	115.81
451.766	118.81
451.986	140.81
452.207	183.81
452.428	464.81
452.648	1205.81
452.869	692.81
453.089	185.81
453.31	122.81
453.53	111.81
453.751	127.81
453.971	155.81
454.192	152.81
454.412	102.81
454.633	94.81
454.853	82.81
455.073	81.81
455.294	95.81
455.514	99.81
455.734	102.81
455.955	99.81
456.175	94.81
456.395	110.81
456.616	100.81
456.836	95.81
457.056	93.81
457.276	107.81
457.497	107.81
457.717	117.81
457.937	99.81
458.157	100.81
458.377	97.81
458.598	96.81
458.818	90.81
459.038	90.81
459.258	93.81
459.478	81.81
459.698	91.81
459.918	97.81
460.138	96.81
460.358	103.81
460.578	89.81
460.798	71.81
461.018	106.81
461.238	94.81
461.458	88.81
461.678	82.81
461.898	75.81
462.118	93.81
462.338	90.81
462.558	97.81
462.777	98.81
462.997	114.81
463.217	98.81
463.437	128.81
463.657	165.81
463.876	177.81
464.096	121.81
464.316	103.81
464.536	90.81
464.755	101.81
464.975	98.81
465.195	102.81
465.414	93.81
465.634	100.81
465.854	76.81
466.073	87.81
466.293	94.81
466.512	91.81
466.732	96.81
466.951	115.81
467.171	128.81
467.391	139.81
467.61	116.81
467.829	103.81
468.049	94.81
468.268	102.81
468.488	104.81
468.707	96.81
468.927	82.81
469.146	104.81
469.365	94.81
469.585	90.81
469.804	83.81
470.023	90.81
470.243	90.81
470.462	113.81
470.681	103.81
470.901	118.81
471.12	180.81
471.339	197.81
471.558	135.81
471.777	108.81
471.997	99.81
472.216	109.81
472.435	82.81
472.654	75.81
472.873	82.81
473.092	100.81
473.311	99.81
473.53	105.81
473.749	99.81
473.968	118.81
474.187	109.81
474.406	98.81
474.625	96.81
474.844	85.81
475.063	97.81
475.282	81.81
475.501	102.81
475.72	100.81
475.939	85.81
476.158	103.81
476.377	100.81
476.596	90.81
476.814	96.81
477.033	104.81
477.252	111.81
477.471	100.81
477.69	88.81
477.908	96.81
478.127	88.81
478.346	94.81
478.564	87.81
478.783	98.81
479.002	86.81
479.22	87.81
479.439	106.81
479.658	91.81
479.876	97.81
480.095	100.81
480.313	83.81
480.532	86.81
480.751	98.81
480.969	89.81
481.188	85.81
481.406	89.81
481.624	106.81
481.843	104.81
482.061	110.81
482.28	102.81
482.498	95.81
482.717	93.81
482.935	100.81
483.153	90.81
483.372	95.81
483.59	106.81
483.808	110.81
484.027	85.81
484.245	104.81
484.463	159.81
484.681	225.81
484.9	131.81
485.118	113.81
485.336	103.81
485.554	95.81
485.772	117.81
485.99	179.81
486.209	242.81
486.427	159.81
486.645	109.81
486.863	120.81
487.081	91.81
487.299	98.81
487.517	103.81
487.735	99.81
487.953	92.81
488.171	96.81
488.389	104.81
488.607	102.81
488.825	82.81
489.043	87.81
489.261	104.81
489.479	94.81
489.696	106.81
489.914	102.81
490.132	96.81
490.35	105.81
490.568	95.81
490.786	102.81
491.003	111.81
491.221	101.81
491.439	122.81
491.657	122.81
491.874	110.81
492.092	105.81
492.31	94.81
492.527	103.81
492.745	103.81
492.963	98.81
493.18	112.81
493.398	100.81
493.615	100.81
493.833	106.81
494.05	102.81
494.268	93.81
494.485	94.81
494.703	105.81
494.92	104.81
495.138	94.81
495.355	96.81
495.573	99.81
495.79	92.81
496.008	102.81
496.225	100.81
496.442	112.81
496.66	109.81
496.877	164.81
497.094	155.81
497.312	121.81
497.529	111.81
497.746	98.81
497.963	93.81
498.181	94.81
498.398	95.81
498.615	98.81
498.832	101.81
499.049	91.81
499.267	127.81
499.484	153.81
499.701	114.81
499.918	98.81
500.135	98.81
500.352	86.81
500.569	95.81
500.786	102.81
501.003	94.81
501.22	111.81
501.437	90.81
501.654	96.81
501.871	101.81
502.088	105.81
502.305	103.81
502.522	94.81
502.739	83.81
502.956	96.81
503.172	102.81
503.389	94.81
503.606	85.81
503.823	91.81
504.04	95.81
504.256	90.81
504.473	101.81
504.69	85.81
504.907	105.81
505.123	113.81
505.34	114.81
505.557	98.81
505.773	92.81
505.99	111.81
506.207	99.81
506.423	99.81
506.64	102.81
506.856	95.81
507.073	95.81
507.289	93.81
507.506	96.81
507.722	94.81
507.939	94.81
508.155	87.81
508.372	98.81
508.588	109.81
508.805	96.81
509.021	95.81
509.238	102.81
509.454	118.81
509.67	143.81
509.887	117.81
510.103	101.81
