Data from SnStandardFlinnAPT0064_QswitchEnergy10_LIBS07252019.E.O._I.C._HRD10591_15-26-53-972.txt Node
Date: Thu Jul 25 15:26:53 EDT 2019
User: cochatt
Spectrometer: HR+D1059
Trigger mode: 1
Integration Time (sec): 1.000000E-1
Scans to average: 1
Electric dark correction enabled: true
Nonlinearity correction enabled: false
Boxcar width: 0
XAxis mode: Wavelengths
Number of Pixels in Spectrum: 2048
>>>>>Begin Spectral Data<<<<<
223.165	-12.44
223.4	-12.44
223.635	-12.44
223.869	-22.44
224.104	-24.44
224.338	-23.44
224.573	1.56
224.808	-14.44
225.042	-28.44
225.277	0.56
225.511	1.56
225.746	12.56
225.98	9.56
226.215	9.56
226.449	19.56
226.683	11.56
226.918	22.56
227.152	36.56
227.387	45.56
227.621	33.56
227.856	46.56
228.09	47.56
228.324	61.56
228.559	46.56
228.793	49.56
229.027	63.56
229.262	76.56
229.496	75.56
229.73	66.56
229.964	69.56
230.199	66.56
230.433	70.56
230.667	66.56
230.901	81.56
231.136	80.56
231.37	87.56
231.604	82.56
231.838	94.56
232.072	121.56
232.306	124.56
232.541	98.56
232.775	74.56
233.009	79.56
233.243	92.56
233.477	82.56
233.711	94.56
233.945	103.56
234.179	95.56
234.413	88.56
234.647	88.56
234.881	75.56
235.115	76.56
235.349	91.56
235.583	99.56
235.817	115.56
236.051	124.56
236.285	82.56
236.519	94.56
236.753	81.56
236.987	73.56
237.221	66.56
237.455	73.56
237.689	75.56
237.922	72.56
238.156	75.56
238.39	78.56
238.624	87.56
238.858	75.56
239.091	76.56
239.325	65.56
239.559	70.56
239.793	88.56
240.027	79.56
240.26	85.56
240.494	84.56
240.728	75.56
240.961	70.56
241.195	106.56
241.429	86.56
241.662	86.56
241.896	76.56
242.13	96.56
242.363	136.56
242.597	148.56
242.83	132.56
243.064	118.56
243.298	154.56
243.531	161.56
243.765	106.56
243.998	71.56
244.232	82.56
244.465	75.56
244.699	83.56
244.932	83.56
245.166	90.56
245.399	74.56
245.633	74.56
245.866	86.56
246.099	91.56
246.333	85.56
246.566	77.56
246.8	85.56
247.033	93.56
247.266	77.56
247.5	81.56
247.733	98.56
247.966	85.56
248.2	92.56
248.433	106.56
248.666	139.56
248.899	124.56
249.133	98.56
249.366	96.56
249.599	94.56
249.832	105.56
250.066	122.56
250.299	89.56
250.532	87.56
250.765	79.56
250.998	82.56
251.231	70.56
251.465	81.56
251.698	84.56
251.931	81.56
252.164	75.56
252.397	85.56
252.63	111.56
252.863	92.56
253.096	84.56
253.329	91.56
253.562	91.56
253.795	86.56
254.028	80.56
254.261	96.56
254.494	87.56
254.727	100.56
254.96	135.56
255.193	118.56
255.426	101.56
255.659	103.56
255.892	104.56
256.124	79.56
256.357	85.56
256.59	79.56
256.823	69.56
257.056	121.56
257.289	128.56
257.521	175.56
257.754	130.56
257.987	86.56
258.22	89.56
258.452	82.56
258.685	102.56
258.918	88.56
259.151	84.56
259.383	118.56
259.616	125.56
259.849	146.56
260.081	96.56
260.314	84.56
260.547	95.56
260.779	72.56
261.012	72.56
261.244	78.56
261.477	86.56
261.71	97.56
261.942	86.56
262.175	70.56
262.407	70.56
262.64	82.56
262.872	84.56
263.105	75.56
263.337	90.56
263.57	94.56
263.802	98.56
264.035	99.56
264.267	92.56
264.499	82.56
264.732	87.56
264.964	84.56
265.197	74.56
265.429	113.56
265.661	93.56
265.894	100.56
266.126	119.56
266.358	146.56
266.591	158.56
266.823	101.56
267.055	88.56
267.287	79.56
267.52	94.56
267.752	90.56
267.984	99.56
268.216	80.56
268.448	92.56
268.681	84.56
268.913	91.56
269.145	101.56
269.377	89.56
269.609	102.56
269.841	106.56
270.073	92.56
270.306	138.56
270.538	174.56
270.77	273.56
271.002	319.56
271.234	182.56
271.466	90.56
271.698	79.56
271.93	92.56
272.162	103.56
272.394	105.56
272.626	78.56
272.858	81.56
273.09	87.56
273.322	83.56
273.553	86.56
273.785	81.56
274.017	83.56
274.249	88.56
274.481	93.56
274.713	88.56
274.945	80.56
275.176	85.56
275.408	107.56
275.64	95.56
275.872	91.56
276.104	97.56
276.335	90.56
276.567	120.56
276.799	99.56
277.031	94.56
277.262	100.56
277.494	106.56
277.726	117.56
277.957	165.56
278.189	231.56
278.421	227.56
278.652	178.56
278.884	174.56
279.115	122.56
279.347	107.56
279.579	102.56
279.81	94.56
280.042	99.56
280.273	97.56
280.505	100.56
280.736	110.56
280.968	127.56
281.199	156.56
281.431	215.56
281.662	245.56
281.894	137.56
282.125	111.56
282.356	99.56
282.588	114.56
282.819	122.56
283.051	108.56
283.282	140.56
283.513	173.56
283.745	299.56
283.976	483.56
284.207	708.56
284.439	558.56
284.67	251.56
284.901	222.56
285.132	289.56
285.364	341.56
285.595	229.56
285.826	174.56
286.057	241.56
286.288	373.56
286.52	548.56
286.751	460.56
286.982	180.56
287.213	114.56
287.444	105.56
287.675	99.56
287.906	100.56
288.138	90.56
288.369	91.56
288.6	109.56
288.831	80.56
289.062	84.56
289.293	94.56
289.524	88.56
289.755	92.56
289.986	93.56
290.217	83.56
290.448	112.56
290.679	96.56
290.91	104.56
291.141	150.56
291.371	214.56
291.602	264.56
291.833	186.56
292.064	107.56
292.295	104.56
292.526	79.56
292.757	98.56
292.987	95.56
293.218	103.56
293.449	89.56
293.68	94.56
293.91	97.56
294.141	94.56
294.372	93.56
294.603	96.56
294.833	81.56
295.064	94.56
295.295	86.56
295.525	83.56
295.756	85.56
295.987	87.56
296.217	101.56
296.448	96.56
296.679	88.56
296.909	102.56
297.14	98.56
297.37	105.56
297.601	101.56
297.831	93.56
298.062	95.56
298.292	91.56
298.523	102.56
298.753	106.56
298.984	118.56
299.214	106.56
299.445	98.56
299.675	108.56
299.905	114.56
300.136	126.56
300.366	164.56
300.597	256.56
300.827	391.56
301.057	606.56
301.288	580.56
301.518	236.56
301.748	138.56
301.979	133.56
302.209	132.56
302.439	137.56
302.669	162.56
302.9	251.56
303.13	445.56
303.36	777.56
303.59	1098.56
303.82	764.56
304.051	265.56
304.281	148.56
304.511	131.56
304.741	98.56
304.971	111.56
305.201	120.56
305.431	102.56
305.661	102.56
305.891	97.56
306.121	84.56
306.352	99.56
306.582	104.56
306.812	113.56
307.042	122.56
307.272	101.56
307.502	112.56
307.731	95.56
307.961	103.56
308.191	102.56
308.421	100.56
308.651	108.56
308.881	113.56
309.111	105.56
309.341	99.56
309.571	107.56
309.8	96.56
310.03	92.56
310.26	98.56
310.49	106.56
310.72	97.56
310.949	138.56
311.179	111.56
311.409	120.56
311.639	110.56
311.868	101.56
312.098	96.56
312.328	111.56
312.557	101.56
312.787	106.56
313.017	117.56
313.246	108.56
313.476	110.56
313.706	132.56
313.935	144.56
314.165	186.56
314.394	209.56
314.624	168.56
314.853	120.56
315.083	111.56
315.312	122.56
315.542	127.56
315.771	130.56
316.001	145.56
316.23	146.56
316.46	147.56
316.689	168.56
316.919	238.56
317.148	440.56
317.377	794.56
317.607	1344.56
317.836	1220.56
318.065	474.56
318.295	206.56
318.524	151.56
318.753	131.56
318.983	123.56
319.212	131.56
319.441	110.56
319.67	110.56
319.9	119.56
320.129	117.56
320.358	128.56
320.587	105.56
320.816	95.56
321.046	118.56
321.275	131.56
321.504	137.56
321.733	134.56
321.962	154.56
322.191	154.56
322.42	116.56
322.649	117.56
322.878	126.56
323.108	118.56
323.337	126.56
323.566	127.56
323.795	124.56
324.024	145.56
324.253	144.56
324.482	168.56
324.71	206.56
324.939	275.56
325.168	208.56
325.397	172.56
325.626	232.56
325.855	446.56
326.084	852.56
326.313	1438.56
326.542	1387.56
326.77	546.56
326.999	235.56
327.228	208.56
327.457	182.56
327.686	204.56
327.914	159.56
328.143	133.56
328.372	128.56
328.6	118.56
328.829	125.56
329.058	121.56
329.287	118.56
329.515	103.56
329.744	123.56
329.972	107.56
330.201	111.56
330.43	123.56
330.658	101.56
330.887	115.56
331.115	120.56
331.344	109.56
331.572	132.56
331.801	110.56
332.03	127.56
332.258	132.56
332.486	152.56
332.715	258.56
332.943	467.56
333.172	698.56
333.4	595.56
333.629	229.56
333.857	153.56
334.085	124.56
334.314	135.56
334.542	114.56
334.771	122.56
334.999	113.56
335.227	123.56
335.455	122.56
335.684	116.56
335.912	118.56
336.14	114.56
336.369	113.56
336.597	95.56
336.825	100.56
337.053	114.56
337.281	106.56
337.51	116.56
337.738	119.56
337.966	100.56
338.194	105.56
338.422	108.56
338.65	100.56
338.878	115.56
339.106	107.56
339.334	128.56
339.562	101.56
339.79	108.56
340.018	112.56
340.246	107.56
340.474	111.56
340.702	100.56
340.93	108.56
341.158	121.56
341.386	110.56
341.614	116.56
341.842	107.56
342.07	120.56
342.298	113.56
342.526	119.56
342.754	114.56
342.981	114.56
343.209	110.56
343.437	117.56
343.665	110.56
343.893	106.56
344.12	121.56
344.348	100.56
344.576	118.56
344.804	111.56
345.031	98.56
345.259	108.56
345.487	122.56
345.714	103.56
345.942	105.56
346.17	113.56
346.397	119.56
346.625	98.56
346.853	104.56
347.08	98.56
347.308	96.56
347.535	129.56
347.763	104.56
347.99	88.56
348.218	118.56
348.445	99.56
348.673	120.56
348.9	132.56
349.128	120.56
349.355	126.56
349.583	115.56
349.81	121.56
350.037	116.56
350.265	122.56
350.492	101.56
350.72	117.56
350.947	107.56
351.174	108.56
351.402	113.56
351.629	120.56
351.856	107.56
352.083	96.56
352.311	96.56
352.538	108.56
352.765	112.56
352.992	110.56
353.22	98.56
353.447	94.56
353.674	111.56
353.901	100.56
354.128	103.56
354.355	106.56
354.583	117.56
354.81	99.56
355.037	104.56
355.264	106.56
355.491	98.56
355.718	115.56
355.945	99.56
356.172	91.56
356.399	100.56
356.626	102.56
356.853	95.56
357.08	113.56
357.307	99.56
357.534	99.56
357.761	91.56
357.988	112.56
358.215	110.56
358.441	103.56
358.668	107.56
358.895	113.56
359.122	120.56
359.349	113.56
359.576	120.56
359.802	114.56
360.029	100.56
360.256	112.56
360.483	116.56
360.709	88.56
360.936	121.56
361.163	105.56
361.39	103.56
361.616	88.56
361.843	107.56
362.07	113.56
362.296	119.56
362.523	105.56
362.749	108.56
362.976	115.56
363.203	95.56
363.429	106.56
363.656	102.56
363.882	119.56
364.109	111.56
364.335	114.56
364.562	103.56
364.788	94.56
365.015	111.56
365.241	116.56
365.468	174.56
365.694	232.56
365.92	188.56
366.147	113.56
366.373	101.56
366.599	100.56
366.826	105.56
367.052	99.56
367.278	100.56
367.505	95.56
367.731	107.56
367.957	95.56
368.184	106.56
368.41	99.56
368.636	110.56
368.862	97.56
369.089	99.56
369.315	110.56
369.541	114.56
369.767	98.56
369.993	114.56
370.219	120.56
370.445	95.56
370.672	119.56
370.898	86.56
371.124	100.56
371.35	103.56
371.576	95.56
371.802	102.56
372.028	117.56
372.254	97.56
372.48	119.56
372.706	107.56
372.932	112.56
373.158	86.56
373.384	110.56
373.61	126.56
373.835	110.56
374.061	116.56
374.287	110.56
374.513	117.56
374.739	100.56
374.965	118.56
375.191	114.56
375.416	96.56
375.642	107.56
375.868	109.56
376.094	105.56
376.319	108.56
376.545	96.56
376.771	96.56
376.997	98.56
377.222	108.56
377.448	101.56
377.674	99.56
377.899	104.56
378.125	113.56
378.35	122.56
378.576	103.56
378.802	110.56
379.027	129.56
379.253	124.56
379.478	168.56
379.704	293.56
379.929	706.56
380.155	1400.56
380.38	1451.56
380.606	476.56
380.831	190.56
381.057	126.56
381.282	111.56
381.507	111.56
381.733	92.56
381.958	100.56
382.184	117.56
382.409	102.56
382.634	94.56
382.86	116.56
383.085	107.56
383.31	94.56
383.535	97.56
383.761	97.56
383.986	113.56
384.211	88.56
384.436	104.56
384.662	112.56
384.887	98.56
385.112	99.56
385.337	89.56
385.562	103.56
385.787	112.56
386.013	102.56
386.238	102.56
386.463	112.56
386.688	90.56
386.913	104.56
387.138	95.56
387.363	111.56
387.588	106.56
387.813	110.56
388.038	115.56
388.263	109.56
388.488	99.56
388.713	103.56
388.938	102.56
389.163	104.56
389.387	114.56
389.612	94.56
389.837	112.56
390.062	98.56
390.287	90.56
390.512	103.56
390.736	89.56
390.961	95.56
391.186	96.56
391.411	100.56
391.636	99.56
391.86	97.56
392.085	89.56
392.31	92.56
392.534	104.56
392.759	101.56
392.984	86.56
393.208	137.56
393.433	138.56
393.658	139.56
393.882	119.56
394.107	89.56
394.331	80.56
394.556	105.56
394.78	101.56
395.005	109.56
395.229	99.56
395.454	105.56
395.678	110.56
395.903	99.56
396.127	115.56
396.352	103.56
396.576	98.56
396.801	118.56
397.025	124.56
397.249	110.56
397.474	110.56
397.698	98.56
397.922	91.56
398.147	91.56
398.371	89.56
398.595	97.56
398.82	102.56
399.044	86.56
399.268	101.56
399.492	99.56
399.717	94.56
399.941	91.56
400.165	88.56
400.389	94.56
400.613	91.56
400.837	86.56
401.062	82.56
401.286	92.56
401.51	92.56
401.734	91.56
401.958	114.56
402.182	100.56
402.406	96.56
402.63	93.56
402.854	112.56
403.078	100.56
403.302	89.56
403.526	98.56
403.75	90.56
403.974	89.56
404.198	102.56
404.422	90.56
404.645	98.56
404.869	99.56
405.093	103.56
405.317	94.56
405.541	109.56
405.765	123.56
405.988	137.56
406.212	116.56
406.436	92.56
406.66	86.56
406.883	89.56
407.107	107.56
407.331	107.56
407.555	101.56
407.778	95.56
408.002	110.56
408.226	99.56
408.449	102.56
408.673	104.56
408.896	96.56
409.12	97.56
409.344	96.56
409.567	97.56
409.791	92.56
410.014	97.56
410.238	97.56
410.461	89.56
410.685	100.56
410.908	104.56
411.132	100.56
411.355	100.56
411.578	113.56
411.802	97.56
412.025	105.56
412.249	92.56
412.472	93.56
412.695	89.56
412.919	89.56
413.142	99.56
413.365	104.56
413.589	96.56
413.812	99.56
414.035	97.56
414.258	101.56
414.482	92.56
414.705	101.56
414.928	104.56
415.151	104.56
415.374	100.56
415.597	111.56
415.821	102.56
416.044	103.56
416.267	107.56
416.49	101.56
416.713	95.56
416.936	87.56
417.159	98.56
417.382	83.56
417.605	101.56
417.828	99.56
418.051	97.56
418.274	111.56
418.497	96.56
418.72	92.56
418.943	96.56
419.166	84.56
419.389	112.56
419.611	110.56
419.834	108.56
420.057	106.56
420.28	103.56
420.503	96.56
420.726	94.56
420.948	88.56
421.171	92.56
421.394	84.56
421.617	81.56
421.839	105.56
422.062	87.56
422.285	92.56
422.507	109.56
422.73	118.56
422.953	124.56
423.175	114.56
423.398	95.56
423.621	97.56
423.843	89.56
424.066	97.56
424.288	79.56
424.511	81.56
424.733	88.56
424.956	99.56
425.178	93.56
425.401	80.56
425.623	93.56
425.846	80.56
426.068	98.56
426.291	102.56
426.513	87.56
426.735	90.56
426.958	102.56
427.18	91.56
427.402	93.56
427.625	86.56
427.847	104.56
428.069	90.56
428.292	106.56
428.514	98.56
428.736	101.56
428.958	91.56
429.181	87.56
429.403	88.56
429.625	94.56
429.847	100.56
430.069	87.56
430.292	101.56
430.514	100.56
430.736	93.56
430.958	96.56
431.18	105.56
431.402	97.56
431.624	83.56
431.846	94.56
432.068	78.56
432.29	80.56
432.512	95.56
432.734	95.56
432.956	96.56
433.178	92.56
433.4	100.56
433.622	104.56
433.844	102.56
434.066	90.56
434.287	95.56
434.509	95.56
434.731	96.56
434.953	99.56
435.175	100.56
435.397	86.56
435.618	96.56
435.84	110.56
436.062	93.56
436.284	94.56
436.505	96.56
436.727	93.56
436.949	107.56
437.17	87.56
437.392	95.56
437.614	83.56
437.835	90.56
438.057	83.56
438.278	70.56
438.5	89.56
438.721	91.56
438.943	113.56
439.165	110.56
439.386	97.56
439.608	94.56
439.829	95.56
440.05	105.56
440.272	102.56
440.493	92.56
440.715	97.56
440.936	97.56
441.158	106.56
441.379	103.56
441.6	94.56
441.822	88.56
442.043	101.56
442.264	115.56
442.486	122.56
442.707	105.56
442.928	110.56
443.149	98.56
443.371	95.56
443.592	93.56
443.813	93.56
444.034	101.56
444.255	98.56
444.476	91.56
444.698	95.56
444.919	107.56
445.14	206.56
445.361	142.56
445.582	91.56
445.803	92.56
446.024	98.56
446.245	105.56
446.466	107.56
446.687	115.56
446.908	110.56
447.129	110.56
447.35	97.56
447.571	86.56
447.792	100.56
448.013	80.56
448.234	96.56
448.455	107.56
448.675	95.56
448.896	114.56
449.117	119.56
449.338	132.56
449.559	135.56
449.779	107.56
450	100.56
450.221	96.56
450.442	104.56
450.662	119.56
450.883	101.56
451.104	103.56
451.324	117.56
451.545	108.56
451.766	118.56
451.986	120.56
452.207	211.56
452.428	516.56
452.648	1203.56
452.869	687.56
453.089	190.56
453.31	121.56
453.53	104.56
453.751	136.56
453.971	147.56
454.192	138.56
454.412	108.56
454.633	85.56
454.853	100.56
455.073	92.56
455.294	96.56
455.514	94.56
455.734	87.56
455.955	87.56
456.175	106.56
456.395	98.56
456.616	106.56
456.836	89.56
457.056	111.56
457.276	98.56
457.497	96.56
457.717	124.56
457.937	104.56
458.157	98.56
458.377	89.56
458.598	96.56
458.818	81.56
459.038	79.56
459.258	89.56
459.478	94.56
459.698	109.56
459.918	91.56
460.138	85.56
460.358	90.56
460.578	103.56
460.798	77.56
461.018	79.56
461.238	94.56
461.458	92.56
461.678	86.56
461.898	97.56
462.118	99.56
462.338	108.56
462.558	96.56
462.777	83.56
462.997	101.56
463.217	116.56
463.437	130.56
463.657	177.56
463.876	178.56
464.096	120.56
464.316	94.56
464.536	101.56
464.755	96.56
464.975	98.56
465.195	102.56
465.414	99.56
465.634	86.56
465.854	97.56
466.073	90.56
466.293	100.56
466.512	103.56
466.732	100.56
466.951	88.56
467.171	140.56
467.391	117.56
467.61	105.56
467.829	105.56
468.049	89.56
468.268	85.56
468.488	101.56
468.707	97.56
468.927	91.56
469.146	99.56
469.365	110.56
469.585	113.56
469.804	102.56
470.023	88.56
470.243	115.56
470.462	104.56
470.681	104.56
470.901	131.56
471.12	172.56
471.339	204.56
471.558	135.56
471.777	107.56
471.997	118.56
472.216	99.56
472.435	102.56
472.654	83.56
472.873	96.56
473.092	92.56
473.311	106.56
473.53	101.56
473.749	103.56
473.968	104.56
474.187	86.56
474.406	102.56
474.625	108.56
474.844	89.56
475.063	89.56
475.282	87.56
475.501	88.56
475.72	97.56
475.939	88.56
476.158	105.56
476.377	107.56
476.596	117.56
476.814	103.56
477.033	104.56
477.252	110.56
477.471	100.56
477.69	102.56
477.908	108.56
478.127	90.56
478.346	113.56
478.564	97.56
478.783	94.56
479.002	85.56
479.22	94.56
479.439	88.56
479.658	89.56
479.876	91.56
480.095	93.56
480.313	90.56
480.532	97.56
480.751	111.56
480.969	91.56
481.188	100.56
481.406	87.56
481.624	110.56
481.843	104.56
482.061	121.56
482.28	103.56
482.498	93.56
482.717	95.56
482.935	100.56
483.153	96.56
483.372	88.56
483.59	91.56
483.808	96.56
484.027	90.56
484.245	119.56
484.463	160.56
484.681	202.56
484.9	144.56
485.118	112.56
485.336	105.56
485.554	122.56
485.772	118.56
485.99	162.56
486.209	217.56
486.427	171.56
486.645	118.56
486.863	109.56
487.081	105.56
487.299	101.56
487.517	94.56
487.735	94.56
487.953	91.56
488.171	100.56
488.389	91.56
488.607	89.56
488.825	80.56
489.043	97.56
489.261	99.56
489.479	91.56
489.696	100.56
489.914	102.56
490.132	90.56
490.35	98.56
490.568	96.56
490.786	99.56
491.003	101.56
491.221	106.56
491.439	115.56
491.657	122.56
491.874	105.56
492.092	105.56
492.31	116.56
492.527	99.56
492.745	102.56
492.963	104.56
493.18	119.56
493.398	112.56
493.615	114.56
493.833	106.56
494.05	95.56
494.268	108.56
494.485	100.56
494.703	99.56
494.92	103.56
495.138	101.56
495.355	99.56
495.573	87.56
495.79	113.56
496.008	102.56
496.225	101.56
496.442	104.56
496.66	118.56
496.877	155.56
497.094	136.56
497.312	96.56
497.529	104.56
497.746	92.56
497.963	83.56
498.181	103.56
498.398	94.56
498.615	100.56
498.832	88.56
499.049	119.56
499.267	141.56
499.484	166.56
499.701	118.56
499.918	97.56
500.135	108.56
500.352	93.56
500.569	103.56
500.786	105.56
501.003	97.56
501.22	103.56
501.437	99.56
501.654	103.56
501.871	101.56
502.088	88.56
502.305	90.56
502.522	74.56
502.739	101.56
502.956	101.56
503.172	100.56
503.389	105.56
503.606	98.56
503.823	97.56
504.04	99.56
504.256	98.56
504.473	101.56
504.69	97.56
504.907	107.56
505.123	105.56
505.34	99.56
505.557	90.56
505.773	83.56
505.99	91.56
506.207	87.56
506.423	100.56
506.64	100.56
506.856	111.56
507.073	110.56
507.289	83.56
507.506	96.56
507.722	78.56
507.939	97.56
508.155	102.56
508.372	102.56
508.588	112.56
508.805	100.56
509.021	101.56
