Data from SnStandardFlinnAPT0064_QswitchEnergy10_LIBS07252019.E.O._I.C._HRD10591_15-27-47-974.txt Node
Date: Thu Jul 25 15:27:47 EDT 2019
User: cochatt
Spectrometer: HR+D1059
Trigger mode: 1
Integration Time (sec): 1.000000E-1
Scans to average: 1
Electric dark correction enabled: true
Nonlinearity correction enabled: false
Boxcar width: 0
XAxis mode: Wavelengths
Number of Pixels in Spectrum: 2048
>>>>>Begin Spectral Data<<<<<
223.165	-15.25
223.4	-15.25
223.635	-15.25
223.869	-12.25
224.104	-26.25
224.338	-18.25
224.573	-8.25
224.808	-24.25
225.042	-10.25
225.277	0.75
225.511	9.75
225.746	7.75
225.98	8.75
226.215	4.75
226.449	14.75
226.683	5.75
226.918	19.75
227.152	42.75
227.387	35.75
227.621	33.75
227.856	28.75
228.09	54.75
228.324	55.75
228.559	45.75
228.793	51.75
229.027	64.75
229.262	76.75
229.496	75.75
229.73	71.75
229.964	58.75
230.199	71.75
230.433	64.75
230.667	80.75
230.901	69.75
231.136	79.75
231.37	75.75
231.604	101.75
231.838	93.75
232.072	94.75
232.306	106.75
232.541	99.75
232.775	90.75
233.009	82.75
233.243	82.75
233.477	89.75
233.711	93.75
233.945	110.75
234.179	87.75
234.413	91.75
234.647	89.75
234.881	73.75
235.115	100.75
235.349	96.75
235.583	96.75
235.817	117.75
236.051	113.75
236.285	89.75
236.519	74.75
236.753	79.75
236.987	78.75
237.221	72.75
237.455	67.75
237.689	86.75
237.922	81.75
238.156	80.75
238.39	81.75
238.624	71.75
238.858	83.75
239.091	80.75
239.325	76.75
239.559	71.75
239.793	75.75
240.027	82.75
240.26	83.75
240.494	88.75
240.728	82.75
240.961	89.75
241.195	80.75
241.429	87.75
241.662	83.75
241.896	80.75
242.13	96.75
242.363	111.75
242.597	138.75
242.83	119.75
243.064	112.75
243.298	167.75
243.531	134.75
243.765	106.75
243.998	75.75
244.232	65.75
244.465	75.75
244.699	78.75
244.932	77.75
245.166	62.75
245.399	79.75
245.633	89.75
245.866	74.75
246.099	78.75
246.333	63.75
246.566	68.75
246.8	70.75
247.033	75.75
247.266	83.75
247.5	76.75
247.733	83.75
247.966	99.75
248.2	93.75
248.433	110.75
248.666	111.75
248.899	118.75
249.133	86.75
249.366	70.75
249.599	111.75
249.832	114.75
250.066	110.75
250.299	71.75
250.532	87.75
250.765	87.75
250.998	79.75
251.231	71.75
251.465	78.75
251.698	76.75
251.931	68.75
252.164	81.75
252.397	77.75
252.63	79.75
252.863	88.75
253.096	72.75
253.329	86.75
253.562	82.75
253.795	97.75
254.028	85.75
254.261	87.75
254.494	84.75
254.727	111.75
254.96	144.75
255.193	131.75
255.426	86.75
255.659	88.75
255.892	83.75
256.124	72.75
256.357	103.75
256.59	75.75
256.823	86.75
257.056	80.75
257.289	128.75
257.521	158.75
257.754	111.75
257.987	80.75
258.22	83.75
258.452	87.75
258.685	86.75
258.918	71.75
259.151	74.75
259.383	93.75
259.616	115.75
259.849	130.75
260.081	96.75
260.314	80.75
260.547	79.75
260.779	83.75
261.012	83.75
261.244	72.75
261.477	89.75
261.71	83.75
261.942	78.75
262.175	75.75
262.407	78.75
262.64	79.75
262.872	62.75
263.105	77.75
263.337	91.75
263.57	94.75
263.802	82.75
264.035	92.75
264.267	80.75
264.499	79.75
264.732	84.75
264.964	88.75
265.197	68.75
265.429	82.75
265.661	79.75
265.894	98.75
266.126	108.75
266.358	144.75
266.591	134.75
266.823	87.75
267.055	83.75
267.287	90.75
267.52	87.75
267.752	95.75
267.984	93.75
268.216	66.75
268.448	91.75
268.681	84.75
268.913	86.75
269.145	99.75
269.377	95.75
269.609	85.75
269.841	77.75
270.073	100.75
270.306	116.75
270.538	189.75
270.77	279.75
271.002	339.75
271.234	170.75
271.466	120.75
271.698	100.75
271.93	87.75
272.162	91.75
272.394	72.75
272.626	81.75
272.858	75.75
273.09	73.75
273.322	83.75
273.553	79.75
273.785	79.75
274.017	83.75
274.249	85.75
274.481	79.75
274.713	84.75
274.945	104.75
275.176	88.75
275.408	101.75
275.64	86.75
275.872	84.75
276.104	83.75
276.335	104.75
276.567	93.75
276.799	88.75
277.031	88.75
277.262	83.75
277.494	94.75
277.726	93.75
277.957	156.75
278.189	218.75
278.421	204.75
278.652	187.75
278.884	171.75
279.115	126.75
279.347	115.75
279.579	102.75
279.81	88.75
280.042	97.75
280.273	80.75
280.505	91.75
280.736	95.75
280.968	97.75
281.199	149.75
281.431	212.75
281.662	234.75
281.894	136.75
282.125	108.75
282.356	100.75
282.588	109.75
282.819	94.75
283.051	106.75
283.282	126.75
283.513	177.75
283.745	285.75
283.976	492.75
284.207	696.75
284.439	534.75
284.67	264.75
284.901	226.75
285.132	295.75
285.364	321.75
285.595	194.75
285.826	172.75
286.057	223.75
286.288	374.75
286.52	546.75
286.751	426.75
286.982	186.75
287.213	110.75
287.444	95.75
287.675	98.75
287.906	96.75
288.138	79.75
288.369	85.75
288.6	91.75
288.831	95.75
289.062	80.75
289.293	90.75
289.524	108.75
289.755	93.75
289.986	99.75
290.217	102.75
290.448	80.75
290.679	85.75
290.91	101.75
291.141	150.75
291.371	208.75
291.602	253.75
291.833	167.75
292.064	102.75
292.295	93.75
292.526	92.75
292.757	85.75
292.987	74.75
293.218	91.75
293.449	80.75
293.68	98.75
293.91	104.75
294.141	93.75
294.372	88.75
294.603	90.75
294.833	103.75
295.064	92.75
295.295	81.75
295.525	88.75
295.756	95.75
295.987	95.75
296.217	92.75
296.448	102.75
296.679	91.75
296.909	84.75
297.14	99.75
297.37	99.75
297.601	82.75
297.831	82.75
298.062	103.75
298.292	87.75
298.523	95.75
298.753	87.75
298.984	87.75
299.214	94.75
299.445	109.75
299.675	111.75
299.905	113.75
300.136	126.75
300.366	166.75
300.597	249.75
300.827	426.75
301.057	624.75
301.288	578.75
301.518	222.75
301.748	126.75
301.979	108.75
302.209	132.75
302.439	118.75
302.669	142.75
302.9	236.75
303.13	442.75
303.36	776.75
303.59	1078.75
303.82	746.75
304.051	270.75
304.281	158.75
304.511	106.75
304.741	96.75
304.971	101.75
305.201	100.75
305.431	118.75
305.661	110.75
305.891	106.75
306.121	103.75
306.352	111.75
306.582	91.75
306.812	100.75
307.042	111.75
307.272	92.75
307.502	101.75
307.731	116.75
307.961	102.75
308.191	95.75
308.421	109.75
308.651	87.75
308.881	108.75
309.111	99.75
309.341	86.75
309.571	104.75
309.8	104.75
310.03	90.75
310.26	103.75
310.49	102.75
310.72	104.75
310.949	102.75
311.179	113.75
311.409	99.75
311.639	93.75
311.868	114.75
312.098	106.75
312.328	107.75
312.557	118.75
312.787	94.75
313.017	119.75
313.246	112.75
313.476	114.75
313.706	130.75
313.935	145.75
314.165	170.75
314.394	189.75
314.624	151.75
314.853	122.75
315.083	106.75
315.312	103.75
315.542	132.75
315.771	116.75
316.001	126.75
316.23	120.75
316.46	127.75
316.689	155.75
316.919	246.75
317.148	444.75
317.377	801.75
317.607	1304.75
317.836	1242.75
318.065	464.75
318.295	205.75
318.524	134.75
318.753	142.75
318.983	128.75
319.212	115.75
319.441	103.75
319.67	118.75
319.9	90.75
320.129	110.75
320.358	112.75
320.587	111.75
320.816	99.75
321.046	118.75
321.275	124.75
321.504	119.75
321.733	134.75
321.962	147.75
322.191	152.75
322.42	123.75
322.649	124.75
322.878	134.75
323.108	110.75
323.337	116.75
323.566	130.75
323.795	108.75
324.024	108.75
324.253	128.75
324.482	175.75
324.71	203.75
324.939	234.75
325.168	208.75
325.397	178.75
325.626	240.75
325.855	440.75
326.084	844.75
326.313	1409.75
326.542	1366.75
326.77	546.75
326.999	238.75
327.228	186.75
327.457	198.75
327.686	226.75
327.914	136.75
328.143	126.75
328.372	131.75
328.6	116.75
328.829	120.75
329.058	109.75
329.287	111.75
329.515	110.75
329.744	108.75
329.972	103.75
330.201	113.75
330.43	110.75
330.658	108.75
330.887	116.75
331.115	103.75
331.344	115.75
331.572	109.75
331.801	118.75
332.03	110.75
332.258	128.75
332.486	149.75
332.715	259.75
332.943	441.75
333.172	680.75
333.4	566.75
333.629	217.75
333.857	138.75
334.085	118.75
334.314	114.75
334.542	114.75
334.771	119.75
334.999	120.75
335.227	116.75
335.455	112.75
335.684	115.75
335.912	100.75
336.14	103.75
336.369	96.75
336.597	97.75
336.825	82.75
337.053	110.75
337.281	95.75
337.51	108.75
337.738	114.75
337.966	109.75
338.194	90.75
338.422	104.75
338.65	122.75
338.878	116.75
339.106	112.75
339.334	116.75
339.562	117.75
339.79	109.75
340.018	110.75
340.246	101.75
340.474	106.75
340.702	98.75
340.93	103.75
341.158	110.75
341.386	95.75
341.614	118.75
341.842	116.75
342.07	99.75
342.298	111.75
342.526	93.75
342.754	115.75
342.981	101.75
343.209	96.75
343.437	112.75
343.665	105.75
343.893	100.75
344.12	112.75
344.348	100.75
344.576	99.75
344.804	99.75
345.031	86.75
345.259	108.75
345.487	100.75
345.714	101.75
345.942	95.75
346.17	115.75
346.397	93.75
346.625	92.75
346.853	97.75
347.08	94.75
347.308	97.75
347.535	100.75
347.763	106.75
347.99	92.75
348.218	98.75
348.445	102.75
348.673	108.75
348.9	120.75
349.128	121.75
349.355	115.75
349.583	119.75
349.81	117.75
350.037	110.75
350.265	107.75
350.492	109.75
350.72	93.75
350.947	95.75
351.174	98.75
351.402	104.75
351.629	109.75
351.856	115.75
352.083	112.75
352.311	114.75
352.538	104.75
352.765	112.75
352.992	92.75
353.22	93.75
353.447	99.75
353.674	113.75
353.901	92.75
354.128	107.75
354.355	96.75
354.583	104.75
354.81	103.75
355.037	103.75
355.264	97.75
355.491	90.75
355.718	91.75
355.945	104.75
356.172	78.75
356.399	87.75
356.626	96.75
356.853	105.75
357.08	95.75
357.307	98.75
357.534	97.75
357.761	108.75
357.988	102.75
358.215	115.75
358.441	106.75
358.668	102.75
358.895	100.75
359.122	105.75
359.349	104.75
359.576	122.75
359.802	90.75
360.029	110.75
360.256	107.75
360.483	94.75
360.709	90.75
360.936	115.75
361.163	93.75
361.39	99.75
361.616	100.75
361.843	103.75
362.07	107.75
362.296	111.75
362.523	96.75
362.749	98.75
362.976	101.75
363.203	91.75
363.429	99.75
363.656	106.75
363.882	116.75
364.109	125.75
364.335	102.75
364.562	92.75
364.788	100.75
365.015	113.75
365.241	127.75
365.468	170.75
365.694	210.75
365.92	165.75
366.147	113.75
366.373	108.75
366.599	106.75
366.826	78.75
367.052	100.75
367.278	87.75
367.505	88.75
367.731	100.75
367.957	87.75
368.184	92.75
368.41	100.75
368.636	100.75
368.862	103.75
369.089	97.75
369.315	85.75
369.541	97.75
369.767	98.75
369.993	100.75
370.219	90.75
370.445	98.75
370.672	106.75
370.898	90.75
371.124	91.75
371.35	93.75
371.576	102.75
371.802	101.75
372.028	109.75
372.254	111.75
372.48	108.75
372.706	90.75
372.932	108.75
373.158	114.75
373.384	111.75
373.61	110.75
373.835	99.75
374.061	110.75
374.287	107.75
374.513	112.75
374.739	102.75
374.965	96.75
375.191	111.75
375.416	105.75
375.642	99.75
375.868	102.75
376.094	92.75
376.319	89.75
376.545	113.75
376.771	102.75
376.997	106.75
377.222	99.75
377.448	96.75
377.674	108.75
377.899	96.75
378.125	97.75
378.35	106.75
378.576	109.75
378.802	110.75
379.027	113.75
379.253	117.75
379.478	172.75
379.704	286.75
379.929	703.75
380.155	1398.75
380.38	1430.75
380.606	447.75
380.831	182.75
381.057	122.75
381.282	88.75
381.507	101.75
381.733	98.75
381.958	107.75
382.184	82.75
382.409	95.75
382.634	106.75
382.86	108.75
383.085	88.75
383.31	102.75
383.535	99.75
383.761	112.75
383.986	110.75
384.211	98.75
384.436	97.75
384.662	105.75
384.887	107.75
385.112	98.75
385.337	111.75
385.562	98.75
385.787	94.75
386.013	112.75
386.238	102.75
386.463	96.75
386.688	96.75
386.913	99.75
387.138	96.75
387.363	96.75
387.588	111.75
387.813	107.75
388.038	96.75
388.263	103.75
388.488	102.75
388.713	106.75
388.938	111.75
389.163	98.75
389.387	106.75
389.612	86.75
389.837	82.75
390.062	110.75
390.287	86.75
390.512	90.75
390.736	94.75
390.961	100.75
391.186	96.75
391.411	95.75
391.636	86.75
391.86	85.75
392.085	94.75
392.31	100.75
392.534	94.75
392.759	94.75
392.984	85.75
393.208	107.75
393.433	129.75
393.658	126.75
393.882	97.75
394.107	87.75
394.331	85.75
394.556	92.75
394.78	102.75
395.005	106.75
395.229	94.75
395.454	90.75
395.678	97.75
395.903	91.75
396.127	96.75
396.352	106.75
396.576	100.75
396.801	103.75
397.025	130.75
397.249	99.75
397.474	102.75
397.698	91.75
397.922	83.75
398.147	90.75
398.371	91.75
398.595	98.75
398.82	102.75
399.044	99.75
399.268	100.75
399.492	86.75
399.717	90.75
399.941	87.75
400.165	88.75
400.389	95.75
400.613	85.75
400.837	82.75
401.062	86.75
401.286	91.75
401.51	86.75
401.734	103.75
401.958	117.75
402.182	94.75
402.406	97.75
402.63	91.75
402.854	91.75
403.078	105.75
403.302	83.75
403.526	93.75
403.75	97.75
403.974	88.75
404.198	89.75
404.422	94.75
404.645	99.75
404.869	90.75
405.093	110.75
405.317	97.75
405.541	99.75
405.765	126.75
405.988	126.75
406.212	117.75
406.436	95.75
406.66	94.75
406.883	89.75
407.107	92.75
407.331	91.75
407.555	99.75
407.778	92.75
408.002	103.75
408.226	92.75
408.449	91.75
408.673	78.75
408.896	92.75
409.12	102.75
409.344	87.75
409.567	93.75
409.791	96.75
410.014	95.75
410.238	98.75
410.461	104.75
410.685	91.75
410.908	95.75
411.132	93.75
411.355	89.75
411.578	94.75
411.802	96.75
412.025	108.75
412.249	79.75
412.472	97.75
412.695	102.75
412.919	93.75
413.142	99.75
413.365	92.75
413.589	90.75
413.812	94.75
414.035	117.75
414.258	100.75
414.482	100.75
414.705	94.75
414.928	96.75
415.151	91.75
415.374	87.75
415.597	86.75
415.821	98.75
416.044	85.75
416.267	100.75
416.49	102.75
416.713	93.75
416.936	88.75
417.159	97.75
417.382	83.75
417.605	81.75
417.828	80.75
418.051	103.75
418.274	95.75
418.497	101.75
418.72	88.75
418.943	91.75
419.166	92.75
419.389	116.75
419.611	100.75
419.834	99.75
420.057	92.75
420.28	99.75
420.503	85.75
420.726	92.75
420.948	90.75
421.171	75.75
421.394	118.75
421.617	84.75
421.839	86.75
422.062	92.75
422.285	107.75
422.507	99.75
422.73	118.75
422.953	106.75
423.175	115.75
423.398	75.75
423.621	75.75
423.843	86.75
424.066	91.75
424.288	94.75
424.511	94.75
424.733	108.75
424.956	90.75
425.178	96.75
425.401	89.75
425.623	85.75
425.846	85.75
426.068	95.75
426.291	96.75
426.513	91.75
426.735	87.75
426.958	89.75
427.18	87.75
427.402	92.75
427.625	98.75
427.847	101.75
428.069	90.75
428.292	96.75
428.514	95.75
428.736	81.75
428.958	99.75
429.181	86.75
429.403	96.75
429.625	91.75
429.847	96.75
430.069	105.75
430.292	103.75
430.514	90.75
430.736	102.75
430.958	96.75
431.18	90.75
431.402	88.75
431.624	83.75
431.846	95.75
432.068	108.75
432.29	86.75
432.512	92.75
432.734	88.75
432.956	90.75
433.178	76.75
433.4	96.75
433.622	97.75
433.844	92.75
434.066	92.75
434.287	91.75
434.509	91.75
434.731	81.75
434.953	96.75
435.175	91.75
435.397	84.75
435.618	94.75
435.84	96.75
436.062	92.75
436.284	97.75
436.505	100.75
436.727	92.75
436.949	95.75
437.17	79.75
437.392	75.75
437.614	83.75
437.835	76.75
438.057	100.75
438.278	97.75
438.5	88.75
438.721	77.75
438.943	97.75
439.165	108.75
439.386	102.75
439.608	96.75
439.829	95.75
440.05	112.75
440.272	124.75
440.493	86.75
440.715	96.75
440.936	101.75
441.158	93.75
441.379	86.75
441.6	82.75
441.822	95.75
442.043	102.75
442.264	137.75
442.486	102.75
442.707	114.75
442.928	90.75
443.149	95.75
443.371	101.75
443.592	96.75
443.813	89.75
444.034	100.75
444.255	86.75
444.476	83.75
444.698	83.75
444.919	92.75
445.14	170.75
445.361	142.75
445.582	90.75
445.803	90.75
446.024	90.75
446.245	110.75
446.466	96.75
446.687	105.75
446.908	82.75
447.129	80.75
447.35	108.75
447.571	97.75
447.792	86.75
448.013	84.75
448.234	87.75
448.455	78.75
448.675	87.75
448.896	93.75
449.117	85.75
449.338	121.75
449.559	137.75
449.779	109.75
450	109.75
450.221	101.75
450.442	104.75
450.662	109.75
450.883	103.75
451.104	103.75
451.324	113.75
451.545	120.75
451.766	100.75
451.986	118.75
452.207	188.75
452.428	472.75
452.648	1128.75
452.869	667.75
453.089	181.75
453.31	116.75
453.53	99.75
453.751	131.75
453.971	143.75
454.192	148.75
454.412	106.75
454.633	91.75
454.853	87.75
455.073	90.75
455.294	87.75
455.514	83.75
455.734	102.75
455.955	90.75
456.175	86.75
456.395	83.75
456.616	76.75
456.836	87.75
457.056	96.75
457.276	88.75
457.497	106.75
457.717	120.75
457.937	99.75
458.157	95.75
458.377	95.75
458.598	100.75
458.818	89.75
459.038	79.75
459.258	95.75
459.478	95.75
459.698	88.75
459.918	80.75
460.138	90.75
460.358	75.75
460.578	86.75
460.798	76.75
461.018	83.75
461.238	79.75
461.458	86.75
461.678	88.75
461.898	78.75
462.118	84.75
462.338	98.75
462.558	90.75
462.777	79.75
462.997	101.75
463.217	111.75
463.437	122.75
463.657	166.75
463.876	163.75
464.096	115.75
464.316	96.75
464.536	81.75
464.755	89.75
464.975	95.75
465.195	107.75
465.414	90.75
465.634	94.75
465.854	72.75
466.073	100.75
466.293	95.75
466.512	81.75
466.732	94.75
466.951	101.75
467.171	132.75
467.391	134.75
467.61	94.75
467.829	108.75
468.049	96.75
468.268	95.75
468.488	95.75
468.707	95.75
468.927	91.75
469.146	93.75
469.365	101.75
469.585	105.75
469.804	106.75
470.023	100.75
470.243	88.75
470.462	81.75
470.681	99.75
470.901	132.75
471.12	175.75
471.339	197.75
471.558	128.75
471.777	99.75
471.997	106.75
472.216	106.75
472.435	94.75
472.654	81.75
472.873	78.75
473.092	87.75
473.311	76.75
473.53	104.75
473.749	85.75
473.968	95.75
474.187	105.75
474.406	74.75
474.625	88.75
474.844	75.75
475.063	92.75
475.282	79.75
475.501	85.75
475.72	92.75
475.939	88.75
476.158	94.75
476.377	85.75
476.596	106.75
476.814	93.75
477.033	90.75
477.252	98.75
477.471	92.75
477.69	98.75
477.908	87.75
478.127	95.75
478.346	97.75
478.564	93.75
478.783	89.75
479.002	95.75
479.22	93.75
479.439	111.75
479.658	79.75
479.876	84.75
480.095	84.75
480.313	103.75
480.532	88.75
480.751	91.75
480.969	74.75
481.188	84.75
481.406	110.75
481.624	97.75
481.843	99.75
482.061	101.75
482.28	89.75
482.498	95.75
482.717	94.75
482.935	101.75
483.153	103.75
483.372	100.75
483.59	88.75
483.808	95.75
484.027	111.75
484.245	112.75
484.463	170.75
484.681	212.75
484.9	133.75
485.118	103.75
485.336	101.75
485.554	106.75
485.772	110.75
485.99	171.75
486.209	212.75
486.427	164.75
486.645	112.75
486.863	111.75
487.081	115.75
487.299	97.75
487.517	83.75
487.735	90.75
487.953	94.75
488.171	99.75
488.389	92.75
488.607	89.75
488.825	103.75
489.043	84.75
489.261	96.75
489.479	107.75
489.696	86.75
489.914	84.75
490.132	73.75
490.35	85.75
490.568	91.75
490.786	93.75
491.003	108.75
491.221	106.75
491.439	118.75
491.657	88.75
491.874	95.75
492.092	103.75
492.31	106.75
492.527	112.75
492.745	100.75
492.963	99.75
493.18	95.75
493.398	110.75
493.615	113.75
493.833	94.75
494.05	101.75
494.268	110.75
494.485	121.75
494.703	112.75
494.92	98.75
495.138	113.75
495.355	104.75
495.573	96.75
495.79	74.75
496.008	100.75
496.225	89.75
496.442	95.75
496.66	111.75
496.877	149.75
497.094	143.75
497.312	102.75
497.529	94.75
497.746	124.75
497.963	106.75
498.181	90.75
498.398	103.75
498.615	83.75
498.832	94.75
499.049	96.75
499.267	122.75
499.484	147.75
499.701	125.75
499.918	94.75
500.135	79.75
500.352	99.75
500.569	93.75
500.786	104.75
501.003	106.75
501.22	106.75
501.437	94.75
501.654	88.75
501.871	99.75
502.088	100.75
502.305	108.75
502.522	96.75
502.739	103.75
502.956	87.75
503.172	107.75
503.389	86.75
503.606	91.75
503.823	110.75
504.04	94.75
504.256	91.75
504.473	100.75
504.69	107.75
504.907	106.75
505.123	134.75
505.34	94.75
505.557	94.75
505.773	91.75
505.99	98.75
506.207	97.75
506.423	97.75
506.64	106.75
506.856	92.75
507.073	86.75
507.289	101.75
507.506	102.75
507.722	85.75
507.939	97.75
508.155	82.75
508.372	85.75
508.588	87.75
508.805	88.75
509.021	94.75
509.238	92.75
509.454	114.75
509.67	148.75
509.887	106.75
510.103	86.75
510.319	90.75
510.536	106.75
510.752	115.75
510.968	89.75
511.184	94.75
