Data from SnStandardFlinnAPT0064_LampEnergy10_LIBS07252019.E.O._I.C._HRD10591_15-19-49-493.txt Node
Date: Thu Jul 25 15:19:49 EDT 2019
User: cochatt
Spectrometer: HR+D1059
Trigger mode: 1
Integration Time (sec): 1.000000E-1
Scans to average: 1
Electric dark correction enabled: true
Nonlinearity correction enabled: false
Boxcar width: 0
XAxis mode: Wavelengths
Number of Pixels in Spectrum: 2048
>>>>>Begin Spectral Data<<<<<
223.165	-9.75
223.4	-9.75
223.635	-9.75
223.869	-26.75
224.104	-23.75
224.338	-20.75
224.573	-17.75
224.808	-13.75
225.042	-8.75
225.277	1.25
225.511	-6.75
225.746	8.25
225.98	4.25
226.215	13.25
226.449	15.25
226.683	35.25
226.918	32.25
227.152	18.25
227.387	38.25
227.621	42.25
227.856	34.25
228.09	49.25
228.324	51.25
228.559	71.25
228.793	130.25
229.027	301.25
229.262	330.25
229.496	325.25
229.73	302.25
229.964	302.25
230.199	314.25
230.433	299.25
230.667	312.25
230.901	331.25
231.136	343.25
231.37	370.25
231.604	408.25
231.838	449.25
232.072	524.25
232.306	549.25
232.541	499.25
232.775	445.25
233.009	407.25
233.243	443.25
233.477	448.25
233.711	551.25
233.945	593.25
234.179	525.25
234.413	475.25
234.647	443.25
234.881	475.25
235.115	532.25
235.349	633.25
235.583	787.25
235.817	1045.25
236.051	988.25
236.285	657.25
236.519	566.25
236.753	501.25
236.987	500.25
237.221	550.25
237.455	522.25
237.689	471.25
237.922	485.25
238.156	467.25
238.39	474.25
238.624	510.25
238.858	469.25
239.091	485.25
239.325	513.25
239.559	513.25
239.793	511.25
240.027	542.25
240.26	546.25
240.494	573.25
240.728	586.25
240.961	623.25
241.195	679.25
241.429	696.25
241.662	719.25
241.896	813.25
242.13	984.25
242.363	1263.25
242.597	1659.25
242.83	1595.25
243.064	1631.25
243.298	1812.25
243.531	1556.25
243.765	984.25
243.998	801.25
244.232	723.25
244.465	656.25
244.699	655.25
244.932	645.25
245.166	671.25
245.399	664.25
245.633	673.25
245.866	675.25
246.099	682.25
246.333	665.25
246.566	663.25
246.8	638.25
247.033	650.25
247.266	619.25
247.5	658.25
247.733	677.25
247.966	694.25
248.2	757.25
248.433	891.25
248.666	998.25
248.899	942.25
249.133	853.25
249.366	857.25
249.599	964.25
249.832	1105.25
250.066	1093.25
250.299	876.25
250.532	799.25
250.765	743.25
250.998	734.25
251.231	731.25
251.465	743.25
251.698	754.25
251.931	755.25
252.164	793.25
252.397	739.25
252.63	778.25
252.863	801.25
253.096	801.25
253.329	790.25
253.562	768.25
253.795	795.25
254.028	806.25
254.261	813.25
254.494	868.25
254.727	1036.25
254.96	1255.25
255.193	1236.25
255.426	987.25
255.659	873.25
255.892	872.25
256.124	859.25
256.357	891.25
256.59	933.25
256.823	954.25
257.056	1114.25
257.289	1351.25
257.521	1530.25
257.754	1222.25
257.987	979.25
258.22	919.25
258.452	922.25
258.685	918.25
258.918	938.25
259.151	1003.25
259.383	1097.25
259.616	1216.25
259.849	1301.25
260.081	1080.25
260.314	995.25
260.547	951.25
260.779	970.25
261.012	948.25
261.244	930.25
261.477	954.25
261.71	986.25
261.942	985.25
262.175	995.25
262.407	1038.25
262.64	1051.25
262.872	1078.25
263.105	1104.25
263.337	1174.25
263.57	1230.25
263.802	1258.25
264.035	1297.25
264.267	1303.25
264.499	1333.25
264.732	1387.25
264.964	1412.25
265.197	1403.25
265.429	1402.25
265.661	1439.25
265.894	1512.25
266.126	1740.25
266.358	1935.25
266.591	1922.25
266.823	1614.25
267.055	1423.25
267.287	1359.25
267.52	1339.25
267.752	1277.25
267.984	1253.25
268.216	1234.25
268.448	1226.25
268.681	1211.25
268.913	1199.25
269.145	1211.25
269.377	1226.25
269.609	1243.25
269.841	1287.25
270.073	1349.25
270.306	1633.25
270.538	2244.25
270.77	3257.25
271.002	4039.25
271.234	2925.25
271.466	1906.25
271.698	1568.25
271.93	1425.25
272.162	1340.25
272.394	1304.25
272.626	1258.25
272.858	1233.25
273.09	1237.25
273.322	1197.25
273.553	1186.25
273.785	1184.25
274.017	1191.25
274.249	1215.25
274.481	1227.25
274.713	1186.25
274.945	1207.25
275.176	1204.25
275.408	1222.25
275.64	1215.25
275.872	1233.25
276.104	1260.25
276.335	1244.25
276.567	1260.25
276.799	1283.25
277.031	1299.25
277.262	1319.25
277.494	1451.25
277.726	1608.25
277.957	1897.25
278.189	2114.25
278.421	1987.25
278.652	1776.25
278.884	1703.25
279.115	1511.25
279.347	1394.25
279.579	1407.25
279.81	1373.25
280.042	1391.25
280.273	1417.25
280.505	1455.25
280.736	1490.25
280.968	1574.25
281.199	1797.25
281.431	2068.25
281.662	2110.25
281.894	1791.25
282.125	1668.25
282.356	1667.25
282.588	1702.25
282.819	1704.25
283.051	1846.25
283.282	2043.25
283.513	2518.25
283.745	3709.25
283.976	5765.25
284.207	8190.25
284.439	7565.25
284.67	4789.25
284.901	3899.25
285.132	3892.25
285.364	3645.25
285.595	2819.25
285.826	2466.25
286.057	2948.25
286.288	3963.25
286.52	5383.25
286.751	5106.25
286.982	3186.25
287.213	2372.25
287.444	2040.25
287.675	1905.25
287.906	1819.25
288.138	1748.25
288.369	1725.25
288.6	1707.25
288.831	1653.25
289.062	1688.25
289.293	1662.25
289.524	1683.25
289.755	1666.25
289.986	1687.25
290.217	1691.25
290.448	1724.25
290.679	1702.25
290.91	1801.25
291.141	1874.25
291.371	2055.25
291.602	2151.25
291.833	1960.25
292.064	1747.25
292.295	1678.25
292.526	1630.25
292.757	1584.25
292.987	1596.25
293.218	1571.25
293.449	1609.25
293.68	1566.25
293.91	1545.25
294.141	1585.25
294.372	1547.25
294.603	1568.25
294.833	1546.25
295.064	1561.25
295.295	1574.25
295.525	1556.25
295.756	1568.25
295.987	1573.25
296.217	1585.25
296.448	1599.25
296.679	1561.25
296.909	1619.25
297.14	1603.25
297.37	1632.25
297.601	1603.25
297.831	1615.25
298.062	1638.25
298.292	1653.25
298.523	1642.25
298.753	1722.25
298.984	1706.25
299.214	1749.25
299.445	1800.25
299.675	1792.25
299.905	1801.25
300.136	1909.25
300.366	2142.25
300.597	2782.25
300.827	3879.25
301.057	5364.25
301.288	5471.25
301.518	3493.25
301.748	2711.25
301.979	2417.25
302.209	2326.25
302.439	2323.25
302.669	2457.25
302.9	2994.25
303.13	4238.25
303.36	6278.25
303.59	8353.25
303.82	7377.25
304.051	4415.25
304.281	3084.25
304.511	2589.25
304.741	2367.25
304.971	2183.25
305.201	2077.25
305.431	2067.25
305.661	1989.25
305.891	1926.25
306.121	1933.25
306.352	1893.25
306.582	1823.25
306.812	1792.25
307.042	1849.25
307.272	1841.25
307.502	1815.25
307.731	1805.25
307.961	1828.25
308.191	1820.25
308.421	1771.25
308.651	1767.25
308.881	1770.25
309.111	1763.25
309.341	1789.25
309.571	1817.25
309.8	1866.25
310.03	1881.25
310.26	1831.25
310.49	1831.25
310.72	1874.25
310.949	1866.25
311.179	1919.25
311.409	1913.25
311.639	1930.25
311.868	1893.25
312.098	1925.25
312.328	1952.25
312.557	1955.25
312.787	1945.25
313.017	1926.25
313.246	1987.25
313.476	2013.25
313.706	2101.25
313.935	2205.25
314.165	2365.25
314.394	2474.25
314.624	2349.25
314.853	2187.25
315.083	2114.25
315.312	2195.25
315.542	2176.25
315.771	2177.25
316.001	2245.25
316.23	2339.25
316.46	2440.25
316.689	2703.25
316.919	3215.25
317.148	4731.25
317.377	7217.25
317.607	10661.25
317.836	11101.25
318.065	6917.25
318.295	4425.25
318.524	3527.25
318.753	3067.25
318.983	2788.25
319.212	2569.25
319.441	2496.25
319.67	2452.25
319.9	2408.25
320.129	2375.25
320.358	2330.25
320.587	2355.25
320.816	2365.25
321.046	2326.25
321.275	2311.25
321.504	2394.25
321.733	2423.25
321.962	2506.25
322.191	2513.25
322.42	2520.25
322.649	2484.25
322.878	2473.25
323.108	2486.25
323.337	2541.25
323.566	2589.25
323.795	2607.25
324.024	2687.25
324.253	2703.25
324.482	2853.25
324.71	2986.25
324.939	3247.25
325.168	3279.25
325.397	3408.25
325.626	4081.25
325.855	5670.25
326.084	8879.25
326.313	12912.25
326.542	13653.25
326.77	9430.25
326.999	6206.25
327.228	5091.25
327.457	4872.25
327.686	4877.25
327.914	5157.25
328.143	6037.25
328.372	7077.25
328.6	7794.25
328.829	6980.25
329.058	5887.25
329.287	5122.25
329.515	4641.25
329.744	4225.25
329.972	4020.25
330.201	3849.25
330.43	3738.25
330.658	3557.25
330.887	3503.25
331.115	3465.25
331.344	3460.25
331.572	3388.25
331.801	3501.25
332.03	3541.25
332.258	3520.25
332.486	3730.25
332.715	4335.25
332.943	5341.25
333.172	6624.25
333.4	6671.25
333.629	5110.25
333.857	4563.25
334.085	4473.25
334.314	4692.25
334.542	5124.25
334.771	5955.25
334.999	7415.25
335.227	9308.25
335.455	10518.25
335.684	9385.25
335.912	7737.25
336.14	6551.25
336.369	5705.25
336.597	5224.25
336.825	4795.25
337.053	4485.25
337.281	4247.25
337.51	3994.25
337.738	3831.25
337.966	3703.25
338.194	3570.25
338.422	3422.25
338.65	3312.25
338.878	3275.25
339.106	3179.25
339.334	3193.25
339.562	3094.25
339.79	3071.25
340.018	3046.25
340.246	3022.25
340.474	3005.25
340.702	2959.25
340.93	2966.25
341.158	3001.25
341.386	2982.25
341.614	2974.25
341.842	2886.25
342.07	2831.25
342.298	2805.25
342.526	2756.25
342.754	2685.25
342.981	2648.25
343.209	2669.25
343.437	2689.25
343.665	2708.25
343.893	2791.25
344.12	2798.25
344.348	2739.25
344.576	2696.25
344.804	2685.25
345.031	2611.25
345.259	2579.25
345.487	2624.25
345.714	2559.25
345.942	2560.25
346.17	2547.25
346.397	2531.25
346.625	2560.25
346.853	2517.25
347.08	2468.25
347.308	2479.25
347.535	2526.25
347.763	2492.25
347.99	2449.25
348.218	2475.25
348.445	2465.25
348.673	2441.25
348.9	2436.25
349.128	2420.25
349.355	2393.25
349.583	2427.25
349.81	2409.25
350.037	2380.25
350.265	2375.25
350.492	2404.25
350.72	2373.25
350.947	2343.25
351.174	2333.25
351.402	2407.25
351.629	2387.25
351.856	2368.25
352.083	2334.25
352.311	2338.25
352.538	2366.25
352.765	2359.25
352.992	2374.25
353.22	2341.25
353.447	2334.25
353.674	2344.25
353.901	2398.25
354.128	2406.25
354.355	2374.25
354.583	2349.25
354.81	2394.25
355.037	2391.25
355.264	2394.25
355.491	2427.25
355.718	2422.25
355.945	2450.25
356.172	2458.25
356.399	2438.25
356.626	2486.25
356.853	2505.25
357.08	2481.25
357.307	2514.25
357.534	2550.25
357.761	2577.25
357.988	2565.25
358.215	2561.25
358.441	2514.25
358.668	2498.25
358.895	2500.25
359.122	2489.25
359.349	2504.25
359.576	2502.25
359.802	2484.25
360.029	2479.25
360.256	2537.25
360.483	2543.25
360.709	2481.25
360.936	2585.25
361.163	2514.25
361.39	2509.25
361.616	2452.25
361.843	2570.25
362.07	2565.25
362.296	2529.25
362.523	2524.25
362.749	2498.25
362.976	2497.25
363.203	2468.25
363.429	2479.25
363.656	2501.25
363.882	2494.25
364.109	2527.25
364.335	2525.25
364.562	2474.25
364.788	2488.25
365.015	2555.25
365.241	2621.25
365.468	2763.25
365.694	2907.25
365.92	2804.25
366.147	2602.25
366.373	2577.25
366.599	2576.25
366.826	2553.25
367.052	2587.25
367.278	2586.25
367.505	2594.25
367.731	2575.25
367.957	2567.25
368.184	2592.25
368.41	2601.25
368.636	2626.25
368.862	2635.25
369.089	2587.25
369.315	2564.25
369.541	2577.25
369.767	2608.25
369.993	2583.25
370.219	2591.25
370.445	2633.25
370.672	2666.25
370.898	2629.25
371.124	2610.25
371.35	2687.25
371.576	2647.25
371.802	2647.25
372.028	2667.25
372.254	2715.25
372.48	2678.25
372.706	2715.25
372.932	2786.25
373.158	2722.25
373.384	2745.25
373.61	2714.25
373.835	2735.25
374.061	2763.25
374.287	2816.25
374.513	2795.25
374.739	2801.25
374.965	2835.25
375.191	2861.25
375.416	2827.25
375.642	2809.25
375.868	2761.25
376.094	2763.25
376.319	2738.25
376.545	2785.25
376.771	2726.25
376.997	2682.25
377.222	2675.25
377.448	2611.25
377.674	2673.25
377.899	2667.25
378.125	2691.25
378.35	2718.25
378.576	2694.25
378.802	2727.25
379.027	2767.25
379.253	2852.25
379.478	3013.25
379.704	3565.25
379.929	5211.25
380.155	7945.25
380.38	8830.25
380.606	5397.25
380.831	3714.25
381.057	3240.25
381.282	2970.25
381.507	2851.25
381.733	2777.25
381.958	2686.25
382.184	2721.25
382.409	2703.25
382.634	2654.25
382.86	2641.25
383.085	2642.25
383.31	2645.25
383.535	2649.25
383.761	2663.25
383.986	2667.25
384.211	2707.25
384.436	2708.25
384.662	2702.25
384.887	2776.25
385.112	2686.25
385.337	2771.25
385.562	2733.25
385.787	2741.25
386.013	2773.25
386.238	2807.25
386.463	2751.25
386.688	2759.25
386.913	2774.25
387.138	2711.25
387.363	2699.25
387.588	2725.25
387.813	2756.25
388.038	2713.25
388.263	2677.25
388.488	2755.25
388.713	2724.25
388.938	2713.25
389.163	2694.25
389.387	2753.25
389.612	2698.25
389.837	2741.25
390.062	2739.25
390.287	2758.25
390.512	2751.25
390.736	2777.25
390.961	2822.25
391.186	2802.25
391.411	2807.25
391.636	2866.25
391.86	2906.25
392.085	2919.25
392.31	2845.25
392.534	2814.25
392.759	2773.25
392.984	2785.25
393.208	2815.25
393.433	2827.25
393.658	2819.25
393.882	2747.25
394.107	2755.25
394.331	2791.25
394.556	2773.25
394.78	2778.25
395.005	2818.25
395.229	2775.25
395.454	2827.25
395.678	2821.25
395.903	2844.25
396.127	2877.25
396.352	2780.25
396.576	2847.25
396.801	2815.25
397.025	2841.25
397.249	2852.25
397.474	2857.25
397.698	2882.25
397.922	2872.25
398.147	2885.25
398.371	2913.25
398.595	2991.25
398.82	3069.25
399.044	3152.25
399.268	3301.25
399.492	3469.25
399.717	3585.25
399.941	3619.25
400.165	3432.25
400.389	3309.25
400.613	3158.25
400.837	3077.25
401.062	3035.25
401.286	3046.25
401.51	2973.25
401.734	2978.25
401.958	2978.25
402.182	3040.25
402.406	2991.25
402.63	3028.25
402.854	3054.25
403.078	3058.25
403.302	3082.25
403.526	3142.25
403.75	3116.25
403.974	3123.25
404.198	3114.25
404.422	3069.25
404.645	3110.25
404.869	3154.25
405.093	3138.25
405.317	3118.25
405.541	3233.25
405.765	3213.25
405.988	3241.25
406.212	3253.25
406.436	3142.25
406.66	3201.25
406.883	3193.25
407.107	3275.25
407.331	3357.25
407.555	3363.25
407.778	3421.25
408.002	3357.25
408.226	3328.25
408.449	3365.25
408.673	3252.25
408.896	3223.25
409.12	3192.25
409.344	3189.25
409.567	3147.25
409.791	3106.25
410.014	3133.25
410.238	3106.25
410.461	3130.25
410.685	3051.25
410.908	3091.25
411.132	3080.25
411.355	2975.25
411.578	2985.25
411.802	3070.25
412.025	2970.25
412.249	2976.25
412.472	3015.25
412.695	2963.25
412.919	2937.25
413.142	2977.25
413.365	2898.25
413.589	2943.25
413.812	2961.25
414.035	2981.25
414.258	2922.25
414.482	2927.25
414.705	2986.25
414.928	2971.25
415.151	2968.25
415.374	2944.25
415.597	2874.25
415.821	2839.25
416.044	2799.25
416.267	2821.25
416.49	2802.25
416.713	2813.25
416.936	2851.25
417.159	2795.25
417.382	2761.25
417.605	2775.25
417.828	2819.25
418.051	2826.25
418.274	2892.25
418.497	2836.25
418.72	2866.25
418.943	2857.25
419.166	2997.25
419.389	3147.25
419.611	3084.25
419.834	2995.25
420.057	2943.25
420.28	2830.25
420.503	2801.25
420.726	2818.25
420.948	2820.25
421.171	2833.25
421.394	2850.25
421.617	2852.25
421.839	2798.25
422.062	2890.25
422.285	2831.25
422.507	2883.25
422.73	2915.25
422.953	2917.25
423.175	2895.25
423.398	2918.25
423.621	2869.25
423.843	2862.25
424.066	2859.25
424.288	2822.25
424.511	2792.25
424.733	2846.25
424.956	2788.25
425.178	2780.25
425.401	2775.25
425.623	2783.25
425.846	2730.25
426.068	2756.25
426.291	2739.25
426.513	2658.25
426.735	2688.25
426.958	2726.25
427.18	2672.25
427.402	2715.25
427.625	2681.25
427.847	2632.25
428.069	2595.25
428.292	2686.25
428.514	2670.25
428.736	2630.25
428.958	2654.25
429.181	2601.25
429.403	2595.25
429.625	2582.25
429.847	2627.25
430.069	2649.25
430.292	2763.25
430.514	2885.25
430.736	2835.25
430.958	2654.25
431.18	2590.25
431.402	2581.25
431.624	2610.25
431.846	2606.25
432.068	2544.25
432.29	2542.25
432.512	2581.25
432.734	2598.25
432.956	2585.25
433.178	2639.25
433.4	2593.25
433.622	2591.25
433.844	2631.25
434.066	2585.25
434.287	2586.25
434.509	2668.25
434.731	2636.25
434.953	2707.25
435.175	2725.25
435.397	2693.25
435.618	2595.25
435.84	2632.25
436.062	2568.25
436.284	2562.25
436.505	2570.25
436.727	2614.25
436.949	2592.25
437.17	2561.25
437.392	2550.25
437.614	2522.25
437.835	2510.25
438.057	2558.25
438.278	2479.25
438.5	2506.25
438.721	2561.25
438.943	2667.25
439.165	2712.25
439.386	2744.25
439.608	2689.25
439.829	2689.25
440.05	2785.25
440.272	2846.25
440.493	2788.25
440.715	2718.25
440.936	2717.25
441.158	2738.25
441.379	2713.25
441.6	2875.25
441.822	2930.25
442.043	3058.25
442.264	3169.25
442.486	2945.25
442.707	2832.25
442.928	2798.25
443.149	2769.25
443.371	2769.25
443.592	2767.25
443.813	2767.25
444.034	2782.25
444.255	2857.25
444.476	2920.25
444.698	2933.25
444.919	2939.25
445.14	3055.25
445.361	2907.25
445.582	2824.25
445.803	2777.25
446.024	2760.25
446.245	2834.25
446.466	2831.25
446.687	2697.25
446.908	2734.25
447.129	2622.25
447.35	2665.25
447.571	2592.25
447.792	2577.25
448.013	2628.25
448.234	2560.25
448.455	2536.25
448.675	2564.25
448.896	2696.25
449.117	2753.25
449.338	2971.25
449.559	3103.25
449.779	2856.25
450	2608.25
450.221	2513.25
450.442	2557.25
450.662	2565.25
450.883	2514.25
451.104	2527.25
451.324	2512.25
451.545	2507.25
451.766	2528.25
451.986	2583.25
452.207	2769.25
452.428	3606.25
452.648	5535.25
452.869	4657.25
453.089	3186.25
453.31	2959.25
453.53	2968.25
453.751	3059.25
453.971	3165.25
454.192	3105.25
454.412	2687.25
454.633	2584.25
454.853	2479.25
455.073	2477.25
455.294	2436.25
455.514	2360.25
455.734	2421.25
455.955	2349.25
456.175	2371.25
456.395	2402.25
456.616	2363.25
456.836	2487.25
457.056	2461.25
457.276	2417.25
457.497	2575.25
457.717	2650.25
457.937	2520.25
458.157	2547.25
458.377	2564.25
458.598	2592.25
458.818	2575.25
459.038	2543.25
459.258	2595.25
459.478	2619.25
459.698	2653.25
459.918	2668.25
460.138	2670.25
460.358	2721.25
460.578	2771.25
460.798	2830.25
461.018	2830.25
461.238	2824.25
461.458	2833.25
461.678	2861.25
461.898	2962.25
462.118	2943.25
462.338	3005.25
462.558	3030.25
462.777	3128.25
462.997	3206.25
463.217	3361.25
463.437	3368.25
463.657	3528.25
463.876	3486.25
464.096	3355.25
464.316	3174.25
464.536	3088.25
464.755	3024.25
464.975	2942.25
465.195	2825.25
465.414	2839.25
465.634	2701.25
465.854	2712.25
466.073	2645.25
466.293	2620.25
466.512	2609.25
466.732	2691.25
466.951	2853.25
467.171	3021.25
467.391	2939.25
467.61	2698.25
467.829	2624.25
468.049	2594.25
468.268	2551.25
468.488	2563.25
468.707	2541.25
468.927	2548.25
469.146	2556.25
469.365	2630.25
469.585	2601.25
469.804	2663.25
470.023	2729.25
470.243	2736.25
470.462	2884.25
470.681	2995.25
470.901	3274.25
471.12	3759.25
471.339	3720.25
471.558	3137.25
471.777	2886.25
471.997	2731.25
472.216	2692.25
472.435	2675.25
472.654	2616.25
472.873	2575.25
473.092	2613.25
473.311	2571.25
473.53	2602.25
473.749	2716.25
473.968	2746.25
474.187	2678.25
474.406	2565.25
474.625	2587.25
474.844	2621.25
475.063	2629.25
475.282	2583.25
475.501	2590.25
475.72	2631.25
475.939	2627.25
476.158	2702.25
476.377	2755.25
476.596	2681.25
476.814	2728.25
477.033	2759.25
477.252	2741.25
477.471	2770.25
477.69	2861.25
477.908	2882.25
478.127	2927.25
478.346	2941.25
478.564	3014.25
478.783	2998.25
479.002	3092.25
479.22	3085.25
479.439	3121.25
479.658	3087.25
479.876	3106.25
480.095	3114.25
480.313	3208.25
480.532	3225.25
480.751	3196.25
480.969	3128.25
481.188	3174.25
481.406	3106.25
481.624	3157.25
481.843	3147.25
482.061	3169.25
482.28	3115.25
482.498	3132.25
482.717	3167.25
482.935	3159.25
483.153	3174.25
483.372	3201.25
483.59	3254.25
483.808	3285.25
484.027	3378.25
484.245	3641.25
484.463	4015.25
484.681	4471.25
484.9	4097.25
485.118	3803.25
485.336	3722.25
485.554	3767.25
485.772	3969.25
485.99	4563.25
486.209	4841.25
486.427	4120.25
486.645	3645.25
486.863	3534.25
487.081	3451.25
487.299	3314.25
487.517	3311.25
487.735	3351.25
