Data from SnStandardFlinnAPT0064_LampEnergy10_LIBS07252019.E.O._I.C._HRD10591_15-20-07-494.txt Node
Date: Thu Jul 25 15:20:07 EDT 2019
User: cochatt
Spectrometer: HR+D1059
Trigger mode: 1
Integration Time (sec): 1.000000E-1
Scans to average: 1
Electric dark correction enabled: true
Nonlinearity correction enabled: false
Boxcar width: 0
XAxis mode: Wavelengths
Number of Pixels in Spectrum: 2048
>>>>>Begin Spectral Data<<<<<
223.165	-11
223.4	-11
223.635	-11
223.869	-21
224.104	-9
224.338	-17
224.573	-15
224.808	-17
225.042	-14
225.277	-2
225.511	-3
225.746	4
225.98	0
226.215	18
226.449	20
226.683	25
226.918	17
227.152	25
227.387	30
227.621	34
227.856	39
228.09	52
228.324	52
228.559	48
228.793	131
229.027	329
229.262	339
229.496	304
229.73	312
229.964	313
230.199	302
230.433	311
230.667	312
230.901	332
231.136	342
231.37	367
231.604	378
231.838	443
232.072	535
232.306	598
232.541	514
232.775	438
233.009	423
233.243	411
233.477	468
233.711	523
233.945	592
234.179	530
234.413	435
234.647	463
234.881	457
235.115	530
235.349	613
235.583	811
235.817	1052
236.051	1004
236.285	673
236.519	538
236.753	502
236.987	504
237.221	555
237.455	513
237.689	469
237.922	466
238.156	481
238.39	514
238.624	535
238.858	503
239.091	478
239.325	510
239.559	494
239.793	491
240.027	540
240.26	536
240.494	589
240.728	578
240.961	624
241.195	645
241.429	702
241.662	700
241.896	789
242.13	946
242.363	1302
242.597	1654
242.83	1612
243.064	1551
243.298	1866
243.531	1515
243.765	984
243.998	775
244.232	705
244.465	678
244.699	651
244.932	662
245.166	678
245.399	687
245.633	703
245.866	704
246.099	658
246.333	671
246.566	634
246.8	660
247.033	640
247.266	661
247.5	674
247.733	679
247.966	713
248.2	780
248.433	881
248.666	980
248.899	936
249.133	870
249.366	871
249.599	966
249.832	1108
250.066	1082
250.299	849
250.532	789
250.765	764
250.998	758
251.231	739
251.465	730
251.698	735
251.931	750
252.164	745
252.397	787
252.63	781
252.863	799
253.096	773
253.329	779
253.562	772
253.795	803
254.028	797
254.261	826
254.494	892
254.727	1016
254.96	1248
255.193	1286
255.426	997
255.659	903
255.892	849
256.124	873
256.357	869
256.59	900
256.823	1001
257.056	1117
257.289	1382
257.521	1491
257.754	1206
257.987	970
258.22	934
258.452	918
258.685	928
258.918	919
259.151	1007
259.383	1081
259.616	1231
259.849	1312
260.081	1101
260.314	1003
260.547	953
260.779	962
261.012	970
261.244	974
261.477	971
261.71	970
261.942	1006
262.175	1006
262.407	996
262.64	1067
262.872	1086
263.105	1145
263.337	1191
263.57	1256
263.802	1289
264.035	1319
264.267	1326
264.499	1361
264.732	1393
264.964	1416
265.197	1430
265.429	1387
265.661	1460
265.894	1548
266.126	1734
266.358	1928
266.591	1912
266.823	1592
267.055	1439
267.287	1357
267.52	1288
267.752	1266
267.984	1293
268.216	1235
268.448	1250
268.681	1225
268.913	1246
269.145	1215
269.377	1218
269.609	1281
269.841	1313
270.073	1370
270.306	1610
270.538	2185
270.77	3298
271.002	4036
271.234	2846
271.466	1898
271.698	1554
271.93	1408
272.162	1340
272.394	1312
272.626	1239
272.858	1232
273.09	1217
273.322	1211
273.553	1204
273.785	1209
274.017	1187
274.249	1190
274.481	1225
274.713	1185
274.945	1211
275.176	1224
275.408	1200
275.64	1226
275.872	1232
276.104	1264
276.335	1287
276.567	1265
276.799	1281
277.031	1279
277.262	1333
277.494	1405
277.726	1570
277.957	1868
278.189	2140
278.421	1983
278.652	1790
278.884	1688
279.115	1484
279.347	1445
279.579	1392
279.81	1402
280.042	1368
280.273	1414
280.505	1449
280.736	1503
280.968	1579
281.199	1839
281.431	2044
281.662	2115
281.894	1816
282.125	1622
282.356	1649
282.588	1704
282.819	1715
283.051	1830
283.282	2026
283.513	2551
283.745	3607
283.976	5748
284.207	8299
284.439	7577
284.67	4694
284.901	3822
285.132	3807
285.364	3657
285.595	2769
285.826	2520
286.057	2862
286.288	3948
286.52	5324
286.751	4993
286.982	3110
287.213	2296
287.444	2056
287.675	1887
287.906	1806
288.138	1776
288.369	1704
288.6	1679
288.831	1681
289.062	1709
289.293	1684
289.524	1664
289.755	1706
289.986	1712
290.217	1714
290.448	1691
290.679	1716
290.91	1762
291.141	1876
291.371	1989
291.602	2100
291.833	1941
292.064	1747
292.295	1671
292.526	1674
292.757	1662
292.987	1603
293.218	1571
293.449	1588
293.68	1592
293.91	1577
294.141	1558
294.372	1537
294.603	1523
294.833	1540
295.064	1543
295.295	1558
295.525	1552
295.756	1543
295.987	1567
296.217	1567
296.448	1594
296.679	1556
296.909	1608
297.14	1607
297.37	1600
297.601	1637
297.831	1580
298.062	1658
298.292	1643
298.523	1690
298.753	1694
298.984	1703
299.214	1708
299.445	1731
299.675	1775
299.905	1845
300.136	1903
300.366	2161
300.597	2784
300.827	3865
301.057	5356
301.288	5412
301.518	3454
301.748	2647
301.979	2380
302.209	2284
302.439	2294
302.669	2496
302.9	2986
303.13	4215
303.36	6248
303.59	8398
303.82	7324
304.051	4346
304.281	3130
304.511	2592
304.741	2312
304.971	2235
305.201	2075
305.431	2025
305.661	1963
305.891	1914
306.121	1914
306.352	1864
306.582	1862
306.812	1792
307.042	1854
307.272	1862
307.502	1804
307.731	1815
307.961	1808
308.191	1824
308.421	1803
308.651	1791
308.881	1794
309.111	1817
309.341	1798
309.571	1848
309.8	1851
310.03	1835
310.26	1854
310.49	1822
310.72	1866
310.949	1836
311.179	1855
311.409	1895
311.639	1899
311.868	1950
312.098	1948
312.328	1948
312.557	1964
312.787	1946
313.017	1971
313.246	1972
313.476	2015
313.706	2055
313.935	2200
314.165	2370
314.394	2502
314.624	2315
314.853	2182
315.083	2180
315.312	2205
315.542	2188
315.771	2169
316.001	2267
316.23	2315
316.46	2456
316.689	2646
316.919	3228
317.148	4714
317.377	7172
317.607	10640
317.836	11002
318.065	6848
318.295	4389
318.524	3474
318.753	3009
318.983	2777
319.212	2601
319.441	2470
319.67	2428
319.9	2393
320.129	2354
320.358	2313
320.587	2299
320.816	2379
321.046	2375
321.275	2335
321.504	2410
321.733	2448
321.962	2477
322.191	2542
322.42	2488
322.649	2460
322.878	2443
323.108	2505
323.337	2549
323.566	2589
323.795	2650
324.024	2684
324.253	2766
324.482	2875
324.71	3007
324.939	3225
325.168	3347
325.397	3472
325.626	4088
325.855	5683
326.084	8900
326.313	12874
326.542	13643
326.77	9367
326.999	6075
327.228	5093
327.457	4896
327.686	4829
327.914	5183
328.143	6028
328.372	7258
328.6	7922
328.829	7075
329.058	5838
329.287	5186
329.515	4724
329.744	4282
329.972	4084
330.201	3871
330.43	3702
330.658	3594
330.887	3560
331.115	3522
331.344	3486
331.572	3403
331.801	3472
332.03	3487
332.258	3559
332.486	3750
332.715	4283
332.943	5358
333.172	6699
333.4	6646
333.629	5045
333.857	4514
334.085	4478
334.314	4708
334.542	5138
334.771	6036
334.999	7522
335.227	9448
335.455	10626
335.684	9522
335.912	7846
336.14	6562
336.369	5814
336.597	5265
336.825	4800
337.053	4542
337.281	4291
337.51	4064
337.738	3848
337.966	3732
338.194	3546
338.422	3482
338.65	3399
338.878	3314
339.106	3207
339.334	3178
339.562	3103
339.79	3016
340.018	3029
340.246	3001
340.474	3001
340.702	2966
340.93	2936
341.158	3020
341.386	2943
341.614	2899
341.842	2885
342.07	2794
342.298	2777
342.526	2720
342.754	2704
342.981	2677
343.209	2692
343.437	2694
343.665	2765
343.893	2814
344.12	2804
344.348	2727
344.576	2706
344.804	2672
345.031	2601
345.259	2574
345.487	2617
345.714	2548
345.942	2516
346.17	2528
346.397	2546
346.625	2523
346.853	2513
347.08	2500
347.308	2515
347.535	2551
347.763	2465
347.99	2462
348.218	2470
348.445	2440
348.673	2425
348.9	2448
349.128	2419
349.355	2438
349.583	2434
349.81	2388
350.037	2397
350.265	2401
350.492	2411
350.72	2368
350.947	2422
351.174	2418
351.402	2376
351.629	2396
351.856	2375
352.083	2378
352.311	2329
352.538	2377
352.765	2370
352.992	2375
353.22	2361
353.447	2346
353.674	2305
353.901	2376
354.128	2371
354.355	2376
354.583	2384
354.81	2402
355.037	2427
355.264	2414
355.491	2424
355.718	2433
355.945	2472
356.172	2432
356.399	2442
356.626	2478
356.853	2499
357.08	2479
357.307	2528
357.534	2551
357.761	2578
357.988	2567
358.215	2517
358.441	2521
358.668	2504
358.895	2530
359.122	2491
359.349	2559
359.576	2470
359.802	2525
360.029	2504
360.256	2529
360.483	2531
360.709	2549
360.936	2546
361.163	2506
361.39	2501
361.616	2512
361.843	2572
362.07	2528
362.296	2578
362.523	2527
362.749	2546
362.976	2522
363.203	2486
363.429	2475
363.656	2492
363.882	2569
364.109	2522
364.335	2492
364.562	2543
364.788	2532
365.015	2554
365.241	2617
365.468	2734
365.694	2906
365.92	2853
366.147	2635
366.373	2558
366.599	2537
366.826	2549
367.052	2555
367.278	2575
367.505	2563
367.731	2639
367.957	2569
368.184	2596
368.41	2626
368.636	2659
368.862	2634
369.089	2646
369.315	2606
369.541	2550
369.767	2616
369.993	2596
370.219	2568
370.445	2609
370.672	2664
370.898	2661
371.124	2646
371.35	2649
371.576	2678
371.802	2689
372.028	2722
372.254	2700
372.48	2709
372.706	2750
372.932	2777
373.158	2724
373.384	2769
373.61	2732
373.835	2714
374.061	2770
374.287	2757
374.513	2834
374.739	2866
374.965	2887
375.191	2899
375.416	2852
375.642	2793
375.868	2777
376.094	2816
376.319	2690
376.545	2747
376.771	2716
376.997	2695
377.222	2681
377.448	2690
377.674	2676
377.899	2691
378.125	2727
378.35	2656
378.576	2686
378.802	2761
379.027	2798
379.253	2829
379.478	3057
379.704	3593
379.929	5170
380.155	7942
380.38	8812
380.606	5406
380.831	3780
381.057	3246
381.282	2950
381.507	2886
381.733	2828
381.958	2774
382.184	2749
382.409	2680
382.634	2622
382.86	2673
383.085	2691
383.31	2676
383.535	2629
383.761	2663
383.986	2692
384.211	2705
384.436	2763
384.662	2719
384.887	2742
385.112	2706
385.337	2799
385.562	2776
385.787	2758
386.013	2776
386.238	2700
386.463	2721
386.688	2779
386.913	2729
387.138	2694
387.363	2774
387.588	2703
387.813	2744
388.038	2689
388.263	2710
388.488	2777
388.713	2763
388.938	2744
389.163	2715
389.387	2701
389.612	2736
389.837	2710
390.062	2715
390.287	2766
390.512	2698
390.736	2807
390.961	2850
391.186	2888
391.411	2902
391.636	2842
391.86	2914
392.085	2923
392.31	2846
392.534	2853
392.759	2844
392.984	2806
393.208	2773
393.433	2840
393.658	2737
393.882	2788
394.107	2727
394.331	2786
394.556	2792
394.78	2814
395.005	2847
395.229	2841
395.454	2848
395.678	2900
395.903	2880
396.127	2832
396.352	2798
396.576	2816
396.801	2795
397.025	2891
397.249	2885
397.474	2896
397.698	2919
397.922	2934
398.147	2889
398.371	2930
398.595	3038
398.82	3098
399.044	3218
399.268	3320
399.492	3493
399.717	3646
399.941	3588
400.165	3536
400.389	3352
400.613	3214
400.837	3117
401.062	3086
401.286	3058
401.51	3046
401.734	3013
401.958	2979
402.182	2961
402.406	2996
402.63	3028
402.854	3092
403.078	3088
403.302	3082
403.526	3140
403.75	3123
403.974	3165
404.198	3125
404.422	3166
404.645	3155
404.869	3131
405.093	3127
405.317	3200
405.541	3188
405.765	3237
405.988	3255
406.212	3290
406.436	3225
406.66	3241
406.883	3211
407.107	3371
407.331	3399
407.555	3518
407.778	3416
408.002	3355
408.226	3377
408.449	3374
408.673	3317
408.896	3184
409.12	3212
409.344	3165
409.567	3158
409.791	3152
410.014	3136
410.238	3133
410.461	3100
410.685	3066
410.908	3103
411.132	3036
411.355	3011
411.578	3070
411.802	2983
412.025	3033
412.249	3044
412.472	3002
412.695	2971
412.919	2935
413.142	2958
413.365	2980
413.589	2967
413.812	2904
414.035	2948
414.258	2998
414.482	2988
414.705	2975
414.928	2943
415.151	2933
415.374	2947
415.597	2904
415.821	2880
416.044	2862
416.267	2807
416.49	2840
416.713	2855
416.936	2833
417.159	2817
417.382	2843
417.605	2807
417.828	2787
418.051	2857
418.274	2826
418.497	2872
418.72	2963
418.943	2862
419.166	3002
419.389	3165
419.611	3078
419.834	3004
420.057	2963
420.28	2881
420.503	2847
420.726	2811
420.948	2824
421.171	2841
421.394	2892
421.617	2808
421.839	2837
422.062	2882
422.285	2794
422.507	2859
422.73	2900
422.953	2981
423.175	2956
423.398	2967
423.621	2876
423.843	2889
424.066	2840
424.288	2828
424.511	2863
424.733	2814
424.956	2799
425.178	2836
425.401	2776
425.623	2791
425.846	2740
426.068	2712
426.291	2708
426.513	2712
426.735	2751
426.958	2762
427.18	2684
427.402	2719
427.625	2757
427.847	2609
428.069	2629
428.292	2704
428.514	2609
428.736	2627
428.958	2675
429.181	2626
429.403	2600
429.625	2612
429.847	2597
430.069	2706
430.292	2782
430.514	2858
430.736	2789
430.958	2724
431.18	2639
431.402	2610
431.624	2606
431.846	2601
432.068	2616
432.29	2613
432.512	2575
432.734	2623
432.956	2609
433.178	2632
433.4	2616
433.622	2686
433.844	2626
434.066	2587
434.287	2628
434.509	2665
434.731	2683
434.953	2736
435.175	2742
435.397	2694
435.618	2654
435.84	2644
436.062	2613
436.284	2599
436.505	2590
436.727	2606
436.949	2592
437.17	2576
437.392	2543
437.614	2539
437.835	2452
438.057	2519
438.278	2493
438.5	2566
438.721	2626
438.943	2660
439.165	2676
439.386	2714
439.608	2701
439.829	2709
440.05	2787
440.272	2858
440.493	2712
440.715	2667
440.936	2722
441.158	2702
441.379	2746
441.6	2833
441.822	2904
442.043	3038
442.264	3195
442.486	2962
442.707	2833
442.928	2810
443.149	2814
443.371	2785
443.592	2759
443.813	2839
444.034	2812
444.255	2883
444.476	2931
444.698	2953
444.919	3037
445.14	3030
445.361	2944
445.582	2822
445.803	2804
446.024	2763
446.245	2790
446.466	2776
446.687	2705
446.908	2764
447.129	2621
447.35	2640
447.571	2631
447.792	2565
448.013	2557
448.234	2616
448.455	2590
448.675	2664
448.896	2648
449.117	2768
449.338	3015
449.559	3124
449.779	2781
450	2591
450.221	2587
450.442	2571
450.662	2550
450.883	2543
451.104	2514
451.324	2505
451.545	2531
451.766	2563
451.986	2586
452.207	2836
452.428	3597
452.648	5498
452.869	4640
453.089	3160
453.31	2952
453.53	2957
453.751	3007
453.971	3163
454.192	3082
454.412	2715
454.633	2523
454.853	2450
455.073	2435
455.294	2508
455.514	2418
455.734	2390
455.955	2367
456.175	2420
456.395	2388
456.616	2418
456.836	2419
457.056	2488
457.276	2494
457.497	2608
457.717	2612
457.937	2524
458.157	2503
458.377	2532
458.598	2603
458.818	2575
459.038	2567
459.258	2622
459.478	2628
459.698	2610
459.918	2674
460.138	2698
460.358	2742
460.578	2775
460.798	2818
461.018	2798
461.238	2834
461.458	2820
461.678	2883
461.898	2986
462.118	2999
462.338	3054
462.558	3054
462.777	3103
462.997	3250
463.217	3325
463.437	3442
463.657	3563
463.876	3534
464.096	3296
464.316	3196
464.536	3160
464.755	3072
464.975	2991
465.195	2887
465.414	2802
465.634	2754
465.854	2734
466.073	2666
466.293	2652
466.512	2674
466.732	2664
466.951	2771
467.171	2970
467.391	2921
467.61	2678
467.829	2601
468.049	2588
468.268	2606
468.488	2568
468.707	2546
468.927	2599
469.146	2542
469.365	2660
469.585	2597
469.804	2648
470.023	2750
470.243	2734
470.462	2841
470.681	3006
470.901	3297
471.12	3715
471.339	3832
471.558	3162
471.777	2891
471.997	2743
472.216	2688
472.435	2683
472.654	2610
472.873	2622
473.092	2588
473.311	2618
473.53	2634
473.749	2632
473.968	2756
474.187	2645
474.406	2618
474.625	2570
474.844	2576
475.063	2570
475.282	2612
475.501	2652
475.72	2668
475.939	2651
476.158	2698
476.377	2744
476.596	2776
476.814	2732
477.033	2728
477.252	2747
477.471	2784
477.69	2845
477.908	2899
478.127	2927
478.346	2865
478.564	3008
478.783	2980
479.002	3018
479.22	3082
479.439	3063
479.658	3009
479.876	3090
480.095	3158
480.313	3220
480.532	3178
480.751	3220
480.969	3193
481.188	3147
481.406	3122
481.624	3160
481.843	3178
482.061	3183
482.28	3113
482.498	3115
482.717	3136
482.935	3147
483.153	3262
483.372	3250
483.59	3295
483.808	3396
484.027	3369
484.245	3636
484.463	4050
484.681	4525
484.9	4165
485.118	3834
485.336	3732
485.554	3757
485.772	3990
485.99	4520
486.209	4886
486.427	4161
486.645	3687
486.863	3545
487.081	3469
487.299	3407
487.517	3374
487.735	3387
487.953	3318
488.171	3334
488.389	3268
488.607	3276
488.825	3195
489.043	3237
489.261	3208
489.479	3232
489.696	3234
489.914	3234
490.132	3273
490.35	3256
490.568	3308
490.786	3282
491.003	3311
491.221	3367
491.439	3408
491.657	3354
491.874	3319
492.092	3374
492.31	3420
492.527	3427
492.745	3375
492.963	3343
493.18	3358
493.398	3360
493.615	3363
493.833	3384
494.05	3362
494.268	3411
494.485	3396
494.703	3494
494.92	3433
495.138	3363
495.355	3432
495.573	3385
495.79	3415
496.008	3458
496.225	3426
496.442	3539
496.66	3616
496.877	3829
497.094	3785
497.312	3706
497.529	3642
497.746	3696
497.963	3762
498.181	3844
498.398	3900
498.615	4094
498.832	4224
499.049	4394
499.267	4802
499.484	5038
499.701	5046
499.918	5137
500.135	5361
500.352	5639
500.569	5770
500.786	5655
501.003	5466
501.22	5252
501.437	4942
501.654	4683
501.871	4486
502.088	4329
502.305	4194
502.522	4012
502.739	3915
502.956	3834
503.172	3784
503.389	3697
503.606	3552
503.823	3558
504.04	3539
504.256	3497
504.473	3523
504.69	3497
504.907	3527
505.123	3462
505.34	3338
505.557	3289
505.773	3200
505.99	3232
506.207	3144
506.423	3102
506.64	3044
506.856	3050
507.073	2976
507.289	3001
507.506	2993
507.722	3028
507.939	2966
508.155	2958
508.372	2971
508.588	2905
508.805	2933
509.021	2937
509.238	2969
509.454	3146
509.67	3388
509.887	3116
510.103	2990
510.319	2924
510.536	2947
510.752	2883
510.968	2795
511.184	2889
511.401	2842
511.617	2832
511.833	2791
512.049	2803
512.265	2770
512.481	2828
512.698	2810
512.914	2778
513.13	2792
513.346	2795
513.562	2786
513.778	2845
513.994	2897
514.21	2926
514.426	3141
514.642	3233
514.858	2998
515.074	2892
515.29	2888
515.506	2862
515.721	2898
515.937	2880
516.153	2915
516.369	2919
516.585	3019
516.801	2978
517.016	3018
517.232	3060
517.448	3102
517.664	3218
517.879	3203
518.095	3190
518.311	3220
518.527	3122
518.742	3154
518.958	3184
519.173	3264
519.389	3091
519.605	2984
519.82	2873
520.036	2875
520.251	2829
520.467	2794
520.682	2787
520.898	2792
521.113	2771
521.329	2749
521.544	2794
521.76	2767
521.975	2727
522.19	2704
522.406	2726
522.621	2726
522.836	2772
523.052	2687
523.267	2700
523.482	2683
523.698	2742
523.913	2682
524.128	2690
524.343	2687
524.559	2639
524.774	2692
524.989	2646
525.204	2682
525.419	2686
525.634	2678
525.849	2662
526.064	2683
526.28	2732
526.495	2663
526.71	2683
526.925	2704
527.14	2679
527.355	2665
527.57	2709
527.785	2739
527.999	2757
528.214	2750
528.429	2795
528.644	2804
528.859	2832
529.074	2829
529.289	2900
529.503	2931
529.718	2881
529.933	2886
530.148	2885
530.363	2851
530.577	2866
530.792	2842
531.007	2865
531.221	2969
531.436	2983
531.651	2952
531.865	3022
532.08	3028
532.295	3102
532.509	3411
532.724	3412
532.938	3424
533.153	3587
533.367	3827
533.582	4005
533.796	3902
534.011	3817
534.225	3636
534.44	3504
534.654	3449
534.868	3307
535.083	3328
535.297	3261
535.511	3153
535.726	3094
535.94	3124
536.154	3033
536.369	2971
536.583	2898
536.797	2890
537.011	2891
537.225	2824
537.44	2825
537.654	2811
537.868	2720
538.082	2743
538.296	2674
538.51	2695
538.724	2725
538.938	2710
539.153	2678
539.367	2688
539.581	2651
539.795	2578
540.009	2545
540.222	2555
540.436	2568
540.65	2598
540.864	2614
541.078	2722
541.292	2814
541.506	3314
541.72	3495
541.934	3090
542.147	2861
542.361	2734
