Data from SnStandardFlinnAPT0064_LampEnergy5.5_LIBS07252019.E.O._I.C._HRD10591_15-16-54-492.txt Node
Date: Thu Jul 25 15:16:54 EDT 2019
User: cochatt
Spectrometer: HR+D1059
Trigger mode: 1
Integration Time (sec): 1.000000E-1
Scans to average: 1
Electric dark correction enabled: true
Nonlinearity correction enabled: false
Boxcar width: 0
XAxis mode: Wavelengths
Number of Pixels in Spectrum: 2048
>>>>>Begin Spectral Data<<<<<
223.165	-18.75
223.4	-18.75
223.635	-18.75
223.869	-14.75
224.104	-26.75
224.338	-26.75
224.573	-22.75
224.808	-12.75
225.042	-10.75
225.277	-2.75
225.511	-12.75
225.746	19.25
225.98	7.25
226.215	12.25
226.449	9.25
226.683	36.25
226.918	25.25
227.152	39.25
227.387	45.25
227.621	36.25
227.856	29.25
228.09	60.25
228.324	45.25
228.559	57.25
228.793	83.25
229.027	151.25
229.262	175.25
229.496	158.25
229.73	143.25
229.964	163.25
230.199	157.25
230.433	145.25
230.667	168.25
230.901	160.25
231.136	184.25
231.37	187.25
231.604	202.25
231.838	223.25
232.072	240.25
232.306	253.25
232.541	225.25
232.775	220.25
233.009	200.25
233.243	201.25
233.477	216.25
233.711	245.25
233.945	255.25
234.179	238.25
234.413	210.25
234.647	207.25
234.881	222.25
235.115	228.25
235.349	287.25
235.583	362.25
235.817	463.25
236.051	446.25
236.285	311.25
236.519	242.25
236.753	237.25
236.987	230.25
237.221	257.25
237.455	234.25
237.689	242.25
237.922	217.25
238.156	222.25
238.39	232.25
238.624	230.25
238.858	229.25
239.091	223.25
239.325	230.25
239.559	217.25
239.793	233.25
240.027	257.25
240.26	248.25
240.494	232.25
240.728	237.25
240.961	276.25
241.195	289.25
241.429	313.25
241.662	295.25
241.896	330.25
242.13	409.25
242.363	541.25
242.597	647.25
242.83	655.25
243.064	644.25
243.298	768.25
243.531	641.25
243.765	395.25
243.998	324.25
244.232	289.25
244.465	298.25
244.699	292.25
244.932	300.25
245.166	305.25
245.399	329.25
245.633	324.25
245.866	313.25
246.099	300.25
246.333	298.25
246.566	278.25
246.8	296.25
247.033	294.25
247.266	302.25
247.5	301.25
247.733	298.25
247.966	330.25
248.2	348.25
248.433	377.25
248.666	416.25
248.899	398.25
249.133	360.25
249.366	375.25
249.599	390.25
249.832	452.25
250.066	449.25
250.299	361.25
250.532	341.25
250.765	329.25
250.998	334.25
251.231	321.25
251.465	350.25
251.698	344.25
251.931	329.25
252.164	348.25
252.397	335.25
252.63	347.25
252.863	346.25
253.096	355.25
253.329	349.25
253.562	346.25
253.795	342.25
254.028	372.25
254.261	368.25
254.494	398.25
254.727	467.25
254.96	519.25
255.193	507.25
255.426	413.25
255.659	389.25
255.892	390.25
256.124	400.25
256.357	387.25
256.59	403.25
256.823	423.25
257.056	448.25
257.289	537.25
257.521	612.25
257.754	485.25
257.987	424.25
258.22	418.25
258.452	406.25
258.685	425.25
258.918	405.25
259.151	441.25
259.383	470.25
259.616	505.25
259.849	534.25
260.081	444.25
260.314	442.25
260.547	420.25
260.779	407.25
261.012	431.25
261.244	434.25
261.477	437.25
261.71	437.25
261.942	433.25
262.175	432.25
262.407	464.25
262.64	455.25
262.872	488.25
263.105	513.25
263.337	533.25
263.57	545.25
263.802	565.25
264.035	588.25
264.267	582.25
264.499	598.25
264.732	628.25
264.964	623.25
265.197	633.25
265.429	620.25
265.661	645.25
265.894	669.25
266.126	750.25
266.358	795.25
266.591	774.25
266.823	685.25
267.055	647.25
267.287	618.25
267.52	586.25
267.752	565.25
267.984	556.25
268.216	559.25
268.448	563.25
268.681	573.25
268.913	545.25
269.145	523.25
269.377	545.25
269.609	542.25
269.841	565.25
270.073	603.25
270.306	678.25
270.538	889.25
270.77	1285.25
271.002	1578.25
271.234	1116.25
271.466	747.25
271.698	638.25
271.93	599.25
272.162	543.25
272.394	556.25
272.626	549.25
272.858	549.25
273.09	526.25
273.322	539.25
273.553	516.25
273.785	515.25
274.017	542.25
274.249	528.25
274.481	529.25
274.713	553.25
274.945	535.25
275.176	527.25
275.408	531.25
275.64	548.25
275.872	525.25
276.104	566.25
276.335	532.25
276.567	543.25
276.799	535.25
277.031	572.25
277.262	579.25
277.494	583.25
277.726	640.25
277.957	727.25
278.189	830.25
278.421	776.25
278.652	676.25
278.884	661.25
279.115	635.25
279.347	607.25
279.579	603.25
279.81	586.25
280.042	583.25
280.273	609.25
280.505	616.25
280.736	611.25
280.968	646.25
281.199	721.25
281.431	829.25
281.662	803.25
281.894	719.25
282.125	679.25
282.356	713.25
282.588	690.25
282.819	712.25
283.051	734.25
283.282	803.25
283.513	974.25
283.745	1419.25
283.976	2332.25
284.207	3265.25
284.439	2849.25
284.67	1708.25
284.901	1421.25
285.132	1386.25
285.364	1350.25
285.595	1053.25
285.826	941.25
286.057	1122.25
286.288	1538.25
286.52	2117.25
286.751	1906.25
286.982	1185.25
287.213	913.25
287.444	801.25
287.675	775.25
287.906	751.25
288.138	718.25
288.369	706.25
288.6	705.25
288.831	717.25
289.062	708.25
289.293	685.25
289.524	715.25
289.755	731.25
289.986	715.25
290.217	712.25
290.448	734.25
290.679	728.25
290.91	737.25
291.141	762.25
291.371	804.25
291.602	821.25
291.833	757.25
292.064	722.25
292.295	709.25
292.526	686.25
292.757	697.25
292.987	680.25
293.218	670.25
293.449	666.25
293.68	666.25
293.91	683.25
294.141	677.25
294.372	681.25
294.603	691.25
294.833	664.25
295.064	670.25
295.295	694.25
295.525	645.25
295.756	677.25
295.987	679.25
296.217	651.25
296.448	660.25
296.679	679.25
296.909	699.25
297.14	699.25
297.37	656.25
297.601	679.25
297.831	666.25
298.062	709.25
298.292	682.25
298.523	694.25
298.753	730.25
298.984	710.25
299.214	722.25
299.445	721.25
299.675	773.25
299.905	757.25
300.136	805.25
300.366	891.25
300.597	1135.25
300.827	1537.25
301.057	2084.25
301.288	2042.25
301.518	1299.25
301.748	1019.25
301.979	933.25
302.209	909.25
302.439	920.25
302.669	983.25
302.9	1193.25
303.13	1649.25
303.36	2412.25
303.59	3227.25
303.82	2797.25
304.051	1615.25
304.281	1187.25
304.511	983.25
304.741	930.25
304.971	886.25
305.201	845.25
305.431	811.25
305.661	803.25
305.891	813.25
306.121	776.25
306.352	805.25
306.582	774.25
306.812	757.25
307.042	765.25
307.272	769.25
307.502	787.25
307.731	770.25
307.961	792.25
308.191	771.25
308.421	770.25
308.651	795.25
308.881	784.25
309.111	781.25
309.341	769.25
309.571	771.25
309.8	786.25
310.03	780.25
310.26	770.25
310.49	789.25
310.72	795.25
310.949	777.25
311.179	813.25
311.409	799.25
311.639	804.25
311.868	814.25
312.098	805.25
312.328	833.25
312.557	818.25
312.787	821.25
313.017	812.25
313.246	851.25
313.476	857.25
313.706	863.25
313.935	926.25
314.165	956.25
314.394	992.25
314.624	925.25
314.853	869.25
315.083	892.25
315.312	901.25
315.542	918.25
315.771	912.25
316.001	932.25
316.23	962.25
316.46	991.25
316.689	1063.25
316.919	1286.25
317.148	1856.25
317.377	2882.25
317.607	4187.25
317.836	4393.25
318.065	2532.25
318.295	1619.25
318.524	1303.25
318.753	1182.25
318.983	1064.25
319.212	1006.25
319.441	1009.25
319.67	985.25
319.9	951.25
320.129	981.25
320.358	971.25
320.587	942.25
320.816	938.25
321.046	967.25
321.275	985.25
321.504	978.25
321.733	983.25
321.962	1007.25
322.191	1026.25
322.42	1040.25
322.649	1016.25
322.878	997.25
323.108	1015.25
323.337	1016.25
323.566	1065.25
323.795	1066.25
324.024	1069.25
324.253	1126.25
324.482	1147.25
324.71	1181.25
324.939	1286.25
325.168	1283.25
325.397	1300.25
325.626	1586.25
325.855	2219.25
326.084	3456.25
326.313	5222.25
326.542	5449.25
326.77	3393.25
326.999	2231.25
327.228	1863.25
327.457	1743.25
327.686	1807.25
327.914	1866.25
328.143	2168.25
328.372	2553.25
328.6	2758.25
328.829	2545.25
329.058	2224.25
329.287	1944.25
329.515	1757.25
329.744	1688.25
329.972	1629.25
330.201	1529.25
330.43	1477.25
330.658	1440.25
330.887	1421.25
331.115	1422.25
331.344	1418.25
331.572	1385.25
331.801	1395.25
332.03	1386.25
332.258	1436.25
332.486	1486.25
332.715	1701.25
332.943	2073.25
333.172	2565.25
333.4	2463.25
333.629	1946.25
333.857	1749.25
334.085	1765.25
334.314	1814.25
334.542	1959.25
334.771	2259.25
334.999	2702.25
335.227	3291.25
335.455	3670.25
335.684	3404.25
335.912	2831.25
336.14	2492.25
336.369	2229.25
336.597	2074.25
336.825	1907.25
337.053	1793.25
337.281	1715.25
337.51	1621.25
337.738	1563.25
337.966	1495.25
338.194	1447.25
338.422	1409.25
338.65	1398.25
338.878	1340.25
339.106	1339.25
339.334	1326.25
339.562	1285.25
339.79	1271.25
340.018	1258.25
340.246	1255.25
340.474	1241.25
340.702	1249.25
340.93	1269.25
341.158	1216.25
341.386	1203.25
341.614	1210.25
341.842	1166.25
342.07	1180.25
342.298	1173.25
342.526	1148.25
342.754	1122.25
342.981	1098.25
343.209	1134.25
343.437	1150.25
343.665	1155.25
343.893	1155.25
344.12	1188.25
344.348	1180.25
344.576	1156.25
344.804	1109.25
345.031	1084.25
345.259	1102.25
345.487	1090.25
345.714	1080.25
345.942	1077.25
346.17	1061.25
346.397	1089.25
346.625	1064.25
346.853	1044.25
347.08	1067.25
347.308	1049.25
347.535	1027.25
347.763	1047.25
347.99	1012.25
348.218	1063.25
348.445	1046.25
348.673	1029.25
348.9	1066.25
349.128	1043.25
349.355	1003.25
349.583	1021.25
349.81	1016.25
350.037	1021.25
350.265	1028.25
350.492	1010.25
350.72	1001.25
350.947	1023.25
351.174	1012.25
351.402	1018.25
351.629	1001.25
351.856	995.25
352.083	985.25
352.311	999.25
352.538	1000.25
352.765	999.25
352.992	989.25
353.22	988.25
353.447	1002.25
353.674	1035.25
353.901	993.25
354.128	1011.25
354.355	1005.25
354.583	1014.25
354.81	1039.25
355.037	1046.25
355.264	1039.25
355.491	1029.25
355.718	1009.25
355.945	1039.25
356.172	1010.25
356.399	1048.25
356.626	1073.25
356.853	1041.25
357.08	1059.25
357.307	1025.25
357.534	1078.25
357.761	1054.25
357.988	1074.25
358.215	1072.25
358.441	1102.25
358.668	1053.25
358.895	1082.25
359.122	1069.25
359.349	1047.25
359.576	1082.25
359.802	1080.25
360.029	1093.25
360.256	1091.25
360.483	1059.25
360.709	1052.25
360.936	1079.25
361.163	1070.25
361.39	1065.25
361.616	1101.25
361.843	1082.25
362.07	1054.25
362.296	1065.25
362.523	1071.25
362.749	1068.25
362.976	1078.25
363.203	1057.25
363.429	1049.25
363.656	1071.25
363.882	1059.25
364.109	1081.25
364.335	1089.25
364.562	1066.25
364.788	1073.25
365.015	1097.25
365.241	1104.25
365.468	1142.25
365.694	1175.25
365.92	1144.25
366.147	1090.25
366.373	1115.25
366.599	1102.25
366.826	1087.25
367.052	1070.25
367.278	1087.25
367.505	1067.25
367.731	1109.25
367.957	1132.25
368.184	1117.25
368.41	1094.25
368.636	1121.25
368.862	1113.25
369.089	1118.25
369.315	1132.25
369.541	1115.25
369.767	1093.25
369.993	1102.25
370.219	1095.25
370.445	1114.25
370.672	1118.25
370.898	1129.25
371.124	1148.25
371.35	1133.25
371.576	1159.25
371.802	1174.25
372.028	1177.25
372.254	1167.25
372.48	1163.25
372.706	1210.25
372.932	1173.25
373.158	1164.25
373.384	1149.25
373.61	1169.25
373.835	1165.25
374.061	1182.25
374.287	1215.25
374.513	1173.25
374.739	1210.25
374.965	1210.25
375.191	1242.25
375.416	1213.25
375.642	1216.25
375.868	1186.25
376.094	1173.25
376.319	1188.25
376.545	1174.25
376.771	1182.25
376.997	1176.25
377.222	1179.25
377.448	1130.25
377.674	1173.25
377.899	1158.25
378.125	1162.25
378.35	1162.25
378.576	1138.25
378.802	1159.25
379.027	1169.25
379.253	1210.25
379.478	1285.25
379.704	1477.25
379.929	2075.25
380.155	3079.25
380.38	3358.25
380.606	2036.25
380.831	1452.25
381.057	1274.25
381.282	1225.25
381.507	1190.25
381.733	1197.25
381.958	1128.25
382.184	1140.25
382.409	1142.25
382.634	1131.25
382.86	1145.25
383.085	1175.25
383.31	1144.25
383.535	1133.25
383.761	1148.25
383.986	1161.25
384.211	1162.25
384.436	1153.25
384.662	1190.25
384.887	1173.25
385.112	1148.25
385.337	1193.25
385.562	1150.25
385.787	1173.25
386.013	1197.25
386.238	1178.25
386.463	1189.25
386.688	1162.25
386.913	1163.25
387.138	1157.25
387.363	1194.25
387.588	1203.25
387.813	1181.25
388.038	1169.25
388.263	1160.25
388.488	1189.25
388.713	1169.25
388.938	1169.25
389.163	1190.25
389.387	1163.25
389.612	1173.25
389.837	1201.25
390.062	1196.25
390.287	1181.25
390.512	1178.25
390.736	1227.25
390.961	1225.25
391.186	1232.25
391.411	1247.25
391.636	1248.25
391.86	1246.25
392.085	1240.25
392.31	1224.25
392.534	1247.25
392.759	1222.25
392.984	1215.25
393.208	1199.25
393.433	1234.25
393.658	1227.25
393.882	1177.25
394.107	1192.25
394.331	1213.25
394.556	1231.25
394.78	1205.25
395.005	1203.25
395.229	1225.25
395.454	1237.25
395.678	1269.25
395.903	1231.25
396.127	1238.25
396.352	1205.25
396.576	1231.25
396.801	1217.25
397.025	1244.25
397.249	1239.25
397.474	1245.25
397.698	1255.25
397.922	1273.25
398.147	1269.25
398.371	1280.25
398.595	1302.25
398.82	1342.25
399.044	1343.25
399.268	1398.25
399.492	1530.25
399.717	1596.25
399.941	1592.25
400.165	1517.25
400.389	1475.25
400.613	1403.25
400.837	1350.25
401.062	1351.25
401.286	1340.25
401.51	1323.25
401.734	1308.25
401.958	1327.25
402.182	1326.25
402.406	1290.25
402.63	1335.25
402.854	1306.25
403.078	1357.25
403.302	1324.25
403.526	1362.25
403.75	1311.25
403.974	1393.25
404.198	1348.25
404.422	1337.25
404.645	1379.25
404.869	1341.25
405.093	1395.25
405.317	1340.25
405.541	1359.25
405.765	1413.25
405.988	1407.25
406.212	1390.25
406.436	1391.25
406.66	1417.25
406.883	1403.25
407.107	1423.25
407.331	1420.25
407.555	1435.25
407.778	1484.25
408.002	1469.25
408.226	1442.25
408.449	1456.25
408.673	1414.25
408.896	1410.25
409.12	1382.25
409.344	1382.25
409.567	1343.25
409.791	1343.25
410.014	1345.25
410.238	1359.25
410.461	1361.25
410.685	1359.25
410.908	1370.25
411.132	1322.25
411.355	1334.25
411.578	1311.25
411.802	1315.25
412.025	1333.25
412.249	1311.25
412.472	1276.25
412.695	1281.25
412.919	1309.25
413.142	1318.25
413.365	1305.25
413.589	1321.25
413.812	1295.25
414.035	1266.25
414.258	1262.25
414.482	1266.25
414.705	1256.25
414.928	1307.25
415.151	1257.25
415.374	1295.25
415.597	1287.25
415.821	1242.25
416.044	1229.25
416.267	1242.25
416.49	1257.25
416.713	1256.25
416.936	1245.25
417.159	1236.25
417.382	1239.25
417.605	1208.25
417.828	1227.25
418.051	1219.25
418.274	1252.25
418.497	1244.25
418.72	1286.25
418.943	1231.25
419.166	1316.25
419.389	1359.25
419.611	1348.25
419.834	1337.25
420.057	1295.25
420.28	1285.25
420.503	1267.25
420.726	1220.25
420.948	1255.25
421.171	1244.25
421.394	1246.25
421.617	1240.25
421.839	1266.25
422.062	1250.25
422.285	1240.25
422.507	1288.25
422.73	1288.25
422.953	1266.25
423.175	1283.25
423.398	1277.25
423.621	1203.25
423.843	1292.25
424.066	1273.25
424.288	1250.25
424.511	1240.25
424.733	1265.25
424.956	1231.25
425.178	1233.25
425.401	1231.25
425.623	1253.25
425.846	1207.25
426.068	1213.25
426.291	1204.25
426.513	1185.25
426.735	1223.25
426.958	1203.25
427.18	1161.25
427.402	1167.25
427.625	1158.25
427.847	1148.25
428.069	1166.25
428.292	1159.25
428.514	1142.25
428.736	1163.25
428.958	1161.25
429.181	1127.25
429.403	1142.25
429.625	1143.25
429.847	1131.25
430.069	1157.25
430.292	1191.25
430.514	1254.25
430.736	1249.25
430.958	1175.25
431.18	1156.25
431.402	1170.25
431.624	1157.25
431.846	1127.25
432.068	1143.25
432.29	1110.25
432.512	1119.25
432.734	1150.25
432.956	1153.25
433.178	1151.25
433.4	1137.25
433.622	1125.25
433.844	1171.25
434.066	1158.25
434.287	1135.25
434.509	1151.25
434.731	1181.25
434.953	1189.25
435.175	1191.25
435.397	1195.25
435.618	1150.25
435.84	1168.25
436.062	1129.25
436.284	1106.25
436.505	1115.25
436.727	1186.25
436.949	1121.25
437.17	1111.25
437.392	1135.25
437.614	1140.25
437.835	1049.25
438.057	1073.25
438.278	1079.25
438.5	1099.25
438.721	1121.25
438.943	1158.25
439.165	1159.25
439.386	1186.25
439.608	1213.25
439.829	1205.25
440.05	1225.25
440.272	1243.25
440.493	1173.25
440.715	1165.25
440.936	1180.25
441.158	1222.25
441.379	1251.25
441.6	1267.25
441.822	1281.25
442.043	1335.25
442.264	1369.25
442.486	1288.25
442.707	1225.25
442.928	1211.25
443.149	1192.25
443.371	1185.25
443.592	1207.25
443.813	1238.25
444.034	1253.25
444.255	1270.25
444.476	1329.25
444.698	1321.25
444.919	1314.25
445.14	1418.25
445.361	1301.25
445.582	1281.25
445.803	1251.25
446.024	1234.25
446.245	1240.25
446.466	1246.25
446.687	1261.25
446.908	1206.25
447.129	1191.25
447.35	1192.25
447.571	1150.25
447.792	1149.25
448.013	1128.25
448.234	1118.25
448.455	1114.25
448.675	1104.25
448.896	1156.25
449.117	1227.25
449.338	1283.25
449.559	1356.25
449.779	1199.25
450	1134.25
450.221	1134.25
450.442	1100.25
450.662	1132.25
450.883	1090.25
451.104	1134.25
451.324	1093.25
451.545	1105.25
451.766	1070.25
451.986	1118.25
452.207	1172.25
452.428	1401.25
452.648	2059.25
452.869	1739.25
453.089	1270.25
453.31	1203.25
453.53	1209.25
453.751	1233.25
453.971	1315.25
454.192	1317.25
454.412	1164.25
454.633	1103.25
454.853	1085.25
455.073	1066.25
455.294	1053.25
455.514	1029.25
455.734	1053.25
455.955	1022.25
456.175	1043.25
456.395	1051.25
456.616	1052.25
456.836	1051.25
457.056	1077.25
457.276	1063.25
457.497	1139.25
457.717	1142.25
457.937	1094.25
458.157	1112.25
458.377	1096.25
458.598	1109.25
458.818	1107.25
459.038	1134.25
459.258	1141.25
459.478	1133.25
459.698	1139.25
459.918	1168.25
460.138	1174.25
460.358	1226.25
460.578	1254.25
460.798	1223.25
461.018	1230.25
461.238	1259.25
461.458	1275.25
461.678	1278.25
461.898	1269.25
462.118	1292.25
462.338	1321.25
462.558	1358.25
462.777	1355.25
462.997	1395.25
463.217	1420.25
463.437	1479.25
463.657	1534.25
463.876	1535.25
464.096	1413.25
464.316	1360.25
464.536	1361.25
464.755	1312.25
464.975	1290.25
465.195	1206.25
465.414	1229.25
465.634	1189.25
465.854	1163.25
466.073	1178.25
466.293	1177.25
466.512	1163.25
466.732	1157.25
466.951	1177.25
467.171	1276.25
467.391	1277.25
467.61	1191.25
467.829	1163.25
468.049	1135.25
468.268	1144.25
468.488	1111.25
468.707	1087.25
468.927	1144.25
469.146	1127.25
469.365	1143.25
469.585	1134.25
469.804	1177.25
470.023	1191.25
470.243	1196.25
470.462	1215.25
470.681	1281.25
470.901	1409.25
471.12	1621.25
471.339	1619.25
471.558	1325.25
471.777	1253.25
471.997	1208.25
472.216	1165.25
472.435	1149.25
472.654	1128.25
472.873	1106.25
473.092	1131.25
473.311	1125.25
473.53	1143.25
473.749	1148.25
473.968	1192.25
474.187	1138.25
474.406	1127.25
474.625	1125.25
474.844	1139.25
475.063	1147.25
475.282	1143.25
475.501	1141.25
475.72	1146.25
475.939	1134.25
476.158	1178.25
476.377	1199.25
476.596	1227.25
476.814	1170.25
477.033	1181.25
477.252	1237.25
477.471	1200.25
477.69	1259.25
477.908	1253.25
478.127	1280.25
478.346	1265.25
478.564	1290.25
478.783	1308.25
479.002	1377.25
479.22	1347.25
479.439	1364.25
479.658	1342.25
479.876	1341.25
480.095	1358.25
480.313	1359.25
480.532	1419.25
480.751	1369.25
480.969	1357.25
481.188	1323.25
481.406	1306.25
481.624	1303.25
481.843	1336.25
482.061	1366.25
482.28	1354.25
482.498	1327.25
482.717	1315.25
482.935	1341.25
483.153	1393.25
483.372	1408.25
483.59	1401.25
483.808	1394.25
484.027	1448.25
484.245	1526.25
484.463	1730.25
484.681	1898.25
484.9	1715.25
485.118	1571.25
485.336	1524.25
485.554	1537.25
485.772	1617.25
485.99	1874.25
486.209	2037.25
486.427	1724.25
486.645	1557.25
486.863	1502.25
487.081	1430.25
487.299	1447.25
487.517	1461.25
487.735	1438.25
487.953	1432.25
488.171	1471.25
488.389	1437.25
488.607	1444.25
488.825	1398.25
489.043	1367.25
489.261	1366.25
489.479	1402.25
489.696	1395.25
489.914	1408.25
490.132	1420.25
490.35	1407.25
490.568	1420.25
490.786	1434.25
491.003	1430.25
