Data from SnStandardFlinnAPT0064_QswitchEnergy10_LIBS07252019.E.O._I.C._HRD10591_15-28-26-974.txt Node
Date: Thu Jul 25 15:28:26 EDT 2019
User: cochatt
Spectrometer: HR+D1059
Trigger mode: 1
Integration Time (sec): 1.000000E-1
Scans to average: 1
Electric dark correction enabled: true
Nonlinearity correction enabled: false
Boxcar width: 0
XAxis mode: Wavelengths
Number of Pixels in Spectrum: 2048
>>>>>Begin Spectral Data<<<<<
223.165	-4.69
223.4	-4.69
223.635	-4.69
223.869	-13.69
224.104	-29.69
224.338	-14.69
224.573	-13.69
224.808	-6.69
225.042	-10.69
225.277	-9.69
225.511	-14.69
225.746	2.31
225.98	9.31
226.215	28.31
226.449	14.31
226.683	11.31
226.918	19.31
227.152	33.31
227.387	28.31
227.621	32.31
227.856	51.31
228.09	37.31
228.324	58.31
228.559	58.31
228.793	64.31
229.027	82.31
229.262	83.31
229.496	70.31
229.73	69.31
229.964	78.31
230.199	86.31
230.433	64.31
230.667	90.31
230.901	89.31
231.136	90.31
231.37	75.31
231.604	98.31
231.838	95.31
232.072	122.31
232.306	130.31
232.541	104.31
232.775	98.31
233.009	93.31
233.243	91.31
233.477	98.31
233.711	102.31
233.945	119.31
234.179	92.31
234.413	76.31
234.647	92.31
234.881	82.31
235.115	73.31
235.349	83.31
235.583	107.31
235.817	129.31
236.051	124.31
236.285	108.31
236.519	90.31
236.753	92.31
236.987	92.31
237.221	83.31
237.455	89.31
237.689	85.31
237.922	77.31
238.156	74.31
238.39	87.31
238.624	65.31
238.858	100.31
239.091	83.31
239.325	71.31
239.559	65.31
239.793	91.31
240.027	89.31
240.26	77.31
240.494	85.31
240.728	82.31
240.961	83.31
241.195	92.31
241.429	86.31
241.662	101.31
241.896	92.31
242.13	110.31
242.363	139.31
242.597	181.31
242.83	131.31
243.064	140.31
243.298	182.31
243.531	160.31
243.765	105.31
243.998	96.31
244.232	91.31
244.465	88.31
244.699	75.31
244.932	90.31
245.166	73.31
245.399	90.31
245.633	86.31
245.866	94.31
246.099	92.31
246.333	83.31
246.566	80.31
246.8	89.31
247.033	88.31
247.266	77.31
247.5	86.31
247.733	91.31
247.966	88.31
248.2	91.31
248.433	113.31
248.666	121.31
248.899	125.31
249.133	88.31
249.366	94.31
249.599	116.31
249.832	142.31
250.066	148.31
250.299	83.31
250.532	73.31
250.765	74.31
250.998	75.31
251.231	71.31
251.465	85.31
251.698	99.31
251.931	89.31
252.164	81.31
252.397	74.31
252.63	116.31
252.863	105.31
253.096	103.31
253.329	81.31
253.562	100.31
253.795	106.31
254.028	87.31
254.261	111.31
254.494	103.31
254.727	134.31
254.96	145.31
255.193	141.31
255.426	93.31
255.659	88.31
255.892	91.31
256.124	97.31
256.357	101.31
256.59	95.31
256.823	89.31
257.056	116.31
257.289	150.31
257.521	203.31
257.754	131.31
257.987	95.31
258.22	93.31
258.452	93.31
258.685	84.31
258.918	94.31
259.151	79.31
259.383	111.31
259.616	142.31
259.849	150.31
260.081	127.31
260.314	96.31
260.547	89.31
260.779	81.31
261.012	81.31
261.244	92.31
261.477	105.31
261.71	93.31
261.942	85.31
262.175	89.31
262.407	79.31
262.64	82.31
262.872	78.31
263.105	89.31
263.337	79.31
263.57	81.31
263.802	91.31
264.035	93.31
264.267	82.31
264.499	82.31
264.732	90.31
264.964	89.31
265.197	74.31
265.429	81.31
265.661	97.31
265.894	112.31
266.126	154.31
266.358	171.31
266.591	152.31
266.823	122.31
267.055	96.31
267.287	97.31
267.52	87.31
267.752	95.31
267.984	85.31
268.216	83.31
268.448	97.31
268.681	102.31
268.913	91.31
269.145	84.31
269.377	85.31
269.609	93.31
269.841	88.31
270.073	93.31
270.306	131.31
270.538	209.31
270.77	332.31
271.002	391.31
271.234	212.31
271.466	118.31
271.698	107.31
271.93	87.31
272.162	88.31
272.394	107.31
272.626	92.31
272.858	89.31
273.09	83.31
273.322	88.31
273.553	82.31
273.785	94.31
274.017	101.31
274.249	90.31
274.481	77.31
274.713	92.31
274.945	86.31
275.176	79.31
275.408	92.31
275.64	88.31
275.872	92.31
276.104	104.31
276.335	94.31
276.567	105.31
276.799	83.31
277.031	100.31
277.262	92.31
277.494	110.31
277.726	130.31
277.957	193.31
278.189	270.31
278.421	257.31
278.652	197.31
278.884	203.31
279.115	151.31
279.347	116.31
279.579	104.31
279.81	103.31
280.042	98.31
280.273	103.31
280.505	109.31
280.736	115.31
280.968	132.31
281.199	190.31
281.431	259.31
281.662	280.31
281.894	163.31
282.125	111.31
282.356	108.31
282.588	123.31
282.819	123.31
283.051	127.31
283.282	171.31
283.513	191.31
283.745	321.31
283.976	592.31
284.207	855.31
284.439	635.31
284.67	307.31
284.901	297.31
285.132	386.31
285.364	412.31
285.595	241.31
285.826	175.31
286.057	256.31
286.288	444.31
286.52	641.31
286.751	523.31
286.982	217.31
287.213	133.31
287.444	117.31
287.675	112.31
287.906	100.31
288.138	121.31
288.369	116.31
288.6	95.31
288.831	105.31
289.062	103.31
289.293	96.31
289.524	109.31
289.755	116.31
289.986	74.31
290.217	90.31
290.448	100.31
290.679	107.31
290.91	151.31
291.141	202.31
291.371	260.31
291.602	316.31
291.833	209.31
292.064	117.31
292.295	98.31
292.526	100.31
292.757	92.31
292.987	99.31
293.218	101.31
293.449	84.31
293.68	101.31
293.91	108.31
294.141	90.31
294.372	94.31
294.603	96.31
294.833	99.31
295.064	103.31
295.295	86.31
295.525	88.31
295.756	98.31
295.987	111.31
296.217	89.31
296.448	101.31
296.679	102.31
296.909	97.31
297.14	91.31
297.37	96.31
297.601	96.31
297.831	108.31
298.062	96.31
298.292	115.31
298.523	103.31
298.753	112.31
298.984	102.31
299.214	114.31
299.445	119.31
299.675	118.31
299.905	122.31
300.136	141.31
300.366	177.31
300.597	306.31
300.827	479.31
301.057	735.31
301.288	681.31
301.518	274.31
301.748	172.31
301.979	141.31
302.209	147.31
302.439	150.31
302.669	179.31
302.9	314.31
303.13	564.31
303.36	962.31
303.59	1335.31
303.82	948.31
304.051	326.31
304.281	185.31
304.511	128.31
304.741	123.31
304.971	119.31
305.201	128.31
305.431	121.31
305.661	117.31
305.891	103.31
306.121	104.31
306.352	110.31
306.582	100.31
306.812	108.31
307.042	126.31
307.272	113.31
307.502	113.31
307.731	104.31
307.961	106.31
308.191	95.31
308.421	106.31
308.651	100.31
308.881	104.31
309.111	101.31
309.341	103.31
309.571	106.31
309.8	104.31
310.03	119.31
310.26	115.31
310.49	104.31
310.72	105.31
310.949	102.31
311.179	114.31
311.409	103.31
311.639	107.31
311.868	95.31
312.098	85.31
312.328	108.31
312.557	117.31
312.787	114.31
313.017	120.31
313.246	118.31
313.476	131.31
313.706	138.31
313.935	164.31
314.165	210.31
314.394	247.31
314.624	211.31
314.853	134.31
315.083	124.31
315.312	126.31
315.542	150.31
315.771	136.31
316.001	142.31
316.23	158.31
316.46	143.31
316.689	188.31
316.919	289.31
317.148	545.31
317.377	1012.31
317.607	1567.31
317.836	1475.31
318.065	567.31
318.295	247.31
318.524	172.31
318.753	147.31
318.983	131.31
319.212	137.31
319.441	127.31
319.67	118.31
319.9	133.31
320.129	117.31
320.358	143.31
320.587	117.31
320.816	117.31
321.046	120.31
321.275	133.31
321.504	137.31
321.733	145.31
321.962	167.31
322.191	178.31
322.42	140.31
322.649	135.31
322.878	134.31
323.108	129.31
323.337	136.31
323.566	127.31
323.795	129.31
324.024	126.31
324.253	154.31
324.482	189.31
324.71	239.31
324.939	305.31
325.168	249.31
325.397	212.31
325.626	287.31
325.855	530.31
326.084	1000.31
326.313	1718.31
326.542	1648.31
326.77	659.31
326.999	287.31
327.228	229.31
327.457	250.31
327.686	245.31
327.914	172.31
328.143	157.31
328.372	140.31
328.6	133.31
328.829	134.31
329.058	131.31
329.287	132.31
329.515	106.31
329.744	119.31
329.972	119.31
330.201	127.31
330.43	120.31
330.658	115.31
330.887	114.31
331.115	132.31
331.344	116.31
331.572	122.31
331.801	111.31
332.03	131.31
332.258	152.31
332.486	191.31
332.715	324.31
332.943	546.31
333.172	811.31
333.4	712.31
333.629	269.31
333.857	161.31
334.085	124.31
334.314	123.31
334.542	143.31
334.771	108.31
334.999	131.31
335.227	121.31
335.455	123.31
335.684	116.31
335.912	135.31
336.14	125.31
336.369	117.31
336.597	124.31
336.825	114.31
337.053	120.31
337.281	111.31
337.51	115.31
337.738	105.31
337.966	111.31
338.194	116.31
338.422	114.31
338.65	125.31
338.878	121.31
339.106	118.31
339.334	149.31
339.562	126.31
339.79	112.31
340.018	119.31
340.246	123.31
340.474	117.31
340.702	108.31
340.93	117.31
341.158	116.31
341.386	119.31
341.614	123.31
341.842	116.31
342.07	124.31
342.298	123.31
342.526	120.31
342.754	108.31
342.981	115.31
343.209	119.31
343.437	123.31
343.665	104.31
343.893	129.31
344.12	115.31
344.348	127.31
344.576	120.31
344.804	117.31
345.031	120.31
345.259	117.31
345.487	118.31
345.714	129.31
345.942	131.31
346.17	123.31
346.397	128.31
346.625	121.31
346.853	94.31
347.08	120.31
347.308	119.31
347.535	105.31
347.763	116.31
347.99	108.31
348.218	116.31
348.445	117.31
348.673	131.31
348.9	124.31
349.128	124.31
349.355	119.31
349.583	137.31
349.81	136.31
350.037	114.31
350.265	117.31
350.492	116.31
350.72	122.31
350.947	105.31
351.174	121.31
351.402	121.31
351.629	124.31
351.856	126.31
352.083	119.31
352.311	125.31
352.538	120.31
352.765	129.31
352.992	118.31
353.22	121.31
353.447	115.31
353.674	107.31
353.901	108.31
354.128	101.31
354.355	95.31
354.583	105.31
354.81	122.31
355.037	104.31
355.264	120.31
355.491	112.31
355.718	107.31
355.945	116.31
356.172	108.31
356.399	102.31
356.626	116.31
356.853	116.31
357.08	116.31
357.307	107.31
357.534	107.31
357.761	123.31
357.988	111.31
358.215	123.31
358.441	117.31
358.668	120.31
358.895	111.31
359.122	127.31
359.349	124.31
359.576	131.31
359.802	116.31
360.029	115.31
360.256	127.31
360.483	117.31
360.709	123.31
360.936	128.31
361.163	122.31
361.39	107.31
361.616	121.31
361.843	127.31
362.07	122.31
362.296	118.31
362.523	116.31
362.749	112.31
362.976	123.31
363.203	121.31
363.429	96.31
363.656	123.31
363.882	123.31
364.109	130.31
364.335	131.31
364.562	122.31
364.788	96.31
365.015	126.31
365.241	140.31
365.468	210.31
365.694	305.31
365.92	264.31
366.147	133.31
366.373	123.31
366.599	98.31
366.826	106.31
367.052	111.31
367.278	98.31
367.505	109.31
367.731	102.31
367.957	120.31
368.184	115.31
368.41	135.31
368.636	135.31
368.862	101.31
369.089	98.31
369.315	106.31
369.541	106.31
369.767	120.31
369.993	113.31
370.219	103.31
370.445	114.31
370.672	123.31
370.898	104.31
371.124	133.31
371.35	123.31
371.576	105.31
371.802	99.31
372.028	123.31
372.254	117.31
372.48	114.31
372.706	112.31
372.932	112.31
373.158	121.31
373.384	118.31
373.61	122.31
373.835	125.31
374.061	129.31
374.287	127.31
374.513	127.31
374.739	129.31
374.965	101.31
375.191	120.31
375.416	108.31
375.642	93.31
375.868	118.31
376.094	119.31
376.319	116.31
376.545	122.31
376.771	119.31
376.997	125.31
377.222	103.31
377.448	107.31
377.674	105.31
377.899	111.31
378.125	114.31
378.35	118.31
378.576	123.31
378.802	124.31
379.027	140.31
379.253	159.31
379.478	186.31
379.704	363.31
379.929	874.31
380.155	1731.31
380.38	1793.31
380.606	579.31
380.831	216.31
381.057	129.31
381.282	131.31
381.507	116.31
381.733	104.31
381.958	109.31
382.184	124.31
382.409	129.31
382.634	127.31
382.86	116.31
383.085	120.31
383.31	104.31
383.535	123.31
383.761	118.31
383.986	124.31
384.211	102.31
384.436	97.31
384.662	113.31
384.887	104.31
385.112	121.31
385.337	116.31
385.562	102.31
385.787	109.31
386.013	114.31
386.238	115.31
386.463	114.31
386.688	104.31
386.913	122.31
387.138	114.31
387.363	106.31
387.588	109.31
387.813	114.31
388.038	119.31
388.263	104.31
388.488	100.31
388.713	107.31
388.938	111.31
389.163	97.31
389.387	102.31
389.612	92.31
389.837	105.31
390.062	101.31
390.287	109.31
390.512	98.31
390.736	125.31
390.961	104.31
391.186	96.31
391.411	92.31
391.636	103.31
391.86	118.31
392.085	102.31
392.31	104.31
392.534	112.31
392.759	101.31
392.984	112.31
393.208	116.31
393.433	160.31
393.658	158.31
393.882	122.31
394.107	93.31
394.331	98.31
394.556	98.31
394.78	96.31
395.005	110.31
395.229	104.31
395.454	119.31
395.678	91.31
395.903	106.31
396.127	106.31
396.352	112.31
396.576	109.31
396.801	127.31
397.025	152.31
397.249	116.31
397.474	104.31
397.698	95.31
397.922	95.31
398.147	108.31
398.371	108.31
398.595	108.31
398.82	98.31
399.044	111.31
399.268	78.31
399.492	113.31
399.717	103.31
399.941	117.31
400.165	114.31
400.389	103.31
400.613	93.31
400.837	83.31
401.062	102.31
401.286	112.31
401.51	99.31
401.734	108.31
401.958	92.31
402.182	98.31
402.406	102.31
402.63	91.31
402.854	104.31
403.078	100.31
403.302	92.31
403.526	100.31
403.75	109.31
403.974	98.31
404.198	95.31
404.422	104.31
404.645	98.31
404.869	95.31
405.093	97.31
405.317	106.31
405.541	115.31
405.765	160.31
405.988	168.31
406.212	119.31
406.436	114.31
406.66	105.31
406.883	102.31
407.107	121.31
407.331	100.31
407.555	100.31
407.778	104.31
408.002	107.31
408.226	104.31
408.449	122.31
408.673	113.31
408.896	104.31
409.12	108.31
409.344	103.31
409.567	95.31
409.791	108.31
410.014	117.31
410.238	119.31
410.461	104.31
410.685	113.31
410.908	98.31
411.132	105.31
411.355	104.31
411.578	102.31
411.802	104.31
412.025	96.31
412.249	103.31
412.472	97.31
412.695	102.31
412.919	101.31
413.142	105.31
413.365	108.31
413.589	109.31
413.812	122.31
414.035	115.31
414.258	100.31
414.482	123.31
414.705	121.31
414.928	118.31
415.151	108.31
415.374	100.31
415.597	100.31
415.821	99.31
416.044	93.31
416.267	88.31
416.49	96.31
416.713	96.31
416.936	104.31
417.159	107.31
417.382	90.31
417.605	111.31
417.828	95.31
418.051	92.31
418.274	109.31
418.497	105.31
418.72	91.31
418.943	101.31
419.166	119.31
419.389	115.31
419.611	105.31
419.834	119.31
420.057	107.31
420.28	104.31
420.503	104.31
420.726	110.31
420.948	102.31
421.171	97.31
421.394	90.31
421.617	95.31
421.839	102.31
422.062	104.31
422.285	92.31
422.507	116.31
422.73	143.31
422.953	158.31
423.175	123.31
423.398	112.31
423.621	83.31
423.843	91.31
424.066	88.31
424.288	99.31
424.511	90.31
424.733	100.31
424.956	101.31
425.178	97.31
425.401	117.31
425.623	111.31
425.846	92.31
426.068	128.31
426.291	97.31
426.513	101.31
426.735	95.31
426.958	107.31
427.18	87.31
427.402	94.31
427.625	105.31
427.847	101.31
428.069	107.31
428.292	104.31
428.514	115.31
428.736	99.31
428.958	96.31
429.181	96.31
429.403	92.31
429.625	96.31
429.847	117.31
430.069	106.31
430.292	108.31
430.514	100.31
430.736	99.31
430.958	92.31
431.18	100.31
431.402	113.31
431.624	116.31
431.846	83.31
432.068	111.31
432.29	101.31
432.512	93.31
432.734	97.31
432.956	114.31
433.178	97.31
433.4	102.31
433.622	95.31
433.844	89.31
434.066	93.31
434.287	97.31
434.509	98.31
434.731	103.31
434.953	98.31
435.175	94.31
435.397	103.31
435.618	92.31
435.84	99.31
436.062	98.31
436.284	98.31
436.505	92.31
436.727	97.31
436.949	106.31
437.17	89.31
437.392	84.31
437.614	101.31
437.835	99.31
438.057	96.31
438.278	108.31
438.5	112.31
438.721	103.31
438.943	115.31
439.165	116.31
439.386	133.31
439.608	107.31
439.829	113.31
440.05	122.31
440.272	126.31
440.493	106.31
440.715	94.31
440.936	113.31
441.158	99.31
441.379	95.31
441.6	113.31
441.822	110.31
442.043	108.31
442.264	136.31
442.486	122.31
442.707	113.31
442.928	103.31
443.149	107.31
443.371	99.31
443.592	101.31
443.813	101.31
444.034	106.31
444.255	100.31
444.476	116.31
444.698	92.31
444.919	89.31
445.14	178.31
445.361	126.31
445.582	93.31
445.803	95.31
446.024	103.31
446.245	106.31
446.466	91.31
446.687	113.31
446.908	111.31
447.129	88.31
447.35	90.31
447.571	109.31
447.792	88.31
448.013	103.31
448.234	87.31
448.455	110.31
448.675	97.31
448.896	97.31
449.117	106.31
449.338	129.31
449.559	155.31
449.779	125.31
450	121.31
450.221	113.31
450.442	114.31
450.662	113.31
450.883	123.31
451.104	115.31
451.324	124.31
451.545	119.31
451.766	119.31
451.986	150.31
452.207	232.31
452.428	606.31
452.648	1501.31
452.869	844.31
453.089	220.31
453.31	143.31
453.53	143.31
453.751	142.31
453.971	155.31
454.192	147.31
454.412	125.31
454.633	104.31
454.853	120.31
455.073	97.31
455.294	95.31
455.514	105.31
455.734	113.31
455.955	94.31
456.175	105.31
456.395	111.31
456.616	93.31
456.836	114.31
457.056	104.31
457.276	113.31
457.497	123.31
457.717	123.31
457.937	107.31
458.157	98.31
458.377	88.31
458.598	94.31
458.818	91.31
459.038	82.31
459.258	90.31
459.478	84.31
459.698	82.31
459.918	99.31
460.138	80.31
460.358	83.31
460.578	88.31
460.798	98.31
461.018	93.31
461.238	97.31
461.458	95.31
461.678	90.31
461.898	90.31
462.118	105.31
462.338	99.31
462.558	104.31
462.777	107.31
462.997	101.31
463.217	119.31
463.437	146.31
463.657	186.31
463.876	198.31
464.096	131.31
464.316	103.31
464.536	108.31
464.755	106.31
464.975	91.31
465.195	98.31
465.414	113.31
465.634	93.31
465.854	88.31
466.073	91.31
466.293	81.31
466.512	105.31
466.732	107.31
466.951	113.31
467.171	141.31
467.391	150.31
467.61	108.31
467.829	93.31
468.049	92.31
468.268	101.31
468.488	95.31
468.707	96.31
468.927	105.31
469.146	118.31
469.365	95.31
469.585	106.31
469.804	90.31
470.023	99.31
470.243	99.31
470.462	108.31
470.681	122.31
470.901	140.31
471.12	193.31
471.339	210.31
471.558	142.31
471.777	110.31
471.997	109.31
472.216	115.31
472.435	85.31
472.654	97.31
472.873	102.31
473.092	102.31
473.311	86.31
473.53	96.31
473.749	106.31
473.968	112.31
474.187	93.31
474.406	105.31
474.625	89.31
474.844	99.31
475.063	98.31
475.282	92.31
475.501	100.31
475.72	91.31
475.939	99.31
476.158	113.31
476.377	114.31
476.596	92.31
476.814	99.31
477.033	117.31
477.252	95.31
477.471	87.31
477.69	86.31
477.908	92.31
478.127	94.31
478.346	117.31
478.564	104.31
478.783	93.31
479.002	112.31
479.22	111.31
479.439	104.31
479.658	87.31
479.876	105.31
480.095	114.31
480.313	99.31
480.532	87.31
480.751	107.31
480.969	89.31
481.188	91.31
481.406	104.31
481.624	105.31
481.843	129.31
482.061	120.31
482.28	100.31
482.498	109.31
482.717	96.31
482.935	106.31
483.153	98.31
483.372	113.31
483.59	119.31
483.808	116.31
484.027	113.31
484.245	130.31
484.463	205.31
484.681	227.31
484.9	155.31
485.118	113.31
485.336	114.31
485.554	115.31
485.772	137.31
485.99	201.31
486.209	256.31
486.427	170.31
486.645	125.31
486.863	110.31
487.081	107.31
487.299	103.31
487.517	75.31
487.735	100.31
487.953	105.31
488.171	102.31
488.389	100.31
488.607	121.31
488.825	107.31
489.043	104.31
489.261	104.31
489.479	87.31
489.696	111.31
489.914	119.31
490.132	92.31
490.35	101.31
490.568	106.31
490.786	117.31
491.003	100.31
491.221	113.31
491.439	115.31
491.657	100.31
491.874	108.31
492.092	113.31
492.31	93.31
492.527	124.31
492.745	107.31
492.963	123.31
493.18	117.31
493.398	116.31
493.615	117.31
493.833	90.31
494.05	100.31
494.268	115.31
494.485	111.31
494.703	107.31
494.92	99.31
495.138	102.31
495.355	115.31
495.573	102.31
495.79	121.31
496.008	111.31
496.225	114.31
496.442	109.31
496.66	127.31
496.877	170.31
497.094	164.31
497.312	119.31
497.529	112.31
497.746	113.31
497.963	99.31
498.181	119.31
498.398	114.31
498.615	119.31
498.832	100.31
499.049	121.31
499.267	132.31
499.484	176.31
499.701	116.31
499.918	112.31
500.135	112.31
500.352	108.31
500.569	108.31
500.786	106.31
501.003	111.31
501.22	102.31
501.437	97.31
501.654	95.31
501.871	92.31
502.088	97.31
502.305	115.31
502.522	97.31
502.739	92.31
502.956	103.31
503.172	97.31
503.389	108.31
503.606	106.31
503.823	114.31
504.04	104.31
504.256	97.31
504.473	107.31
504.69	95.31
504.907	93.31
505.123	125.31
505.34	99.31
505.557	95.31
505.773	96.31
505.99	106.31
506.207	115.31
506.423	97.31
506.64	111.31
