Data from SnStandardFlinnAPT0064_LampEnergy10_LIBS07252019.E.O._I.C._HRD10591_15-20-13-493.txt Node
Date: Thu Jul 25 15:20:13 EDT 2019
User: cochatt
Spectrometer: HR+D1059
Trigger mode: 1
Integration Time (sec): 1.000000E-1
Scans to average: 1
Electric dark correction enabled: true
Nonlinearity correction enabled: false
Boxcar width: 0
XAxis mode: Wavelengths
Number of Pixels in Spectrum: 2048
>>>>>Begin Spectral Data<<<<<
223.165	-12.69
223.4	-12.69
223.635	-12.69
223.869	-1.69
224.104	-10.69
224.338	-12.69
224.573	-22.69
224.808	-15.69
225.042	-7.69
225.277	-21.69
225.511	0.31
225.746	5.31
225.98	5.31
226.215	13.31
226.449	-6.69
226.683	26.31
226.918	31.31
227.152	30.31
227.387	52.31
227.621	43.31
227.856	26.31
228.09	59.31
228.324	56.31
228.559	67.31
228.793	115.31
229.027	316.31
229.262	321.31
229.496	301.31
229.73	312.31
229.964	292.31
230.199	299.31
230.433	292.31
230.667	310.31
230.901	318.31
231.136	338.31
231.37	370.31
231.604	373.31
231.838	462.31
232.072	522.31
232.306	565.31
232.541	483.31
232.775	419.31
233.009	404.31
233.243	435.31
233.477	436.31
233.711	535.31
233.945	586.31
234.179	528.31
234.413	426.31
234.647	471.31
234.881	466.31
235.115	517.31
235.349	608.31
235.583	783.31
235.817	1036.31
236.051	1006.31
236.285	663.31
236.519	544.31
236.753	506.31
236.987	498.31
237.221	530.31
237.455	529.31
237.689	477.31
237.922	461.31
238.156	468.31
238.39	473.31
238.624	477.31
238.858	467.31
239.091	454.31
239.325	485.31
239.559	502.31
239.793	514.31
240.027	518.31
240.26	548.31
240.494	566.31
240.728	593.31
240.961	647.31
241.195	672.31
241.429	675.31
241.662	713.31
241.896	797.31
242.13	984.31
242.363	1276.31
242.597	1661.31
242.83	1571.31
243.064	1586.31
243.298	1862.31
243.531	1489.31
243.765	939.31
243.998	792.31
244.232	694.31
244.465	669.31
244.699	654.31
244.932	648.31
245.166	661.31
245.399	680.31
245.633	688.31
245.866	653.31
246.099	671.31
246.333	634.31
246.566	659.31
246.8	647.31
247.033	634.31
247.266	637.31
247.5	650.31
247.733	667.31
247.966	692.31
248.2	744.31
248.433	896.31
248.666	1034.31
248.899	927.31
249.133	837.31
249.366	875.31
249.599	942.31
249.832	1086.31
250.066	1105.31
250.299	860.31
250.532	793.31
250.765	761.31
250.998	729.31
251.231	730.31
251.465	741.31
251.698	730.31
251.931	716.31
252.164	720.31
252.397	772.31
252.63	772.31
252.863	796.31
253.096	786.31
253.329	772.31
253.562	782.31
253.795	746.31
254.028	798.31
254.261	792.31
254.494	894.31
254.727	1013.31
254.96	1259.31
255.193	1232.31
255.426	970.31
255.659	861.31
255.892	848.31
256.124	873.31
256.357	861.31
256.59	911.31
256.823	984.31
257.056	1089.31
257.289	1394.31
257.521	1485.31
257.754	1223.31
257.987	963.31
258.22	936.31
258.452	911.31
258.685	919.31
258.918	924.31
259.151	997.31
259.383	1075.31
259.616	1230.31
259.849	1273.31
260.081	1076.31
260.314	998.31
260.547	941.31
260.779	929.31
261.012	945.31
261.244	926.31
261.477	963.31
261.71	968.31
261.942	977.31
262.175	1011.31
262.407	1033.31
262.64	1002.31
262.872	1047.31
263.105	1114.31
263.337	1156.31
263.57	1245.31
263.802	1269.31
264.035	1246.31
264.267	1300.31
264.499	1324.31
264.732	1372.31
264.964	1348.31
265.197	1376.31
265.429	1374.31
265.661	1419.31
265.894	1496.31
266.126	1700.31
266.358	1865.31
266.591	1852.31
266.823	1571.31
267.055	1384.31
267.287	1371.31
267.52	1272.31
267.752	1269.31
267.984	1287.31
268.216	1256.31
268.448	1211.31
268.681	1227.31
268.913	1192.31
269.145	1227.31
269.377	1214.31
269.609	1213.31
269.841	1294.31
270.073	1365.31
270.306	1610.31
270.538	2196.31
270.77	3221.31
271.002	4071.31
271.234	2899.31
271.466	1893.31
271.698	1507.31
271.93	1388.31
272.162	1321.31
272.394	1282.31
272.626	1252.31
272.858	1242.31
273.09	1216.31
273.322	1231.31
273.553	1183.31
273.785	1178.31
274.017	1165.31
274.249	1184.31
274.481	1159.31
274.713	1213.31
274.945	1214.31
275.176	1229.31
275.408	1204.31
275.64	1206.31
275.872	1236.31
276.104	1273.31
276.335	1286.31
276.567	1253.31
276.799	1282.31
277.031	1270.31
277.262	1346.31
277.494	1403.31
277.726	1566.31
277.957	1830.31
278.189	2144.31
278.421	1998.31
278.652	1732.31
278.884	1689.31
279.115	1454.31
279.347	1425.31
279.579	1416.31
279.81	1369.31
280.042	1392.31
280.273	1403.31
280.505	1433.31
280.736	1481.31
280.968	1549.31
281.199	1835.31
281.431	2038.31
281.662	2107.31
281.894	1792.31
282.125	1621.31
282.356	1632.31
282.588	1658.31
282.819	1696.31
283.051	1797.31
283.282	2021.31
283.513	2493.31
283.745	3650.31
283.976	5774.31
284.207	8278.31
284.439	7448.31
284.67	4634.31
284.901	3798.31
285.132	3786.31
285.364	3671.31
285.595	2709.31
285.826	2469.31
286.057	2877.31
286.288	3982.31
286.52	5256.31
286.751	5042.31
286.982	3123.31
287.213	2342.31
287.444	1998.31
287.675	1869.31
287.906	1785.31
288.138	1736.31
288.369	1676.31
288.6	1688.31
288.831	1678.31
289.062	1665.31
289.293	1665.31
289.524	1632.31
289.755	1678.31
289.986	1688.31
290.217	1677.31
290.448	1683.31
290.679	1699.31
290.91	1771.31
291.141	1854.31
291.371	2022.31
291.602	2090.31
291.833	1891.31
292.064	1738.31
292.295	1672.31
292.526	1640.31
292.757	1603.31
292.987	1561.31
293.218	1530.31
293.449	1551.31
293.68	1554.31
293.91	1574.31
294.141	1578.31
294.372	1564.31
294.603	1560.31
294.833	1562.31
295.064	1580.31
295.295	1576.31
295.525	1536.31
295.756	1557.31
295.987	1536.31
296.217	1554.31
296.448	1558.31
296.679	1556.31
296.909	1551.31
297.14	1588.31
297.37	1633.31
297.601	1632.31
297.831	1604.31
298.062	1617.31
298.292	1624.31
298.523	1699.31
298.753	1698.31
298.984	1686.31
299.214	1744.31
299.445	1744.31
299.675	1753.31
299.905	1835.31
300.136	1920.31
300.366	2102.31
300.597	2797.31
300.827	3900.31
301.057	5372.31
301.288	5410.31
301.518	3431.31
301.748	2666.31
301.979	2391.31
302.209	2307.31
302.439	2315.31
302.669	2481.31
302.9	2967.31
303.13	4245.31
303.36	6230.31
303.59	8433.31
303.82	7408.31
304.051	4370.31
304.281	3076.31
304.511	2556.31
304.741	2358.31
304.971	2183.31
305.201	2066.31
305.431	1995.31
305.661	1961.31
305.891	1899.31
306.121	1827.31
306.352	1881.31
306.582	1828.31
306.812	1826.31
307.042	1848.31
307.272	1843.31
307.502	1823.31
307.731	1799.31
307.961	1837.31
308.191	1818.31
308.421	1773.31
308.651	1765.31
308.881	1782.31
309.111	1803.31
309.341	1782.31
309.571	1811.31
309.8	1843.31
310.03	1816.31
310.26	1829.31
310.49	1836.31
310.72	1869.31
310.949	1850.31
311.179	1858.31
311.409	1868.31
311.639	1906.31
311.868	1906.31
312.098	1909.31
312.328	1868.31
312.557	1985.31
312.787	1912.31
313.017	1948.31
313.246	1976.31
313.476	1974.31
313.706	2066.31
313.935	2153.31
314.165	2347.31
314.394	2491.31
314.624	2322.31
314.853	2177.31
315.083	2154.31
315.312	2171.31
315.542	2172.31
315.771	2196.31
316.001	2253.31
316.23	2308.31
316.46	2425.31
316.689	2685.31
316.919	3209.31
317.148	4679.31
317.377	7222.31
317.607	10712.31
317.836	11136.31
318.065	6821.31
318.295	4385.31
318.524	3440.31
318.753	2996.31
318.983	2696.31
319.212	2597.31
319.441	2477.31
319.67	2415.31
319.9	2417.31
320.129	2373.31
320.358	2338.31
320.587	2308.31
320.816	2283.31
321.046	2321.31
321.275	2324.31
321.504	2373.31
321.733	2411.31
321.962	2496.31
322.191	2557.31
322.42	2484.31
322.649	2476.31
322.878	2451.31
323.108	2438.31
323.337	2503.31
323.566	2482.31
323.795	2584.31
324.024	2605.31
324.253	2733.31
324.482	2797.31
324.71	2957.31
324.939	3227.31
325.168	3276.31
325.397	3401.31
325.626	4051.31
325.855	5558.31
326.084	8882.31
326.313	12934.31
326.542	13669.31
326.77	9267.31
326.999	6020.31
327.228	5014.31
327.457	4714.31
327.686	4845.31
327.914	5066.31
328.143	5974.31
328.372	6986.31
328.6	7626.31
328.829	6853.31
329.058	5652.31
329.287	5026.31
329.515	4490.31
329.744	4215.31
329.972	3932.31
330.201	3808.31
330.43	3653.31
330.658	3580.31
330.887	3500.31
331.115	3482.31
331.344	3394.31
331.572	3424.31
331.801	3404.31
332.03	3378.31
332.258	3470.31
332.486	3653.31
332.715	4248.31
332.943	5204.31
333.172	6660.31
333.4	6609.31
333.629	4952.31
333.857	4415.31
334.085	4479.31
334.314	4606.31
334.542	5044.31
334.771	5885.31
334.999	7179.31
335.227	9143.31
335.455	10214.31
335.684	9134.31
335.912	7446.31
336.14	6333.31
336.369	5585.31
336.597	5140.31
336.825	4682.31
337.053	4482.31
337.281	4154.31
337.51	3988.31
337.738	3776.31
337.966	3660.31
338.194	3522.31
338.422	3414.31
338.65	3263.31
338.878	3292.31
339.106	3178.31
339.334	3140.31
339.562	3090.31
339.79	3006.31
340.018	3057.31
340.246	2995.31
340.474	3016.31
340.702	2946.31
340.93	2908.31
341.158	2984.31
341.386	2934.31
341.614	2933.31
341.842	2851.31
342.07	2801.31
342.298	2779.31
342.526	2752.31
342.754	2692.31
342.981	2697.31
343.209	2669.31
343.437	2730.31
343.665	2753.31
343.893	2770.31
344.12	2827.31
344.348	2707.31
344.576	2710.31
344.804	2636.31
345.031	2560.31
345.259	2574.31
345.487	2522.31
345.714	2488.31
345.942	2563.31
346.17	2478.31
346.397	2542.31
346.625	2494.31
346.853	2469.31
347.08	2473.31
347.308	2467.31
347.535	2493.31
347.763	2501.31
347.99	2473.31
348.218	2403.31
348.445	2411.31
348.673	2362.31
348.9	2452.31
349.128	2430.31
349.355	2378.31
349.583	2422.31
349.81	2436.31
350.037	2354.31
350.265	2346.31
350.492	2370.31
350.72	2369.31
350.947	2384.31
351.174	2415.31
351.402	2378.31
351.629	2352.31
351.856	2365.31
352.083	2363.31
352.311	2378.31
352.538	2338.31
352.765	2346.31
352.992	2357.31
353.22	2339.31
353.447	2318.31
353.674	2352.31
353.901	2382.31
354.128	2341.31
354.355	2358.31
354.583	2372.31
354.81	2387.31
355.037	2429.31
355.264	2420.31
355.491	2417.31
355.718	2408.31
355.945	2450.31
356.172	2414.31
356.399	2412.31
356.626	2476.31
356.853	2467.31
357.08	2481.31
357.307	2497.31
357.534	2528.31
357.761	2529.31
357.988	2587.31
358.215	2492.31
358.441	2513.31
358.668	2420.31
358.895	2488.31
359.122	2456.31
359.349	2528.31
359.576	2545.31
359.802	2464.31
360.029	2475.31
360.256	2481.31
360.483	2492.31
360.709	2520.31
360.936	2512.31
361.163	2476.31
361.39	2510.31
361.616	2497.31
361.843	2513.31
362.07	2534.31
362.296	2549.31
362.523	2523.31
362.749	2510.31
362.976	2542.31
363.203	2467.31
363.429	2425.31
363.656	2466.31
363.882	2539.31
364.109	2515.31
364.335	2461.31
364.562	2522.31
364.788	2506.31
365.015	2516.31
365.241	2637.31
365.468	2774.31
365.694	2928.31
365.92	2764.31
366.147	2614.31
366.373	2578.31
366.599	2598.31
366.826	2529.31
367.052	2536.31
367.278	2566.31
367.505	2584.31
367.731	2549.31
367.957	2592.31
368.184	2578.31
368.41	2662.31
368.636	2665.31
368.862	2632.31
369.089	2608.31
369.315	2577.31
369.541	2596.31
369.767	2578.31
369.993	2613.31
370.219	2593.31
370.445	2590.31
370.672	2648.31
370.898	2631.31
371.124	2604.31
371.35	2698.31
371.576	2726.31
371.802	2674.31
372.028	2684.31
372.254	2711.31
372.48	2696.31
372.706	2740.31
372.932	2704.31
373.158	2746.31
373.384	2692.31
373.61	2710.31
373.835	2687.31
374.061	2748.31
374.287	2765.31
374.513	2730.31
374.739	2821.31
374.965	2846.31
375.191	2824.31
375.416	2824.31
375.642	2771.31
375.868	2736.31
376.094	2794.31
376.319	2714.31
376.545	2683.31
376.771	2734.31
376.997	2688.31
377.222	2654.31
377.448	2661.31
377.674	2647.31
377.899	2654.31
378.125	2629.31
378.35	2634.31
378.576	2710.31
378.802	2716.31
379.027	2754.31
379.253	2852.31
379.478	2928.31
379.704	3545.31
379.929	5148.31
380.155	8053.31
380.38	8836.31
380.606	5396.31
380.831	3702.31
381.057	3193.31
381.282	2955.31
381.507	2857.31
381.733	2764.31
381.958	2692.31
382.184	2700.31
382.409	2691.31
382.634	2630.31
382.86	2677.31
383.085	2703.31
383.31	2638.31
383.535	2681.31
383.761	2634.31
383.986	2730.31
384.211	2711.31
384.436	2764.31
384.662	2754.31
384.887	2736.31
385.112	2773.31
385.337	2767.31
385.562	2741.31
385.787	2721.31
386.013	2738.31
386.238	2762.31
386.463	2773.31
386.688	2744.31
386.913	2661.31
387.138	2710.31
387.363	2745.31
387.588	2694.31
387.813	2739.31
388.038	2774.31
388.263	2706.31
388.488	2742.31
388.713	2721.31
388.938	2696.31
389.163	2685.31
389.387	2736.31
389.612	2738.31
389.837	2749.31
390.062	2731.31
390.287	2738.31
390.512	2702.31
390.736	2772.31
390.961	2829.31
391.186	2796.31
391.411	2842.31
391.636	2820.31
391.86	2875.31
392.085	2877.31
392.31	2875.31
392.534	2816.31
392.759	2821.31
392.984	2808.31
393.208	2794.31
393.433	2822.31
393.658	2781.31
393.882	2744.31
394.107	2796.31
394.331	2805.31
394.556	2745.31
394.78	2840.31
395.005	2832.31
395.229	2838.31
395.454	2877.31
395.678	2836.31
395.903	2868.31
396.127	2819.31
396.352	2830.31
396.576	2786.31
396.801	2836.31
397.025	2858.31
397.249	2896.31
397.474	2878.31
397.698	2880.31
397.922	2924.31
398.147	2850.31
398.371	2952.31
398.595	2992.31
398.82	3085.31
399.044	3165.31
399.268	3295.31
399.492	3515.31
399.717	3622.31
399.941	3616.31
400.165	3449.31
400.389	3312.31
400.613	3166.31
400.837	3106.31
401.062	3080.31
401.286	3058.31
401.51	3021.31
401.734	2984.31
401.958	3080.31
402.182	3030.31
402.406	3017.31
402.63	3047.31
402.854	3074.31
403.078	3033.31
403.302	3092.31
403.526	3058.31
403.75	3116.31
403.974	3160.31
404.198	3110.31
404.422	3156.31
404.645	3148.31
404.869	3114.31
405.093	3145.31
405.317	3098.31
405.541	3175.31
405.765	3243.31
405.988	3251.31
406.212	3242.31
406.436	3226.31
406.66	3286.31
406.883	3237.31
407.107	3337.31
407.331	3378.31
407.555	3458.31
407.778	3372.31
408.002	3360.31
408.226	3314.31
408.449	3366.31
408.673	3305.31
408.896	3194.31
409.12	3173.31
409.344	3198.31
409.567	3151.31
409.791	3140.31
410.014	3164.31
410.238	3137.31
410.461	3127.31
410.685	3098.31
410.908	3107.31
411.132	3084.31
411.355	3017.31
411.578	3043.31
411.802	3000.31
412.025	3006.31
412.249	3024.31
412.472	3018.31
412.695	2979.31
412.919	2944.31
413.142	2939.31
413.365	2951.31
413.589	2987.31
413.812	2917.31
414.035	2968.31
414.258	3008.31
414.482	3001.31
414.705	2989.31
414.928	2981.31
415.151	2961.31
415.374	2918.31
415.597	2855.31
415.821	2892.31
416.044	2873.31
416.267	2810.31
416.49	2821.31
416.713	2880.31
416.936	2885.31
417.159	2858.31
417.382	2820.31
417.605	2801.31
417.828	2816.31
418.051	2825.31
418.274	2932.31
418.497	2888.31
418.72	2916.31
418.943	2834.31
419.166	3006.31
419.389	3145.31
419.611	3156.31
419.834	3016.31
420.057	2967.31
420.28	2881.31
420.503	2848.31
420.726	2892.31
420.948	2830.31
421.171	2834.31
421.394	2837.31
421.617	2855.31
421.839	2885.31
422.062	2866.31
422.285	2779.31
422.507	2948.31
422.73	2946.31
422.953	2950.31
423.175	2953.31
423.398	2944.31
423.621	2852.31
423.843	2856.31
424.066	2850.31
424.288	2873.31
424.511	2800.31
424.733	2843.31
424.956	2859.31
425.178	2792.31
425.401	2808.31
425.623	2807.31
425.846	2750.31
426.068	2796.31
426.291	2742.31
426.513	2749.31
426.735	2731.31
426.958	2764.31
427.18	2634.31
427.402	2703.31
427.625	2706.31
427.847	2651.31
428.069	2656.31
428.292	2665.31
428.514	2671.31
428.736	2674.31
428.958	2692.31
429.181	2600.31
429.403	2598.31
429.625	2636.31
429.847	2638.31
430.069	2713.31
430.292	2771.31
430.514	2827.31
430.736	2861.31
430.958	2702.31
431.18	2648.31
431.402	2641.31
431.624	2596.31
431.846	2609.31
432.068	2581.31
432.29	2649.31
432.512	2566.31
432.734	2660.31
432.956	2616.31
433.178	2634.31
433.4	2638.31
433.622	2620.31
433.844	2646.31
434.066	2622.31
434.287	2662.31
434.509	2665.31
434.731	2720.31
434.953	2714.31
435.175	2753.31
435.397	2714.31
435.618	2700.31
435.84	2728.31
436.062	2582.31
436.284	2594.31
436.505	2599.31
436.727	2597.31
436.949	2577.31
437.17	2576.31
437.392	2571.31
437.614	2551.31
437.835	2554.31
438.057	2567.31
438.278	2489.31
438.5	2564.31
438.721	2604.31
438.943	2667.31
439.165	2747.31
439.386	2755.31
439.608	2714.31
439.829	2684.31
440.05	2823.31
440.272	2876.31
440.493	2731.31
440.715	2698.31
440.936	2692.31
441.158	2728.31
441.379	2722.31
441.6	2869.31
441.822	2937.31
442.043	3079.31
442.264	3174.31
442.486	2924.31
442.707	2892.31
442.928	2834.31
443.149	2797.31
443.371	2788.31
443.592	2828.31
443.813	2845.31
444.034	2819.31
444.255	2872.31
444.476	2928.31
444.698	2929.31
444.919	2972.31
445.14	3036.31
445.361	2934.31
445.582	2873.31
445.803	2858.31
446.024	2784.31
446.245	2826.31
446.466	2788.31
446.687	2704.31
446.908	2738.31
447.129	2688.31
447.35	2633.31
447.571	2616.31
447.792	2572.31
448.013	2571.31
448.234	2523.31
448.455	2579.31
448.675	2608.31
448.896	2659.31
449.117	2760.31
449.338	2977.31
449.559	3153.31
449.779	2781.31
450	2624.31
450.221	2575.31
450.442	2562.31
450.662	2515.31
450.883	2496.31
451.104	2509.31
451.324	2491.31
451.545	2468.31
451.766	2525.31
451.986	2584.31
452.207	2788.31
452.428	3624.31
452.648	5574.31
452.869	4669.31
453.089	3155.31
453.31	2982.31
453.53	2887.31
453.751	3006.31
453.971	3148.31
454.192	3061.31
454.412	2720.31
454.633	2521.31
454.853	2498.31
455.073	2446.31
455.294	2438.31
455.514	2432.31
455.734	2434.31
455.955	2382.31
456.175	2399.31
456.395	2425.31
456.616	2379.31
456.836	2469.31
457.056	2456.31
457.276	2395.31
457.497	2581.31
457.717	2652.31
457.937	2583.31
458.157	2523.31
458.377	2547.31
458.598	2511.31
458.818	2572.31
459.038	2590.31
459.258	2593.31
459.478	2600.31
459.698	2662.31
459.918	2717.31
460.138	2680.31
460.358	2781.31
460.578	2798.31
460.798	2809.31
461.018	2899.31
461.238	2837.31
461.458	2902.31
461.678	2968.31
461.898	2966.31
462.118	2972.31
462.338	3033.31
462.558	3095.31
462.777	3105.31
462.997	3237.31
463.217	3355.31
463.437	3469.31
463.657	3522.31
463.876	3529.31
464.096	3325.31
464.316	3187.31
464.536	3134.31
464.755	3066.31
464.975	3002.31
465.195	2874.31
465.414	2831.31
465.634	2748.31
465.854	2743.31
466.073	2683.31
466.293	2710.31
466.512	2646.31
466.732	2667.31
466.951	2844.31
467.171	2984.31
467.391	2933.31
467.61	2701.31
467.829	2604.31
468.049	2576.31
468.268	2578.31
468.488	2517.31
468.707	2548.31
468.927	2554.31
469.146	2516.31
469.365	2634.31
469.585	2572.31
469.804	2681.31
470.023	2762.31
470.243	2765.31
470.462	2891.31
470.681	2981.31
470.901	3246.31
471.12	3717.31
471.339	3844.31
471.558	3208.31
471.777	2872.31
471.997	2747.31
472.216	2688.31
472.435	2638.31
472.654	2619.31
472.873	2591.31
473.092	2642.31
473.311	2608.31
473.53	2611.31
473.749	2662.31
473.968	2850.31
474.187	2637.31
474.406	2584.31
474.625	2550.31
474.844	2619.31
475.063	2580.31
475.282	2612.31
475.501	2600.31
475.72	2659.31
475.939	2684.31
476.158	2668.31
476.377	2722.31
476.596	2756.31
476.814	2754.31
477.033	2707.31
477.252	2762.31
477.471	2726.31
477.69	2925.31
477.908	2876.31
478.127	2946.31
478.346	2970.31
478.564	2973.31
478.783	2965.31
479.002	3038.31
479.22	3046.31
479.439	3128.31
479.658	3089.31
479.876	3098.31
480.095	3122.31
480.313	3202.31
480.532	3195.31
480.751	3190.31
480.969	3160.31
481.188	3132.31
481.406	3051.31
481.624	3104.31
481.843	3123.31
482.061	3130.31
482.28	3184.31
482.498	3127.31
482.717	3132.31
482.935	3158.31
483.153	3219.31
483.372	3247.31
483.59	3332.31
483.808	3296.31
484.027	3362.31
484.245	3647.31
484.463	4046.31
484.681	4512.31
484.9	4109.31
485.118	3863.31
485.336	3693.31
485.554	3777.31
485.772	4039.31
485.99	4551.31
486.209	4935.31
486.427	4132.31
486.645	3681.31
486.863	3565.31
487.081	3404.31
487.299	3388.31
487.517	3349.31
487.735	3384.31
