Data from SnStandardFlinnAPT0064_LampEnergy10_LIBS07252019.E.O._I.C._HRD10591_15-20-22-493.txt Node
Date: Thu Jul 25 15:20:22 EDT 2019
User: cochatt
Spectrometer: HR+D1059
Trigger mode: 1
Integration Time (sec): 1.000000E-1
Scans to average: 1
Electric dark correction enabled: true
Nonlinearity correction enabled: false
Boxcar width: 0
XAxis mode: Wavelengths
Number of Pixels in Spectrum: 2048
>>>>>Begin Spectral Data<<<<<
223.165	-14.25
223.4	-14.25
223.635	-14.25
223.869	-14.25
224.104	-25.25
224.338	-20.25
224.573	-7.25
224.808	-12.25
225.042	-11.25
225.277	-5.25
225.511	-9.25
225.746	16.75
225.98	9.75
226.215	9.75
226.449	8.75
226.683	7.75
226.918	34.75
227.152	31.75
227.387	41.75
227.621	53.75
227.856	48.75
228.09	39.75
228.324	65.75
228.559	52.75
228.793	133.75
229.027	312.75
229.262	344.75
229.496	326.75
229.73	304.75
229.964	312.75
230.199	297.75
230.433	320.75
230.667	311.75
230.901	336.75
231.136	331.75
231.37	355.75
231.604	386.75
231.838	443.75
232.072	528.75
232.306	564.75
232.541	477.75
232.775	423.75
233.009	402.75
233.243	436.75
233.477	467.75
233.711	501.75
233.945	603.75
234.179	507.75
234.413	450.75
234.647	452.75
234.881	484.75
235.115	537.75
235.349	626.75
235.583	786.75
235.817	1056.75
236.051	1005.75
236.285	659.75
236.519	525.75
236.753	490.75
236.987	506.75
237.221	552.75
237.455	514.75
237.689	481.75
237.922	455.75
238.156	471.75
238.39	490.75
238.624	501.75
238.858	481.75
239.091	474.75
239.325	497.75
239.559	510.75
239.793	530.75
240.027	535.75
240.26	536.75
240.494	561.75
240.728	599.75
240.961	614.75
241.195	677.75
241.429	685.75
241.662	710.75
241.896	777.75
242.13	983.75
242.363	1291.75
242.597	1660.75
242.83	1623.75
243.064	1593.75
243.298	1861.75
243.531	1537.75
243.765	948.75
243.998	768.75
244.232	693.75
244.465	678.75
244.699	654.75
244.932	659.75
245.166	661.75
245.399	675.75
245.633	684.75
245.866	699.75
246.099	666.75
246.333	648.75
246.566	647.75
246.8	628.75
247.033	646.75
247.266	625.75
247.5	664.75
247.733	668.75
247.966	696.75
248.2	736.75
248.433	860.75
248.666	1040.75
248.899	948.75
249.133	869.75
249.366	873.75
249.599	962.75
249.832	1096.75
250.066	1122.75
250.299	883.75
250.532	772.75
250.765	748.75
250.998	753.75
251.231	738.75
251.465	741.75
251.698	761.75
251.931	753.75
252.164	741.75
252.397	755.75
252.63	780.75
252.863	786.75
253.096	788.75
253.329	802.75
253.562	791.75
253.795	785.75
254.028	797.75
254.261	839.75
254.494	904.75
254.727	1034.75
254.96	1270.75
255.193	1239.75
255.426	1000.75
255.659	891.75
255.892	897.75
256.124	865.75
256.357	896.75
256.59	922.75
256.823	1001.75
257.056	1115.75
257.289	1386.75
257.521	1532.75
257.754	1206.75
257.987	956.75
258.22	969.75
258.452	894.75
258.685	933.75
258.918	956.75
259.151	1016.75
259.383	1089.75
259.616	1196.75
259.849	1252.75
260.081	1102.75
260.314	978.75
260.547	1010.75
260.779	940.75
261.012	984.75
261.244	960.75
261.477	966.75
261.71	997.75
261.942	993.75
262.175	996.75
262.407	1030.75
262.64	1080.75
262.872	1078.75
263.105	1136.75
263.337	1175.75
263.57	1268.75
263.802	1261.75
264.035	1310.75
264.267	1325.75
264.499	1353.75
264.732	1415.75
264.964	1388.75
265.197	1403.75
265.429	1442.75
265.661	1459.75
265.894	1560.75
266.126	1754.75
266.358	1920.75
266.591	1923.75
266.823	1602.75
267.055	1446.75
267.287	1351.75
267.52	1299.75
267.752	1281.75
267.984	1268.75
268.216	1257.75
268.448	1243.75
268.681	1261.75
268.913	1219.75
269.145	1272.75
269.377	1241.75
269.609	1248.75
269.841	1262.75
270.073	1392.75
270.306	1652.75
270.538	2168.75
270.77	3278.75
271.002	4055.75
271.234	2833.75
271.466	1846.75
271.698	1552.75
271.93	1408.75
272.162	1320.75
272.394	1274.75
272.626	1257.75
272.858	1236.75
273.09	1222.75
273.322	1219.75
273.553	1186.75
273.785	1202.75
274.017	1200.75
274.249	1205.75
274.481	1209.75
274.713	1200.75
274.945	1221.75
275.176	1231.75
275.408	1189.75
275.64	1236.75
275.872	1225.75
276.104	1282.75
276.335	1300.75
276.567	1322.75
276.799	1268.75
277.031	1316.75
277.262	1341.75
277.494	1389.75
277.726	1545.75
277.957	1826.75
278.189	2144.75
278.421	1993.75
278.652	1734.75
278.884	1677.75
279.115	1514.75
279.347	1430.75
279.579	1405.75
279.81	1412.75
280.042	1404.75
280.273	1404.75
280.505	1462.75
280.736	1485.75
280.968	1596.75
281.199	1784.75
281.431	2027.75
281.662	2105.75
281.894	1823.75
282.125	1634.75
282.356	1649.75
282.588	1673.75
282.819	1693.75
283.051	1831.75
283.282	2024.75
283.513	2489.75
283.745	3634.75
283.976	5792.75
284.207	8237.75
284.439	7492.75
284.67	4632.75
284.901	3793.75
285.132	3832.75
285.364	3610.75
285.595	2777.75
285.826	2451.75
286.057	2878.75
286.288	3986.75
286.52	5387.75
286.751	4985.75
286.982	3044.75
287.213	2292.75
287.444	2012.75
287.675	1885.75
287.906	1814.75
288.138	1738.75
288.369	1741.75
288.6	1682.75
288.831	1696.75
289.062	1635.75
289.293	1702.75
289.524	1682.75
289.755	1701.75
289.986	1694.75
290.217	1685.75
290.448	1702.75
290.679	1760.75
290.91	1760.75
291.141	1860.75
291.371	2020.75
291.602	2114.75
291.833	1942.75
292.064	1753.75
292.295	1652.75
292.526	1619.75
292.757	1588.75
292.987	1629.75
293.218	1577.75
293.449	1592.75
293.68	1594.75
293.91	1586.75
294.141	1584.75
294.372	1541.75
294.603	1562.75
294.833	1572.75
295.064	1555.75
295.295	1537.75
295.525	1566.75
295.756	1549.75
295.987	1539.75
296.217	1582.75
296.448	1564.75
296.679	1582.75
296.909	1554.75
297.14	1549.75
297.37	1579.75
297.601	1636.75
297.831	1645.75
298.062	1621.75
298.292	1636.75
298.523	1732.75
298.753	1718.75
298.984	1705.75
299.214	1723.75
299.445	1757.75
299.675	1765.75
299.905	1829.75
300.136	1888.75
300.366	2132.75
300.597	2723.75
300.827	3859.75
301.057	5292.75
301.288	5349.75
301.518	3382.75
301.748	2659.75
301.979	2420.75
302.209	2265.75
302.439	2318.75
302.669	2431.75
302.9	2990.75
303.13	4215.75
303.36	6210.75
303.59	8333.75
303.82	7326.75
304.051	4292.75
304.281	3042.75
304.511	2588.75
304.741	2401.75
304.971	2210.75
305.201	2062.75
305.431	2017.75
305.661	1968.75
305.891	1888.75
306.121	1893.75
306.352	1869.75
306.582	1831.75
306.812	1772.75
307.042	1824.75
307.272	1826.75
307.502	1803.75
307.731	1771.75
307.961	1780.75
308.191	1796.75
308.421	1779.75
308.651	1797.75
308.881	1780.75
309.111	1809.75
309.341	1828.75
309.571	1837.75
309.8	1877.75
310.03	1892.75
310.26	1853.75
310.49	1838.75
310.72	1844.75
310.949	1844.75
311.179	1875.75
311.409	1894.75
311.639	1889.75
311.868	1947.75
312.098	1942.75
312.328	1950.75
312.557	1979.75
312.787	1922.75
313.017	1968.75
313.246	2010.75
313.476	2006.75
313.706	2050.75
313.935	2197.75
314.165	2330.75
314.394	2514.75
314.624	2380.75
314.853	2154.75
315.083	2149.75
315.312	2171.75
315.542	2226.75
315.771	2234.75
316.001	2216.75
316.23	2318.75
316.46	2442.75
316.689	2661.75
316.919	3144.75
317.148	4635.75
317.377	7170.75
317.607	10626.75
317.836	11187.75
318.065	6624.75
318.295	4302.75
318.524	3468.75
318.753	3010.75
318.983	2787.75
319.212	2597.75
319.441	2568.75
319.67	2444.75
319.9	2379.75
320.129	2403.75
320.358	2336.75
320.587	2339.75
320.816	2366.75
321.046	2365.75
321.275	2332.75
321.504	2370.75
321.733	2428.75
321.962	2470.75
322.191	2496.75
322.42	2517.75
322.649	2504.75
322.878	2456.75
323.108	2460.75
323.337	2548.75
323.566	2541.75
323.795	2617.75
324.024	2693.75
324.253	2744.75
324.482	2850.75
324.71	3028.75
324.939	3209.75
325.168	3305.75
325.397	3376.75
325.626	4070.75
325.855	5609.75
326.084	8884.75
326.313	12915.75
326.542	13622.75
326.77	9208.75
326.999	6018.75
327.228	4992.75
327.457	4861.75
327.686	4868.75
327.914	5136.75
328.143	6001.75
328.372	7211.75
328.6	7908.75
328.829	7144.75
329.058	5866.75
329.287	5110.75
329.515	4668.75
329.744	4311.75
329.972	4087.75
330.201	3881.75
330.43	3741.75
330.658	3600.75
330.887	3581.75
331.115	3479.75
331.344	3464.75
331.572	3431.75
331.801	3435.75
332.03	3494.75
332.258	3573.75
332.486	3773.75
332.715	4313.75
332.943	5276.75
333.172	6665.75
333.4	6533.75
333.629	4972.75
333.857	4480.75
334.085	4506.75
334.314	4717.75
334.542	5142.75
334.771	6058.75
334.999	7500.75
335.227	9406.75
335.455	10582.75
335.684	9518.75
335.912	7725.75
336.14	6498.75
336.369	5762.75
336.597	5236.75
336.825	4788.75
337.053	4605.75
337.281	4245.75
337.51	4003.75
337.738	3811.75
337.966	3719.75
338.194	3592.75
338.422	3467.75
338.65	3374.75
338.878	3295.75
339.106	3258.75
339.334	3206.75
339.562	3168.75
339.79	3053.75
340.018	3060.75
340.246	3016.75
340.474	2958.75
340.702	2987.75
340.93	3009.75
341.158	2981.75
341.386	2946.75
341.614	2953.75
341.842	2915.75
342.07	2876.75
342.298	2777.75
342.526	2769.75
342.754	2731.75
342.981	2660.75
343.209	2681.75
343.437	2730.75
343.665	2720.75
343.893	2801.75
344.12	2779.75
344.348	2759.75
344.576	2700.75
344.804	2674.75
345.031	2628.75
345.259	2603.75
345.487	2599.75
345.714	2557.75
345.942	2519.75
346.17	2556.75
346.397	2520.75
346.625	2518.75
346.853	2524.75
347.08	2467.75
347.308	2532.75
347.535	2527.75
347.763	2500.75
347.99	2495.75
348.218	2489.75
348.445	2474.75
348.673	2436.75
348.9	2468.75
349.128	2433.75
349.355	2439.75
349.583	2416.75
349.81	2422.75
350.037	2396.75
350.265	2416.75
350.492	2365.75
350.72	2374.75
350.947	2346.75
351.174	2340.75
351.402	2371.75
351.629	2372.75
351.856	2387.75
352.083	2341.75
352.311	2381.75
352.538	2359.75
352.765	2395.75
352.992	2359.75
353.22	2363.75
353.447	2381.75
353.674	2354.75
353.901	2352.75
354.128	2375.75
354.355	2363.75
354.583	2400.75
354.81	2418.75
355.037	2418.75
355.264	2372.75
355.491	2397.75
355.718	2456.75
355.945	2416.75
356.172	2446.75
356.399	2470.75
356.626	2432.75
356.853	2477.75
357.08	2480.75
357.307	2542.75
357.534	2589.75
357.761	2558.75
357.988	2565.75
358.215	2581.75
358.441	2556.75
358.668	2505.75
358.895	2529.75
359.122	2513.75
359.349	2523.75
359.576	2502.75
359.802	2473.75
360.029	2480.75
360.256	2537.75
360.483	2523.75
360.709	2514.75
360.936	2530.75
361.163	2511.75
361.39	2576.75
361.616	2587.75
361.843	2530.75
362.07	2580.75
362.296	2521.75
362.523	2507.75
362.749	2539.75
362.976	2554.75
363.203	2468.75
363.429	2465.75
363.656	2558.75
363.882	2528.75
364.109	2529.75
364.335	2508.75
364.562	2545.75
364.788	2501.75
365.015	2578.75
365.241	2624.75
365.468	2746.75
365.694	2908.75
365.92	2843.75
366.147	2606.75
366.373	2627.75
366.599	2564.75
366.826	2573.75
367.052	2577.75
367.278	2623.75
367.505	2641.75
367.731	2621.75
367.957	2581.75
368.184	2601.75
368.41	2657.75
368.636	2642.75
368.862	2641.75
369.089	2615.75
369.315	2636.75
369.541	2588.75
369.767	2602.75
369.993	2610.75
370.219	2601.75
370.445	2617.75
370.672	2662.75
370.898	2646.75
371.124	2669.75
371.35	2695.75
371.576	2677.75
371.802	2701.75
372.028	2673.75
372.254	2730.75
372.48	2704.75
372.706	2754.75
372.932	2758.75
373.158	2777.75
373.384	2761.75
373.61	2736.75
373.835	2785.75
374.061	2761.75
374.287	2811.75
374.513	2806.75
374.739	2868.75
374.965	2886.75
375.191	2857.75
375.416	2852.75
375.642	2797.75
375.868	2807.75
376.094	2768.75
376.319	2810.75
376.545	2788.75
376.771	2714.75
376.997	2700.75
377.222	2701.75
377.448	2665.75
377.674	2663.75
377.899	2721.75
378.125	2694.75
378.35	2673.75
378.576	2723.75
378.802	2761.75
379.027	2836.75
379.253	2878.75
379.478	2996.75
379.704	3542.75
379.929	5151.75
380.155	7988.75
380.38	8732.75
380.606	5301.75
380.831	3666.75
381.057	3214.75
381.282	2963.75
381.507	2850.75
381.733	2838.75
381.958	2719.75
382.184	2697.75
382.409	2706.75
382.634	2656.75
382.86	2635.75
383.085	2656.75
383.31	2672.75
383.535	2674.75
383.761	2646.75
383.986	2721.75
384.211	2711.75
384.436	2717.75
384.662	2734.75
384.887	2787.75
385.112	2712.75
385.337	2738.75
385.562	2724.75
385.787	2769.75
386.013	2749.75
386.238	2763.75
386.463	2803.75
386.688	2768.75
386.913	2764.75
387.138	2747.75
387.363	2788.75
387.588	2741.75
387.813	2782.75
388.038	2750.75
388.263	2753.75
388.488	2752.75
388.713	2763.75
388.938	2732.75
389.163	2738.75
389.387	2773.75
389.612	2714.75
389.837	2718.75
390.062	2733.75
390.287	2785.75
390.512	2765.75
390.736	2842.75
390.961	2867.75
391.186	2844.75
391.411	2905.75
391.636	2897.75
391.86	2882.75
392.085	2897.75
392.31	2889.75
392.534	2788.75
392.759	2784.75
392.984	2793.75
393.208	2828.75
393.433	2854.75
393.658	2858.75
393.882	2770.75
394.107	2778.75
394.331	2796.75
394.556	2818.75
394.78	2774.75
395.005	2846.75
395.229	2822.75
395.454	2917.75
395.678	2847.75
395.903	2880.75
396.127	2926.75
396.352	2870.75
396.576	2826.75
396.801	2868.75
397.025	2882.75
397.249	2827.75
397.474	2913.75
397.698	2891.75
397.922	2962.75
398.147	2892.75
398.371	2929.75
398.595	3052.75
398.82	3095.75
399.044	3218.75
399.268	3368.75
399.492	3492.75
399.717	3624.75
399.941	3668.75
400.165	3510.75
400.389	3381.75
400.613	3243.75
400.837	3140.75
401.062	3104.75
401.286	3089.75
401.51	2998.75
401.734	2964.75
401.958	3051.75
402.182	3025.75
402.406	3017.75
402.63	3044.75
402.854	3086.75
403.078	3075.75
403.302	3143.75
403.526	3115.75
403.75	3140.75
403.974	3207.75
404.198	3153.75
404.422	3169.75
404.645	3109.75
404.869	3086.75
405.093	3193.75
405.317	3093.75
405.541	3146.75
405.765	3253.75
405.988	3266.75
406.212	3260.75
406.436	3198.75
406.66	3282.75
406.883	3251.75
407.107	3315.75
407.331	3437.75
407.555	3429.75
407.778	3453.75
408.002	3380.75
408.226	3397.75
408.449	3385.75
408.673	3258.75
408.896	3253.75
409.12	3175.75
409.344	3190.75
409.567	3211.75
409.791	3172.75
410.014	3120.75
410.238	3134.75
410.461	3136.75
410.685	3149.75
410.908	3092.75
411.132	3070.75
411.355	3058.75
411.578	3020.75
411.802	3071.75
412.025	3015.75
412.249	3028.75
412.472	2996.75
412.695	3014.75
412.919	2982.75
413.142	2985.75
413.365	2941.75
413.589	2983.75
413.812	2944.75
414.035	2980.75
414.258	2975.75
414.482	2947.75
414.705	2917.75
414.928	2956.75
415.151	2973.75
415.374	2900.75
415.597	2898.75
415.821	2848.75
416.044	2909.75
416.267	2828.75
416.49	2834.75
416.713	2852.75
416.936	2874.75
417.159	2831.75
417.382	2772.75
417.605	2829.75
417.828	2796.75
418.051	2836.75
418.274	2887.75
418.497	2907.75
418.72	2947.75
418.943	2922.75
419.166	3043.75
419.389	3230.75
419.611	3108.75
419.834	3040.75
420.057	2939.75
420.28	2870.75
420.503	2857.75
420.726	2868.75
420.948	2808.75
421.171	2864.75
421.394	2861.75
421.617	2905.75
421.839	2842.75
422.062	2873.75
422.285	2832.75
422.507	2895.75
422.73	2929.75
422.953	2913.75
423.175	2955.75
423.398	2974.75
423.621	2842.75
423.843	2869.75
424.066	2930.75
424.288	2890.75
424.511	2884.75
424.733	2854.75
424.956	2844.75
425.178	2849.75
425.401	2894.75
425.623	2812.75
425.846	2751.75
426.068	2758.75
426.291	2708.75
426.513	2766.75
426.735	2746.75
426.958	2756.75
427.18	2705.75
427.402	2726.75
427.625	2738.75
427.847	2672.75
428.069	2692.75
428.292	2729.75
428.514	2647.75
428.736	2635.75
428.958	2712.75
429.181	2629.75
429.403	2638.75
429.625	2609.75
429.847	2610.75
430.069	2708.75
430.292	2848.75
430.514	2870.75
430.736	2797.75
430.958	2665.75
431.18	2614.75
431.402	2630.75
431.624	2599.75
431.846	2612.75
432.068	2620.75
432.29	2586.75
432.512	2578.75
432.734	2617.75
432.956	2641.75
433.178	2658.75
433.4	2638.75
433.622	2607.75
433.844	2638.75
434.066	2623.75
434.287	2636.75
434.509	2673.75
434.731	2676.75
434.953	2699.75
435.175	2727.75
435.397	2743.75
435.618	2659.75
435.84	2621.75
436.062	2571.75
436.284	2577.75
436.505	2569.75
436.727	2643.75
436.949	2585.75
437.17	2591.75
437.392	2569.75
437.614	2564.75
437.835	2473.75
438.057	2531.75
438.278	2518.75
438.5	2564.75
438.721	2589.75
438.943	2655.75
439.165	2694.75
439.386	2694.75
439.608	2732.75
439.829	2704.75
440.05	2811.75
440.272	2812.75
440.493	2749.75
440.715	2650.75
440.936	2692.75
441.158	2740.75
441.379	2763.75
441.6	2828.75
441.822	2929.75
442.043	3074.75
442.264	3104.75
442.486	2948.75
442.707	2870.75
442.928	2843.75
443.149	2813.75
443.371	2783.75
443.592	2803.75
443.813	2845.75
444.034	2765.75
444.255	2877.75
444.476	2905.75
444.698	2971.75
444.919	3003.75
445.14	3026.75
445.361	2913.75
445.582	2874.75
445.803	2809.75
446.024	2811.75
446.245	2849.75
446.466	2743.75
446.687	2710.75
446.908	2727.75
447.129	2625.75
447.35	2654.75
447.571	2645.75
447.792	2563.75
448.013	2570.75
448.234	2560.75
448.455	2568.75
448.675	2598.75
448.896	2700.75
449.117	2750.75
449.338	3016.75
449.559	3179.75
449.779	2800.75
450	2609.75
450.221	2574.75
450.442	2522.75
450.662	2530.75
450.883	2522.75
451.104	2536.75
451.324	2500.75
451.545	2536.75
451.766	2544.75
451.986	2585.75
452.207	2800.75
452.428	3598.75
452.648	5388.75
452.869	4598.75
453.089	3160.75
453.31	2964.75
453.53	2937.75
453.751	3019.75
453.971	3227.75
454.192	3071.75
454.412	2748.75
454.633	2522.75
454.853	2515.75
455.073	2433.75
455.294	2440.75
455.514	2432.75
455.734	2418.75
455.955	2409.75
456.175	2396.75
456.395	2405.75
456.616	2435.75
456.836	2425.75
457.056	2479.75
457.276	2455.75
457.497	2634.75
457.717	2633.75
457.937	2510.75
458.157	2513.75
458.377	2541.75
458.598	2541.75
458.818	2597.75
459.038	2608.75
459.258	2631.75
459.478	2644.75
459.698	2646.75
459.918	2698.75
460.138	2698.75
460.358	2780.75
460.578	2834.75
460.798	2818.75
461.018	2825.75
461.238	2835.75
461.458	2840.75
461.678	2887.75
461.898	2955.75
462.118	3018.75
462.338	3035.75
462.558	3065.75
462.777	3100.75
462.997	3237.75
463.217	3379.75
463.437	3519.75
463.657	3532.75
463.876	3537.75
464.096	3362.75
464.316	3191.75
464.536	3128.75
464.755	3097.75
464.975	3006.75
465.195	2868.75
465.414	2796.75
465.634	2740.75
465.854	2722.75
466.073	2710.75
466.293	2695.75
466.512	2648.75
466.732	2677.75
466.951	2797.75
467.171	2985.75
467.391	2982.75
467.61	2746.75
467.829	2588.75
468.049	2610.75
468.268	2558.75
468.488	2530.75
468.707	2540.75
468.927	2523.75
469.146	2579.75
469.365	2633.75
469.585	2600.75
469.804	2690.75
470.023	2728.75
470.243	2733.75
470.462	2868.75
470.681	2997.75
470.901	3299.75
471.12	3789.75
471.339	3834.75
471.558	3161.75
471.777	2893.75
471.997	2770.75
472.216	2700.75
472.435	2642.75
472.654	2620.75
472.873	2555.75
473.092	2568.75
473.311	2526.75
473.53	2615.75
473.749	2720.75
473.968	2761.75
474.187	2614.75
474.406	2580.75
474.625	2584.75
474.844	2627.75
475.063	2608.75
475.282	2654.75
475.501	2576.75
475.72	2638.75
475.939	2672.75
476.158	2674.75
476.377	2724.75
476.596	2777.75
476.814	2751.75
477.033	2728.75
477.252	2782.75
477.471	2801.75
477.69	2812.75
477.908	2953.75
478.127	3005.75
478.346	2969.75
478.564	2986.75
478.783	3022.75
479.002	3065.75
479.22	3098.75
479.439	3110.75
479.658	3081.75
479.876	3095.75
480.095	3147.75
480.313	3229.75
480.532	3258.75
480.751	3224.75
480.969	3136.75
481.188	3177.75
481.406	3132.75
481.624	3137.75
481.843	3184.75
482.061	3155.75
482.28	3194.75
482.498	3079.75
482.717	3107.75
482.935	3190.75
483.153	3238.75
483.372	3188.75
483.59	3284.75
483.808	3283.75
484.027	3443.75
484.245	3585.75
484.463	4113.75
484.681	4576.75
484.9	4140.75
485.118	3860.75
485.336	3719.75
485.554	3755.75
485.772	4056.75
485.99	4626.75
486.209	4931.75
486.427	4142.75
486.645	3639.75
486.863	3493.75
487.081	3451.75
487.299	3396.75
487.517	3356.75
487.735	3395.75
