Data from SnStandardFlinnAPT0064_LampEnergy10_LIBS07252019.E.O._I.C._HRD10591_15-21-49-494.txt Node
Date: Thu Jul 25 15:21:49 EDT 2019
User: cochatt
Spectrometer: HR+D1059
Trigger mode: 1
Integration Time (sec): 1.000000E-1
Scans to average: 1
Electric dark correction enabled: true
Nonlinearity correction enabled: false
Boxcar width: 0
XAxis mode: Wavelengths
Number of Pixels in Spectrum: 2048
>>>>>Begin Spectral Data<<<<<
223.165	-14.25
223.4	-14.25
223.635	-14.25
223.869	-13.25
224.104	-22.25
224.338	-11.25
224.573	-17.25
224.808	-13.25
225.042	-1.25
225.277	2.75
225.511	-12.25
225.746	14.75
225.98	-2.25
226.215	27.75
226.449	17.75
226.683	14.75
226.918	5.75
227.152	23.75
227.387	29.75
227.621	39.75
227.856	35.75
228.09	42.75
228.324	56.75
228.559	55.75
228.793	108.75
229.027	299.75
229.262	329.75
229.496	310.75
229.73	279.75
229.964	301.75
230.199	298.75
230.433	297.75
230.667	298.75
230.901	311.75
231.136	340.75
231.37	369.75
231.604	394.75
231.838	457.75
232.072	519.75
232.306	562.75
232.541	497.75
232.775	404.75
233.009	408.75
233.243	421.75
233.477	465.75
233.711	504.75
233.945	610.75
234.179	527.75
234.413	457.75
234.647	431.75
234.881	467.75
235.115	549.75
235.349	607.75
235.583	740.75
235.817	1009.75
236.051	980.75
236.285	658.75
236.519	518.75
236.753	487.75
236.987	511.75
237.221	549.75
237.455	526.75
237.689	469.75
237.922	463.75
238.156	475.75
238.39	509.75
238.624	513.75
238.858	489.75
239.091	509.75
239.325	512.75
239.559	529.75
239.793	509.75
240.027	543.75
240.26	550.75
240.494	555.75
240.728	598.75
240.961	625.75
241.195	663.75
241.429	677.75
241.662	706.75
241.896	792.75
242.13	963.75
242.363	1262.75
242.597	1582.75
242.83	1557.75
243.064	1571.75
243.298	1795.75
243.531	1493.75
243.765	969.75
243.998	766.75
244.232	707.75
244.465	679.75
244.699	676.75
244.932	659.75
245.166	659.75
245.399	693.75
245.633	703.75
245.866	689.75
246.099	678.75
246.333	655.75
246.566	630.75
246.8	643.75
247.033	637.75
247.266	659.75
247.5	660.75
247.733	686.75
247.966	735.75
248.2	775.75
248.433	893.75
248.666	993.75
248.899	953.75
249.133	859.75
249.366	897.75
249.599	974.75
249.832	1099.75
250.066	1104.75
250.299	874.75
250.532	798.75
250.765	774.75
250.998	763.75
251.231	751.75
251.465	717.75
251.698	747.75
251.931	738.75
252.164	769.75
252.397	754.75
252.63	801.75
252.863	793.75
253.096	810.75
253.329	783.75
253.562	814.75
253.795	820.75
254.028	807.75
254.261	841.75
254.494	895.75
254.727	1036.75
254.96	1254.75
255.193	1228.75
255.426	985.75
255.659	886.75
255.892	888.75
256.124	857.75
256.357	897.75
256.59	939.75
256.823	990.75
257.056	1146.75
257.289	1411.75
257.521	1508.75
257.754	1217.75
257.987	964.75
258.22	920.75
258.452	927.75
258.685	951.75
258.918	951.75
259.151	990.75
259.383	1119.75
259.616	1214.75
259.849	1282.75
260.081	1095.75
260.314	988.75
260.547	981.75
260.779	969.75
261.012	960.75
261.244	975.75
261.477	987.75
261.71	988.75
261.942	1001.75
262.175	1012.75
262.407	1070.75
262.64	1103.75
262.872	1134.75
263.105	1182.75
263.337	1239.75
263.57	1292.75
263.802	1316.75
264.035	1359.75
264.267	1358.75
264.499	1402.75
264.732	1467.75
264.964	1467.75
265.197	1498.75
265.429	1472.75
265.661	1479.75
265.894	1635.75
266.126	1759.75
266.358	1992.75
266.591	1956.75
266.823	1659.75
267.055	1479.75
267.287	1387.75
267.52	1375.75
267.752	1301.75
267.984	1305.75
268.216	1266.75
268.448	1283.75
268.681	1241.75
268.913	1249.75
269.145	1266.75
269.377	1235.75
269.609	1258.75
269.841	1266.75
270.073	1388.75
270.306	1613.75
270.538	2190.75
270.77	3195.75
271.002	3924.75
271.234	2780.75
271.466	1881.75
271.698	1526.75
271.93	1401.75
272.162	1333.75
272.394	1313.75
272.626	1268.75
272.858	1244.75
273.09	1239.75
273.322	1220.75
273.553	1224.75
273.785	1205.75
274.017	1190.75
274.249	1203.75
274.481	1204.75
274.713	1225.75
274.945	1272.75
275.176	1217.75
275.408	1224.75
275.64	1237.75
275.872	1235.75
276.104	1275.75
276.335	1303.75
276.567	1299.75
276.799	1285.75
277.031	1316.75
277.262	1340.75
277.494	1409.75
277.726	1589.75
277.957	1839.75
278.189	2151.75
278.421	1997.75
278.652	1809.75
278.884	1689.75
279.115	1509.75
279.347	1445.75
279.579	1416.75
279.81	1379.75
280.042	1411.75
280.273	1451.75
280.505	1469.75
280.736	1492.75
280.968	1608.75
281.199	1841.75
281.431	2063.75
281.662	2125.75
281.894	1808.75
282.125	1633.75
282.356	1658.75
282.588	1672.75
282.819	1749.75
283.051	1846.75
283.282	1984.75
283.513	2471.75
283.745	3652.75
283.976	5612.75
284.207	8043.75
284.439	7334.75
284.67	4586.75
284.901	3697.75
285.132	3708.75
285.364	3636.75
285.595	2766.75
285.826	2473.75
286.057	2831.75
286.288	3803.75
286.52	5216.75
286.751	4887.75
286.982	3051.75
287.213	2284.75
287.444	2001.75
287.675	1897.75
287.906	1814.75
288.138	1754.75
288.369	1657.75
288.6	1679.75
288.831	1686.75
289.062	1702.75
289.293	1681.75
289.524	1726.75
289.755	1706.75
289.986	1753.75
290.217	1749.75
290.448	1743.75
290.679	1785.75
290.91	1816.75
291.141	1890.75
291.371	2079.75
291.602	2136.75
291.833	1943.75
292.064	1756.75
292.295	1727.75
292.526	1682.75
292.757	1643.75
292.987	1625.75
293.218	1576.75
293.449	1616.75
293.68	1641.75
293.91	1593.75
294.141	1634.75
294.372	1581.75
294.603	1597.75
294.833	1546.75
295.064	1612.75
295.295	1559.75
295.525	1577.75
295.756	1588.75
295.987	1574.75
296.217	1607.75
296.448	1573.75
296.679	1575.75
296.909	1601.75
297.14	1601.75
297.37	1639.75
297.601	1689.75
297.831	1645.75
298.062	1661.75
298.292	1663.75
298.523	1660.75
298.753	1734.75
298.984	1727.75
299.214	1702.75
299.445	1759.75
299.675	1764.75
299.905	1822.75
300.136	1943.75
300.366	2126.75
300.597	2778.75
300.827	3851.75
301.057	5233.75
301.288	5237.75
301.518	3351.75
301.748	2597.75
301.979	2398.75
302.209	2310.75
302.439	2333.75
302.669	2466.75
302.9	3004.75
303.13	4136.75
303.36	6118.75
303.59	8172.75
303.82	7055.75
304.051	4279.75
304.281	3048.75
304.511	2549.75
304.741	2359.75
304.971	2203.75
305.201	2074.75
305.431	2044.75
305.661	1979.75
305.891	1955.75
306.121	1905.75
306.352	1866.75
306.582	1879.75
306.812	1844.75
307.042	1875.75
307.272	1862.75
307.502	1859.75
307.731	1831.75
307.961	1842.75
308.191	1849.75
308.421	1822.75
308.651	1823.75
308.881	1826.75
309.111	1847.75
309.341	1822.75
309.571	1854.75
309.8	1883.75
310.03	1911.75
310.26	1902.75
310.49	1843.75
310.72	1881.75
310.949	1873.75
311.179	1927.75
311.409	1922.75
311.639	1935.75
311.868	1934.75
312.098	1949.75
312.328	1956.75
312.557	2019.75
312.787	2004.75
313.017	2030.75
313.246	2022.75
313.476	2068.75
313.706	2122.75
313.935	2225.75
314.165	2391.75
314.394	2503.75
314.624	2386.75
314.853	2177.75
315.083	2199.75
315.312	2237.75
315.542	2212.75
315.771	2227.75
316.001	2287.75
316.23	2348.75
316.46	2450.75
316.689	2690.75
316.919	3239.75
317.148	4574.75
317.377	7068.75
317.607	10374.75
317.836	10825.75
318.065	6561.75
318.295	4201.75
318.524	3431.75
318.753	2992.75
318.983	2767.75
319.212	2601.75
319.441	2478.75
319.67	2511.75
319.9	2396.75
320.129	2373.75
320.358	2362.75
320.587	2398.75
320.816	2377.75
321.046	2397.75
321.275	2377.75
321.504	2434.75
321.733	2453.75
321.962	2532.75
322.191	2569.75
322.42	2531.75
322.649	2563.75
322.878	2520.75
323.108	2533.75
323.337	2562.75
323.566	2600.75
323.795	2638.75
324.024	2741.75
324.253	2766.75
324.482	2868.75
324.71	3021.75
324.939	3259.75
325.168	3268.75
325.397	3403.75
325.626	4017.75
325.855	5655.75
326.084	8715.75
326.313	12631.75
326.542	13329.75
326.77	8991.75
326.999	5978.75
327.228	4993.75
327.457	4751.75
327.686	4813.75
327.914	5177.75
328.143	6095.75
328.372	7327.75
328.6	7973.75
328.829	6991.75
329.058	5943.75
329.287	5162.75
329.515	4716.75
329.744	4298.75
329.972	4132.75
330.201	3990.75
330.43	3820.75
330.658	3659.75
330.887	3622.75
331.115	3577.75
331.344	3544.75
331.572	3521.75
331.801	3485.75
332.03	3546.75
332.258	3619.75
332.486	3800.75
332.715	4309.75
332.943	5410.75
333.172	6623.75
333.4	6579.75
333.629	5035.75
333.857	4537.75
334.085	4564.75
334.314	4789.75
334.542	5230.75
334.771	6159.75
334.999	7539.75
335.227	9501.75
335.455	10621.75
335.684	9613.75
335.912	7833.75
336.14	6587.75
336.369	5797.75
336.597	5276.75
336.825	4896.75
337.053	4626.75
337.281	4339.75
337.51	4115.75
337.738	3978.75
337.966	3819.75
338.194	3625.75
338.422	3543.75
338.65	3419.75
338.878	3349.75
339.106	3315.75
339.334	3246.75
339.562	3161.75
339.79	3113.75
340.018	3190.75
340.246	3066.75
340.474	3077.75
340.702	3083.75
340.93	3062.75
341.158	3100.75
341.386	3007.75
341.614	3076.75
341.842	2938.75
342.07	2939.75
342.298	2886.75
342.526	2851.75
342.754	2779.75
342.981	2753.75
343.209	2745.75
343.437	2837.75
343.665	2878.75
343.893	2869.75
344.12	2885.75
344.348	2805.75
344.576	2775.75
344.804	2751.75
345.031	2662.75
345.259	2709.75
345.487	2599.75
345.714	2628.75
345.942	2588.75
346.17	2555.75
346.397	2619.75
346.625	2603.75
346.853	2549.75
347.08	2558.75
347.308	2596.75
347.535	2565.75
347.763	2565.75
347.99	2499.75
348.218	2510.75
348.445	2521.75
348.673	2489.75
348.9	2516.75
349.128	2460.75
349.355	2428.75
349.583	2509.75
349.81	2465.75
350.037	2433.75
350.265	2409.75
350.492	2464.75
350.72	2429.75
350.947	2455.75
351.174	2448.75
351.402	2453.75
351.629	2438.75
351.856	2395.75
352.083	2410.75
352.311	2439.75
352.538	2392.75
352.765	2427.75
352.992	2455.75
353.22	2390.75
353.447	2398.75
353.674	2434.75
353.901	2437.75
354.128	2444.75
354.355	2412.75
354.583	2450.75
354.81	2489.75
355.037	2493.75
355.264	2501.75
355.491	2531.75
355.718	2542.75
355.945	2516.75
356.172	2552.75
356.399	2491.75
356.626	2475.75
356.853	2547.75
357.08	2537.75
357.307	2590.75
357.534	2639.75
357.761	2613.75
357.988	2647.75
358.215	2597.75
358.441	2616.75
358.668	2580.75
358.895	2627.75
359.122	2521.75
359.349	2562.75
359.576	2581.75
359.802	2633.75
360.029	2568.75
360.256	2572.75
360.483	2593.75
360.709	2594.75
360.936	2624.75
361.163	2576.75
361.39	2593.75
361.616	2645.75
361.843	2661.75
362.07	2622.75
362.296	2607.75
362.523	2637.75
362.749	2601.75
362.976	2622.75
363.203	2615.75
363.429	2549.75
363.656	2575.75
363.882	2611.75
364.109	2601.75
364.335	2573.75
364.562	2520.75
364.788	2590.75
365.015	2659.75
365.241	2711.75
365.468	2884.75
365.694	2986.75
365.92	2907.75
366.147	2678.75
366.373	2693.75
366.599	2677.75
366.826	2625.75
367.052	2632.75
367.278	2664.75
367.505	2656.75
367.731	2674.75
367.957	2656.75
368.184	2655.75
368.41	2712.75
368.636	2723.75
368.862	2705.75
369.089	2713.75
369.315	2674.75
369.541	2716.75
369.767	2686.75
369.993	2689.75
370.219	2685.75
370.445	2728.75
370.672	2723.75
370.898	2677.75
371.124	2772.75
371.35	2828.75
371.576	2835.75
371.802	2793.75
372.028	2821.75
372.254	2833.75
372.48	2811.75
372.706	2818.75
372.932	2813.75
373.158	2793.75
373.384	2833.75
373.61	2856.75
373.835	2827.75
374.061	2848.75
374.287	2915.75
374.513	2917.75
374.739	2945.75
374.965	2955.75
375.191	2939.75
375.416	2957.75
375.642	2893.75
375.868	2897.75
376.094	2920.75
376.319	2830.75
376.545	2846.75
376.771	2822.75
376.997	2809.75
377.222	2811.75
377.448	2760.75
377.674	2773.75
377.899	2761.75
378.125	2749.75
378.35	2759.75
378.576	2760.75
378.802	2862.75
379.027	2918.75
379.253	2910.75
379.478	3125.75
379.704	3641.75
379.929	5165.75
380.155	7948.75
380.38	8629.75
380.606	5257.75
380.831	3749.75
381.057	3303.75
381.282	2999.75
381.507	2882.75
381.733	2831.75
381.958	2811.75
382.184	2765.75
382.409	2759.75
382.634	2774.75
382.86	2755.75
383.085	2696.75
383.31	2705.75
383.535	2781.75
383.761	2749.75
383.986	2765.75
384.211	2786.75
384.436	2792.75
384.662	2819.75
384.887	2795.75
385.112	2785.75
385.337	2817.75
385.562	2843.75
385.787	2821.75
386.013	2853.75
386.238	2834.75
386.463	2831.75
386.688	2835.75
386.913	2767.75
387.138	2817.75
387.363	2830.75
387.588	2814.75
387.813	2872.75
388.038	2778.75
388.263	2839.75
388.488	2822.75
388.713	2830.75
388.938	2809.75
389.163	2765.75
389.387	2777.75
389.612	2755.75
389.837	2821.75
390.062	2801.75
390.287	2842.75
390.512	2849.75
390.736	2887.75
390.961	2984.75
391.186	2941.75
391.411	2940.75
391.636	2915.75
391.86	2980.75
392.085	2939.75
392.31	2953.75
392.534	2918.75
392.759	2938.75
392.984	2893.75
393.208	2913.75
393.433	2977.75
393.658	2938.75
393.882	2773.75
394.107	2800.75
394.331	2871.75
394.556	2867.75
394.78	2860.75
395.005	2908.75
395.229	2898.75
395.454	2909.75
395.678	2930.75
395.903	2943.75
396.127	2933.75
396.352	2924.75
396.576	2937.75
396.801	2931.75
397.025	2984.75
397.249	3019.75
397.474	2945.75
397.698	3004.75
397.922	3003.75
398.147	2980.75
398.371	3037.75
398.595	3076.75
398.82	3142.75
399.044	3261.75
399.268	3363.75
399.492	3569.75
399.717	3702.75
399.941	3677.75
400.165	3580.75
400.389	3398.75
400.613	3299.75
400.837	3195.75
401.062	3154.75
401.286	3157.75
401.51	3117.75
401.734	3043.75
401.958	3120.75
402.182	3103.75
402.406	3088.75
402.63	3118.75
402.854	3092.75
403.078	3156.75
403.302	3144.75
403.526	3218.75
403.75	3219.75
403.974	3216.75
404.198	3175.75
404.422	3183.75
404.645	3195.75
404.869	3185.75
405.093	3246.75
405.317	3268.75
405.541	3264.75
405.765	3285.75
405.988	3335.75
406.212	3331.75
406.436	3308.75
406.66	3324.75
406.883	3339.75
407.107	3443.75
407.331	3473.75
407.555	3581.75
407.778	3521.75
408.002	3474.75
408.226	3424.75
408.449	3436.75
408.673	3307.75
408.896	3217.75
409.12	3269.75
409.344	3292.75
409.567	3222.75
409.791	3237.75
410.014	3225.75
410.238	3181.75
410.461	3226.75
410.685	3156.75
410.908	3098.75
411.132	3113.75
411.355	3090.75
411.578	3159.75
411.802	3126.75
412.025	3089.75
412.249	3146.75
412.472	3070.75
412.695	3085.75
412.919	3062.75
413.142	3041.75
413.365	3049.75
413.589	3022.75
413.812	3029.75
414.035	2977.75
414.258	3065.75
414.482	3029.75
414.705	3043.75
414.928	3022.75
415.151	3036.75
415.374	3002.75
415.597	2944.75
415.821	2934.75
416.044	2897.75
416.267	2924.75
416.49	2944.75
416.713	2915.75
416.936	2903.75
417.159	2848.75
417.382	2859.75
417.605	2857.75
417.828	2889.75
418.051	2947.75
418.274	2947.75
418.497	2935.75
418.72	2998.75
418.943	2940.75
419.166	3082.75
419.389	3275.75
419.611	3190.75
419.834	3136.75
420.057	3069.75
420.28	2986.75
420.503	2902.75
420.726	2884.75
420.948	2943.75
421.171	2875.75
421.394	2973.75
421.617	2861.75
421.839	2918.75
422.062	2979.75
422.285	2875.75
422.507	2942.75
422.73	3008.75
422.953	3041.75
423.175	3039.75
423.398	2939.75
423.621	2921.75
423.843	2917.75
424.066	2897.75
424.288	2921.75
424.511	2867.75
424.733	2899.75
424.956	2879.75
425.178	2891.75
425.401	2918.75
425.623	2839.75
425.846	2787.75
426.068	2853.75
426.291	2820.75
426.513	2812.75
426.735	2755.75
426.958	2777.75
427.18	2742.75
427.402	2734.75
427.625	2740.75
427.847	2721.75
428.069	2737.75
428.292	2788.75
428.514	2652.75
428.736	2666.75
428.958	2711.75
429.181	2689.75
429.403	2655.75
429.625	2662.75
429.847	2684.75
430.069	2791.75
430.292	2813.75
430.514	2890.75
430.736	2889.75
430.958	2715.75
431.18	2687.75
431.402	2667.75
431.624	2626.75
431.846	2681.75
432.068	2661.75
432.29	2649.75
432.512	2610.75
432.734	2665.75
432.956	2671.75
433.178	2651.75
433.4	2669.75
433.622	2669.75
433.844	2684.75
434.066	2668.75
434.287	2693.75
434.509	2756.75
434.731	2764.75
434.953	2773.75
435.175	2765.75
435.397	2779.75
435.618	2785.75
435.84	2734.75
436.062	2680.75
436.284	2642.75
436.505	2627.75
436.727	2656.75
436.949	2681.75
437.17	2702.75
437.392	2641.75
437.614	2583.75
437.835	2568.75
438.057	2568.75
438.278	2563.75
438.5	2613.75
438.721	2654.75
438.943	2725.75
439.165	2758.75
439.386	2778.75
439.608	2743.75
439.829	2777.75
440.05	2856.75
440.272	2876.75
440.493	2781.75
440.715	2739.75
440.936	2743.75
441.158	2807.75
441.379	2830.75
441.6	2896.75
441.822	2965.75
442.043	3099.75
442.264	3206.75
442.486	2998.75
442.707	2927.75
442.928	2903.75
443.149	2890.75
443.371	2794.75
443.592	2867.75
443.813	2893.75
444.034	2867.75
444.255	2958.75
444.476	2978.75
444.698	3044.75
444.919	3025.75
445.14	3129.75
445.361	3054.75
445.582	2934.75
445.803	2878.75
446.024	2817.75
446.245	2835.75
446.466	2838.75
446.687	2791.75
446.908	2775.75
447.129	2735.75
447.35	2705.75
447.571	2667.75
447.792	2630.75
448.013	2605.75
448.234	2594.75
448.455	2628.75
448.675	2665.75
448.896	2751.75
449.117	2781.75
449.338	3028.75
449.559	3140.75
449.779	2877.75
450	2624.75
450.221	2637.75
450.442	2603.75
450.662	2589.75
450.883	2569.75
451.104	2588.75
451.324	2565.75
451.545	2613.75
451.766	2605.75
451.986	2673.75
452.207	2861.75
452.428	3681.75
452.648	5543.75
452.869	4537.75
453.089	3147.75
453.31	2998.75
453.53	2972.75
453.751	3009.75
453.971	3223.75
454.192	3148.75
454.412	2695.75
454.633	2576.75
454.853	2537.75
455.073	2487.75
455.294	2487.75
455.514	2440.75
455.734	2443.75
455.955	2435.75
456.175	2514.75
456.395	2460.75
456.616	2489.75
456.836	2515.75
457.056	2491.75
457.276	2476.75
457.497	2699.75
457.717	2698.75
457.937	2603.75
458.157	2617.75
458.377	2602.75
458.598	2627.75
458.818	2621.75
459.038	2630.75
459.258	2638.75
459.478	2703.75
459.698	2721.75
459.918	2741.75
460.138	2796.75
460.358	2831.75
460.578	2866.75
460.798	2900.75
461.018	2911.75
461.238	2909.75
461.458	2936.75
461.678	2957.75
461.898	2994.75
462.118	3046.75
462.338	3101.75
462.558	3115.75
462.777	3191.75
462.997	3284.75
463.217	3445.75
463.437	3512.75
463.657	3605.75
463.876	3649.75
464.096	3404.75
464.316	3238.75
464.536	3211.75
464.755	3189.75
464.975	3091.75
465.195	2987.75
465.414	2876.75
465.634	2776.75
465.854	2779.75
466.073	2723.75
466.293	2733.75
466.512	2668.75
466.732	2692.75
466.951	2865.75
467.171	3063.75
467.391	2946.75
467.61	2771.75
467.829	2647.75
468.049	2651.75
468.268	2625.75
468.488	2599.75
468.707	2618.75
468.927	2595.75
469.146	2623.75
469.365	2711.75
469.585	2639.75
469.804	2734.75
470.023	2738.75
470.243	2767.75
470.462	2862.75
470.681	3004.75
470.901	3324.75
471.12	3746.75
471.339	3806.75
471.558	3150.75
471.777	2920.75
471.997	2778.75
472.216	2693.75
472.435	2703.75
472.654	2627.75
472.873	2622.75
473.092	2581.75
473.311	2672.75
473.53	2682.75
473.749	2707.75
473.968	2819.75
474.187	2656.75
474.406	2647.75
474.625	2677.75
474.844	2661.75
475.063	2686.75
475.282	2668.75
475.501	2654.75
475.72	2702.75
475.939	2721.75
476.158	2793.75
476.377	2795.75
476.596	2775.75
476.814	2802.75
477.033	2751.75
477.252	2829.75
477.471	2863.75
477.69	2921.75
477.908	2931.75
478.127	2995.75
478.346	2988.75
478.564	3073.75
478.783	3065.75
479.002	3112.75
479.22	3141.75
479.439	3127.75
479.658	3141.75
479.876	3205.75
480.095	3242.75
480.313	3198.75
480.532	3255.75
480.751	3262.75
480.969	3264.75
481.188	3242.75
481.406	3166.75
481.624	3227.75
481.843	3203.75
482.061	3250.75
482.28	3179.75
482.498	3199.75
482.717	3239.75
482.935	3233.75
483.153	3272.75
483.372	3351.75
483.59	3342.75
483.808	3414.75
484.027	3527.75
484.245	3667.75
484.463	4127.75
484.681	4541.75
484.9	4174.75
485.118	3915.75
485.336	3706.75
485.554	3869.75
485.772	4093.75
485.99	4604.75
486.209	4869.75
486.427	4126.75
486.645	3717.75
486.863	3605.75
487.081	3479.75
487.299	3471.75
487.517	3415.75
487.735	3365.75
