Data from SnStandardFlinnAPT0064_QswitchEnergy10_LIBS07252019.E.O._I.C._HRD10591_15-28-31-974.txt Node
Date: Thu Jul 25 15:28:31 EDT 2019
User: cochatt
Spectrometer: HR+D1059
Trigger mode: 1
Integration Time (sec): 1.000000E-1
Scans to average: 1
Electric dark correction enabled: true
Nonlinearity correction enabled: false
Boxcar width: 0
XAxis mode: Wavelengths
Number of Pixels in Spectrum: 2048
>>>>>Begin Spectral Data<<<<<
223.165	-18.62
223.4	-18.62
223.635	-18.62
223.869	-15.62
224.104	-19.62
224.338	-20.62
224.573	-12.62
224.808	-10.62
225.042	-9.62
225.277	-7.62
225.511	0.38
225.746	8.38
225.98	4.38
226.215	19.38
226.449	2.38
226.683	22.38
226.918	20.38
227.152	37.38
227.387	35.38
227.621	34.38
227.856	35.38
228.09	40.38
228.324	46.38
228.559	55.38
228.793	69.38
229.027	69.38
229.262	64.38
229.496	74.38
229.73	65.38
229.964	90.38
230.199	72.38
230.433	85.38
230.667	70.38
230.901	89.38
231.136	83.38
231.37	89.38
231.604	99.38
231.838	106.38
232.072	112.38
232.306	126.38
232.541	106.38
232.775	80.38
233.009	84.38
233.243	90.38
233.477	91.38
233.711	96.38
233.945	112.38
234.179	112.38
234.413	93.38
234.647	80.38
234.881	100.38
235.115	96.38
235.349	97.38
235.583	112.38
235.817	135.38
236.051	150.38
236.285	95.38
236.519	85.38
236.753	79.38
236.987	80.38
237.221	83.38
237.455	66.38
237.689	82.38
237.922	81.38
238.156	84.38
238.39	98.38
238.624	88.38
238.858	98.38
239.091	85.38
239.325	74.38
239.559	72.38
239.793	83.38
240.027	91.38
240.26	74.38
240.494	79.38
240.728	84.38
240.961	72.38
241.195	103.38
241.429	102.38
241.662	86.38
241.896	91.38
242.13	108.38
242.363	133.38
242.597	177.38
242.83	151.38
243.064	143.38
243.298	179.38
243.531	168.38
243.765	104.38
243.998	91.38
244.232	97.38
244.465	101.38
244.699	92.38
244.932	74.38
245.166	65.38
245.399	81.38
245.633	92.38
245.866	93.38
246.099	81.38
246.333	78.38
246.566	86.38
246.8	81.38
247.033	77.38
247.266	73.38
247.5	90.38
247.733	98.38
247.966	86.38
248.2	88.38
248.433	124.38
248.666	134.38
248.899	122.38
249.133	83.38
249.366	98.38
249.599	105.38
249.832	131.38
250.066	150.38
250.299	91.38
250.532	91.38
250.765	86.38
250.998	73.38
251.231	70.38
251.465	73.38
251.698	75.38
251.931	99.38
252.164	96.38
252.397	85.38
252.63	98.38
252.863	100.38
253.096	80.38
253.329	102.38
253.562	108.38
253.795	100.38
254.028	88.38
254.261	91.38
254.494	94.38
254.727	124.38
254.96	162.38
255.193	126.38
255.426	98.38
255.659	87.38
255.892	118.38
256.124	110.38
256.357	105.38
256.59	117.38
256.823	95.38
257.056	138.38
257.289	159.38
257.521	193.38
257.754	135.38
257.987	104.38
258.22	89.38
258.452	91.38
258.685	100.38
258.918	81.38
259.151	109.38
259.383	111.38
259.616	145.38
259.849	162.38
260.081	114.38
260.314	95.38
260.547	86.38
260.779	94.38
261.012	92.38
261.244	79.38
261.477	97.38
261.71	79.38
261.942	92.38
262.175	95.38
262.407	86.38
262.64	87.38
262.872	84.38
263.105	95.38
263.337	75.38
263.57	80.38
263.802	96.38
264.035	83.38
264.267	88.38
264.499	95.38
264.732	75.38
264.964	85.38
265.197	92.38
265.429	98.38
265.661	95.38
265.894	109.38
266.126	137.38
266.358	189.38
266.591	160.38
266.823	124.38
267.055	103.38
267.287	86.38
267.52	86.38
267.752	76.38
267.984	82.38
268.216	86.38
268.448	83.38
268.681	85.38
268.913	88.38
269.145	98.38
269.377	94.38
269.609	105.38
269.841	105.38
270.073	114.38
270.306	140.38
270.538	210.38
270.77	352.38
271.002	434.38
271.234	235.38
271.466	120.38
271.698	111.38
271.93	98.38
272.162	96.38
272.394	104.38
272.626	85.38
272.858	99.38
273.09	89.38
273.322	88.38
273.553	85.38
273.785	85.38
274.017	72.38
274.249	85.38
274.481	106.38
274.713	95.38
274.945	97.38
275.176	91.38
275.408	99.38
275.64	89.38
275.872	93.38
276.104	94.38
276.335	103.38
276.567	107.38
276.799	91.38
277.031	94.38
277.262	87.38
277.494	112.38
277.726	147.38
277.957	216.38
278.189	325.38
278.421	284.38
278.652	243.38
278.884	220.38
279.115	147.38
279.347	110.38
279.579	120.38
279.81	106.38
280.042	100.38
280.273	84.38
280.505	104.38
280.736	112.38
280.968	139.38
281.199	208.38
281.431	274.38
281.662	294.38
281.894	175.38
282.125	124.38
282.356	112.38
282.588	109.38
282.819	110.38
283.051	126.38
283.282	162.38
283.513	216.38
283.745	358.38
283.976	630.38
284.207	914.38
284.439	692.38
284.67	302.38
284.901	303.38
285.132	406.38
285.364	460.38
285.595	234.38
285.826	198.38
286.057	308.38
286.288	497.38
286.52	719.38
286.751	571.38
286.982	222.38
287.213	152.38
287.444	126.38
287.675	113.38
287.906	96.38
288.138	97.38
288.369	94.38
288.6	95.38
288.831	94.38
289.062	97.38
289.293	106.38
289.524	103.38
289.755	93.38
289.986	116.38
290.217	104.38
290.448	106.38
290.679	103.38
290.91	141.38
291.141	188.38
291.371	307.38
291.602	344.38
291.833	224.38
292.064	119.38
292.295	96.38
292.526	102.38
292.757	101.38
292.987	101.38
293.218	97.38
293.449	102.38
293.68	90.38
293.91	95.38
294.141	80.38
294.372	99.38
294.603	92.38
294.833	91.38
295.064	96.38
295.295	100.38
295.525	92.38
295.756	103.38
295.987	86.38
296.217	92.38
296.448	94.38
296.679	89.38
296.909	97.38
297.14	106.38
297.37	98.38
297.601	98.38
297.831	104.38
298.062	95.38
298.292	110.38
298.523	99.38
298.753	103.38
298.984	110.38
299.214	119.38
299.445	120.38
299.675	104.38
299.905	134.38
300.136	153.38
300.366	185.38
300.597	317.38
300.827	515.38
301.057	807.38
301.288	721.38
301.518	304.38
301.748	155.38
301.979	150.38
302.209	140.38
302.439	168.38
302.669	180.38
302.9	319.38
303.13	593.38
303.36	1060.38
303.59	1447.38
303.82	1003.38
304.051	357.38
304.281	176.38
304.511	146.38
304.741	133.38
304.971	118.38
305.201	116.38
305.431	119.38
305.661	119.38
305.891	117.38
306.121	97.38
306.352	117.38
306.582	98.38
306.812	102.38
307.042	131.38
307.272	112.38
307.502	118.38
307.731	110.38
307.961	114.38
308.191	101.38
308.421	111.38
308.651	119.38
308.881	111.38
309.111	112.38
309.341	113.38
309.571	110.38
309.8	119.38
310.03	117.38
310.26	107.38
310.49	112.38
310.72	110.38
310.949	115.38
311.179	112.38
311.409	122.38
311.639	127.38
311.868	108.38
312.098	115.38
312.328	117.38
312.557	129.38
312.787	120.38
313.017	126.38
313.246	97.38
313.476	118.38
313.706	150.38
313.935	175.38
314.165	240.38
314.394	284.38
314.624	210.38
314.853	116.38
315.083	139.38
315.312	121.38
315.542	146.38
315.771	158.38
316.001	155.38
316.23	155.38
316.46	162.38
316.689	202.38
316.919	284.38
317.148	608.38
317.377	1088.38
317.607	1797.38
317.836	1641.38
318.065	628.38
318.295	265.38
318.524	170.38
318.753	155.38
318.983	135.38
319.212	129.38
319.441	136.38
319.67	126.38
319.9	129.38
320.129	134.38
320.358	137.38
320.587	140.38
320.816	122.38
321.046	114.38
321.275	135.38
321.504	136.38
321.733	150.38
321.962	192.38
322.191	201.38
322.42	152.38
322.649	148.38
322.878	138.38
323.108	135.38
323.337	136.38
323.566	150.38
323.795	138.38
324.024	142.38
324.253	152.38
324.482	181.38
324.71	237.38
324.939	324.38
325.168	270.38
325.397	222.38
325.626	287.38
325.855	589.38
326.084	1117.38
326.313	1904.38
326.542	1879.38
326.77	739.38
326.999	300.38
327.228	248.38
327.457	254.38
327.686	258.38
327.914	180.38
328.143	140.38
328.372	136.38
328.6	153.38
328.829	137.38
329.058	138.38
329.287	123.38
329.515	127.38
329.744	131.38
329.972	107.38
330.201	124.38
330.43	122.38
330.658	116.38
330.887	124.38
331.115	121.38
331.344	125.38
331.572	128.38
331.801	117.38
332.03	136.38
332.258	154.38
332.486	201.38
332.715	330.38
332.943	613.38
333.172	915.38
333.4	772.38
333.629	286.38
333.857	149.38
334.085	146.38
334.314	158.38
334.542	136.38
334.771	135.38
334.999	140.38
335.227	134.38
335.455	123.38
335.684	126.38
335.912	110.38
336.14	122.38
336.369	126.38
336.597	119.38
336.825	113.38
337.053	119.38
337.281	117.38
337.51	120.38
337.738	115.38
337.966	118.38
338.194	112.38
338.422	115.38
338.65	131.38
338.878	138.38
339.106	122.38
339.334	131.38
339.562	112.38
339.79	122.38
340.018	115.38
340.246	116.38
340.474	126.38
340.702	119.38
340.93	126.38
341.158	130.38
341.386	111.38
341.614	111.38
341.842	127.38
342.07	123.38
342.298	124.38
342.526	128.38
342.754	111.38
342.981	119.38
343.209	101.38
343.437	132.38
343.665	125.38
343.893	116.38
344.12	127.38
344.348	124.38
344.576	116.38
344.804	129.38
345.031	123.38
345.259	116.38
345.487	124.38
345.714	107.38
345.942	121.38
346.17	106.38
346.397	108.38
346.625	106.38
346.853	115.38
347.08	106.38
347.308	96.38
347.535	98.38
347.763	127.38
347.99	123.38
348.218	108.38
348.445	122.38
348.673	115.38
348.9	126.38
349.128	129.38
349.355	120.38
349.583	123.38
349.81	124.38
350.037	112.38
350.265	118.38
350.492	146.38
350.72	112.38
350.947	120.38
351.174	116.38
351.402	113.38
351.629	126.38
351.856	121.38
352.083	127.38
352.311	123.38
352.538	126.38
352.765	122.38
352.992	121.38
353.22	117.38
353.447	112.38
353.674	100.38
353.901	113.38
354.128	102.38
354.355	114.38
354.583	114.38
354.81	107.38
355.037	120.38
355.264	124.38
355.491	98.38
355.718	95.38
355.945	95.38
356.172	109.38
356.399	104.38
356.626	114.38
356.853	118.38
357.08	105.38
357.307	115.38
357.534	116.38
357.761	106.38
357.988	118.38
358.215	118.38
358.441	122.38
358.668	120.38
358.895	125.38
359.122	112.38
359.349	115.38
359.576	126.38
359.802	116.38
360.029	120.38
360.256	93.38
360.483	117.38
360.709	114.38
360.936	135.38
361.163	113.38
361.39	120.38
361.616	112.38
361.843	110.38
362.07	115.38
362.296	121.38
362.523	119.38
362.749	122.38
362.976	116.38
363.203	103.38
363.429	120.38
363.656	108.38
363.882	106.38
364.109	122.38
364.335	114.38
364.562	118.38
364.788	107.38
365.015	106.38
365.241	145.38
365.468	240.38
365.694	291.38
365.92	244.38
366.147	140.38
366.373	110.38
366.599	98.38
366.826	114.38
367.052	120.38
367.278	110.38
367.505	100.38
367.731	117.38
367.957	110.38
368.184	102.38
368.41	126.38
368.636	124.38
368.862	123.38
369.089	112.38
369.315	104.38
369.541	115.38
369.767	117.38
369.993	111.38
370.219	125.38
370.445	118.38
370.672	121.38
370.898	111.38
371.124	117.38
371.35	103.38
371.576	128.38
371.802	116.38
372.028	116.38
372.254	122.38
372.48	124.38
372.706	121.38
372.932	116.38
373.158	117.38
373.384	140.38
373.61	124.38
373.835	135.38
374.061	111.38
374.287	125.38
374.513	120.38
374.739	105.38
374.965	107.38
375.191	118.38
375.416	101.38
375.642	101.38
375.868	115.38
376.094	107.38
376.319	114.38
376.545	114.38
376.771	112.38
376.997	114.38
377.222	121.38
377.448	106.38
377.674	115.38
377.899	104.38
378.125	114.38
378.35	118.38
378.576	121.38
378.802	130.38
379.027	138.38
379.253	142.38
379.478	202.38
379.704	374.38
379.929	924.38
380.155	1940.38
380.38	2004.38
380.606	625.38
380.831	232.38
381.057	152.38
381.282	133.38
381.507	124.38
381.733	113.38
381.958	127.38
382.184	108.38
382.409	96.38
382.634	105.38
382.86	118.38
383.085	102.38
383.31	96.38
383.535	122.38
383.761	108.38
383.986	107.38
384.211	105.38
384.436	122.38
384.662	107.38
384.887	121.38
385.112	112.38
385.337	114.38
385.562	108.38
385.787	112.38
386.013	117.38
386.238	108.38
386.463	122.38
386.688	106.38
386.913	121.38
387.138	106.38
387.363	111.38
387.588	116.38
387.813	107.38
388.038	108.38
388.263	96.38
388.488	119.38
388.713	100.38
388.938	104.38
389.163	116.38
389.387	106.38
389.612	105.38
389.837	104.38
390.062	99.38
390.287	92.38
390.512	109.38
390.736	110.38
390.961	117.38
391.186	103.38
391.411	105.38
391.636	94.38
391.86	91.38
392.085	107.38
392.31	102.38
392.534	96.38
392.759	94.38
392.984	92.38
393.208	137.38
393.433	176.38
393.658	179.38
393.882	112.38
394.107	86.38
394.331	118.38
394.556	93.38
394.78	100.38
395.005	101.38
395.229	102.38
395.454	120.38
395.678	111.38
395.903	106.38
396.127	101.38
396.352	108.38
396.576	132.38
396.801	117.38
397.025	140.38
397.249	119.38
397.474	99.38
397.698	104.38
397.922	99.38
398.147	108.38
398.371	111.38
398.595	96.38
398.82	91.38
399.044	113.38
399.268	95.38
399.492	92.38
399.717	92.38
399.941	95.38
400.165	110.38
400.389	82.38
400.613	100.38
400.837	98.38
401.062	99.38
401.286	104.38
401.51	102.38
401.734	104.38
401.958	102.38
402.182	103.38
402.406	122.38
402.63	98.38
402.854	96.38
403.078	107.38
403.302	117.38
403.526	90.38
403.75	105.38
403.974	89.38
404.198	102.38
404.422	100.38
404.645	102.38
404.869	107.38
405.093	101.38
405.317	87.38
405.541	97.38
405.765	144.38
405.988	160.38
406.212	128.38
406.436	93.38
406.66	109.38
406.883	100.38
407.107	84.38
407.331	91.38
407.555	100.38
407.778	108.38
408.002	105.38
408.226	95.38
408.449	108.38
408.673	101.38
408.896	107.38
409.12	98.38
409.344	106.38
409.567	103.38
409.791	114.38
410.014	121.38
410.238	111.38
410.461	112.38
410.685	107.38
410.908	94.38
411.132	107.38
411.355	107.38
411.578	103.38
411.802	102.38
412.025	99.38
412.249	94.38
412.472	110.38
412.695	110.38
412.919	105.38
413.142	110.38
413.365	101.38
413.589	99.38
413.812	114.38
414.035	116.38
414.258	123.38
414.482	100.38
414.705	95.38
414.928	107.38
415.151	103.38
415.374	96.38
415.597	97.38
415.821	95.38
416.044	93.38
416.267	102.38
416.49	91.38
416.713	100.38
416.936	95.38
417.159	99.38
417.382	92.38
417.605	87.38
417.828	101.38
418.051	101.38
418.274	108.38
418.497	95.38
418.72	112.38
418.943	108.38
419.166	110.38
419.389	112.38
419.611	116.38
419.834	112.38
420.057	111.38
420.28	107.38
420.503	114.38
420.726	95.38
420.948	85.38
421.171	103.38
421.394	94.38
421.617	95.38
421.839	90.38
422.062	100.38
422.285	115.38
422.507	119.38
422.73	162.38
422.953	198.38
423.175	126.38
423.398	115.38
423.621	101.38
423.843	92.38
424.066	108.38
424.288	99.38
424.511	106.38
424.733	115.38
424.956	114.38
425.178	107.38
425.401	116.38
425.623	96.38
425.846	101.38
426.068	100.38
426.291	89.38
426.513	102.38
426.735	104.38
426.958	114.38
427.18	89.38
427.402	96.38
427.625	110.38
427.847	99.38
428.069	104.38
428.292	103.38
428.514	117.38
428.736	102.38
428.958	101.38
429.181	81.38
429.403	121.38
429.625	102.38
429.847	103.38
430.069	120.38
430.292	103.38
430.514	101.38
430.736	120.38
430.958	110.38
431.18	99.38
431.402	84.38
431.624	102.38
431.846	98.38
432.068	98.38
432.29	91.38
432.512	110.38
432.734	93.38
432.956	105.38
433.178	95.38
433.4	101.38
433.622	97.38
433.844	98.38
434.066	93.38
434.287	105.38
434.509	88.38
434.731	100.38
434.953	83.38
435.175	92.38
435.397	98.38
435.618	88.38
435.84	99.38
436.062	100.38
436.284	97.38
436.505	107.38
436.727	94.38
436.949	101.38
437.17	84.38
437.392	89.38
437.614	88.38
437.835	96.38
438.057	106.38
438.278	100.38
438.5	111.38
438.721	107.38
438.943	84.38
439.165	128.38
439.386	117.38
439.608	102.38
439.829	111.38
440.05	107.38
440.272	129.38
440.493	120.38
440.715	103.38
440.936	104.38
441.158	105.38
441.379	99.38
441.6	111.38
441.822	106.38
442.043	134.38
442.264	148.38
442.486	131.38
442.707	107.38
442.928	84.38
443.149	97.38
443.371	88.38
443.592	89.38
443.813	99.38
444.034	81.38
444.255	93.38
444.476	103.38
444.698	75.38
444.919	89.38
445.14	162.38
445.361	134.38
445.582	111.38
445.803	100.38
446.024	90.38
446.245	92.38
446.466	105.38
446.687	124.38
446.908	121.38
447.129	103.38
447.35	114.38
447.571	108.38
447.792	90.38
448.013	96.38
448.234	95.38
448.455	86.38
448.675	84.38
448.896	95.38
449.117	104.38
449.338	155.38
449.559	158.38
449.779	136.38
450	116.38
450.221	112.38
450.442	117.38
450.662	136.38
450.883	114.38
451.104	114.38
451.324	127.38
451.545	120.38
451.766	129.38
451.986	164.38
452.207	264.38
452.428	649.38
452.648	1688.38
452.869	946.38
453.089	238.38
453.31	144.38
453.53	136.38
453.751	152.38
453.971	176.38
454.192	177.38
454.412	126.38
454.633	112.38
454.853	102.38
455.073	91.38
455.294	107.38
455.514	104.38
455.734	98.38
455.955	94.38
456.175	92.38
456.395	99.38
456.616	111.38
456.836	102.38
457.056	103.38
457.276	90.38
457.497	108.38
457.717	129.38
457.937	104.38
458.157	94.38
458.377	98.38
458.598	109.38
458.818	92.38
459.038	98.38
459.258	104.38
459.478	109.38
459.698	90.38
459.918	92.38
460.138	91.38
460.358	77.38
460.578	90.38
460.798	99.38
461.018	95.38
461.238	100.38
461.458	106.38
461.678	99.38
461.898	96.38
462.118	108.38
462.338	94.38
462.558	102.38
462.777	91.38
462.997	103.38
463.217	111.38
463.437	139.38
463.657	188.38
463.876	196.38
464.096	147.38
464.316	101.38
464.536	98.38
464.755	102.38
464.975	98.38
465.195	101.38
465.414	97.38
465.634	84.38
465.854	102.38
466.073	94.38
466.293	108.38
466.512	104.38
466.732	116.38
466.951	116.38
467.171	153.38
467.391	161.38
467.61	100.38
467.829	108.38
468.049	104.38
468.268	122.38
468.488	100.38
468.707	105.38
468.927	92.38
469.146	100.38
469.365	103.38
469.585	86.38
469.804	89.38
470.023	101.38
470.243	102.38
470.462	107.38
470.681	128.38
470.901	138.38
471.12	212.38
471.339	239.38
471.558	136.38
471.777	105.38
471.997	116.38
472.216	108.38
472.435	105.38
472.654	114.38
472.873	105.38
473.092	95.38
473.311	122.38
473.53	94.38
473.749	101.38
473.968	111.38
474.187	91.38
474.406	96.38
474.625	97.38
474.844	90.38
475.063	88.38
475.282	90.38
475.501	88.38
475.72	110.38
475.939	86.38
476.158	103.38
476.377	120.38
476.596	99.38
476.814	106.38
477.033	113.38
477.252	102.38
477.471	90.38
477.69	115.38
477.908	112.38
478.127	105.38
478.346	106.38
478.564	100.38
478.783	91.38
479.002	105.38
479.22	105.38
479.439	102.38
479.658	105.38
479.876	103.38
480.095	99.38
480.313	98.38
480.532	88.38
480.751	110.38
480.969	102.38
481.188	99.38
481.406	104.38
481.624	103.38
481.843	129.38
482.061	113.38
482.28	104.38
482.498	118.38
482.717	88.38
482.935	107.38
483.153	114.38
483.372	114.38
483.59	103.38
483.808	100.38
484.027	105.38
484.245	120.38
484.463	193.38
484.681	267.38
484.9	164.38
485.118	130.38
485.336	115.38
485.554	129.38
485.772	134.38
485.99	207.38
486.209	281.38
486.427	188.38
486.645	124.38
486.863	106.38
487.081	104.38
487.299	104.38
487.517	100.38
487.735	106.38
487.953	98.38
488.171	105.38
488.389	104.38
488.607	84.38
488.825	103.38
489.043	91.38
489.261	105.38
489.479	103.38
489.696	97.38
489.914	95.38
490.132	94.38
490.35	99.38
490.568	104.38
490.786	102.38
491.003	107.38
491.221	115.38
491.439	133.38
491.657	102.38
491.874	114.38
492.092	109.38
492.31	103.38
492.527	110.38
492.745	107.38
492.963	104.38
493.18	116.38
493.398	106.38
493.615	112.38
493.833	105.38
494.05	99.38
494.268	108.38
494.485	105.38
494.703	115.38
494.92	103.38
495.138	99.38
495.355	114.38
495.573	113.38
495.79	108.38
496.008	110.38
496.225	100.38
496.442	128.38
496.66	138.38
496.877	179.38
497.094	163.38
497.312	109.38
497.529	112.38
497.746	111.38
497.963	110.38
498.181	115.38
498.398	105.38
498.615	112.38
498.832	107.38
499.049	105.38
499.267	140.38
499.484	186.38
499.701	138.38
499.918	102.38
500.135	102.38
500.352	120.38
500.569	107.38
500.786	113.38
501.003	96.38
501.22	88.38
501.437	109.38
501.654	112.38
501.871	91.38
502.088	108.38
502.305	107.38
502.522	104.38
502.739	104.38
502.956	94.38
503.172	106.38
503.389	113.38
503.606	120.38
503.823	107.38
504.04	109.38
504.256	97.38
504.473	91.38
504.69	101.38
504.907	110.38
505.123	112.38
505.34	103.38
505.557	103.38
505.773	110.38
505.99	118.38
506.207	111.38
506.423	115.38
