Data from SnStandardFlinnAPT0064_LampEnergy10_LIBS07252019.E.O._I.C._HRD10591_15-22-06-495.txt Node
Date: Thu Jul 25 15:22:06 EDT 2019
User: cochatt
Spectrometer: HR+D1059
Trigger mode: 1
Integration Time (sec): 1.000000E-1
Scans to average: 1
Electric dark correction enabled: true
Nonlinearity correction enabled: false
Boxcar width: 0
XAxis mode: Wavelengths
Number of Pixels in Spectrum: 2048
>>>>>Begin Spectral Data<<<<<
223.165	-17.94
223.4	-17.94
223.635	-17.94
223.869	-15.94
224.104	-27.94
224.338	-18.94
224.573	-26.94
224.808	-14.94
225.042	-3.94
225.277	0.06
225.511	1.06
225.746	6.06
225.98	10.06
226.215	22.06
226.449	23.06
226.683	10.06
226.918	22.06
227.152	32.06
227.387	33.06
227.621	45.06
227.856	43.06
228.09	42.06
228.324	54.06
228.559	52.06
228.793	120.06
229.027	300.06
229.262	329.06
229.496	318.06
229.73	293.06
229.964	326.06
230.199	300.06
230.433	306.06
230.667	316.06
230.901	327.06
231.136	305.06
231.37	343.06
231.604	390.06
231.838	454.06
232.072	526.06
232.306	578.06
232.541	487.06
232.775	430.06
233.009	411.06
233.243	431.06
233.477	452.06
233.711	526.06
233.945	588.06
234.179	523.06
234.413	461.06
234.647	440.06
234.881	450.06
235.115	514.06
235.349	630.06
235.583	775.06
235.817	1028.06
236.051	1004.06
236.285	671.06
236.519	503.06
236.753	519.06
236.987	504.06
237.221	516.06
237.455	518.06
237.689	459.06
237.922	467.06
238.156	470.06
238.39	486.06
238.624	486.06
238.858	478.06
239.091	498.06
239.325	485.06
239.559	490.06
239.793	520.06
240.027	520.06
240.26	545.06
240.494	549.06
240.728	585.06
240.961	594.06
241.195	645.06
241.429	684.06
241.662	710.06
241.896	785.06
242.13	953.06
242.363	1283.06
242.597	1650.06
242.83	1602.06
243.064	1578.06
243.298	1890.06
243.531	1550.06
243.765	971.06
243.998	776.06
244.232	702.06
244.465	665.06
244.699	659.06
244.932	658.06
245.166	650.06
245.399	668.06
245.633	706.06
245.866	695.06
246.099	686.06
246.333	651.06
246.566	661.06
246.8	636.06
247.033	670.06
247.266	655.06
247.5	656.06
247.733	664.06
247.966	688.06
248.2	765.06
248.433	866.06
248.666	1001.06
248.899	974.06
249.133	851.06
249.366	882.06
249.599	972.06
249.832	1088.06
250.066	1107.06
250.299	871.06
250.532	786.06
250.765	725.06
250.998	726.06
251.231	728.06
251.465	737.06
251.698	724.06
251.931	770.06
252.164	727.06
252.397	745.06
252.63	766.06
252.863	811.06
253.096	774.06
253.329	780.06
253.562	763.06
253.795	775.06
254.028	804.06
254.261	823.06
254.494	897.06
254.727	1022.06
254.96	1255.06
255.193	1206.06
255.426	967.06
255.659	887.06
255.892	877.06
256.124	871.06
256.357	884.06
256.59	926.06
256.823	963.06
257.056	1125.06
257.289	1333.06
257.521	1542.06
257.754	1228.06
257.987	992.06
258.22	935.06
258.452	963.06
258.685	940.06
258.918	927.06
259.151	954.06
259.383	1081.06
259.616	1261.06
259.849	1301.06
260.081	1086.06
260.314	987.06
260.547	1004.06
260.779	943.06
261.012	945.06
261.244	989.06
261.477	992.06
261.71	1001.06
261.942	983.06
262.175	1027.06
262.407	1050.06
262.64	1046.06
262.872	1117.06
263.105	1130.06
263.337	1227.06
263.57	1298.06
263.802	1262.06
264.035	1346.06
264.267	1364.06
264.499	1376.06
264.732	1428.06
264.964	1440.06
265.197	1456.06
265.429	1492.06
265.661	1470.06
265.894	1566.06
266.126	1794.06
266.358	1979.06
266.591	1902.06
266.823	1618.06
267.055	1450.06
267.287	1404.06
267.52	1334.06
267.752	1328.06
267.984	1314.06
268.216	1291.06
268.448	1267.06
268.681	1252.06
268.913	1246.06
269.145	1269.06
269.377	1248.06
269.609	1236.06
269.841	1289.06
270.073	1415.06
270.306	1630.06
270.538	2200.06
270.77	3245.06
271.002	3988.06
271.234	2796.06
271.466	1857.06
271.698	1508.06
271.93	1403.06
272.162	1317.06
272.394	1298.06
272.626	1250.06
272.858	1216.06
273.09	1223.06
273.322	1265.06
273.553	1193.06
273.785	1193.06
274.017	1174.06
274.249	1212.06
274.481	1196.06
274.713	1206.06
274.945	1229.06
275.176	1208.06
275.408	1236.06
275.64	1230.06
275.872	1226.06
276.104	1238.06
276.335	1253.06
276.567	1257.06
276.799	1304.06
277.031	1298.06
277.262	1314.06
277.494	1416.06
277.726	1547.06
277.957	1846.06
278.189	2165.06
278.421	2014.06
278.652	1742.06
278.884	1694.06
279.115	1528.06
279.347	1434.06
279.579	1421.06
279.81	1403.06
280.042	1409.06
280.273	1445.06
280.505	1445.06
280.736	1485.06
280.968	1614.06
281.199	1781.06
281.431	2068.06
281.662	2134.06
281.894	1815.06
282.125	1633.06
282.356	1644.06
282.588	1689.06
282.819	1712.06
283.051	1809.06
283.282	2010.06
283.513	2525.06
283.745	3649.06
283.976	5803.06
284.207	8296.06
284.439	7551.06
284.67	4498.06
284.901	3680.06
285.132	3723.06
285.364	3635.06
285.595	2704.06
285.826	2405.06
286.057	2914.06
286.288	3918.06
286.52	5348.06
286.751	4996.06
286.982	3075.06
287.213	2307.06
287.444	2024.06
287.675	1846.06
287.906	1798.06
288.138	1755.06
288.369	1676.06
288.6	1685.06
288.831	1688.06
289.062	1640.06
289.293	1670.06
289.524	1685.06
289.755	1726.06
289.986	1727.06
290.217	1714.06
290.448	1675.06
290.679	1735.06
290.91	1782.06
291.141	1892.06
291.371	2030.06
291.602	2136.06
291.833	1928.06
292.064	1753.06
292.295	1716.06
292.526	1656.06
292.757	1621.06
292.987	1590.06
293.218	1605.06
293.449	1624.06
293.68	1603.06
293.91	1570.06
294.141	1581.06
294.372	1561.06
294.603	1561.06
294.833	1573.06
295.064	1563.06
295.295	1565.06
295.525	1566.06
295.756	1569.06
295.987	1586.06
296.217	1593.06
296.448	1584.06
296.679	1578.06
296.909	1549.06
297.14	1591.06
297.37	1622.06
297.601	1632.06
297.831	1636.06
298.062	1630.06
298.292	1617.06
298.523	1669.06
298.753	1710.06
298.984	1713.06
299.214	1735.06
299.445	1764.06
299.675	1771.06
299.905	1837.06
300.136	1928.06
300.366	2151.06
300.597	2793.06
300.827	3887.06
301.057	5429.06
301.288	5365.06
301.518	3387.06
301.748	2564.06
301.979	2352.06
302.209	2240.06
302.439	2282.06
302.669	2428.06
302.9	2973.06
303.13	4228.06
303.36	6320.06
303.59	8517.06
303.82	7283.06
304.051	4252.06
304.281	3011.06
304.511	2493.06
304.741	2322.06
304.971	2219.06
305.201	2108.06
305.431	1996.06
305.661	1975.06
305.891	1877.06
306.121	1886.06
306.352	1868.06
306.582	1877.06
306.812	1885.06
307.042	1833.06
307.272	1809.06
307.502	1789.06
307.731	1841.06
307.961	1842.06
308.191	1785.06
308.421	1828.06
308.651	1803.06
308.881	1820.06
309.111	1826.06
309.341	1854.06
309.571	1881.06
309.8	1857.06
310.03	1870.06
310.26	1869.06
310.49	1869.06
310.72	1870.06
310.949	1860.06
311.179	1924.06
311.409	1930.06
311.639	1922.06
311.868	1937.06
312.098	1976.06
312.328	1977.06
312.557	1939.06
312.787	1961.06
313.017	2001.06
313.246	2019.06
313.476	1978.06
313.706	2110.06
313.935	2180.06
314.165	2396.06
314.394	2501.06
314.624	2404.06
314.853	2171.06
315.083	2164.06
315.312	2189.06
315.542	2203.06
315.771	2265.06
316.001	2287.06
316.23	2299.06
316.46	2438.06
316.689	2652.06
316.919	3253.06
317.148	4688.06
317.377	7273.06
317.607	10797.06
317.836	11133.06
318.065	6586.06
318.295	4222.06
318.524	3350.06
318.753	2944.06
318.983	2708.06
319.212	2562.06
319.441	2480.06
319.67	2457.06
319.9	2442.06
320.129	2350.06
320.358	2370.06
320.587	2357.06
320.816	2308.06
321.046	2378.06
321.275	2375.06
321.504	2437.06
321.733	2455.06
321.962	2572.06
322.191	2532.06
322.42	2510.06
322.649	2482.06
322.878	2494.06
323.108	2477.06
323.337	2533.06
323.566	2585.06
323.795	2593.06
324.024	2700.06
324.253	2736.06
324.482	2810.06
324.71	3062.06
324.939	3250.06
325.168	3264.06
325.397	3456.06
325.626	4000.06
325.855	5755.06
326.084	8937.06
326.313	12956.06
326.542	13632.06
326.77	9080.06
326.999	5953.06
327.228	4984.06
327.457	4714.06
327.686	4769.06
327.914	5115.06
328.143	5953.06
328.372	7125.06
328.6	7737.06
328.829	6887.06
329.058	5740.06
329.287	5068.06
329.515	4583.06
329.744	4244.06
329.972	4023.06
330.201	3854.06
330.43	3742.06
330.658	3596.06
330.887	3540.06
331.115	3467.06
331.344	3570.06
331.572	3454.06
331.801	3490.06
332.03	3564.06
332.258	3566.06
332.486	3734.06
332.715	4278.06
332.943	5368.06
333.172	6722.06
333.4	6617.06
333.629	4982.06
333.857	4526.06
334.085	4508.06
334.314	4782.06
334.542	5074.06
334.771	5980.06
334.999	7343.06
335.227	9249.06
335.455	10444.06
335.684	9300.06
335.912	7571.06
336.14	6460.06
336.369	5648.06
336.597	5156.06
336.825	4775.06
337.053	4525.06
337.281	4247.06
337.51	4051.06
337.738	3872.06
337.966	3774.06
338.194	3568.06
338.422	3493.06
338.65	3422.06
338.878	3400.06
339.106	3285.06
339.334	3244.06
339.562	3172.06
339.79	3134.06
340.018	3064.06
340.246	3126.06
340.474	3040.06
340.702	3027.06
340.93	3072.06
341.158	3086.06
341.386	3026.06
341.614	3029.06
341.842	2889.06
342.07	2850.06
342.298	2822.06
342.526	2808.06
342.754	2771.06
342.981	2778.06
343.209	2782.06
343.437	2733.06
343.665	2833.06
343.893	2849.06
344.12	2890.06
344.348	2767.06
344.576	2797.06
344.804	2704.06
345.031	2628.06
345.259	2651.06
345.487	2632.06
345.714	2638.06
345.942	2590.06
346.17	2578.06
346.397	2578.06
346.625	2581.06
346.853	2551.06
347.08	2549.06
347.308	2535.06
347.535	2570.06
347.763	2549.06
347.99	2532.06
348.218	2455.06
348.445	2489.06
348.673	2454.06
348.9	2473.06
349.128	2491.06
349.355	2503.06
349.583	2469.06
349.81	2447.06
350.037	2400.06
350.265	2418.06
350.492	2436.06
350.72	2402.06
350.947	2433.06
351.174	2448.06
351.402	2455.06
351.629	2391.06
351.856	2407.06
352.083	2372.06
352.311	2406.06
352.538	2393.06
352.765	2351.06
352.992	2400.06
353.22	2400.06
353.447	2392.06
353.674	2384.06
353.901	2430.06
354.128	2447.06
354.355	2390.06
354.583	2374.06
354.81	2429.06
355.037	2446.06
355.264	2483.06
355.491	2511.06
355.718	2443.06
355.945	2486.06
356.172	2477.06
356.399	2493.06
356.626	2534.06
356.853	2525.06
357.08	2510.06
357.307	2528.06
357.534	2626.06
357.761	2592.06
357.988	2618.06
358.215	2616.06
358.441	2593.06
358.668	2551.06
358.895	2645.06
359.122	2543.06
359.349	2588.06
359.576	2541.06
359.802	2596.06
360.029	2547.06
360.256	2573.06
360.483	2585.06
360.709	2578.06
360.936	2540.06
361.163	2566.06
361.39	2569.06
361.616	2607.06
361.843	2580.06
362.07	2640.06
362.296	2599.06
362.523	2627.06
362.749	2596.06
362.976	2552.06
363.203	2574.06
363.429	2573.06
363.656	2570.06
363.882	2533.06
364.109	2586.06
364.335	2553.06
364.562	2605.06
364.788	2595.06
365.015	2575.06
365.241	2668.06
365.468	2835.06
365.694	3014.06
365.92	2848.06
366.147	2636.06
366.373	2593.06
366.599	2628.06
366.826	2626.06
367.052	2619.06
367.278	2614.06
367.505	2647.06
367.731	2658.06
367.957	2649.06
368.184	2667.06
368.41	2655.06
368.636	2672.06
368.862	2713.06
369.089	2662.06
369.315	2718.06
369.541	2694.06
369.767	2641.06
369.993	2644.06
370.219	2652.06
370.445	2730.06
370.672	2720.06
370.898	2665.06
371.124	2736.06
371.35	2739.06
371.576	2731.06
371.802	2752.06
372.028	2760.06
372.254	2830.06
372.48	2828.06
372.706	2785.06
372.932	2768.06
373.158	2782.06
373.384	2836.06
373.61	2803.06
373.835	2859.06
374.061	2821.06
374.287	2820.06
374.513	2821.06
374.739	2918.06
374.965	2914.06
375.191	2893.06
375.416	2848.06
375.642	2840.06
375.868	2909.06
376.094	2885.06
376.319	2817.06
376.545	2865.06
376.771	2788.06
376.997	2757.06
377.222	2737.06
377.448	2705.06
377.674	2797.06
377.899	2738.06
378.125	2784.06
378.35	2699.06
378.576	2746.06
378.802	2804.06
379.027	2866.06
379.253	2926.06
379.478	3128.06
379.704	3638.06
379.929	5208.06
380.155	8098.06
380.38	8823.06
380.606	5332.06
380.831	3700.06
381.057	3204.06
381.282	2989.06
381.507	2894.06
381.733	2810.06
381.958	2765.06
382.184	2725.06
382.409	2730.06
382.634	2698.06
382.86	2685.06
383.085	2649.06
383.31	2771.06
383.535	2694.06
383.761	2712.06
383.986	2740.06
384.211	2747.06
384.436	2784.06
384.662	2763.06
384.887	2830.06
385.112	2760.06
385.337	2829.06
385.562	2763.06
385.787	2793.06
386.013	2802.06
386.238	2826.06
386.463	2806.06
386.688	2787.06
386.913	2794.06
387.138	2789.06
387.363	2818.06
387.588	2809.06
387.813	2806.06
388.038	2818.06
388.263	2838.06
388.488	2794.06
388.713	2796.06
388.938	2750.06
389.163	2745.06
389.387	2781.06
389.612	2762.06
389.837	2799.06
390.062	2780.06
390.287	2857.06
390.512	2840.06
390.736	2836.06
390.961	2939.06
391.186	2898.06
391.411	2923.06
391.636	2941.06
391.86	2953.06
392.085	2950.06
392.31	2932.06
392.534	2860.06
392.759	2891.06
392.984	2864.06
393.208	2867.06
393.433	2866.06
393.658	2880.06
393.882	2833.06
394.107	2789.06
394.331	2804.06
394.556	2880.06
394.78	2876.06
395.005	2878.06
395.229	2885.06
395.454	2916.06
395.678	2896.06
395.903	2912.06
396.127	2930.06
396.352	2856.06
396.576	2892.06
396.801	2876.06
397.025	2898.06
397.249	2937.06
397.474	2921.06
397.698	2955.06
397.922	2944.06
398.147	2940.06
398.371	3022.06
398.595	3062.06
398.82	3108.06
399.044	3200.06
399.268	3420.06
399.492	3547.06
399.717	3636.06
399.941	3686.06
400.165	3616.06
400.389	3464.06
400.613	3321.06
400.837	3165.06
401.062	3148.06
401.286	3123.06
401.51	3095.06
401.734	3108.06
401.958	3074.06
402.182	3058.06
402.406	3079.06
402.63	3086.06
402.854	3133.06
403.078	3170.06
403.302	3144.06
403.526	3147.06
403.75	3115.06
403.974	3172.06
404.198	3177.06
404.422	3199.06
404.645	3151.06
404.869	3153.06
405.093	3219.06
405.317	3204.06
405.541	3282.06
405.765	3321.06
405.988	3291.06
406.212	3277.06
406.436	3209.06
406.66	3371.06
406.883	3279.06
407.107	3463.06
407.331	3404.06
407.555	3499.06
407.778	3489.06
408.002	3435.06
408.226	3405.06
408.449	3396.06
408.673	3373.06
408.896	3296.06
409.12	3252.06
409.344	3255.06
409.567	3225.06
409.791	3225.06
410.014	3177.06
410.238	3134.06
410.461	3187.06
410.685	3147.06
410.908	3146.06
411.132	3131.06
411.355	3069.06
411.578	3090.06
411.802	3150.06
412.025	3104.06
412.249	3100.06
412.472	3063.06
412.695	3082.06
412.919	3009.06
413.142	3067.06
413.365	3002.06
413.589	3064.06
413.812	3047.06
414.035	2995.06
414.258	3034.06
414.482	3043.06
414.705	3027.06
414.928	3006.06
415.151	3063.06
415.374	3014.06
415.597	2986.06
415.821	2940.06
416.044	2940.06
416.267	2962.06
416.49	2890.06
416.713	2908.06
416.936	2892.06
417.159	2880.06
417.382	2880.06
417.605	2839.06
417.828	2843.06
418.051	2902.06
418.274	2888.06
418.497	2886.06
418.72	2990.06
418.943	2876.06
419.166	3070.06
419.389	3262.06
419.611	3165.06
419.834	3108.06
420.057	3012.06
420.28	3025.06
420.503	2931.06
420.726	2932.06
420.948	2875.06
421.171	2928.06
421.394	2925.06
421.617	2923.06
421.839	2899.06
422.062	2949.06
422.285	2876.06
422.507	2930.06
422.73	2960.06
422.953	2957.06
423.175	2964.06
423.398	2978.06
423.621	2930.06
423.843	2892.06
424.066	2936.06
424.288	2894.06
424.511	2918.06
424.733	2957.06
424.956	2889.06
425.178	2833.06
425.401	2838.06
425.623	2918.06
425.846	2804.06
426.068	2819.06
426.291	2776.06
426.513	2780.06
426.735	2768.06
426.958	2760.06
427.18	2711.06
427.402	2752.06
427.625	2748.06
427.847	2665.06
428.069	2701.06
428.292	2707.06
428.514	2736.06
428.736	2666.06
428.958	2695.06
429.181	2632.06
429.403	2649.06
429.625	2683.06
429.847	2690.06
430.069	2708.06
430.292	2784.06
430.514	2894.06
430.736	2877.06
430.958	2732.06
431.18	2664.06
431.402	2651.06
431.624	2597.06
431.846	2644.06
432.068	2572.06
432.29	2692.06
432.512	2623.06
432.734	2670.06
432.956	2647.06
433.178	2697.06
433.4	2690.06
433.622	2680.06
433.844	2673.06
434.066	2710.06
434.287	2736.06
434.509	2690.06
434.731	2793.06
434.953	2798.06
435.175	2772.06
435.397	2752.06
435.618	2729.06
435.84	2688.06
436.062	2651.06
436.284	2656.06
436.505	2604.06
436.727	2661.06
436.949	2638.06
437.17	2618.06
437.392	2582.06
437.614	2548.06
437.835	2516.06
438.057	2619.06
438.278	2560.06
438.5	2576.06
438.721	2607.06
438.943	2713.06
439.165	2750.06
439.386	2766.06
439.608	2724.06
439.829	2772.06
440.05	2875.06
440.272	2872.06
440.493	2791.06
440.715	2765.06
440.936	2755.06
441.158	2726.06
441.379	2776.06
441.6	2846.06
441.822	2954.06
442.043	3158.06
442.264	3240.06
442.486	3023.06
442.707	2945.06
442.928	2854.06
443.149	2828.06
443.371	2787.06
443.592	2858.06
443.813	2878.06
444.034	2938.06
444.255	2950.06
444.476	3005.06
444.698	2984.06
444.919	3065.06
445.14	3177.06
445.361	3030.06
445.582	2934.06
445.803	2847.06
446.024	2790.06
446.245	2866.06
446.466	2843.06
446.687	2816.06
446.908	2784.06
447.129	2690.06
447.35	2685.06
447.571	2643.06
447.792	2640.06
448.013	2645.06
448.234	2592.06
448.455	2612.06
448.675	2681.06
448.896	2709.06
449.117	2787.06
449.338	3074.06
449.559	3127.06
449.779	2773.06
450	2633.06
450.221	2578.06
450.442	2654.06
450.662	2540.06
450.883	2560.06
451.104	2521.06
451.324	2532.06
451.545	2551.06
451.766	2572.06
451.986	2665.06
452.207	2776.06
452.428	3637.06
452.648	5593.06
452.869	4624.06
453.089	3157.06
453.31	2985.06
453.53	2929.06
453.751	3072.06
453.971	3204.06
454.192	3156.06
454.412	2700.06
454.633	2628.06
454.853	2552.06
455.073	2491.06
455.294	2451.06
455.514	2437.06
455.734	2407.06
455.955	2396.06
456.175	2488.06
456.395	2411.06
456.616	2426.06
456.836	2498.06
457.056	2510.06
457.276	2513.06
457.497	2702.06
457.717	2693.06
457.937	2605.06
458.157	2544.06
458.377	2564.06
458.598	2619.06
458.818	2627.06
459.038	2630.06
459.258	2616.06
459.478	2635.06
459.698	2667.06
459.918	2746.06
460.138	2737.06
460.358	2845.06
460.578	2828.06
460.798	2865.06
461.018	2903.06
461.238	2939.06
461.458	2996.06
461.678	2921.06
461.898	3032.06
462.118	3029.06
462.338	3093.06
462.558	3144.06
462.777	3150.06
462.997	3280.06
463.217	3409.06
463.437	3485.06
463.657	3622.06
463.876	3606.06
464.096	3436.06
464.316	3237.06
464.536	3172.06
464.755	3144.06
464.975	3008.06
465.195	2956.06
465.414	2900.06
465.634	2763.06
465.854	2765.06
466.073	2725.06
466.293	2706.06
466.512	2688.06
466.732	2746.06
466.951	2884.06
467.171	3029.06
467.391	3009.06
467.61	2675.06
467.829	2693.06
468.049	2589.06
468.268	2608.06
468.488	2564.06
468.707	2636.06
468.927	2558.06
469.146	2589.06
469.365	2628.06
469.585	2681.06
469.804	2712.06
470.023	2753.06
470.243	2770.06
470.462	2889.06
470.681	2994.06
470.901	3343.06
471.12	3846.06
471.339	3846.06
471.558	3188.06
471.777	2914.06
471.997	2742.06
472.216	2750.06
472.435	2632.06
472.654	2579.06
472.873	2612.06
473.092	2639.06
473.311	2656.06
473.53	2625.06
473.749	2750.06
473.968	2802.06
474.187	2680.06
474.406	2599.06
474.625	2598.06
474.844	2634.06
475.063	2650.06
475.282	2627.06
475.501	2654.06
475.72	2680.06
475.939	2684.06
476.158	2756.06
476.377	2811.06
476.596	2769.06
476.814	2820.06
477.033	2780.06
477.252	2843.06
477.471	2838.06
477.69	2925.06
477.908	2925.06
478.127	2970.06
478.346	2962.06
478.564	3062.06
478.783	3089.06
479.002	3118.06
479.22	3116.06
479.439	3187.06
479.658	3085.06
479.876	3147.06
480.095	3197.06
480.313	3245.06
480.532	3239.06
480.751	3238.06
480.969	3211.06
481.188	3175.06
481.406	3138.06
481.624	3154.06
481.843	3240.06
482.061	3173.06
482.28	3184.06
482.498	3204.06
482.717	3175.06
482.935	3178.06
483.153	3202.06
483.372	3236.06
483.59	3343.06
483.808	3389.06
484.027	3425.06
484.245	3692.06
484.463	4150.06
484.681	4644.06
484.9	4210.06
485.118	3854.06
485.336	3771.06
485.554	3877.06
485.772	4040.06
485.99	4594.06
486.209	4984.06
486.427	4162.06
486.645	3742.06
486.863	3597.06
487.081	3443.06
487.299	3415.06
487.517	3394.06
487.735	3397.06
