Data from SnStandardFlinnAPT0064_LampEnergy10_LIBS07252019.E.O._I.C._HRD10591_15-19-36-493.txt Node
Date: Thu Jul 25 15:19:36 EDT 2019
User: cochatt
Spectrometer: HR+D1059
Trigger mode: 1
Integration Time (sec): 1.000000E-1
Scans to average: 1
Electric dark correction enabled: true
Nonlinearity correction enabled: false
Boxcar width: 0
XAxis mode: Wavelengths
Number of Pixels in Spectrum: 2048
>>>>>Begin Spectral Data<<<<<
223.165	2.06
223.4	2.06
223.635	2.06
223.869	-5.94
224.104	-18.94
224.338	-27.94
224.573	-15.94
224.808	-5.94
225.042	-18.94
225.277	-13.94
225.511	-3.94
225.746	0.06
225.98	4.06
226.215	23.06
226.449	23.06
226.683	17.06
226.918	16.06
227.152	26.06
227.387	40.06
227.621	50.06
227.856	41.06
228.09	44.06
228.324	43.06
228.559	56.06
228.793	102.06
229.027	300.06
229.262	334.06
229.496	301.06
229.73	292.06
229.964	299.06
230.199	313.06
230.433	312.06
230.667	325.06
230.901	340.06
231.136	338.06
231.37	351.06
231.604	394.06
231.838	424.06
232.072	532.06
232.306	573.06
232.541	477.06
232.775	419.06
233.009	434.06
233.243	427.06
233.477	459.06
233.711	541.06
233.945	596.06
234.179	525.06
234.413	467.06
234.647	444.06
234.881	490.06
235.115	513.06
235.349	642.06
235.583	806.06
235.817	1036.06
236.051	1005.06
236.285	672.06
236.519	560.06
236.753	485.06
236.987	505.06
237.221	551.06
237.455	495.06
237.689	481.06
237.922	472.06
238.156	474.06
238.39	487.06
238.624	454.06
238.858	480.06
239.091	462.06
239.325	491.06
239.559	506.06
239.793	499.06
240.027	537.06
240.26	555.06
240.494	550.06
240.728	590.06
240.961	626.06
241.195	626.06
241.429	684.06
241.662	721.06
241.896	788.06
242.13	954.06
242.363	1288.06
242.597	1652.06
242.83	1600.06
243.064	1586.06
243.298	1866.06
243.531	1515.06
243.765	976.06
243.998	794.06
244.232	698.06
244.465	660.06
244.699	644.06
244.932	636.06
245.166	649.06
245.399	661.06
245.633	673.06
245.866	673.06
246.099	676.06
246.333	650.06
246.566	637.06
246.8	628.06
247.033	635.06
247.266	628.06
247.5	654.06
247.733	676.06
247.966	746.06
248.2	723.06
248.433	890.06
248.666	1012.06
248.899	951.06
249.133	853.06
249.366	882.06
249.599	984.06
249.832	1088.06
250.066	1075.06
250.299	859.06
250.532	781.06
250.765	735.06
250.998	724.06
251.231	717.06
251.465	720.06
251.698	723.06
251.931	717.06
252.164	712.06
252.397	766.06
252.63	785.06
252.863	792.06
253.096	780.06
253.329	782.06
253.562	760.06
253.795	786.06
254.028	778.06
254.261	822.06
254.494	858.06
254.727	1028.06
254.96	1243.06
255.193	1194.06
255.426	1008.06
255.659	869.06
255.892	858.06
256.124	870.06
256.357	874.06
256.59	892.06
256.823	973.06
257.056	1137.06
257.289	1402.06
257.521	1481.06
257.754	1214.06
257.987	972.06
258.22	890.06
258.452	905.06
258.685	875.06
258.918	924.06
259.151	973.06
259.383	1087.06
259.616	1228.06
259.849	1282.06
260.081	1082.06
260.314	967.06
260.547	943.06
260.779	941.06
261.012	919.06
261.244	920.06
261.477	939.06
261.71	948.06
261.942	988.06
262.175	974.06
262.407	1013.06
262.64	1005.06
262.872	1067.06
263.105	1108.06
263.337	1157.06
263.57	1204.06
263.802	1229.06
264.035	1280.06
264.267	1288.06
264.499	1293.06
264.732	1343.06
264.964	1384.06
265.197	1398.06
265.429	1376.06
265.661	1414.06
265.894	1477.06
266.126	1692.06
266.358	1940.06
266.591	1859.06
266.823	1547.06
267.055	1390.06
267.287	1347.06
267.52	1286.06
267.752	1257.06
267.984	1244.06
268.216	1225.06
268.448	1184.06
268.681	1168.06
268.913	1187.06
269.145	1234.06
269.377	1217.06
269.609	1213.06
269.841	1289.06
270.073	1338.06
270.306	1593.06
270.538	2171.06
270.77	3272.06
271.002	4000.06
271.234	2818.06
271.466	1897.06
271.698	1566.06
271.93	1392.06
272.162	1342.06
272.394	1232.06
272.626	1234.06
272.858	1205.06
273.09	1186.06
273.322	1185.06
273.553	1159.06
273.785	1162.06
274.017	1185.06
274.249	1204.06
274.481	1182.06
274.713	1191.06
274.945	1166.06
275.176	1193.06
275.408	1178.06
275.64	1220.06
275.872	1194.06
276.104	1185.06
276.335	1229.06
276.567	1237.06
276.799	1220.06
277.031	1306.06
277.262	1295.06
277.494	1376.06
277.726	1556.06
277.957	1879.06
278.189	2122.06
278.421	1976.06
278.652	1726.06
278.884	1661.06
279.115	1458.06
279.347	1414.06
279.579	1386.06
279.81	1354.06
280.042	1354.06
280.273	1397.06
280.505	1404.06
280.736	1456.06
280.968	1554.06
281.199	1772.06
281.431	2072.06
281.662	2098.06
281.894	1782.06
282.125	1642.06
282.356	1619.06
282.588	1657.06
282.819	1712.06
283.051	1810.06
283.282	2020.06
283.513	2513.06
283.745	3720.06
283.976	5820.06
284.207	8231.06
284.439	7452.06
284.67	4715.06
284.901	3851.06
285.132	3848.06
285.364	3632.06
285.595	2755.06
285.826	2528.06
286.057	2934.06
286.288	3958.06
286.52	5324.06
286.751	4969.06
286.982	3102.06
287.213	2306.06
287.444	2018.06
287.675	1904.06
287.906	1753.06
288.138	1728.06
288.369	1633.06
288.6	1692.06
288.831	1628.06
289.062	1637.06
289.293	1644.06
289.524	1626.06
289.755	1652.06
289.986	1666.06
290.217	1692.06
290.448	1717.06
290.679	1712.06
290.91	1747.06
291.141	1836.06
291.371	1996.06
291.602	2049.06
291.833	1926.06
292.064	1742.06
292.295	1628.06
292.526	1625.06
292.757	1583.06
292.987	1558.06
293.218	1571.06
293.449	1569.06
293.68	1566.06
293.91	1561.06
294.141	1556.06
294.372	1528.06
294.603	1503.06
294.833	1524.06
295.064	1515.06
295.295	1531.06
295.525	1515.06
295.756	1525.06
295.987	1498.06
296.217	1517.06
296.448	1518.06
296.679	1538.06
296.909	1529.06
297.14	1576.06
297.37	1558.06
297.601	1600.06
297.831	1594.06
298.062	1595.06
298.292	1574.06
298.523	1621.06
298.753	1668.06
298.984	1631.06
299.214	1714.06
299.445	1732.06
299.675	1718.06
299.905	1809.06
300.136	1882.06
300.366	2125.06
300.597	2762.06
300.827	3904.06
301.057	5263.06
301.288	5428.06
301.518	3480.06
301.748	2633.06
301.979	2378.06
302.209	2293.06
302.439	2253.06
302.669	2435.06
302.9	2985.06
303.13	4203.06
303.36	6284.06
303.59	8346.06
303.82	7310.06
304.051	4320.06
304.281	3082.06
304.511	2584.06
304.741	2342.06
304.971	2178.06
305.201	2002.06
305.431	1955.06
305.661	1920.06
305.891	1908.06
306.121	1884.06
306.352	1840.06
306.582	1793.06
306.812	1778.06
307.042	1806.06
307.272	1758.06
307.502	1735.06
307.731	1762.06
307.961	1756.06
308.191	1738.06
308.421	1742.06
308.651	1709.06
308.881	1740.06
309.111	1751.06
309.341	1758.06
309.571	1784.06
309.8	1797.06
310.03	1813.06
310.26	1826.06
310.49	1814.06
310.72	1842.06
310.949	1812.06
311.179	1826.06
311.409	1879.06
311.639	1860.06
311.868	1885.06
312.098	1875.06
312.328	1889.06
312.557	1889.06
312.787	1889.06
313.017	1909.06
313.246	1968.06
313.476	1955.06
313.706	2052.06
313.935	2143.06
314.165	2323.06
314.394	2456.06
314.624	2266.06
314.853	2105.06
315.083	2102.06
315.312	2097.06
315.542	2157.06
315.771	2197.06
316.001	2242.06
316.23	2282.06
316.46	2379.06
316.689	2698.06
316.919	3260.06
317.148	4660.06
317.377	7159.06
317.607	10602.06
317.836	11129.06
318.065	6828.06
318.295	4434.06
318.524	3564.06
318.753	2996.06
318.983	2760.06
319.212	2606.06
319.441	2487.06
319.67	2430.06
319.9	2317.06
320.129	2339.06
320.358	2324.06
320.587	2264.06
320.816	2275.06
321.046	2293.06
321.275	2279.06
321.504	2314.06
321.733	2393.06
321.962	2442.06
322.191	2484.06
322.42	2430.06
322.649	2426.06
322.878	2410.06
323.108	2450.06
323.337	2503.06
323.566	2495.06
323.795	2573.06
324.024	2614.06
324.253	2731.06
324.482	2754.06
324.71	2985.06
324.939	3210.06
325.168	3228.06
325.397	3390.06
325.626	4053.06
325.855	5673.06
326.084	8843.06
326.313	12856.06
326.542	13644.06
326.77	9325.06
326.999	6084.06
327.228	5006.06
327.457	4786.06
327.686	4790.06
327.914	5041.06
328.143	5894.06
328.372	7083.06
328.6	7680.06
328.829	6777.06
329.058	5784.06
329.287	4990.06
329.515	4596.06
329.744	4185.06
329.972	3937.06
330.201	3809.06
330.43	3664.06
330.658	3553.06
330.887	3460.06
331.115	3401.06
331.344	3404.06
331.572	3306.06
331.801	3437.06
332.03	3394.06
332.258	3504.06
332.486	3702.06
332.715	4234.06
332.943	5212.06
333.172	6620.06
333.4	6641.06
333.629	4993.06
333.857	4451.06
334.085	4435.06
334.314	4675.06
334.542	5025.06
334.771	5918.06
334.999	7288.06
335.227	9176.06
335.455	10350.06
335.684	9200.06
335.912	7582.06
336.14	6375.06
336.369	5594.06
336.597	5098.06
336.825	4692.06
337.053	4403.06
337.281	4134.06
337.51	3932.06
337.738	3733.06
337.966	3551.06
338.194	3473.06
338.422	3369.06
338.65	3264.06
338.878	3238.06
339.106	3182.06
339.334	3138.06
339.562	3018.06
339.79	2976.06
340.018	3018.06
340.246	2921.06
340.474	2938.06
340.702	2928.06
340.93	2933.06
341.158	2860.06
341.386	2900.06
341.614	2868.06
341.842	2824.06
342.07	2742.06
342.298	2702.06
342.526	2676.06
342.754	2626.06
342.981	2613.06
343.209	2652.06
343.437	2639.06
343.665	2676.06
343.893	2703.06
344.12	2683.06
344.348	2685.06
344.576	2611.06
344.804	2572.06
345.031	2554.06
345.259	2531.06
345.487	2513.06
345.714	2487.06
345.942	2469.06
346.17	2464.06
346.397	2418.06
346.625	2413.06
346.853	2457.06
347.08	2419.06
347.308	2402.06
347.535	2434.06
347.763	2438.06
347.99	2394.06
348.218	2420.06
348.445	2374.06
348.673	2360.06
348.9	2382.06
349.128	2398.06
349.355	2327.06
349.583	2341.06
349.81	2334.06
350.037	2335.06
350.265	2316.06
350.492	2317.06
350.72	2330.06
350.947	2298.06
351.174	2344.06
351.402	2295.06
351.629	2338.06
351.856	2289.06
352.083	2333.06
352.311	2256.06
352.538	2324.06
352.765	2301.06
352.992	2273.06
353.22	2319.06
353.447	2233.06
353.674	2283.06
353.901	2297.06
354.128	2343.06
354.355	2309.06
354.583	2312.06
354.81	2379.06
355.037	2371.06
355.264	2359.06
355.491	2365.06
355.718	2362.06
355.945	2378.06
356.172	2379.06
356.399	2401.06
356.626	2419.06
356.853	2428.06
357.08	2432.06
357.307	2449.06
357.534	2501.06
357.761	2492.06
357.988	2504.06
358.215	2420.06
358.441	2420.06
358.668	2427.06
358.895	2433.06
359.122	2476.06
359.349	2466.06
359.576	2436.06
359.802	2433.06
360.029	2416.06
360.256	2454.06
360.483	2404.06
360.709	2428.06
360.936	2471.06
361.163	2473.06
361.39	2430.06
361.616	2454.06
361.843	2537.06
362.07	2486.06
362.296	2505.06
362.523	2443.06
362.749	2457.06
362.976	2400.06
363.203	2447.06
363.429	2445.06
363.656	2413.06
363.882	2475.06
364.109	2446.06
364.335	2409.06
364.562	2423.06
364.788	2443.06
365.015	2450.06
365.241	2563.06
365.468	2716.06
365.694	2874.06
365.92	2716.06
366.147	2578.06
366.373	2521.06
366.599	2457.06
366.826	2472.06
367.052	2486.06
367.278	2515.06
367.505	2508.06
367.731	2478.06
367.957	2537.06
368.184	2513.06
368.41	2579.06
368.636	2537.06
368.862	2546.06
369.089	2566.06
369.315	2518.06
369.541	2543.06
369.767	2558.06
369.993	2570.06
370.219	2517.06
370.445	2557.06
370.672	2559.06
370.898	2562.06
371.124	2603.06
371.35	2574.06
371.576	2638.06
371.802	2673.06
372.028	2592.06
372.254	2658.06
372.48	2613.06
372.706	2645.06
372.932	2647.06
373.158	2659.06
373.384	2700.06
373.61	2686.06
373.835	2698.06
374.061	2717.06
374.287	2706.06
374.513	2786.06
374.739	2765.06
374.965	2800.06
375.191	2774.06
375.416	2738.06
375.642	2732.06
375.868	2695.06
376.094	2665.06
376.319	2706.06
376.545	2673.06
376.771	2653.06
376.997	2609.06
377.222	2608.06
377.448	2610.06
377.674	2616.06
377.899	2573.06
378.125	2641.06
378.35	2620.06
378.576	2632.06
378.802	2622.06
379.027	2750.06
379.253	2751.06
379.478	3002.06
379.704	3512.06
379.929	5138.06
380.155	7954.06
380.38	8673.06
380.606	5287.06
380.831	3711.06
381.057	3155.06
381.282	2909.06
381.507	2798.06
381.733	2730.06
381.958	2680.06
382.184	2630.06
382.409	2640.06
382.634	2554.06
382.86	2578.06
383.085	2580.06
383.31	2574.06
383.535	2605.06
383.761	2628.06
383.986	2613.06
384.211	2629.06
384.436	2690.06
384.662	2698.06
384.887	2667.06
385.112	2616.06
385.337	2666.06
385.562	2684.06
385.787	2708.06
386.013	2686.06
386.238	2715.06
386.463	2670.06
386.688	2701.06
386.913	2658.06
387.138	2639.06
387.363	2655.06
387.588	2635.06
387.813	2643.06
388.038	2677.06
388.263	2662.06
388.488	2680.06
388.713	2684.06
388.938	2598.06
389.163	2629.06
389.387	2668.06
389.612	2632.06
389.837	2653.06
390.062	2627.06
390.287	2694.06
390.512	2701.06
390.736	2748.06
390.961	2756.06
391.186	2785.06
391.411	2812.06
391.636	2777.06
391.86	2844.06
392.085	2811.06
392.31	2747.06
392.534	2758.06
392.759	2748.06
392.984	2742.06
393.208	2733.06
393.433	2812.06
393.658	2748.06
393.882	2677.06
394.107	2721.06
394.331	2684.06
394.556	2670.06
394.78	2760.06
395.005	2788.06
395.229	2769.06
395.454	2784.06
395.678	2762.06
395.903	2754.06
396.127	2746.06
396.352	2764.06
396.576	2793.06
396.801	2754.06
397.025	2822.06
397.249	2842.06
397.474	2764.06
397.698	2719.06
397.922	2805.06
398.147	2761.06
398.371	2849.06
398.595	2892.06
398.82	2942.06
399.044	3068.06
399.268	3178.06
399.492	3366.06
399.717	3450.06
399.941	3502.06
400.165	3316.06
400.389	3209.06
400.613	3156.06
400.837	3026.06
401.062	2992.06
401.286	2939.06
401.51	2922.06
401.734	2881.06
401.958	2938.06
402.182	2950.06
402.406	2894.06
402.63	2931.06
402.854	2964.06
403.078	2951.06
403.302	3004.06
403.526	3031.06
403.75	3015.06
403.974	3026.06
404.198	3012.06
404.422	3037.06
404.645	3040.06
404.869	2969.06
405.093	3017.06
405.317	2979.06
405.541	3062.06
405.765	3097.06
405.988	3132.06
406.212	3149.06
406.436	3096.06
406.66	3183.06
406.883	3098.06
407.107	3208.06
407.331	3221.06
407.555	3342.06
407.778	3301.06
408.002	3304.06
408.226	3260.06
408.449	3204.06
408.673	3149.06
408.896	3076.06
409.12	3104.06
409.344	3108.06
409.567	2971.06
409.791	3065.06
410.014	3049.06
410.238	2996.06
410.461	3036.06
410.685	3010.06
410.908	2953.06
411.132	2988.06
411.355	2911.06
411.578	2922.06
411.802	2888.06
412.025	2903.06
412.249	2949.06
412.472	2939.06
412.695	2857.06
412.919	2859.06
413.142	2866.06
413.365	2881.06
413.589	2869.06
413.812	2843.06
414.035	2903.06
414.258	2868.06
414.482	2877.06
414.705	2873.06
414.928	2855.06
415.151	2887.06
415.374	2849.06
415.597	2840.06
415.821	2769.06
416.044	2732.06
416.267	2716.06
416.49	2794.06
416.713	2740.06
416.936	2768.06
417.159	2672.06
417.382	2688.06
417.605	2712.06
417.828	2750.06
418.051	2741.06
418.274	2752.06
418.497	2763.06
418.72	2800.06
418.943	2797.06
419.166	2944.06
419.389	3078.06
419.611	3012.06
419.834	2919.06
420.057	2896.06
420.28	2777.06
420.503	2721.06
420.726	2705.06
420.948	2703.06
421.171	2728.06
421.394	2768.06
421.617	2740.06
421.839	2800.06
422.062	2806.06
422.285	2753.06
422.507	2802.06
422.73	2837.06
422.953	2920.06
423.175	2861.06
423.398	2840.06
423.621	2751.06
423.843	2785.06
424.066	2771.06
424.288	2717.06
424.511	2735.06
424.733	2760.06
424.956	2692.06
425.178	2725.06
425.401	2720.06
425.623	2754.06
425.846	2648.06
426.068	2684.06
426.291	2667.06
426.513	2658.06
426.735	2628.06
426.958	2661.06
427.18	2610.06
427.402	2596.06
427.625	2682.06
427.847	2620.06
428.069	2596.06
428.292	2621.06
428.514	2587.06
428.736	2572.06
428.958	2603.06
429.181	2536.06
429.403	2512.06
429.625	2507.06
429.847	2564.06
430.069	2616.06
430.292	2679.06
430.514	2782.06
430.736	2776.06
430.958	2663.06
431.18	2557.06
431.402	2536.06
431.624	2482.06
431.846	2507.06
432.068	2480.06
432.29	2544.06
432.512	2499.06
432.734	2546.06
432.956	2535.06
433.178	2536.06
433.4	2538.06
433.622	2593.06
433.844	2572.06
434.066	2560.06
434.287	2498.06
434.509	2572.06
434.731	2612.06
434.953	2595.06
435.175	2665.06
435.397	2648.06
435.618	2592.06
435.84	2610.06
436.062	2543.06
436.284	2561.06
436.505	2494.06
436.727	2519.06
436.949	2515.06
437.17	2509.06
437.392	2473.06
437.614	2473.06
437.835	2473.06
438.057	2444.06
438.278	2428.06
438.5	2485.06
438.721	2533.06
438.943	2622.06
439.165	2648.06
439.386	2652.06
439.608	2612.06
439.829	2653.06
440.05	2704.06
440.272	2794.06
440.493	2664.06
440.715	2615.06
440.936	2672.06
441.158	2636.06
441.379	2632.06
441.6	2752.06
441.822	2830.06
442.043	2978.06
442.264	3102.06
442.486	2883.06
442.707	2747.06
442.928	2754.06
443.149	2724.06
443.371	2700.06
443.592	2713.06
443.813	2744.06
444.034	2773.06
444.255	2771.06
444.476	2837.06
444.698	2896.06
444.919	2889.06
445.14	2905.06
445.361	2811.06
445.582	2768.06
445.803	2665.06
446.024	2692.06
446.245	2720.06
446.466	2697.06
446.687	2678.06
446.908	2634.06
447.129	2582.06
447.35	2532.06
447.571	2521.06
447.792	2502.06
448.013	2515.06
448.234	2499.06
448.455	2495.06
448.675	2528.06
448.896	2610.06
449.117	2644.06
449.338	2976.06
449.559	3068.06
449.779	2746.06
450	2520.06
450.221	2495.06
450.442	2494.06
450.662	2456.06
450.883	2465.06
451.104	2477.06
451.324	2467.06
451.545	2443.06
451.766	2540.06
451.986	2553.06
452.207	2742.06
452.428	3515.06
452.648	5458.06
452.869	4576.06
453.089	3122.06
453.31	2822.06
453.53	2902.06
453.751	2982.06
453.971	3164.06
454.192	3044.06
454.412	2626.06
454.633	2486.06
454.853	2450.06
455.073	2386.06
455.294	2381.06
455.514	2326.06
455.734	2324.06
455.955	2320.06
456.175	2328.06
456.395	2377.06
456.616	2388.06
456.836	2340.06
457.056	2428.06
457.276	2400.06
457.497	2540.06
457.717	2560.06
457.937	2501.06
458.157	2461.06
458.377	2493.06
458.598	2531.06
458.818	2509.06
459.038	2490.06
459.258	2500.06
459.478	2545.06
459.698	2587.06
459.918	2537.06
460.138	2672.06
460.358	2689.06
460.578	2757.06
460.798	2724.06
461.018	2807.06
461.238	2736.06
461.458	2806.06
461.678	2808.06
461.898	2879.06
462.118	2889.06
462.338	2951.06
462.558	2973.06
462.777	3068.06
462.997	3122.06
463.217	3239.06
463.437	3421.06
463.657	3466.06
463.876	3469.06
464.096	3270.06
464.316	3076.06
464.536	3012.06
464.755	2934.06
464.975	2925.06
465.195	2798.06
465.414	2758.06
465.634	2664.06
465.854	2615.06
466.073	2593.06
466.293	2610.06
466.512	2553.06
466.732	2598.06
466.951	2748.06
467.171	2944.06
467.391	2851.06
467.61	2628.06
467.829	2562.06
468.049	2571.06
468.268	2423.06
468.488	2532.06
468.707	2478.06
468.927	2498.06
469.146	2486.06
469.365	2562.06
469.585	2506.06
469.804	2627.06
470.023	2596.06
470.243	2688.06
470.462	2809.06
470.681	2921.06
470.901	3229.06
471.12	3724.06
471.339	3670.06
471.558	3104.06
471.777	2806.06
471.997	2707.06
472.216	2653.06
472.435	2570.06
472.654	2552.06
472.873	2517.06
473.092	2559.06
473.311	2562.06
473.53	2585.06
473.749	2600.06
473.968	2684.06
474.187	2610.06
474.406	2516.06
474.625	2562.06
474.844	2535.06
475.063	2538.06
475.282	2517.06
475.501	2527.06
475.72	2575.06
475.939	2563.06
476.158	2593.06
476.377	2689.06
476.596	2693.06
476.814	2660.06
477.033	2624.06
477.252	2677.06
477.471	2736.06
477.69	2737.06
477.908	2803.06
478.127	2802.06
478.346	2880.06
478.564	2887.06
478.783	2854.06
479.002	2960.06
479.22	2976.06
479.439	2984.06
479.658	2988.06
479.876	3016.06
480.095	3052.06
480.313	3100.06
480.532	3138.06
480.751	3113.06
480.969	3092.06
481.188	3060.06
481.406	2994.06
481.624	3028.06
481.843	3088.06
482.061	3089.06
482.28	3013.06
482.498	3022.06
482.717	3078.06
482.935	3060.06
483.153	3097.06
483.372	3171.06
483.59	3215.06
483.808	3258.06
484.027	3355.06
484.245	3545.06
484.463	3951.06
484.681	4390.06
484.9	4041.06
485.118	3742.06
485.336	3670.06
485.554	3676.06
485.772	3962.06
485.99	4458.06
486.209	4773.06
486.427	4089.06
486.645	3538.06
486.863	3442.06
487.081	3363.06
487.299	3304.06
487.517	3271.06
487.735	3278.06
