Data from SnStandardFlinnAPT0064_LampEnergy10_LIBS07252019.E.O._I.C._HRD10591_15-25-31-972.txt Node
Date: Thu Jul 25 15:25:31 EDT 2019
User: cochatt
Spectrometer: HR+D1059
Trigger mode: 1
Integration Time (sec): 1.000000E-1
Scans to average: 1
Electric dark correction enabled: true
Nonlinearity correction enabled: false
Boxcar width: 0
XAxis mode: Wavelengths
Number of Pixels in Spectrum: 2048
>>>>>Begin Spectral Data<<<<<
223.165	-19.88
223.4	-19.88
223.635	-19.88
223.869	-22.88
224.104	-11.88
224.338	-2.88
224.573	-15.88
224.808	-21.88
225.042	-12.88
225.277	-11.88
225.511	2.12
225.746	-0.88
225.98	-3.88
226.215	19.12
226.449	10.12
226.683	23.12
226.918	34.12
227.152	36.12
227.387	34.12
227.621	39.12
227.856	56.12
228.09	35.12
228.324	55.12
228.559	58.12
228.793	60.12
229.027	67.12
229.262	75.12
229.496	77.12
229.73	77.12
229.964	73.12
230.199	70.12
230.433	70.12
230.667	68.12
230.901	73.12
231.136	87.12
231.37	88.12
231.604	90.12
231.838	92.12
232.072	106.12
232.306	100.12
232.541	87.12
232.775	83.12
233.009	86.12
233.243	69.12
233.477	90.12
233.711	90.12
233.945	89.12
234.179	104.12
234.413	77.12
234.647	64.12
234.881	95.12
235.115	82.12
235.349	83.12
235.583	105.12
235.817	121.12
236.051	106.12
236.285	97.12
236.519	91.12
236.753	88.12
236.987	69.12
237.221	92.12
237.455	80.12
237.689	64.12
237.922	82.12
238.156	77.12
238.39	76.12
238.624	83.12
238.858	82.12
239.091	89.12
239.325	78.12
239.559	65.12
239.793	82.12
240.027	72.12
240.26	61.12
240.494	84.12
240.728	82.12
240.961	90.12
241.195	86.12
241.429	87.12
241.662	79.12
241.896	101.12
242.13	103.12
242.363	110.12
242.597	135.12
242.83	119.12
243.064	115.12
243.298	140.12
243.531	129.12
243.765	86.12
243.998	85.12
244.232	79.12
244.465	72.12
244.699	95.12
244.932	84.12
245.166	88.12
245.399	79.12
245.633	70.12
245.866	95.12
246.099	94.12
246.333	82.12
246.566	79.12
246.8	88.12
247.033	87.12
247.266	88.12
247.5	72.12
247.733	65.12
247.966	77.12
248.2	87.12
248.433	95.12
248.666	102.12
248.899	109.12
249.133	81.12
249.366	85.12
249.599	96.12
249.832	124.12
250.066	113.12
250.299	96.12
250.532	77.12
250.765	80.12
250.998	97.12
251.231	94.12
251.465	78.12
251.698	67.12
251.931	92.12
252.164	93.12
252.397	76.12
252.63	91.12
252.863	97.12
253.096	83.12
253.329	80.12
253.562	81.12
253.795	87.12
254.028	81.12
254.261	77.12
254.494	91.12
254.727	106.12
254.96	123.12
255.193	119.12
255.426	86.12
255.659	83.12
255.892	114.12
256.124	101.12
256.357	87.12
256.59	79.12
256.823	82.12
257.056	103.12
257.289	119.12
257.521	157.12
257.754	95.12
257.987	81.12
258.22	94.12
258.452	85.12
258.685	77.12
258.918	80.12
259.151	79.12
259.383	104.12
259.616	115.12
259.849	127.12
260.081	91.12
260.314	86.12
260.547	91.12
260.779	73.12
261.012	84.12
261.244	76.12
261.477	83.12
261.71	67.12
261.942	101.12
262.175	78.12
262.407	87.12
262.64	80.12
262.872	94.12
263.105	96.12
263.337	75.12
263.57	90.12
263.802	82.12
264.035	79.12
264.267	82.12
264.499	72.12
264.732	93.12
264.964	96.12
265.197	94.12
265.429	74.12
265.661	89.12
265.894	82.12
266.126	116.12
266.358	135.12
266.591	123.12
266.823	94.12
267.055	90.12
267.287	89.12
267.52	83.12
267.752	97.12
267.984	81.12
268.216	95.12
268.448	95.12
268.681	101.12
268.913	87.12
269.145	78.12
269.377	95.12
269.609	103.12
269.841	84.12
270.073	105.12
270.306	117.12
270.538	181.12
270.77	233.12
271.002	272.12
271.234	161.12
271.466	92.12
271.698	82.12
271.93	86.12
272.162	67.12
272.394	94.12
272.626	78.12
272.858	81.12
273.09	85.12
273.322	87.12
273.553	93.12
273.785	81.12
274.017	90.12
274.249	97.12
274.481	85.12
274.713	90.12
274.945	90.12
275.176	89.12
275.408	80.12
275.64	83.12
275.872	90.12
276.104	90.12
276.335	88.12
276.567	93.12
276.799	102.12
277.031	91.12
277.262	93.12
277.494	102.12
277.726	99.12
277.957	138.12
278.189	193.12
278.421	185.12
278.652	158.12
278.884	146.12
279.115	116.12
279.347	106.12
279.579	71.12
279.81	95.12
280.042	83.12
280.273	91.12
280.505	93.12
280.736	92.12
280.968	99.12
281.199	127.12
281.431	177.12
281.662	191.12
281.894	120.12
282.125	116.12
282.356	88.12
282.588	91.12
282.819	94.12
283.051	117.12
283.282	109.12
283.513	146.12
283.745	232.12
283.976	379.12
284.207	579.12
284.439	441.12
284.67	201.12
284.901	181.12
285.132	261.12
285.364	284.12
285.595	179.12
285.826	121.12
286.057	193.12
286.288	304.12
286.52	444.12
286.751	357.12
286.982	154.12
287.213	104.12
287.444	95.12
287.675	91.12
287.906	88.12
288.138	100.12
288.369	108.12
288.6	91.12
288.831	95.12
289.062	112.12
289.293	95.12
289.524	91.12
289.755	84.12
289.986	98.12
290.217	95.12
290.448	88.12
290.679	89.12
290.91	110.12
291.141	139.12
291.371	165.12
291.602	205.12
291.833	148.12
292.064	102.12
292.295	92.12
292.526	91.12
292.757	98.12
292.987	94.12
293.218	96.12
293.449	100.12
293.68	79.12
293.91	84.12
294.141	81.12
294.372	103.12
294.603	91.12
294.833	86.12
295.064	90.12
295.295	92.12
295.525	88.12
295.756	97.12
295.987	85.12
296.217	88.12
296.448	84.12
296.679	80.12
296.909	95.12
297.14	80.12
297.37	95.12
297.601	92.12
297.831	102.12
298.062	102.12
298.292	90.12
298.523	82.12
298.753	91.12
298.984	92.12
299.214	84.12
299.445	95.12
299.675	101.12
299.905	100.12
300.136	107.12
300.366	134.12
300.597	206.12
300.827	336.12
301.057	502.12
301.288	431.12
301.518	183.12
301.748	117.12
301.979	108.12
302.209	105.12
302.439	129.12
302.669	136.12
302.9	204.12
303.13	367.12
303.36	605.12
303.59	825.12
303.82	600.12
304.051	226.12
304.281	137.12
304.511	111.12
304.741	101.12
304.971	106.12
305.201	116.12
305.431	99.12
305.661	97.12
305.891	95.12
306.121	93.12
306.352	94.12
306.582	90.12
306.812	111.12
307.042	101.12
307.272	103.12
307.502	94.12
307.731	99.12
307.961	99.12
308.191	97.12
308.421	106.12
308.651	116.12
308.881	104.12
309.111	118.12
309.341	96.12
309.571	96.12
309.8	98.12
310.03	88.12
310.26	101.12
310.49	91.12
310.72	102.12
310.949	103.12
311.179	109.12
311.409	123.12
311.639	114.12
311.868	107.12
312.098	99.12
312.328	98.12
312.557	110.12
312.787	108.12
313.017	103.12
313.246	120.12
313.476	115.12
313.706	106.12
313.935	122.12
314.165	152.12
314.394	158.12
314.624	142.12
314.853	114.12
315.083	99.12
315.312	105.12
315.542	122.12
315.771	111.12
316.001	119.12
316.23	120.12
316.46	118.12
316.689	147.12
316.919	203.12
317.148	373.12
317.377	650.12
317.607	1043.12
317.836	995.12
318.065	370.12
318.295	163.12
318.524	123.12
318.753	122.12
318.983	116.12
319.212	111.12
319.441	103.12
319.67	108.12
319.9	114.12
320.129	121.12
320.358	121.12
320.587	101.12
320.816	116.12
321.046	121.12
321.275	96.12
321.504	105.12
321.733	121.12
321.962	140.12
322.191	148.12
322.42	121.12
322.649	115.12
322.878	115.12
323.108	99.12
323.337	107.12
323.566	100.12
323.795	116.12
324.024	127.12
324.253	128.12
324.482	153.12
324.71	184.12
324.939	211.12
325.168	183.12
325.397	159.12
325.626	213.12
325.855	358.12
326.084	667.12
326.313	1109.12
326.542	1111.12
326.77	443.12
326.999	199.12
327.228	162.12
327.457	185.12
327.686	174.12
327.914	147.12
328.143	109.12
328.372	121.12
328.6	105.12
328.829	100.12
329.058	118.12
329.287	110.12
329.515	120.12
329.744	104.12
329.972	99.12
330.201	119.12
330.43	109.12
330.658	103.12
330.887	97.12
331.115	114.12
331.344	106.12
331.572	122.12
331.801	110.12
332.03	124.12
332.258	128.12
332.486	151.12
332.715	223.12
332.943	353.12
333.172	548.12
333.4	471.12
333.629	200.12
333.857	123.12
334.085	134.12
334.314	112.12
334.542	115.12
334.771	104.12
334.999	97.12
335.227	111.12
335.455	107.12
335.684	121.12
335.912	106.12
336.14	100.12
336.369	122.12
336.597	115.12
336.825	102.12
337.053	101.12
337.281	100.12
337.51	95.12
337.738	111.12
337.966	101.12
338.194	84.12
338.422	101.12
338.65	95.12
338.878	101.12
339.106	104.12
339.334	105.12
339.562	120.12
339.79	108.12
340.018	105.12
340.246	98.12
340.474	102.12
340.702	88.12
340.93	111.12
341.158	89.12
341.386	108.12
341.614	106.12
341.842	98.12
342.07	101.12
342.298	99.12
342.526	96.12
342.754	108.12
342.981	97.12
343.209	108.12
343.437	115.12
343.665	103.12
343.893	105.12
344.12	104.12
344.348	103.12
344.576	89.12
344.804	94.12
345.031	97.12
345.259	106.12
345.487	101.12
345.714	93.12
345.942	103.12
346.17	95.12
346.397	99.12
346.625	107.12
346.853	99.12
347.08	100.12
347.308	104.12
347.535	97.12
347.763	96.12
347.99	105.12
348.218	107.12
348.445	106.12
348.673	105.12
348.9	132.12
349.128	131.12
349.355	112.12
349.583	112.12
349.81	118.12
350.037	111.12
350.265	107.12
350.492	100.12
350.72	98.12
350.947	104.12
351.174	104.12
351.402	104.12
351.629	114.12
351.856	95.12
352.083	108.12
352.311	115.12
352.538	108.12
352.765	103.12
352.992	101.12
353.22	106.12
353.447	96.12
353.674	99.12
353.901	108.12
354.128	103.12
354.355	92.12
354.583	83.12
354.81	97.12
355.037	102.12
355.264	89.12
355.491	79.12
355.718	98.12
355.945	100.12
356.172	112.12
356.399	109.12
356.626	89.12
356.853	96.12
357.08	83.12
357.307	98.12
357.534	105.12
357.761	104.12
357.988	107.12
358.215	85.12
358.441	108.12
358.668	112.12
358.895	104.12
359.122	117.12
359.349	104.12
359.576	109.12
359.802	101.12
360.029	95.12
360.256	103.12
360.483	86.12
360.709	92.12
360.936	99.12
361.163	105.12
361.39	99.12
361.616	114.12
361.843	115.12
362.07	95.12
362.296	118.12
362.523	106.12
362.749	94.12
362.976	101.12
363.203	105.12
363.429	101.12
363.656	102.12
363.882	102.12
364.109	112.12
364.335	113.12
364.562	103.12
364.788	76.12
365.015	114.12
365.241	111.12
365.468	153.12
365.694	188.12
365.92	162.12
366.147	103.12
366.373	88.12
366.599	104.12
366.826	75.12
367.052	94.12
367.278	81.12
367.505	80.12
367.731	107.12
367.957	98.12
368.184	94.12
368.41	100.12
368.636	117.12
368.862	94.12
369.089	75.12
369.315	101.12
369.541	95.12
369.767	115.12
369.993	100.12
370.219	108.12
370.445	114.12
370.672	92.12
370.898	95.12
371.124	94.12
371.35	98.12
371.576	102.12
371.802	105.12
372.028	106.12
372.254	101.12
372.48	107.12
372.706	97.12
372.932	105.12
373.158	113.12
373.384	120.12
373.61	86.12
373.835	102.12
374.061	110.12
374.287	108.12
374.513	85.12
374.739	100.12
374.965	98.12
375.191	101.12
375.416	112.12
375.642	96.12
375.868	109.12
376.094	92.12
376.319	98.12
376.545	97.12
376.771	90.12
376.997	88.12
377.222	101.12
377.448	108.12
377.674	113.12
377.899	111.12
378.125	94.12
378.35	110.12
378.576	103.12
378.802	125.12
379.027	111.12
379.253	127.12
379.478	150.12
379.704	247.12
379.929	560.12
380.155	1075.12
380.38	1103.12
380.606	371.12
380.831	149.12
381.057	124.12
381.282	119.12
381.507	119.12
381.733	97.12
381.958	107.12
382.184	100.12
382.409	84.12
382.634	99.12
382.86	106.12
383.085	93.12
383.31	105.12
383.535	100.12
383.761	98.12
383.986	90.12
384.211	104.12
384.436	103.12
384.662	96.12
384.887	107.12
385.112	101.12
385.337	98.12
385.562	99.12
385.787	96.12
386.013	99.12
386.238	100.12
386.463	99.12
386.688	102.12
386.913	99.12
387.138	103.12
387.363	112.12
387.588	89.12
387.813	112.12
388.038	114.12
388.263	108.12
388.488	108.12
388.713	104.12
388.938	92.12
389.163	86.12
389.387	85.12
389.612	105.12
389.837	100.12
390.062	98.12
390.287	109.12
390.512	108.12
390.736	93.12
390.961	101.12
391.186	93.12
391.411	91.12
391.636	83.12
391.86	91.12
392.085	84.12
392.31	98.12
392.534	94.12
392.759	97.12
392.984	97.12
393.208	94.12
393.433	117.12
393.658	101.12
393.882	89.12
394.107	81.12
394.331	92.12
394.556	94.12
394.78	98.12
395.005	99.12
395.229	84.12
395.454	88.12
395.678	88.12
395.903	97.12
396.127	90.12
396.352	103.12
396.576	106.12
396.801	95.12
397.025	121.12
397.249	112.12
397.474	95.12
397.698	95.12
397.922	93.12
398.147	82.12
398.371	94.12
398.595	99.12
398.82	86.12
399.044	96.12
399.268	95.12
399.492	107.12
399.717	112.12
399.941	99.12
400.165	101.12
400.389	89.12
400.613	89.12
400.837	71.12
401.062	88.12
401.286	90.12
401.51	105.12
401.734	97.12
401.958	85.12
402.182	96.12
402.406	90.12
402.63	102.12
402.854	83.12
403.078	104.12
403.302	89.12
403.526	84.12
403.75	95.12
403.974	108.12
404.198	83.12
404.422	84.12
404.645	86.12
404.869	66.12
405.093	92.12
405.317	93.12
405.541	99.12
405.765	106.12
405.988	116.12
406.212	111.12
406.436	99.12
406.66	97.12
406.883	96.12
407.107	80.12
407.331	87.12
407.555	95.12
407.778	90.12
408.002	102.12
408.226	93.12
408.449	94.12
408.673	87.12
408.896	91.12
409.12	98.12
409.344	100.12
409.567	108.12
409.791	114.12
410.014	97.12
410.238	97.12
410.461	91.12
410.685	93.12
410.908	85.12
411.132	91.12
411.355	106.12
411.578	93.12
411.802	95.12
412.025	93.12
412.249	94.12
412.472	84.12
412.695	93.12
412.919	96.12
413.142	94.12
413.365	105.12
413.589	103.12
413.812	99.12
414.035	114.12
414.258	96.12
414.482	89.12
414.705	103.12
414.928	93.12
415.151	109.12
415.374	107.12
415.597	99.12
415.821	91.12
416.044	91.12
416.267	96.12
416.49	101.12
416.713	106.12
416.936	113.12
417.159	81.12
417.382	96.12
417.605	89.12
417.828	82.12
418.051	92.12
418.274	98.12
418.497	89.12
418.72	104.12
418.943	101.12
419.166	96.12
419.389	103.12
419.611	113.12
419.834	103.12
420.057	101.12
420.28	85.12
420.503	103.12
420.726	92.12
420.948	86.12
421.171	100.12
421.394	87.12
421.617	92.12
421.839	80.12
422.062	92.12
422.285	100.12
422.507	88.12
422.73	105.12
422.953	117.12
423.175	111.12
423.398	89.12
423.621	95.12
423.843	87.12
424.066	105.12
424.288	97.12
424.511	81.12
424.733	92.12
424.956	96.12
425.178	89.12
425.401	98.12
425.623	98.12
425.846	86.12
426.068	99.12
426.291	90.12
426.513	88.12
426.735	91.12
426.958	100.12
427.18	88.12
427.402	90.12
427.625	102.12
427.847	94.12
428.069	93.12
428.292	105.12
428.514	96.12
428.736	70.12
428.958	97.12
429.181	86.12
429.403	79.12
429.625	82.12
429.847	78.12
430.069	96.12
430.292	90.12
430.514	91.12
430.736	99.12
430.958	97.12
431.18	92.12
431.402	97.12
431.624	92.12
431.846	92.12
432.068	99.12
432.29	95.12
432.512	90.12
432.734	97.12
432.956	100.12
433.178	90.12
433.4	95.12
433.622	84.12
433.844	90.12
434.066	101.12
434.287	70.12
434.509	92.12
434.731	88.12
434.953	91.12
435.175	94.12
435.397	101.12
435.618	90.12
435.84	77.12
436.062	93.12
436.284	92.12
436.505	92.12
436.727	92.12
436.949	87.12
437.17	99.12
437.392	85.12
437.614	100.12
437.835	98.12
438.057	90.12
438.278	105.12
438.5	87.12
438.721	97.12
438.943	105.12
439.165	116.12
439.386	105.12
439.608	92.12
439.829	89.12
440.05	108.12
440.272	106.12
440.493	94.12
440.715	88.12
440.936	101.12
441.158	95.12
441.379	91.12
441.6	84.12
441.822	93.12
442.043	114.12
442.264	120.12
442.486	105.12
442.707	90.12
442.928	87.12
443.149	87.12
443.371	96.12
443.592	87.12
443.813	84.12
444.034	78.12
444.255	85.12
444.476	104.12
444.698	105.12
444.919	88.12
445.14	243.12
445.361	162.12
445.582	97.12
445.803	94.12
446.024	91.12
446.245	92.12
446.466	74.12
446.687	103.12
446.908	92.12
447.129	84.12
447.35	100.12
447.571	99.12
447.792	96.12
448.013	97.12
448.234	102.12
448.455	108.12
448.675	90.12
448.896	109.12
449.117	102.12
449.338	120.12
449.559	141.12
449.779	101.12
450	103.12
450.221	113.12
450.442	111.12
450.662	106.12
450.883	108.12
451.104	115.12
451.324	114.12
451.545	107.12
451.766	106.12
451.986	119.12
452.207	169.12
452.428	394.12
452.648	907.12
452.869	525.12
453.089	160.12
453.31	103.12
453.53	115.12
453.751	118.12
453.971	122.12
454.192	130.12
454.412	99.12
454.633	90.12
454.853	98.12
455.073	94.12
455.294	96.12
455.514	101.12
455.734	88.12
455.955	83.12
456.175	88.12
456.395	87.12
456.616	94.12
456.836	105.12
457.056	88.12
457.276	93.12
457.497	108.12
457.717	118.12
457.937	95.12
458.157	87.12
458.377	90.12
458.598	72.12
458.818	105.12
459.038	96.12
459.258	100.12
459.478	83.12
459.698	89.12
459.918	75.12
460.138	76.12
460.358	89.12
460.578	86.12
460.798	82.12
461.018	96.12
461.238	103.12
461.458	96.12
461.678	96.12
461.898	93.12
462.118	77.12
462.338	97.12
462.558	90.12
462.777	87.12
462.997	101.12
463.217	101.12
463.437	108.12
463.657	159.12
463.876	153.12
464.096	95.12
464.316	96.12
464.536	99.12
464.755	74.12
464.975	81.12
465.195	92.12
465.414	90.12
465.634	105.12
465.854	96.12
466.073	104.12
466.293	105.12
466.512	90.12
466.732	90.12
466.951	113.12
467.171	123.12
467.391	119.12
467.61	89.12
467.829	82.12
468.049	113.12
468.268	90.12
468.488	85.12
468.707	88.12
468.927	83.12
469.146	89.12
469.365	90.12
469.585	87.12
469.804	84.12
470.023	86.12
470.243	106.12
470.462	94.12
470.681	89.12
470.901	108.12
471.12	151.12
471.339	169.12
471.558	125.12
471.777	114.12
471.997	101.12
472.216	95.12
472.435	81.12
472.654	85.12
472.873	96.12
473.092	88.12
473.311	84.12
473.53	103.12
473.749	98.12
473.968	92.12
474.187	97.12
474.406	94.12
474.625	84.12
474.844	106.12
475.063	92.12
475.282	84.12
475.501	90.12
475.72	99.12
475.939	83.12
476.158	92.12
476.377	96.12
476.596	95.12
476.814	93.12
477.033	89.12
477.252	103.12
477.471	93.12
477.69	110.12
477.908	89.12
478.127	105.12
478.346	94.12
478.564	104.12
478.783	93.12
479.002	101.12
479.22	98.12
479.439	97.12
479.658	97.12
479.876	90.12
480.095	94.12
480.313	112.12
480.532	105.12
480.751	96.12
480.969	86.12
481.188	72.12
481.406	104.12
481.624	83.12
481.843	96.12
482.061	108.12
482.28	101.12
482.498	78.12
482.717	84.12
482.935	88.12
483.153	100.12
483.372	103.12
483.59	104.12
483.808	96.12
484.027	102.12
484.245	113.12
484.463	160.12
484.681	200.12
484.9	133.12
485.118	106.12
485.336	103.12
485.554	113.12
485.772	114.12
485.99	155.12
486.209	203.12
486.427	153.12
486.645	113.12
486.863	101.12
487.081	107.12
487.299	99.12
487.517	82.12
487.735	85.12
487.953	91.12
488.171	81.12
488.389	99.12
488.607	92.12
488.825	80.12
489.043	81.12
489.261	98.12
489.479	92.12
489.696	103.12
489.914	89.12
490.132	90.12
490.35	108.12
490.568	87.12
490.786	106.12
491.003	91.12
491.221	97.12
491.439	95.12
491.657	93.12
491.874	111.12
492.092	123.12
492.31	93.12
492.527	97.12
492.745	93.12
492.963	96.12
493.18	101.12
493.398	104.12
493.615	104.12
493.833	104.12
494.05	92.12
494.268	93.12
494.485	98.12
494.703	99.12
494.92	100.12
495.138	101.12
495.355	100.12
495.573	100.12
495.79	94.12
496.008	93.12
496.225	93.12
496.442	91.12
496.66	113.12
496.877	155.12
497.094	120.12
497.312	99.12
497.529	93.12
497.746	107.12
497.963	107.12
498.181	76.12
498.398	102.12
498.615	115.12
498.832	99.12
499.049	111.12
499.267	120.12
499.484	142.12
499.701	108.12
499.918	108.12
500.135	101.12
500.352	109.12
500.569	102.12
500.786	102.12
501.003	91.12
501.22	100.12
501.437	100.12
501.654	104.12
501.871	114.12
502.088	89.12
502.305	84.12
502.522	87.12
502.739	103.12
502.956	86.12
503.172	98.12
503.389	95.12
503.606	87.12
503.823	99.12
504.04	80.12
504.256	90.12
504.473	82.12
504.69	89.12
504.907	105.12
505.123	114.12
505.34	103.12
505.557	103.12
505.773	103.12
505.99	83.12
506.207	92.12
506.423	101.12
506.64	106.12
506.856	94.12
507.073	101.12
507.289	89.12
507.506	94.12
507.722	110.12
507.939	98.12
508.155	80.12
508.372	98.12
508.588	98.12
508.805	94.12
509.021	88.12
509.238	88.12
509.454	128.12
509.67	131.12
509.887	113.12
510.103	95.12
510.319	87.12
510.536	92.12
510.752	86.12
510.968	93.12
