Data from SnStandardFlinnAPT0064_LampEnergy10_LIBS07252019.E.O._I.C._HRD10591_15-21-56-494.txt Node
Date: Thu Jul 25 15:21:56 EDT 2019
User: cochatt
Spectrometer: HR+D1059
Trigger mode: 1
Integration Time (sec): 1.000000E-1
Scans to average: 1
Electric dark correction enabled: true
Nonlinearity correction enabled: false
Boxcar width: 0
XAxis mode: Wavelengths
Number of Pixels in Spectrum: 2048
>>>>>Begin Spectral Data<<<<<
223.165	-8.06
223.4	-8.06
223.635	-8.06
223.869	-21.06
224.104	-23.06
224.338	-16.06
224.573	-25.06
224.808	-10.06
225.042	-8.06
225.277	-4.06
225.511	1.94
225.746	-1.06
225.98	1.94
226.215	5.94
226.449	27.94
226.683	32.94
226.918	13.94
227.152	31.94
227.387	39.94
227.621	35.94
227.856	55.94
228.09	39.94
228.324	43.94
228.559	56.94
228.793	123.94
229.027	307.94
229.262	339.94
229.496	315.94
229.73	305.94
229.964	301.94
230.199	310.94
230.433	309.94
230.667	312.94
230.901	319.94
231.136	323.94
231.37	357.94
231.604	373.94
231.838	438.94
232.072	545.94
232.306	579.94
232.541	469.94
232.775	428.94
233.009	416.94
233.243	429.94
233.477	439.94
233.711	502.94
233.945	573.94
234.179	484.94
234.413	446.94
234.647	456.94
234.881	468.94
235.115	513.94
235.349	609.94
235.583	761.94
235.817	975.94
236.051	949.94
236.285	647.94
236.519	526.94
236.753	511.94
236.987	487.94
237.221	541.94
237.455	515.94
237.689	483.94
237.922	451.94
238.156	452.94
238.39	515.94
238.624	502.94
238.858	478.94
239.091	486.94
239.325	496.94
239.559	523.94
239.793	503.94
240.027	494.94
240.26	520.94
240.494	546.94
240.728	580.94
240.961	600.94
241.195	653.94
241.429	665.94
241.662	683.94
241.896	768.94
242.13	918.94
242.363	1270.94
242.597	1589.94
242.83	1539.94
243.064	1551.94
243.298	1768.94
243.531	1488.94
243.765	952.94
243.998	793.94
244.232	694.94
244.465	675.94
244.699	633.94
244.932	647.94
245.166	669.94
245.399	683.94
245.633	665.94
245.866	691.94
246.099	652.94
246.333	631.94
246.566	622.94
246.8	621.94
247.033	641.94
247.266	668.94
247.5	645.94
247.733	655.94
247.966	722.94
248.2	770.94
248.433	863.94
248.666	988.94
248.899	945.94
249.133	845.94
249.366	850.94
249.599	961.94
249.832	1110.94
250.066	1085.94
250.299	872.94
250.532	747.94
250.765	732.94
250.998	757.94
251.231	736.94
251.465	733.94
251.698	752.94
251.931	730.94
252.164	752.94
252.397	747.94
252.63	795.94
252.863	785.94
253.096	750.94
253.329	787.94
253.562	783.94
253.795	791.94
254.028	792.94
254.261	826.94
254.494	861.94
254.727	1029.94
254.96	1197.94
255.193	1226.94
255.426	969.94
255.659	885.94
255.892	868.94
256.124	857.94
256.357	865.94
256.59	912.94
256.823	1003.94
257.056	1111.94
257.289	1341.94
257.521	1481.94
257.754	1214.94
257.987	984.94
258.22	932.94
258.452	905.94
258.685	911.94
258.918	913.94
259.151	999.94
259.383	1079.94
259.616	1199.94
259.849	1282.94
260.081	1097.94
260.314	976.94
260.547	958.94
260.779	952.94
261.012	950.94
261.244	960.94
261.477	976.94
261.71	993.94
261.942	990.94
262.175	1011.94
262.407	1053.94
262.64	1039.94
262.872	1099.94
263.105	1137.94
263.337	1239.94
263.57	1263.94
263.802	1316.94
264.035	1315.94
264.267	1383.94
264.499	1376.94
264.732	1409.94
264.964	1440.94
265.197	1458.94
265.429	1469.94
265.661	1501.94
265.894	1567.94
266.126	1765.94
266.358	1982.94
266.591	1913.94
266.823	1601.94
267.055	1427.94
267.287	1414.94
267.52	1336.94
267.752	1320.94
267.984	1294.94
268.216	1250.94
268.448	1229.94
268.681	1240.94
268.913	1228.94
269.145	1195.94
269.377	1221.94
269.609	1266.94
269.841	1299.94
270.073	1386.94
270.306	1634.94
270.538	2151.94
270.77	3182.94
271.002	3923.94
271.234	2761.94
271.466	1894.94
271.698	1549.94
271.93	1421.94
272.162	1320.94
272.394	1301.94
272.626	1249.94
272.858	1244.94
273.09	1239.94
273.322	1252.94
273.553	1190.94
273.785	1188.94
274.017	1206.94
274.249	1211.94
274.481	1217.94
274.713	1199.94
274.945	1209.94
275.176	1237.94
275.408	1228.94
275.64	1219.94
275.872	1223.94
276.104	1217.94
276.335	1242.94
276.567	1279.94
276.799	1299.94
277.031	1323.94
277.262	1355.94
277.494	1382.94
277.726	1549.94
277.957	1892.94
278.189	2107.94
278.421	1980.94
278.652	1755.94
278.884	1663.94
279.115	1517.94
279.347	1423.94
279.579	1394.94
279.81	1362.94
280.042	1395.94
280.273	1441.94
280.505	1467.94
280.736	1545.94
280.968	1628.94
281.199	1759.94
281.431	2044.94
281.662	2072.94
281.894	1799.94
282.125	1624.94
282.356	1636.94
282.588	1669.94
282.819	1711.94
283.051	1824.94
283.282	2032.94
283.513	2462.94
283.745	3576.94
283.976	5661.94
284.207	7923.94
284.439	7257.94
284.67	4516.94
284.901	3661.94
285.132	3726.94
285.364	3550.94
285.595	2712.94
285.826	2394.94
286.057	2835.94
286.288	3878.94
286.52	5251.94
286.751	4811.94
286.982	2996.94
287.213	2299.94
287.444	1976.94
287.675	1865.94
287.906	1790.94
288.138	1766.94
288.369	1707.94
288.6	1693.94
288.831	1677.94
289.062	1679.94
289.293	1672.94
289.524	1656.94
289.755	1703.94
289.986	1699.94
290.217	1714.94
290.448	1684.94
290.679	1726.94
290.91	1779.94
291.141	1909.94
291.371	2049.94
291.602	2143.94
291.833	1921.94
292.064	1755.94
292.295	1711.94
292.526	1621.94
292.757	1627.94
292.987	1599.94
293.218	1598.94
293.449	1589.94
293.68	1606.94
293.91	1587.94
294.141	1583.94
294.372	1582.94
294.603	1561.94
294.833	1562.94
295.064	1590.94
295.295	1592.94
295.525	1530.94
295.756	1557.94
295.987	1549.94
296.217	1562.94
296.448	1568.94
296.679	1571.94
296.909	1613.94
297.14	1645.94
297.37	1611.94
297.601	1643.94
297.831	1625.94
298.062	1596.94
298.292	1655.94
298.523	1688.94
298.753	1693.94
298.984	1673.94
299.214	1715.94
299.445	1742.94
299.675	1772.94
299.905	1863.94
300.136	1913.94
300.366	2185.94
300.597	2703.94
300.827	3816.94
301.057	5235.94
301.288	5239.94
301.518	3333.94
301.748	2561.94
301.979	2351.94
302.209	2257.94
302.439	2324.94
302.669	2487.94
302.9	2945.94
303.13	4126.94
303.36	6236.94
303.59	8221.94
303.82	7123.94
304.051	4159.94
304.281	3023.94
304.511	2535.94
304.741	2337.94
304.971	2192.94
305.201	2060.94
305.431	2014.94
305.661	2020.94
305.891	1945.94
306.121	1886.94
306.352	1843.94
306.582	1859.94
306.812	1844.94
307.042	1838.94
307.272	1829.94
307.502	1858.94
307.731	1836.94
307.961	1857.94
308.191	1826.94
308.421	1806.94
308.651	1818.94
308.881	1791.94
309.111	1812.94
309.341	1827.94
309.571	1845.94
309.8	1822.94
310.03	1877.94
310.26	1870.94
310.49	1860.94
310.72	1890.94
310.949	1860.94
311.179	1882.94
311.409	1914.94
311.639	1951.94
311.868	1944.94
312.098	1917.94
312.328	1983.94
312.557	1971.94
312.787	1991.94
313.017	1947.94
313.246	1949.94
313.476	1983.94
313.706	2095.94
313.935	2207.94
314.165	2353.94
314.394	2485.94
314.624	2370.94
314.853	2165.94
315.083	2135.94
315.312	2167.94
315.542	2189.94
315.771	2223.94
316.001	2242.94
316.23	2269.94
316.46	2406.94
316.689	2627.94
316.919	3185.94
317.148	4609.94
317.377	7087.94
317.607	10472.94
317.836	10868.94
318.065	6505.94
318.295	4219.94
318.524	3387.94
318.753	2939.94
318.983	2733.94
319.212	2557.94
319.441	2503.94
319.67	2454.94
319.9	2387.94
320.129	2381.94
320.358	2364.94
320.587	2320.94
320.816	2341.94
321.046	2359.94
321.275	2321.94
321.504	2385.94
321.733	2451.94
321.962	2528.94
322.191	2552.94
322.42	2534.94
322.649	2479.94
322.878	2471.94
323.108	2495.94
323.337	2513.94
323.566	2594.94
323.795	2633.94
324.024	2689.94
324.253	2736.94
324.482	2893.94
324.71	2988.94
324.939	3189.94
325.168	3307.94
325.397	3389.94
325.626	3970.94
325.855	5673.94
326.084	8733.94
326.313	12664.94
326.542	13370.94
326.77	9091.94
326.999	5831.94
327.228	4960.94
327.457	4661.94
327.686	4749.94
327.914	5125.94
328.143	5963.94
328.372	7191.94
328.6	7751.94
328.829	6903.94
329.058	5789.94
329.287	5065.94
329.515	4687.94
329.744	4237.94
329.972	4019.94
330.201	3817.94
330.43	3755.94
330.658	3621.94
330.887	3549.94
331.115	3571.94
331.344	3455.94
331.572	3509.94
331.801	3524.94
332.03	3563.94
332.258	3602.94
332.486	3734.94
332.715	4377.94
332.943	5361.94
333.172	6600.94
333.4	6545.94
333.629	4963.94
333.857	4508.94
334.085	4543.94
334.314	4812.94
334.542	5060.94
334.771	5978.94
334.999	7417.94
335.227	9452.94
335.455	10455.94
335.684	9335.94
335.912	7573.94
336.14	6469.94
336.369	5643.94
336.597	5241.94
336.825	4769.94
337.053	4469.94
337.281	4291.94
337.51	4006.94
337.738	3855.94
337.966	3721.94
338.194	3605.94
338.422	3453.94
338.65	3391.94
338.878	3339.94
339.106	3230.94
339.334	3245.94
339.562	3191.94
339.79	3065.94
340.018	3070.94
340.246	3053.94
340.474	3035.94
340.702	3042.94
340.93	3040.94
341.158	3093.94
341.386	3030.94
341.614	2956.94
341.842	2920.94
342.07	2897.94
342.298	2828.94
342.526	2798.94
342.754	2734.94
342.981	2722.94
343.209	2750.94
343.437	2748.94
343.665	2796.94
343.893	2824.94
344.12	2831.94
344.348	2840.94
344.576	2729.94
344.804	2679.94
345.031	2632.94
345.259	2623.94
345.487	2566.94
345.714	2583.94
345.942	2547.94
346.17	2576.94
346.397	2576.94
346.625	2556.94
346.853	2519.94
347.08	2493.94
347.308	2508.94
347.535	2518.94
347.763	2550.94
347.99	2493.94
348.218	2483.94
348.445	2512.94
348.673	2513.94
348.9	2523.94
349.128	2457.94
349.355	2460.94
349.583	2481.94
349.81	2437.94
350.037	2445.94
350.265	2405.94
350.492	2408.94
350.72	2388.94
350.947	2412.94
351.174	2453.94
351.402	2429.94
351.629	2416.94
351.856	2355.94
352.083	2383.94
352.311	2391.94
352.538	2423.94
352.765	2376.94
352.992	2369.94
353.22	2346.94
353.447	2369.94
353.674	2382.94
353.901	2428.94
354.128	2384.94
354.355	2425.94
354.583	2392.94
354.81	2454.94
355.037	2428.94
355.264	2411.94
355.491	2411.94
355.718	2484.94
355.945	2405.94
356.172	2409.94
356.399	2512.94
356.626	2479.94
356.853	2516.94
357.08	2498.94
357.307	2568.94
357.534	2581.94
357.761	2583.94
357.988	2631.94
358.215	2582.94
358.441	2572.94
358.668	2536.94
358.895	2583.94
359.122	2544.94
359.349	2505.94
359.576	2596.94
359.802	2541.94
360.029	2549.94
360.256	2526.94
360.483	2574.94
360.709	2544.94
360.936	2560.94
361.163	2577.94
361.39	2545.94
361.616	2546.94
361.843	2603.94
362.07	2608.94
362.296	2580.94
362.523	2591.94
362.749	2578.94
362.976	2569.94
363.203	2595.94
363.429	2556.94
363.656	2541.94
363.882	2572.94
364.109	2562.94
364.335	2539.94
364.562	2565.94
364.788	2567.94
365.015	2616.94
365.241	2670.94
365.468	2804.94
365.694	2960.94
365.92	2861.94
366.147	2677.94
366.373	2659.94
366.599	2611.94
366.826	2642.94
367.052	2573.94
367.278	2613.94
367.505	2623.94
367.731	2593.94
367.957	2598.94
368.184	2601.94
368.41	2635.94
368.636	2731.94
368.862	2655.94
369.089	2630.94
369.315	2667.94
369.541	2653.94
369.767	2648.94
369.993	2647.94
370.219	2671.94
370.445	2661.94
370.672	2697.94
370.898	2715.94
371.124	2685.94
371.35	2703.94
371.576	2751.94
371.802	2740.94
372.028	2764.94
372.254	2735.94
372.48	2775.94
372.706	2839.94
372.932	2794.94
373.158	2806.94
373.384	2867.94
373.61	2797.94
373.835	2829.94
374.061	2796.94
374.287	2900.94
374.513	2903.94
374.739	2885.94
374.965	2899.94
375.191	2907.94
375.416	2943.94
375.642	2859.94
375.868	2903.94
376.094	2848.94
376.319	2850.94
376.545	2818.94
376.771	2769.94
376.997	2772.94
377.222	2759.94
377.448	2707.94
377.674	2737.94
377.899	2725.94
378.125	2770.94
378.35	2723.94
378.576	2743.94
378.802	2760.94
379.027	2837.94
379.253	2936.94
379.478	3102.94
379.704	3635.94
379.929	5224.94
380.155	7915.94
380.38	8612.94
380.606	5227.94
380.831	3700.94
381.057	3219.94
381.282	2978.94
381.507	2883.94
381.733	2859.94
381.958	2774.94
382.184	2738.94
382.409	2723.94
382.634	2699.94
382.86	2696.94
383.085	2698.94
383.31	2731.94
383.535	2724.94
383.761	2695.94
383.986	2747.94
384.211	2779.94
384.436	2781.94
384.662	2770.94
384.887	2778.94
385.112	2756.94
385.337	2799.94
385.562	2759.94
385.787	2782.94
386.013	2840.94
386.238	2795.94
386.463	2767.94
386.688	2839.94
386.913	2767.94
387.138	2775.94
387.363	2810.94
387.588	2754.94
387.813	2767.94
388.038	2758.94
388.263	2801.94
388.488	2811.94
388.713	2778.94
388.938	2747.94
389.163	2770.94
389.387	2794.94
389.612	2777.94
389.837	2771.94
390.062	2783.94
390.287	2822.94
390.512	2787.94
390.736	2863.94
390.961	2888.94
391.186	2888.94
391.411	2923.94
391.636	2947.94
391.86	2970.94
392.085	2929.94
392.31	2919.94
392.534	2863.94
392.759	2839.94
392.984	2893.94
393.208	2878.94
393.433	2849.94
393.658	2877.94
393.882	2807.94
394.107	2838.94
394.331	2823.94
394.556	2854.94
394.78	2819.94
395.005	2879.94
395.229	2825.94
395.454	2912.94
395.678	2943.94
395.903	2902.94
396.127	2944.94
396.352	2903.94
396.576	2854.94
396.801	2887.94
397.025	2923.94
397.249	2900.94
397.474	2941.94
397.698	2920.94
397.922	2971.94
398.147	2945.94
398.371	2996.94
398.595	3035.94
398.82	3131.94
399.044	3198.94
399.268	3373.94
399.492	3585.94
399.717	3709.94
399.941	3705.94
400.165	3571.94
400.389	3396.94
400.613	3281.94
400.837	3199.94
401.062	3109.94
401.286	3115.94
401.51	3044.94
401.734	3034.94
401.958	3080.94
402.182	3101.94
402.406	3078.94
402.63	3059.94
402.854	3088.94
403.078	3136.94
403.302	3168.94
403.526	3219.94
403.75	3222.94
403.974	3192.94
404.198	3141.94
404.422	3259.94
404.645	3185.94
404.869	3205.94
405.093	3167.94
405.317	3215.94
405.541	3235.94
405.765	3288.94
405.988	3303.94
406.212	3321.94
406.436	3230.94
406.66	3315.94
406.883	3293.94
407.107	3403.94
407.331	3512.94
407.555	3486.94
407.778	3427.94
408.002	3479.94
408.226	3392.94
408.449	3395.94
408.673	3345.94
408.896	3228.94
409.12	3283.94
409.344	3248.94
409.567	3190.94
409.791	3238.94
410.014	3184.94
410.238	3162.94
410.461	3239.94
410.685	3181.94
410.908	3115.94
411.132	3161.94
411.355	3050.94
411.578	3073.94
411.802	3062.94
412.025	3047.94
412.249	3057.94
412.472	3047.94
412.695	3069.94
412.919	2977.94
413.142	3057.94
413.365	3032.94
413.589	3044.94
413.812	2995.94
414.035	3029.94
414.258	3016.94
414.482	2980.94
414.705	2993.94
414.928	2989.94
415.151	3021.94
415.374	2936.94
415.597	2967.94
415.821	2897.94
416.044	2923.94
416.267	2865.94
416.49	2882.94
416.713	2886.94
416.936	2904.94
417.159	2833.94
417.382	2876.94
417.605	2831.94
417.828	2871.94
418.051	2919.94
418.274	2932.94
418.497	2936.94
418.72	3020.94
418.943	2953.94
419.166	3071.94
419.389	3276.94
419.611	3211.94
419.834	3067.94
420.057	2984.94
420.28	2981.94
420.503	2879.94
420.726	2827.94
420.948	2878.94
421.171	2859.94
421.394	2918.94
421.617	2911.94
421.839	2934.94
422.062	2914.94
422.285	2849.94
422.507	2966.94
422.73	2953.94
422.953	2981.94
423.175	3006.94
423.398	2954.94
423.621	2911.94
423.843	2928.94
424.066	2950.94
424.288	2896.94
424.511	2904.94
424.733	2910.94
424.956	2850.94
425.178	2850.94
425.401	2820.94
425.623	2870.94
425.846	2777.94
426.068	2753.94
426.291	2824.94
426.513	2735.94
426.735	2796.94
426.958	2827.94
427.18	2740.94
427.402	2731.94
427.625	2708.94
427.847	2631.94
428.069	2659.94
428.292	2702.94
428.514	2684.94
428.736	2721.94
428.958	2701.94
429.181	2681.94
429.403	2634.94
429.625	2659.94
429.847	2713.94
430.069	2713.94
430.292	2777.94
430.514	2887.94
430.736	2876.94
430.958	2747.94
431.18	2660.94
431.402	2667.94
431.624	2621.94
431.846	2626.94
432.068	2605.94
432.29	2586.94
432.512	2609.94
432.734	2676.94
432.956	2645.94
433.178	2656.94
433.4	2675.94
433.622	2687.94
433.844	2684.94
434.066	2628.94
434.287	2659.94
434.509	2693.94
434.731	2773.94
434.953	2753.94
435.175	2792.94
435.397	2778.94
435.618	2745.94
435.84	2671.94
436.062	2663.94
436.284	2661.94
436.505	2623.94
436.727	2655.94
436.949	2671.94
437.17	2632.94
437.392	2569.94
437.614	2578.94
437.835	2552.94
438.057	2572.94
438.278	2584.94
438.5	2585.94
438.721	2589.94
438.943	2659.94
439.165	2743.94
439.386	2749.94
439.608	2760.94
439.829	2720.94
440.05	2819.94
440.272	2926.94
440.493	2735.94
440.715	2708.94
440.936	2695.94
441.158	2786.94
441.379	2823.94
441.6	2886.94
441.822	2920.94
442.043	3119.94
442.264	3148.94
442.486	2969.94
442.707	2882.94
442.928	2838.94
443.149	2839.94
443.371	2814.94
443.592	2839.94
443.813	2844.94
444.034	2877.94
444.255	2851.94
444.476	2936.94
444.698	2986.94
444.919	3079.94
445.14	3108.94
445.361	3013.94
445.582	2861.94
445.803	2790.94
446.024	2835.94
446.245	2867.94
446.466	2822.94
446.687	2779.94
446.908	2776.94
447.129	2689.94
447.35	2655.94
447.571	2655.94
447.792	2607.94
448.013	2581.94
448.234	2550.94
448.455	2603.94
448.675	2668.94
448.896	2660.94
449.117	2777.94
449.338	3025.94
449.559	3139.94
449.779	2801.94
450	2585.94
450.221	2600.94
450.442	2554.94
450.662	2581.94
450.883	2572.94
451.104	2559.94
451.324	2539.94
451.545	2561.94
451.766	2590.94
451.986	2598.94
452.207	2827.94
452.428	3604.94
452.648	5579.94
452.869	4578.94
453.089	3149.94
453.31	2994.94
453.53	2968.94
453.751	3056.94
453.971	3139.94
454.192	3126.94
454.412	2711.94
454.633	2595.94
454.853	2529.94
455.073	2468.94
455.294	2491.94
455.514	2412.94
455.734	2432.94
455.955	2418.94
456.175	2424.94
456.395	2431.94
456.616	2442.94
456.836	2495.94
457.056	2512.94
457.276	2459.94
457.497	2637.94
457.717	2662.94
457.937	2555.94
458.157	2601.94
458.377	2565.94
458.598	2564.94
458.818	2649.94
459.038	2644.94
459.258	2637.94
459.478	2663.94
459.698	2711.94
459.918	2719.94
460.138	2745.94
460.358	2819.94
460.578	2809.94
460.798	2863.94
461.018	2911.94
461.238	2904.94
461.458	2875.94
461.678	2949.94
461.898	2999.94
462.118	2997.94
462.338	3101.94
462.558	3086.94
462.777	3167.94
462.997	3250.94
463.217	3375.94
463.437	3550.94
463.657	3599.94
463.876	3553.94
464.096	3394.94
464.316	3235.94
464.536	3187.94
464.755	3099.94
464.975	3071.94
465.195	2966.94
465.414	2821.94
465.634	2726.94
465.854	2753.94
466.073	2754.94
466.293	2670.94
466.512	2659.94
466.732	2689.94
466.951	2872.94
467.171	2997.94
467.391	2942.94
467.61	2699.94
467.829	2642.94
468.049	2631.94
468.268	2573.94
468.488	2557.94
468.707	2530.94
468.927	2544.94
469.146	2548.94
469.365	2609.94
469.585	2626.94
469.804	2747.94
470.023	2749.94
470.243	2792.94
470.462	2926.94
470.681	3021.94
470.901	3323.94
471.12	3800.94
471.339	3793.94
471.558	3179.94
471.777	2902.94
471.997	2788.94
472.216	2682.94
472.435	2653.94
472.654	2675.94
472.873	2590.94
473.092	2656.94
473.311	2622.94
473.53	2613.94
473.749	2660.94
473.968	2781.94
474.187	2695.94
474.406	2613.94
474.625	2621.94
474.844	2627.94
475.063	2665.94
475.282	2644.94
475.501	2654.94
475.72	2662.94
475.939	2660.94
476.158	2710.94
476.377	2823.94
476.596	2781.94
476.814	2786.94
477.033	2760.94
477.252	2771.94
477.471	2804.94
477.69	2888.94
477.908	2945.94
478.127	2968.94
478.346	3006.94
478.564	2962.94
478.783	3032.94
479.002	3115.94
479.22	3125.94
479.439	3168.94
479.658	3097.94
479.876	3130.94
480.095	3144.94
480.313	3286.94
480.532	3247.94
480.751	3261.94
480.969	3224.94
481.188	3169.94
481.406	3105.94
481.624	3138.94
481.843	3193.94
482.061	3189.94
482.28	3142.94
482.498	3127.94
482.717	3199.94
482.935	3189.94
483.153	3250.94
483.372	3263.94
483.59	3346.94
483.808	3335.94
484.027	3464.94
484.245	3628.94
484.463	4155.94
484.681	4476.94
484.9	4040.94
485.118	3907.94
485.336	3734.94
485.554	3804.94
485.772	4061.94
485.99	4591.94
486.209	4937.94
486.427	4187.94
486.645	3667.94
486.863	3548.94
487.081	3483.94
487.299	3432.94
487.517	3395.94
487.735	3401.94
