Data from SnStandardFlinnAPT0064_LampEnergy5.5_LIBS07252019.E.O._I.C._HRD10591_15-17-27-492.txt Node
Date: Thu Jul 25 15:17:27 EDT 2019
User: cochatt
Spectrometer: HR+D1059
Trigger mode: 1
Integration Time (sec): 1.000000E-1
Scans to average: 1
Electric dark correction enabled: true
Nonlinearity correction enabled: false
Boxcar width: 0
XAxis mode: Wavelengths
Number of Pixels in Spectrum: 2048
>>>>>Begin Spectral Data<<<<<
223.165	-11
223.4	-11
223.635	-11
223.869	-17
224.104	-27
224.338	-19
224.573	-11
224.808	-15
225.042	3
225.277	-18
225.511	-8
225.746	-2
225.98	0
226.215	15
226.449	15
226.683	26
226.918	28
227.152	41
227.387	30
227.621	37
227.856	35
228.09	45
228.324	47
228.559	47
228.793	79
229.027	158
229.262	167
229.496	159
229.73	150
229.964	173
230.199	158
230.433	166
230.667	174
230.901	172
231.136	176
231.37	170
231.604	197
231.838	229
232.072	264
232.306	281
232.541	237
232.775	223
233.009	200
233.243	223
233.477	229
233.711	257
233.945	299
234.179	260
234.413	211
234.647	207
234.881	232
235.115	252
235.349	304
235.583	369
235.817	483
236.051	460
236.285	312
236.519	267
236.753	258
236.987	248
237.221	240
237.455	242
237.689	214
237.922	232
238.156	233
238.39	231
238.624	246
238.858	231
239.091	225
239.325	245
239.559	253
239.793	240
240.027	257
240.26	260
240.494	268
240.728	277
240.961	283
241.195	285
241.429	301
241.662	337
241.896	360
242.13	427
242.363	535
242.597	728
242.83	646
243.064	679
243.298	815
243.531	681
243.765	439
243.998	343
244.232	342
244.465	320
244.699	298
244.932	329
245.166	288
245.399	331
245.633	313
245.866	297
246.099	295
246.333	321
246.566	287
246.8	314
247.033	317
247.266	323
247.5	314
247.733	323
247.966	314
248.2	353
248.433	393
248.666	439
248.899	424
249.133	375
249.366	373
249.599	430
249.832	459
250.066	472
250.299	406
250.532	368
250.765	335
250.998	350
251.231	354
251.465	335
251.698	362
251.931	343
252.164	337
252.397	337
252.63	375
252.863	362
253.096	375
253.329	377
253.562	355
253.795	375
254.028	365
254.261	358
254.494	414
254.727	451
254.96	554
255.193	529
255.426	439
255.659	387
255.892	390
256.124	386
256.357	403
256.59	417
256.823	442
257.056	483
257.289	562
257.521	631
257.754	526
257.987	434
258.22	407
258.452	413
258.685	412
258.918	435
259.151	447
259.383	490
259.616	519
259.849	552
260.081	478
260.314	442
260.547	445
260.779	445
261.012	451
261.244	438
261.477	455
261.71	468
261.942	472
262.175	488
262.407	483
262.64	488
262.872	512
263.105	522
263.337	557
263.57	575
263.802	579
264.035	591
264.267	608
264.499	622
264.732	647
264.964	646
265.197	635
265.429	653
265.661	653
265.894	708
266.126	771
266.358	873
266.591	844
266.823	711
267.055	653
267.287	629
267.52	628
267.752	622
267.984	584
268.216	575
268.448	569
268.681	565
268.913	558
269.145	547
269.377	575
269.609	589
269.841	571
270.073	627
270.306	721
270.538	982
270.77	1425
271.002	1705
271.234	1190
271.466	810
271.698	651
271.93	587
272.162	594
272.394	559
272.626	561
272.858	550
273.09	550
273.322	546
273.553	539
273.785	559
274.017	544
274.249	545
274.481	545
274.713	523
274.945	539
275.176	555
275.408	532
275.64	558
275.872	581
276.104	564
276.335	583
276.567	591
276.799	566
277.031	589
277.262	588
277.494	625
277.726	672
277.957	780
278.189	865
278.421	809
278.652	751
278.884	680
279.115	675
279.347	636
279.579	609
279.81	627
280.042	627
280.273	621
280.505	633
280.736	632
280.968	698
281.199	724
281.431	839
281.662	876
281.894	749
282.125	712
282.356	727
282.588	718
282.819	744
283.051	786
283.282	838
283.513	1080
283.745	1569
283.976	2515
284.207	3600
284.439	3155
284.67	1858
284.901	1476
285.132	1478
285.364	1395
285.595	1103
285.826	1030
286.057	1215
286.288	1661
286.52	2238
286.751	2039
286.982	1266
287.213	963
287.444	873
287.675	801
287.906	777
288.138	751
288.369	755
288.6	714
288.831	724
289.062	736
289.293	719
289.524	751
289.755	733
289.986	752
290.217	747
290.448	755
290.679	768
290.91	743
291.141	802
291.371	890
291.602	859
291.833	812
292.064	714
292.295	729
292.526	699
292.757	698
292.987	689
293.218	704
293.449	725
293.68	712
293.91	691
294.141	697
294.372	693
294.603	680
294.833	697
295.064	677
295.295	688
295.525	651
295.756	714
295.987	686
296.217	703
296.448	687
296.679	682
296.909	686
297.14	725
297.37	701
297.601	708
297.831	738
298.062	723
298.292	756
298.523	736
298.753	746
298.984	747
299.214	748
299.445	763
299.675	747
299.905	821
300.136	836
300.366	929
300.597	1173
300.827	1616
301.057	2231
301.288	2211
301.518	1410
301.748	1065
301.979	998
302.209	953
302.439	978
302.669	1067
302.9	1236
303.13	1743
303.36	2626
303.59	3463
303.82	2951
304.051	1728
304.281	1235
304.511	1036
304.741	962
304.971	900
305.201	883
305.431	820
305.661	859
305.891	824
306.121	811
306.352	800
306.582	813
306.812	815
307.042	817
307.272	799
307.502	802
307.731	788
307.961	814
308.191	826
308.421	783
308.651	819
308.881	788
309.111	813
309.341	839
309.571	793
309.8	832
310.03	824
310.26	817
310.49	808
310.72	793
310.949	838
311.179	855
311.409	833
311.639	863
311.868	845
312.098	862
312.328	845
312.557	869
312.787	853
313.017	865
313.246	900
313.476	891
313.706	900
313.935	935
314.165	967
314.394	1052
314.624	1007
314.853	950
315.083	923
315.312	952
315.542	941
315.771	953
316.001	925
316.23	1003
316.46	1034
316.689	1146
316.919	1329
317.148	1994
317.377	3128
317.607	4623
317.836	4760
318.065	2679
318.295	1687
318.524	1356
318.753	1189
318.983	1130
319.212	1091
319.441	1062
319.67	1025
319.9	1036
320.129	995
320.358	1025
320.587	1009
320.816	1007
321.046	1018
321.275	1036
321.504	1031
321.733	1048
321.962	1057
322.191	1125
322.42	1094
322.649	1079
322.878	1080
323.108	1052
323.337	1125
323.566	1092
323.795	1097
324.024	1142
324.253	1169
324.482	1180
324.71	1252
324.939	1337
325.168	1357
325.397	1409
325.626	1661
325.855	2299
326.084	3797
326.313	5625
326.542	6006
326.77	3654
326.999	2309
327.228	1924
327.457	1834
327.686	1879
327.914	2054
328.143	2307
328.372	2717
328.6	2855
328.829	2665
329.058	2314
329.287	2080
329.515	1890
329.744	1744
329.972	1669
330.201	1618
330.43	1553
330.658	1490
330.887	1481
331.115	1455
331.344	1429
331.572	1460
331.801	1456
332.03	1462
332.258	1499
332.486	1601
332.715	1799
332.943	2246
333.172	2697
333.4	2601
333.629	2051
333.857	1861
334.085	1802
334.314	1939
334.542	2077
334.771	2378
334.999	2827
335.227	3449
335.455	3917
335.684	3620
335.912	3004
336.14	2567
336.369	2307
336.597	2137
336.825	1973
337.053	1920
337.281	1751
337.51	1685
337.738	1600
337.966	1567
338.194	1516
338.422	1429
338.65	1431
338.878	1407
339.106	1375
339.334	1385
339.562	1331
339.79	1312
340.018	1306
340.246	1342
340.474	1309
340.702	1318
340.93	1253
341.158	1274
341.386	1281
341.614	1273
341.842	1242
342.07	1203
342.298	1236
342.526	1221
342.754	1187
342.981	1183
343.209	1177
343.437	1202
343.665	1192
343.893	1209
344.12	1215
344.348	1205
344.576	1170
344.804	1201
345.031	1159
345.259	1158
345.487	1131
345.714	1113
345.942	1115
346.17	1103
346.397	1089
346.625	1124
346.853	1114
347.08	1079
347.308	1140
347.535	1109
347.763	1142
347.99	1085
348.218	1107
348.445	1076
348.673	1095
348.9	1085
349.128	1071
349.355	1078
349.583	1079
349.81	1078
350.037	1043
350.265	1061
350.492	1043
350.72	1073
350.947	1051
351.174	1076
351.402	1053
351.629	1060
351.856	1045
352.083	1023
352.311	1045
352.538	1049
352.765	1034
352.992	1054
353.22	1045
353.447	1056
353.674	1032
353.901	1030
354.128	1049
354.355	1087
354.583	1041
354.81	1070
355.037	1073
355.264	1062
355.491	1092
355.718	1049
355.945	1060
356.172	1087
356.399	1081
356.626	1085
356.853	1096
357.08	1076
357.307	1108
357.534	1107
357.761	1146
357.988	1110
358.215	1081
358.441	1107
358.668	1111
358.895	1127
359.122	1094
359.349	1082
359.576	1114
359.802	1082
360.029	1114
360.256	1127
360.483	1124
360.709	1128
360.936	1118
361.163	1097
361.39	1096
361.616	1113
361.843	1133
362.07	1123
362.296	1149
362.523	1109
362.749	1109
362.976	1120
363.203	1111
363.429	1087
363.656	1112
363.882	1127
364.109	1090
364.335	1097
364.562	1097
364.788	1123
365.015	1118
365.241	1175
365.468	1192
365.694	1254
365.92	1198
366.147	1137
366.373	1130
366.599	1151
366.826	1089
367.052	1137
367.278	1146
367.505	1133
367.731	1138
367.957	1121
368.184	1135
368.41	1161
368.636	1205
368.862	1178
369.089	1175
369.315	1162
369.541	1150
369.767	1144
369.993	1153
370.219	1129
370.445	1175
370.672	1182
370.898	1168
371.124	1182
371.35	1173
371.576	1180
371.802	1222
372.028	1205
372.254	1186
372.48	1233
372.706	1215
372.932	1214
373.158	1234
373.384	1225
373.61	1226
373.835	1227
374.061	1234
374.287	1256
374.513	1245
374.739	1264
374.965	1262
375.191	1280
375.416	1241
375.642	1237
375.868	1259
376.094	1226
376.319	1206
376.545	1200
376.771	1237
376.997	1221
377.222	1211
377.448	1203
377.674	1213
377.899	1185
378.125	1217
378.35	1199
378.576	1201
378.802	1253
379.027	1210
379.253	1259
379.478	1328
379.704	1558
379.929	2211
380.155	3304
380.38	3607
380.606	2177
380.831	1505
381.057	1352
381.282	1277
381.507	1251
381.733	1220
381.958	1197
382.184	1217
382.409	1234
382.634	1209
382.86	1161
383.085	1189
383.31	1185
383.535	1177
383.761	1186
383.986	1211
384.211	1188
384.436	1242
384.662	1224
384.887	1233
385.112	1222
385.337	1218
385.562	1244
385.787	1229
386.013	1246
386.238	1223
386.463	1220
386.688	1206
386.913	1213
387.138	1217
387.363	1234
387.588	1210
387.813	1213
388.038	1194
388.263	1229
388.488	1225
388.713	1217
388.938	1218
389.163	1229
389.387	1226
389.612	1230
389.837	1232
390.062	1212
390.287	1236
390.512	1245
390.736	1249
390.961	1277
391.186	1288
391.411	1274
391.636	1269
391.86	1284
392.085	1295
392.31	1286
392.534	1281
392.759	1231
392.984	1226
393.208	1256
393.433	1279
393.658	1240
393.882	1206
394.107	1255
394.331	1253
394.556	1212
394.78	1264
395.005	1283
395.229	1258
395.454	1255
395.678	1278
395.903	1283
396.127	1280
396.352	1255
396.576	1266
396.801	1288
397.025	1293
397.249	1295
397.474	1293
397.698	1296
397.922	1315
398.147	1302
398.371	1317
398.595	1378
398.82	1383
399.044	1406
399.268	1495
399.492	1584
399.717	1614
399.941	1608
400.165	1527
400.389	1510
400.613	1449
400.837	1389
401.062	1412
401.286	1373
401.51	1341
401.734	1313
401.958	1341
402.182	1370
402.406	1354
402.63	1361
402.854	1409
403.078	1401
403.302	1427
403.526	1406
403.75	1388
403.974	1394
404.198	1435
404.422	1404
404.645	1399
404.869	1415
405.093	1425
405.317	1363
405.541	1400
405.765	1446
405.988	1421
406.212	1436
406.436	1440
406.66	1473
406.883	1441
407.107	1503
407.331	1532
407.555	1563
407.778	1528
408.002	1500
408.226	1487
408.449	1488
408.673	1473
408.896	1443
409.12	1414
409.344	1409
409.567	1429
409.791	1419
410.014	1376
410.238	1398
410.461	1393
410.685	1387
410.908	1419
411.132	1394
411.355	1360
411.578	1347
411.802	1372
412.025	1381
412.249	1365
412.472	1362
412.695	1351
412.919	1342
413.142	1343
413.365	1353
413.589	1356
413.812	1349
414.035	1365
414.258	1320
414.482	1337
414.705	1332
414.928	1348
415.151	1311
415.374	1320
415.597	1319
415.821	1250
416.044	1290
416.267	1294
416.49	1294
416.713	1277
416.936	1271
417.159	1250
417.382	1265
417.605	1253
417.828	1303
418.051	1281
418.274	1303
418.497	1257
418.72	1301
418.943	1323
419.166	1369
419.389	1453
419.611	1399
419.834	1339
420.057	1337
420.28	1330
420.503	1313
420.726	1293
420.948	1263
421.171	1296
421.394	1304
421.617	1285
421.839	1305
422.062	1299
422.285	1275
422.507	1306
422.73	1307
422.953	1294
423.175	1359
423.398	1307
423.621	1305
423.843	1302
424.066	1333
424.288	1289
424.511	1321
424.733	1324
424.956	1258
425.178	1241
425.401	1255
425.623	1318
425.846	1265
426.068	1244
426.291	1215
426.513	1235
426.735	1241
426.958	1240
427.18	1187
427.402	1214
427.625	1246
427.847	1207
428.069	1204
428.292	1239
428.514	1228
428.736	1203
428.958	1227
429.181	1193
429.403	1222
429.625	1194
429.847	1197
430.069	1203
430.292	1225
430.514	1291
430.736	1242
430.958	1224
431.18	1174
431.402	1184
431.624	1125
431.846	1150
432.068	1165
432.29	1154
432.512	1136
432.734	1176
432.956	1201
433.178	1197
433.4	1193
433.622	1226
433.844	1234
434.066	1210
434.287	1180
434.509	1158
434.731	1225
434.953	1219
435.175	1220
435.397	1226
435.618	1184
435.84	1198
436.062	1182
436.284	1154
436.505	1170
436.727	1203
436.949	1190
437.17	1171
437.392	1163
437.614	1130
437.835	1131
438.057	1151
438.278	1145
438.5	1147
438.721	1175
438.943	1195
439.165	1224
439.386	1254
439.608	1220
439.829	1261
440.05	1266
440.272	1334
440.493	1217
440.715	1219
440.936	1205
441.158	1262
441.379	1247
441.6	1310
441.822	1304
442.043	1383
442.264	1420
442.486	1305
442.707	1302
442.928	1267
443.149	1248
443.371	1257
443.592	1287
443.813	1265
444.034	1289
444.255	1341
444.476	1331
444.698	1399
444.919	1361
445.14	1471
445.361	1365
445.582	1312
445.803	1240
446.024	1273
446.245	1243
446.466	1265
446.687	1248
446.908	1226
447.129	1221
447.35	1223
447.571	1175
447.792	1219
448.013	1205
448.234	1155
448.455	1159
448.675	1197
448.896	1234
449.117	1252
449.338	1347
449.559	1412
449.779	1258
450	1183
450.221	1151
450.442	1150
450.662	1134
450.883	1136
451.104	1152
451.324	1161
451.545	1117
451.766	1145
451.986	1146
452.207	1278
452.428	1530
452.648	2181
452.869	1805
453.089	1360
453.31	1271
453.53	1273
453.751	1311
453.971	1383
454.192	1382
454.412	1207
454.633	1157
454.853	1120
455.073	1098
455.294	1081
455.514	1103
455.734	1112
455.955	1087
456.175	1088
456.395	1089
456.616	1064
456.836	1087
457.056	1095
457.276	1092
457.497	1177
457.717	1165
457.937	1151
458.157	1142
458.377	1129
458.598	1145
458.818	1147
459.038	1144
459.258	1162
459.478	1169
459.698	1189
459.918	1187
460.138	1198
460.358	1273
460.578	1252
460.798	1273
461.018	1271
461.238	1293
461.458	1321
461.678	1295
461.898	1303
462.118	1319
462.338	1352
462.558	1358
462.777	1402
462.997	1419
463.217	1486
463.437	1539
463.657	1580
463.876	1523
464.096	1494
464.316	1424
464.536	1375
464.755	1383
464.975	1351
465.195	1315
465.414	1271
465.634	1223
465.854	1203
466.073	1185
466.293	1183
466.512	1177
466.732	1201
466.951	1220
467.171	1286
467.391	1299
467.61	1228
467.829	1147
468.049	1170
468.268	1142
468.488	1135
468.707	1156
468.927	1188
469.146	1155
469.365	1198
469.585	1189
469.804	1227
470.023	1250
470.243	1238
470.462	1273
470.681	1350
470.901	1433
471.12	1667
471.339	1700
471.558	1401
471.777	1288
471.997	1258
472.216	1194
472.435	1164
472.654	1173
472.873	1178
473.092	1142
473.311	1166
473.53	1165
473.749	1193
473.968	1237
474.187	1160
474.406	1175
474.625	1189
474.844	1168
475.063	1183
475.282	1198
475.501	1186
475.72	1186
475.939	1180
476.158	1225
476.377	1268
476.596	1216
476.814	1244
477.033	1229
477.252	1223
477.471	1288
477.69	1305
477.908	1313
478.127	1345
478.346	1345
478.564	1355
478.783	1363
479.002	1374
479.22	1376
479.439	1359
479.658	1384
479.876	1374
480.095	1379
480.313	1435
480.532	1434
480.751	1437
480.969	1402
481.188	1402
481.406	1393
481.624	1404
481.843	1387
482.061	1401
482.28	1373
482.498	1396
482.717	1369
482.935	1399
483.153	1407
483.372	1451
483.59	1432
483.808	1500
484.027	1493
484.245	1579
484.463	1766
484.681	1974
484.9	1802
485.118	1635
485.336	1583
485.554	1626
485.772	1726
485.99	1985
486.209	2187
486.427	1769
486.645	1606
486.863	1589
487.081	1559
487.299	1505
487.517	1501
487.735	1522
487.953	1501
488.171	1520
488.389	1518
488.607	1460
488.825	1425
489.043	1432
489.261	1433
489.479	1428
489.696	1448
489.914	1434
490.132	1435
490.35	1472
490.568	1480
490.786	1489
491.003	1501
491.221	1528
491.439	1546
491.657	1543
491.874	1582
492.092	1569
492.31	1601
492.527	1559
492.745	1569
492.963	1551
493.18	1523
493.398	1542
493.615	1561
493.833	1526
494.05	1561
494.268	1530
494.485	1518
494.703	1545
494.92	1539
495.138	1577
495.355	1525
495.573	1521
495.79	1540
496.008	1584
496.225	1570
496.442	1565
496.66	1610
496.877	1721
497.094	1689
497.312	1632
497.529	1647
497.746	1663
497.963	1682
498.181	1714
498.398	1754
498.615	1793
498.832	1867
499.049	1942
499.267	2124
499.484	2225
499.701	2251
499.918	2282
500.135	2413
500.352	2544
500.569	2594
500.786	2561
501.003	2472
501.22	2378
501.437	2199
501.654	2123
501.871	2021
502.088	1920
502.305	1879
502.522	1818
502.739	1757
502.956	1754
503.172	1727
503.389	1628
503.606	1612
503.823	1587
504.04	1593
504.256	1590
504.473	1575
504.69	1611
504.907	1576
505.123	1522
505.34	1470
505.557	1451
505.773	1450
505.99	1414
506.207	1409
506.423	1394
506.64	1379
506.856	1387
507.073	1385
507.289	1368
507.506	1311
507.722	1335
507.939	1334
508.155	1357
508.372	1295
508.588	1298
508.805	1300
509.021	1355
509.238	1328
509.454	1387
509.67	1491
509.887	1338
510.103	1333
510.319	1287
510.536	1309
510.752	1269
510.968	1280
511.184	1247
511.401	1259
511.617	1232
511.833	1273
512.049	1261
512.265	1238
512.481	1230
512.698	1251
512.914	1251
513.13	1237
513.346	1241
513.562	1253
513.778	1229
513.994	1303
514.21	1294
514.426	1359
514.642	1448
514.858	1338
515.074	1269
515.29	1273
515.506	1271
515.721	1327
515.937	1319
516.153	1325
516.369	1316
516.585	1343
516.801	1343
517.016	1348
517.232	1414
517.448	1403
517.664	1450
517.879	1417
518.095	1422
518.311	1417
518.527	1391
518.742	1393
518.958	1404
519.173	1407
519.389	1390
519.605	1321
519.82	1314
520.036	1284
520.251	1297
520.467	1273
520.682	1275
520.898	1229
521.113	1249
521.329	1204
521.544	1242
521.76	1232
521.975	1185
522.19	1223
522.406	1256
522.621	1249
522.836	1223
523.052	1205
523.267	1213
523.482	1201
523.698	1182
523.913	1195
524.128	1206
524.343	1171
524.559	1221
524.774	1211
524.989	1204
525.204	1222
525.419	1207
525.634	1226
525.849	1207
526.064	1179
526.28	1169
526.495	1208
526.71	1173
526.925	1194
527.14	1219
527.355	1209
527.57	1235
527.785	1224
527.999	1224
528.214	1241
528.429	1235
528.644	1244
528.859	1265
529.074	1308
529.289	1304
529.503	1302
529.718	1270
529.933	1265
530.148	1265
530.363	1261
530.577	1258
530.792	1245
531.007	1273
531.221	1304
531.436	1312
531.651	1302
531.865	1306
532.08	1320
532.295	1374
532.509	1469
532.724	1437
532.938	1416
533.153	1447
533.367	1549
533.582	1666
533.796	1576
534.011	1572
534.225	1519
534.44	1475
534.654	1469
534.868	1438
535.083	1417
535.297	1382
535.511	1393
535.726	1345
535.94	1357
536.154	1308
536.369	1287
536.583	1282
536.797	1270
537.011	1230
537.225	1246
537.44	1219
537.654	1239
537.868	1203
538.082	1211
538.296	1193
538.51	1179
538.724	1183
538.938	1187
539.153	1204
539.367	1183
539.581	1182
539.795	1168
540.009	1164
540.222	1163
540.436	1156
540.65	1189
540.864	1189
541.078	1198
541.292	1272
541.506	1521
541.72	1576
541.934	1393
542.147	1309
542.361	1258
542.575	1190
542.789	1186
543.002	1145
543.216	1124
543.43	1140
543.644	1131
543.857	1145
544.071	1162
544.285	1187
544.498	1146
544.712	1140
544.925	1177
545.139	1178
545.352	1199
545.566	1192
545.779	1187
