Data from SnStandardFlinnAPT0064_LampEnergy10_LIBS07252019.E.O._I.C._HRD10591_15-21-03-494.txt Node
Date: Thu Jul 25 15:21:03 EDT 2019
User: cochatt
Spectrometer: HR+D1059
Trigger mode: 1
Integration Time (sec): 1.000000E-1
Scans to average: 1
Electric dark correction enabled: true
Nonlinearity correction enabled: false
Boxcar width: 0
XAxis mode: Wavelengths
Number of Pixels in Spectrum: 2048
>>>>>Begin Spectral Data<<<<<
223.165	-23.44
223.4	-23.44
223.635	-23.44
223.869	-16.44
224.104	-15.44
224.338	-14.44
224.573	-17.44
224.808	-14.44
225.042	2.56
225.277	1.56
225.511	4.56
225.746	2.56
225.98	-0.44
226.215	22.56
226.449	5.56
226.683	24.56
226.918	18.56
227.152	19.56
227.387	34.56
227.621	38.56
227.856	37.56
228.09	40.56
228.324	56.56
228.559	53.56
228.793	114.56
229.027	320.56
229.262	323.56
229.496	289.56
229.73	309.56
229.964	290.56
230.199	308.56
230.433	312.56
230.667	303.56
230.901	306.56
231.136	337.56
231.37	358.56
231.604	373.56
231.838	411.56
232.072	523.56
232.306	542.56
232.541	463.56
232.775	434.56
233.009	408.56
233.243	406.56
233.477	446.56
233.711	513.56
233.945	608.56
234.179	511.56
234.413	444.56
234.647	440.56
234.881	459.56
235.115	497.56
235.349	624.56
235.583	786.56
235.817	1042.56
236.051	1003.56
236.285	658.56
236.519	512.56
236.753	497.56
236.987	504.56
237.221	531.56
237.455	506.56
237.689	457.56
237.922	457.56
238.156	451.56
238.39	487.56
238.624	488.56
238.858	470.56
239.091	493.56
239.325	492.56
239.559	494.56
239.793	502.56
240.027	510.56
240.26	527.56
240.494	530.56
240.728	580.56
240.961	601.56
241.195	631.56
241.429	692.56
241.662	728.56
241.896	770.56
242.13	928.56
242.363	1250.56
242.597	1627.56
242.83	1570.56
243.064	1583.56
243.298	1840.56
243.531	1509.56
243.765	943.56
243.998	755.56
244.232	699.56
244.465	646.56
244.699	642.56
244.932	626.56
245.166	666.56
245.399	692.56
245.633	673.56
245.866	673.56
246.099	666.56
246.333	645.56
246.566	635.56
246.8	635.56
247.033	631.56
247.266	630.56
247.5	647.56
247.733	660.56
247.966	713.56
248.2	770.56
248.433	848.56
248.666	962.56
248.899	949.56
249.133	856.56
249.366	854.56
249.599	953.56
249.832	1097.56
250.066	1092.56
250.299	857.56
250.532	768.56
250.765	759.56
250.998	710.56
251.231	722.56
251.465	726.56
251.698	728.56
251.931	713.56
252.164	744.56
252.397	756.56
252.63	812.56
252.863	766.56
253.096	750.56
253.329	792.56
253.562	765.56
253.795	759.56
254.028	794.56
254.261	823.56
254.494	887.56
254.727	1030.56
254.96	1230.56
255.193	1194.56
255.426	967.56
255.659	862.56
255.892	850.56
256.124	837.56
256.357	870.56
256.59	910.56
256.823	952.56
257.056	1106.56
257.289	1345.56
257.521	1498.56
257.754	1180.56
257.987	963.56
258.22	915.56
258.452	920.56
258.685	927.56
258.918	947.56
259.151	955.56
259.383	1093.56
259.616	1193.56
259.849	1228.56
260.081	1056.56
260.314	978.56
260.547	941.56
260.779	912.56
261.012	928.56
261.244	970.56
261.477	950.56
261.71	962.56
261.942	980.56
262.175	1036.56
262.407	1030.56
262.64	1040.56
262.872	1079.56
263.105	1142.56
263.337	1162.56
263.57	1269.56
263.802	1272.56
264.035	1289.56
264.267	1319.56
264.499	1379.56
264.732	1426.56
264.964	1426.56
265.197	1428.56
265.429	1421.56
265.661	1459.56
265.894	1557.56
266.126	1777.56
266.358	1963.56
266.591	1915.56
266.823	1599.56
267.055	1449.56
267.287	1390.56
267.52	1306.56
267.752	1308.56
267.984	1291.56
268.216	1259.56
268.448	1256.56
268.681	1205.56
268.913	1216.56
269.145	1220.56
269.377	1255.56
269.609	1227.56
269.841	1277.56
270.073	1366.56
270.306	1566.56
270.538	2182.56
270.77	3269.56
271.002	4028.56
271.234	2806.56
271.466	1867.56
271.698	1483.56
271.93	1399.56
272.162	1322.56
272.394	1249.56
272.626	1215.56
272.858	1219.56
273.09	1187.56
273.322	1202.56
273.553	1226.56
273.785	1178.56
274.017	1200.56
274.249	1216.56
274.481	1197.56
274.713	1216.56
274.945	1161.56
275.176	1204.56
275.408	1202.56
275.64	1205.56
275.872	1224.56
276.104	1242.56
276.335	1248.56
276.567	1243.56
276.799	1242.56
277.031	1274.56
277.262	1287.56
277.494	1361.56
277.726	1547.56
277.957	1794.56
278.189	2089.56
278.421	1943.56
278.652	1710.56
278.884	1662.56
279.115	1496.56
279.347	1404.56
279.579	1381.56
279.81	1357.56
280.042	1348.56
280.273	1371.56
280.505	1421.56
280.736	1481.56
280.968	1563.56
281.199	1754.56
281.431	1988.56
281.662	2090.56
281.894	1767.56
282.125	1611.56
282.356	1620.56
282.588	1646.56
282.819	1685.56
283.051	1810.56
283.282	2013.56
283.513	2499.56
283.745	3584.56
283.976	5773.56
284.207	8268.56
284.439	7398.56
284.67	4515.56
284.901	3674.56
285.132	3710.56
285.364	3566.56
285.595	2698.56
285.826	2414.56
286.057	2839.56
286.288	3862.56
286.52	5250.56
286.751	4932.56
286.982	3025.56
287.213	2270.56
287.444	1968.56
287.675	1844.56
287.906	1725.56
288.138	1720.56
288.369	1699.56
288.6	1676.56
288.831	1638.56
289.062	1643.56
289.293	1638.56
289.524	1666.56
289.755	1698.56
289.986	1700.56
290.217	1679.56
290.448	1689.56
290.679	1700.56
290.91	1761.56
291.141	1843.56
291.371	1969.56
291.602	2087.56
291.833	1940.56
292.064	1760.56
292.295	1664.56
292.526	1651.56
292.757	1580.56
292.987	1560.56
293.218	1567.56
293.449	1634.56
293.68	1618.56
293.91	1560.56
294.141	1550.56
294.372	1542.56
294.603	1569.56
294.833	1552.56
295.064	1555.56
295.295	1555.56
295.525	1531.56
295.756	1575.56
295.987	1545.56
296.217	1531.56
296.448	1550.56
296.679	1563.56
296.909	1574.56
297.14	1562.56
297.37	1604.56
297.601	1627.56
297.831	1614.56
298.062	1611.56
298.292	1618.56
298.523	1658.56
298.753	1682.56
298.984	1689.56
299.214	1753.56
299.445	1738.56
299.675	1767.56
299.905	1833.56
300.136	1894.56
300.366	2105.56
300.597	2730.56
300.827	3835.56
301.057	5306.56
301.288	5302.56
301.518	3374.56
301.748	2591.56
301.979	2340.56
302.209	2246.56
302.439	2260.56
302.669	2419.56
302.9	2967.56
303.13	4179.56
303.36	6176.56
303.59	8374.56
303.82	7218.56
304.051	4164.56
304.281	2992.56
304.511	2520.56
304.741	2287.56
304.971	2141.56
305.201	2055.56
305.431	1972.56
305.661	1919.56
305.891	1851.56
306.121	1863.56
306.352	1817.56
306.582	1803.56
306.812	1821.56
307.042	1844.56
307.272	1845.56
307.502	1802.56
307.731	1805.56
307.961	1779.56
308.191	1776.56
308.421	1780.56
308.651	1774.56
308.881	1768.56
309.111	1793.56
309.341	1758.56
309.571	1841.56
309.8	1850.56
310.03	1807.56
310.26	1831.56
310.49	1810.56
310.72	1829.56
310.949	1865.56
311.179	1882.56
311.409	1853.56
311.639	1893.56
311.868	1898.56
312.098	1895.56
312.328	1902.56
312.557	1954.56
312.787	1941.56
313.017	1934.56
313.246	1952.56
313.476	1991.56
313.706	2017.56
313.935	2208.56
314.165	2356.56
314.394	2425.56
314.624	2312.56
314.853	2125.56
315.083	2128.56
315.312	2175.56
315.542	2151.56
315.771	2185.56
316.001	2208.56
316.23	2255.56
316.46	2374.56
316.689	2640.56
316.919	3216.56
317.148	4649.56
317.377	7127.56
317.607	10597.56
317.836	11114.56
318.065	6591.56
318.295	4229.56
318.524	3350.56
318.753	2920.56
318.983	2701.56
319.212	2548.56
319.441	2448.56
319.67	2435.56
319.9	2391.56
320.129	2381.56
320.358	2304.56
320.587	2327.56
320.816	2322.56
321.046	2343.56
321.275	2338.56
321.504	2362.56
321.733	2393.56
321.962	2419.56
322.191	2510.56
322.42	2462.56
322.649	2430.56
322.878	2493.56
323.108	2444.56
323.337	2511.56
323.566	2545.56
323.795	2615.56
324.024	2597.56
324.253	2672.56
324.482	2792.56
324.71	2946.56
324.939	3197.56
325.168	3180.56
325.397	3280.56
325.626	3988.56
325.855	5591.56
326.084	8808.56
326.313	12824.56
326.542	13536.56
326.77	9026.56
326.999	5904.56
327.228	4888.56
327.457	4701.56
327.686	4742.56
327.914	5094.56
328.143	5975.56
328.372	7166.56
328.6	7801.56
328.829	6860.56
329.058	5744.56
329.287	5074.56
329.515	4642.56
329.744	4285.56
329.972	4036.56
330.201	3871.56
330.43	3654.56
330.658	3593.56
330.887	3478.56
331.115	3425.56
331.344	3458.56
331.572	3404.56
331.801	3472.56
332.03	3434.56
332.258	3512.56
332.486	3691.56
332.715	4228.56
332.943	5238.56
333.172	6499.56
333.4	6495.56
333.629	4945.56
333.857	4411.56
334.085	4388.56
334.314	4665.56
334.542	5095.56
334.771	5960.56
334.999	7489.56
335.227	9369.56
335.455	10564.56
335.684	9390.56
335.912	7617.56
336.14	6464.56
336.369	5606.56
336.597	5191.56
336.825	4754.56
337.053	4478.56
337.281	4231.56
337.51	3959.56
337.738	3770.56
337.966	3687.56
338.194	3562.56
338.422	3419.56
338.65	3382.56
338.878	3296.56
339.106	3204.56
339.334	3211.56
339.562	3105.56
339.79	3063.56
340.018	3048.56
340.246	3000.56
340.474	2944.56
340.702	2957.56
340.93	2962.56
341.158	3006.56
341.386	2962.56
341.614	2921.56
341.842	2874.56
342.07	2808.56
342.298	2832.56
342.526	2738.56
342.754	2702.56
342.981	2684.56
343.209	2654.56
343.437	2685.56
343.665	2707.56
343.893	2802.56
344.12	2769.56
344.348	2744.56
344.576	2681.56
344.804	2642.56
345.031	2585.56
345.259	2581.56
345.487	2568.56
345.714	2577.56
345.942	2511.56
346.17	2536.56
346.397	2518.56
346.625	2539.56
346.853	2509.56
347.08	2476.56
347.308	2474.56
347.535	2546.56
347.763	2514.56
347.99	2442.56
348.218	2468.56
348.445	2439.56
348.673	2460.56
348.9	2386.56
349.128	2440.56
349.355	2386.56
349.583	2388.56
349.81	2398.56
350.037	2380.56
350.265	2410.56
350.492	2389.56
350.72	2346.56
350.947	2350.56
351.174	2384.56
351.402	2364.56
351.629	2360.56
351.856	2334.56
352.083	2352.56
352.311	2333.56
352.538	2315.56
352.765	2328.56
352.992	2320.56
353.22	2315.56
353.447	2352.56
353.674	2375.56
353.901	2367.56
354.128	2430.56
354.355	2371.56
354.583	2362.56
354.81	2392.56
355.037	2408.56
355.264	2408.56
355.491	2438.56
355.718	2423.56
355.945	2423.56
356.172	2432.56
356.399	2383.56
356.626	2457.56
356.853	2497.56
357.08	2489.56
357.307	2501.56
357.534	2581.56
357.761	2552.56
357.988	2574.56
358.215	2515.56
358.441	2539.56
358.668	2497.56
358.895	2505.56
359.122	2499.56
359.349	2479.56
359.576	2492.56
359.802	2529.56
360.029	2547.56
360.256	2514.56
360.483	2514.56
360.709	2500.56
360.936	2574.56
361.163	2534.56
361.39	2493.56
361.616	2496.56
361.843	2538.56
362.07	2564.56
362.296	2526.56
362.523	2503.56
362.749	2507.56
362.976	2546.56
363.203	2496.56
363.429	2504.56
363.656	2522.56
363.882	2458.56
364.109	2496.56
364.335	2489.56
364.562	2506.56
364.788	2555.56
365.015	2562.56
365.241	2602.56
365.468	2724.56
365.694	2844.56
365.92	2796.56
366.147	2612.56
366.373	2586.56
366.599	2577.56
366.826	2562.56
367.052	2590.56
367.278	2548.56
367.505	2567.56
367.731	2559.56
367.957	2623.56
368.184	2527.56
368.41	2617.56
368.636	2686.56
368.862	2630.56
369.089	2588.56
369.315	2598.56
369.541	2573.56
369.767	2619.56
369.993	2613.56
370.219	2593.56
370.445	2610.56
370.672	2628.56
370.898	2680.56
371.124	2632.56
371.35	2677.56
371.576	2690.56
371.802	2711.56
372.028	2693.56
372.254	2728.56
372.48	2720.56
372.706	2785.56
372.932	2783.56
373.158	2771.56
373.384	2721.56
373.61	2727.56
373.835	2740.56
374.061	2748.56
374.287	2803.56
374.513	2746.56
374.739	2842.56
374.965	2896.56
375.191	2882.56
375.416	2839.56
375.642	2803.56
375.868	2834.56
376.094	2767.56
376.319	2784.56
376.545	2751.56
376.771	2776.56
376.997	2679.56
377.222	2747.56
377.448	2666.56
377.674	2713.56
377.899	2698.56
378.125	2711.56
378.35	2682.56
378.576	2720.56
378.802	2749.56
379.027	2816.56
379.253	2857.56
379.478	3052.56
379.704	3524.56
379.929	5118.56
380.155	7810.56
380.38	8491.56
380.606	5201.56
380.831	3601.56
381.057	3163.56
381.282	2990.56
381.507	2833.56
381.733	2750.56
381.958	2716.56
382.184	2665.56
382.409	2718.56
382.634	2660.56
382.86	2695.56
383.085	2638.56
383.31	2694.56
383.535	2724.56
383.761	2706.56
383.986	2727.56
384.211	2754.56
384.436	2686.56
384.662	2713.56
384.887	2786.56
385.112	2727.56
385.337	2772.56
385.562	2755.56
385.787	2723.56
386.013	2773.56
386.238	2744.56
386.463	2754.56
386.688	2745.56
386.913	2712.56
387.138	2731.56
387.363	2723.56
387.588	2680.56
387.813	2722.56
388.038	2744.56
388.263	2681.56
388.488	2698.56
388.713	2722.56
388.938	2725.56
389.163	2644.56
389.387	2757.56
389.612	2759.56
389.837	2725.56
390.062	2726.56
390.287	2755.56
390.512	2780.56
390.736	2797.56
390.961	2869.56
391.186	2859.56
391.411	2866.56
391.636	2930.56
391.86	2921.56
392.085	2930.56
392.31	2854.56
392.534	2798.56
392.759	2830.56
392.984	2805.56
393.208	2799.56
393.433	2739.56
393.658	2763.56
393.882	2703.56
394.107	2795.56
394.331	2792.56
394.556	2776.56
394.78	2778.56
395.005	2788.56
395.229	2791.56
395.454	2916.56
395.678	2826.56
395.903	2910.56
396.127	2895.56
396.352	2810.56
396.576	2786.56
396.801	2820.56
397.025	2921.56
397.249	2864.56
397.474	2896.56
397.698	2868.56
397.922	2943.56
398.147	2942.56
398.371	2954.56
398.595	2942.56
398.82	3016.56
399.044	3143.56
399.268	3300.56
399.492	3524.56
399.717	3650.56
399.941	3615.56
400.165	3482.56
400.389	3296.56
400.613	3190.56
400.837	3126.56
401.062	3058.56
401.286	3014.56
401.51	3010.56
401.734	2955.56
401.958	3016.56
402.182	2977.56
402.406	3042.56
402.63	3007.56
402.854	3020.56
403.078	3054.56
403.302	3012.56
403.526	3094.56
403.75	3119.56
403.974	3148.56
404.198	3078.56
404.422	3140.56
404.645	3150.56
404.869	3149.56
405.093	3147.56
405.317	3131.56
405.541	3261.56
405.765	3262.56
405.988	3216.56
406.212	3216.56
406.436	3178.56
406.66	3275.56
406.883	3233.56
407.107	3311.56
407.331	3376.56
407.555	3426.56
407.778	3408.56
408.002	3363.56
408.226	3337.56
408.449	3334.56
408.673	3237.56
408.896	3191.56
409.12	3148.56
409.344	3183.56
409.567	3107.56
409.791	3126.56
410.014	3103.56
410.238	3074.56
410.461	3110.56
410.685	3064.56
410.908	3062.56
411.132	3035.56
411.355	2966.56
411.578	3035.56
411.802	3039.56
412.025	2987.56
412.249	2994.56
412.472	3027.56
412.695	2941.56
412.919	2936.56
413.142	3007.56
413.365	2954.56
413.589	3000.56
413.812	2938.56
414.035	2998.56
414.258	2975.56
414.482	2965.56
414.705	2952.56
414.928	2988.56
415.151	2941.56
415.374	2954.56
415.597	2910.56
415.821	2857.56
416.044	2854.56
416.267	2841.56
416.49	2833.56
416.713	2863.56
416.936	2793.56
417.159	2818.56
417.382	2815.56
417.605	2790.56
417.828	2799.56
418.051	2799.56
418.274	2855.56
418.497	2849.56
418.72	2917.56
418.943	2845.56
419.166	3011.56
419.389	3163.56
419.611	3216.56
419.834	3028.56
420.057	2990.56
420.28	2847.56
420.503	2862.56
420.726	2803.56
420.948	2835.56
421.171	2835.56
421.394	2866.56
421.617	2862.56
421.839	2800.56
422.062	2824.56
422.285	2813.56
422.507	2919.56
422.73	2920.56
422.953	2908.56
423.175	2971.56
423.398	2942.56
423.621	2843.56
423.843	2852.56
424.066	2843.56
424.288	2828.56
424.511	2825.56
424.733	2870.56
424.956	2807.56
425.178	2798.56
425.401	2790.56
425.623	2789.56
425.846	2785.56
426.068	2753.56
426.291	2718.56
426.513	2725.56
426.735	2744.56
426.958	2716.56
427.18	2666.56
427.402	2682.56
427.625	2682.56
427.847	2612.56
428.069	2623.56
428.292	2690.56
428.514	2611.56
428.736	2592.56
428.958	2598.56
429.181	2587.56
429.403	2563.56
429.625	2597.56
429.847	2611.56
430.069	2694.56
430.292	2798.56
430.514	2866.56
430.736	2803.56
430.958	2671.56
431.18	2644.56
431.402	2578.56
431.624	2606.56
431.846	2568.56
432.068	2562.56
432.29	2592.56
432.512	2531.56
432.734	2636.56
432.956	2587.56
433.178	2655.56
433.4	2608.56
433.622	2618.56
433.844	2663.56
434.066	2618.56
434.287	2563.56
434.509	2675.56
434.731	2705.56
434.953	2677.56
435.175	2748.56
435.397	2716.56
435.618	2606.56
435.84	2591.56
436.062	2580.56
436.284	2589.56
436.505	2558.56
436.727	2597.56
436.949	2583.56
437.17	2567.56
437.392	2571.56
437.614	2534.56
437.835	2467.56
438.057	2514.56
438.278	2486.56
438.5	2529.56
438.721	2551.56
438.943	2670.56
439.165	2706.56
439.386	2688.56
439.608	2720.56
439.829	2724.56
440.05	2829.56
440.272	2850.56
440.493	2730.56
440.715	2646.56
440.936	2640.56
441.158	2712.56
441.379	2755.56
441.6	2827.56
441.822	2900.56
442.043	3039.56
442.264	3143.56
442.486	2969.56
442.707	2818.56
442.928	2783.56
443.149	2809.56
443.371	2755.56
443.592	2794.56
443.813	2818.56
444.034	2864.56
444.255	2822.56
444.476	2884.56
444.698	3031.56
444.919	3029.56
445.14	3091.56
445.361	2910.56
445.582	2800.56
445.803	2845.56
446.024	2734.56
446.245	2738.56
446.466	2783.56
446.687	2740.56
446.908	2757.56
447.129	2670.56
447.35	2636.56
447.571	2610.56
447.792	2525.56
448.013	2610.56
448.234	2548.56
448.455	2580.56
448.675	2600.56
448.896	2633.56
449.117	2706.56
449.338	2977.56
449.559	3101.56
449.779	2786.56
450	2548.56
450.221	2521.56
450.442	2533.56
450.662	2495.56
450.883	2534.56
451.104	2479.56
451.324	2512.56
451.545	2487.56
451.766	2530.56
451.986	2568.56
452.207	2791.56
452.428	3545.56
452.648	5279.56
452.869	4460.56
453.089	3139.56
453.31	2961.56
453.53	2908.56
453.751	3022.56
453.971	3168.56
454.192	3110.56
454.412	2677.56
454.633	2514.56
454.853	2428.56
455.073	2417.56
455.294	2450.56
455.514	2406.56
455.734	2402.56
455.955	2347.56
456.175	2352.56
456.395	2398.56
456.616	2433.56
456.836	2424.56
457.056	2466.56
457.276	2481.56
457.497	2578.56
457.717	2619.56
457.937	2540.56
458.157	2516.56
458.377	2552.56
458.598	2553.56
458.818	2606.56
459.038	2592.56
459.258	2575.56
459.478	2573.56
459.698	2655.56
459.918	2682.56
460.138	2721.56
460.358	2788.56
460.578	2755.56
460.798	2832.56
461.018	2859.56
461.238	2826.56
461.458	2811.56
461.678	2854.56
461.898	2981.56
462.118	2935.56
462.338	3008.56
462.558	3057.56
462.777	3099.56
462.997	3222.56
463.217	3346.56
463.437	3510.56
463.657	3552.56
463.876	3505.56
464.096	3298.56
464.316	3141.56
464.536	3132.56
464.755	3054.56
464.975	2971.56
465.195	2913.56
465.414	2807.56
465.634	2737.56
465.854	2710.56
466.073	2626.56
466.293	2659.56
466.512	2623.56
466.732	2678.56
466.951	2787.56
467.171	3019.56
467.391	2948.56
467.61	2716.56
467.829	2608.56
468.049	2599.56
468.268	2552.56
468.488	2546.56
468.707	2504.56
468.927	2598.56
469.146	2512.56
469.365	2563.56
469.585	2562.56
469.804	2628.56
470.023	2709.56
470.243	2734.56
470.462	2827.56
470.681	2960.56
470.901	3266.56
471.12	3798.56
471.339	3858.56
471.558	3119.56
471.777	2850.56
471.997	2793.56
472.216	2648.56
472.435	2619.56
472.654	2610.56
472.873	2545.56
473.092	2538.56
473.311	2527.56
473.53	2592.56
473.749	2657.56
473.968	2738.56
474.187	2659.56
474.406	2562.56
474.625	2620.56
474.844	2572.56
475.063	2597.56
475.282	2587.56
475.501	2606.56
475.72	2615.56
475.939	2651.56
476.158	2686.56
476.377	2770.56
476.596	2736.56
476.814	2772.56
477.033	2713.56
477.252	2749.56
477.471	2814.56
477.69	2844.56
477.908	2934.56
478.127	2934.56
478.346	2882.56
478.564	3002.56
478.783	3000.56
479.002	3045.56
479.22	3022.56
479.439	3037.56
479.658	3081.56
479.876	3068.56
480.095	3079.56
480.313	3193.56
480.532	3181.56
480.751	3152.56
480.969	3128.56
481.188	3082.56
481.406	3100.56
481.624	3142.56
481.843	3094.56
482.061	3189.56
482.28	3145.56
482.498	3130.56
482.717	3080.56
482.935	3170.56
483.153	3211.56
483.372	3252.56
483.59	3335.56
483.808	3312.56
484.027	3396.56
484.245	3657.56
484.463	4048.56
484.681	4549.56
484.9	4028.56
485.118	3819.56
485.336	3746.56
485.554	3749.56
485.772	4013.56
485.99	4545.56
486.209	4960.56
486.427	4080.56
486.645	3666.56
486.863	3499.56
487.081	3406.56
487.299	3344.56
487.517	3320.56
487.735	3314.56
