Data from SnStandardFlinnAPT0064_LampEnergy10_LIBS07252019.E.O._I.C._HRD10591_15-21-07-493.txt Node
Date: Thu Jul 25 15:21:07 EDT 2019
User: cochatt
Spectrometer: HR+D1059
Trigger mode: 1
Integration Time (sec): 1.000000E-1
Scans to average: 1
Electric dark correction enabled: true
Nonlinearity correction enabled: false
Boxcar width: 0
XAxis mode: Wavelengths
Number of Pixels in Spectrum: 2048
>>>>>Begin Spectral Data<<<<<
223.165	-10.62
223.4	-10.62
223.635	-10.62
223.869	-22.62
224.104	-8.62
224.338	-18.62
224.573	-12.62
224.808	-4.62
225.042	-4.62
225.277	4.38
225.511	-9.62
225.746	6.38
225.98	15.38
226.215	13.38
226.449	10.38
226.683	3.38
226.918	13.38
227.152	25.38
227.387	45.38
227.621	43.38
227.856	56.38
228.09	44.38
228.324	69.38
228.559	58.38
228.793	137.38
229.027	316.38
229.262	326.38
229.496	307.38
229.73	284.38
229.964	311.38
230.199	310.38
230.433	307.38
230.667	325.38
230.901	310.38
231.136	332.38
231.37	336.38
231.604	378.38
231.838	455.38
232.072	495.38
232.306	554.38
232.541	478.38
232.775	435.38
233.009	412.38
233.243	437.38
233.477	469.38
233.711	510.38
233.945	590.38
234.179	493.38
234.413	455.38
234.647	455.38
234.881	502.38
235.115	518.38
235.349	604.38
235.583	761.38
235.817	981.38
236.051	971.38
236.285	649.38
236.519	533.38
236.753	477.38
236.987	513.38
237.221	525.38
237.455	519.38
237.689	483.38
237.922	459.38
238.156	492.38
238.39	519.38
238.624	501.38
238.858	479.38
239.091	499.38
239.325	490.38
239.559	481.38
239.793	494.38
240.027	518.38
240.26	550.38
240.494	570.38
240.728	591.38
240.961	611.38
241.195	637.38
241.429	691.38
241.662	709.38
241.896	790.38
242.13	964.38
242.363	1224.38
242.597	1589.38
242.83	1560.38
243.064	1558.38
243.298	1798.38
243.531	1445.38
243.765	972.38
243.998	765.38
244.232	711.38
244.465	691.38
244.699	650.38
244.932	645.38
245.166	632.38
245.399	648.38
245.633	677.38
245.866	677.38
246.099	697.38
246.333	633.38
246.566	655.38
246.8	645.38
247.033	631.38
247.266	663.38
247.5	653.38
247.733	685.38
247.966	695.38
248.2	748.38
248.433	891.38
248.666	999.38
248.899	946.38
249.133	817.38
249.366	865.38
249.599	936.38
249.832	1095.38
250.066	1081.38
250.299	873.38
250.532	800.38
250.765	735.38
250.998	741.38
251.231	721.38
251.465	722.38
251.698	712.38
251.931	759.38
252.164	745.38
252.397	762.38
252.63	779.38
252.863	779.38
253.096	789.38
253.329	784.38
253.562	769.38
253.795	774.38
254.028	795.38
254.261	814.38
254.494	856.38
254.727	1028.38
254.96	1257.38
255.193	1244.38
255.426	982.38
255.659	890.38
255.892	891.38
256.124	837.38
256.357	868.38
256.59	902.38
256.823	970.38
257.056	1095.38
257.289	1313.38
257.521	1451.38
257.754	1153.38
257.987	960.38
258.22	900.38
258.452	926.38
258.685	929.38
258.918	930.38
259.151	996.38
259.383	1056.38
259.616	1231.38
259.849	1307.38
260.081	1097.38
260.314	956.38
260.547	963.38
260.779	919.38
261.012	925.38
261.244	958.38
261.477	989.38
261.71	974.38
261.942	971.38
262.175	1000.38
262.407	1002.38
262.64	1074.38
262.872	1094.38
263.105	1130.38
263.337	1199.38
263.57	1258.38
263.802	1262.38
264.035	1278.38
264.267	1314.38
264.499	1347.38
264.732	1454.38
264.964	1441.38
265.197	1432.38
265.429	1442.38
265.661	1460.38
265.894	1544.38
266.126	1751.38
266.358	1925.38
266.591	1915.38
266.823	1592.38
267.055	1431.38
267.287	1378.38
267.52	1329.38
267.752	1301.38
267.984	1275.38
268.216	1290.38
268.448	1247.38
268.681	1233.38
268.913	1246.38
269.145	1201.38
269.377	1237.38
269.609	1229.38
269.841	1244.38
270.073	1348.38
270.306	1606.38
270.538	2127.38
270.77	3138.38
271.002	3862.38
271.234	2730.38
271.466	1833.38
271.698	1516.38
271.93	1394.38
272.162	1357.38
272.394	1290.38
272.626	1271.38
272.858	1213.38
273.09	1201.38
273.322	1184.38
273.553	1177.38
273.785	1184.38
274.017	1210.38
274.249	1175.38
274.481	1191.38
274.713	1187.38
274.945	1206.38
275.176	1209.38
275.408	1184.38
275.64	1217.38
275.872	1218.38
276.104	1233.38
276.335	1256.38
276.567	1278.38
276.799	1243.38
277.031	1313.38
277.262	1313.38
277.494	1394.38
277.726	1568.38
277.957	1870.38
278.189	2113.38
278.421	1981.38
278.652	1749.38
278.884	1676.38
279.115	1487.38
279.347	1413.38
279.579	1398.38
279.81	1393.38
280.042	1416.38
280.273	1411.38
280.505	1425.38
280.736	1475.38
280.968	1581.38
281.199	1768.38
281.431	2036.38
281.662	2099.38
281.894	1797.38
282.125	1592.38
282.356	1640.38
282.588	1654.38
282.819	1665.38
283.051	1812.38
283.282	1986.38
283.513	2457.38
283.745	3562.38
283.976	5557.38
284.207	7832.38
284.439	7235.38
284.67	4525.38
284.901	3767.38
285.132	3705.38
285.364	3589.38
285.595	2697.38
285.826	2387.38
286.057	2788.38
286.288	3844.38
286.52	5147.38
286.751	4818.38
286.982	3034.38
287.213	2270.38
287.444	1962.38
287.675	1867.38
287.906	1776.38
288.138	1715.38
288.369	1693.38
288.6	1649.38
288.831	1677.38
289.062	1657.38
289.293	1689.38
289.524	1664.38
289.755	1700.38
289.986	1754.38
290.217	1661.38
290.448	1696.38
290.679	1710.38
290.91	1735.38
291.141	1870.38
291.371	2001.38
291.602	2110.38
291.833	1893.38
292.064	1735.38
292.295	1689.38
292.526	1640.38
292.757	1615.38
292.987	1602.38
293.218	1576.38
293.449	1599.38
293.68	1593.38
293.91	1534.38
294.141	1568.38
294.372	1539.38
294.603	1527.38
294.833	1553.38
295.064	1534.38
295.295	1543.38
295.525	1528.38
295.756	1556.38
295.987	1535.38
296.217	1561.38
296.448	1561.38
296.679	1559.38
296.909	1571.38
297.14	1579.38
297.37	1614.38
297.601	1634.38
297.831	1606.38
298.062	1599.38
298.292	1647.38
298.523	1659.38
298.753	1685.38
298.984	1697.38
299.214	1740.38
299.445	1725.38
299.675	1761.38
299.905	1810.38
300.136	1913.38
300.366	2142.38
300.597	2703.38
300.827	3749.38
301.057	5138.38
301.288	5149.38
301.518	3364.38
301.748	2584.38
301.979	2344.38
302.209	2238.38
302.439	2251.38
302.669	2418.38
302.9	2910.38
303.13	4153.38
303.36	6027.38
303.59	8100.38
303.82	7033.38
304.051	4140.38
304.281	3011.38
304.511	2509.38
304.741	2313.38
304.971	2191.38
305.201	2068.38
305.431	2047.38
305.661	1933.38
305.891	1891.38
306.121	1851.38
306.352	1856.38
306.582	1818.38
306.812	1799.38
307.042	1865.38
307.272	1807.38
307.502	1825.38
307.731	1770.38
307.961	1753.38
308.191	1781.38
308.421	1801.38
308.651	1775.38
308.881	1781.38
309.111	1805.38
309.341	1742.38
309.571	1827.38
309.8	1846.38
310.03	1863.38
310.26	1853.38
310.49	1836.38
310.72	1839.38
310.949	1880.38
311.179	1884.38
311.409	1886.38
311.639	1906.38
311.868	1915.38
312.098	1934.38
312.328	1960.38
312.557	1979.38
312.787	1950.38
313.017	1941.38
313.246	1973.38
313.476	1975.38
313.706	2085.38
313.935	2173.38
314.165	2309.38
314.394	2439.38
314.624	2355.38
314.853	2173.38
315.083	2154.38
315.312	2151.38
315.542	2122.38
315.771	2229.38
316.001	2258.38
316.23	2314.38
316.46	2363.38
316.689	2668.38
316.919	3167.38
317.148	4563.38
317.377	6990.38
317.607	10165.38
317.836	10681.38
318.065	6557.38
318.295	4203.38
318.524	3417.38
318.753	2934.38
318.983	2740.38
319.212	2590.38
319.441	2489.38
319.67	2469.38
319.9	2404.38
320.129	2373.38
320.358	2330.38
320.587	2323.38
320.816	2322.38
321.046	2363.38
321.275	2336.38
321.504	2371.38
321.733	2424.38
321.962	2477.38
322.191	2571.38
322.42	2517.38
322.649	2477.38
322.878	2445.38
323.108	2457.38
323.337	2537.38
323.566	2509.38
323.795	2605.38
324.024	2645.38
324.253	2745.38
324.482	2854.38
324.71	2973.38
324.939	3157.38
325.168	3244.38
325.397	3365.38
325.626	3989.38
325.855	5565.38
326.084	8591.38
326.313	12387.38
326.542	13163.38
326.77	8989.38
326.999	5933.38
327.228	5001.38
327.457	4744.38
327.686	4727.38
327.914	5044.38
328.143	5795.38
328.372	7025.38
328.6	7591.38
328.829	6870.38
329.058	5735.38
329.287	4972.38
329.515	4599.38
329.744	4198.38
329.972	4000.38
330.201	3803.38
330.43	3682.38
330.658	3569.38
330.887	3513.38
331.115	3487.38
331.344	3462.38
331.572	3414.38
331.801	3518.38
332.03	3438.38
332.258	3502.38
332.486	3741.38
332.715	4341.38
332.943	5249.38
333.172	6547.38
333.4	6537.38
333.629	4946.38
333.857	4491.38
334.085	4424.38
334.314	4699.38
334.542	5102.38
334.771	5944.38
334.999	7258.38
335.227	9091.38
335.455	10106.38
335.684	9127.38
335.912	7556.38
336.14	6285.38
336.369	5701.38
336.597	5144.38
336.825	4747.38
337.053	4475.38
337.281	4189.38
337.51	3993.38
337.738	3890.38
337.966	3673.38
338.194	3534.38
338.422	3462.38
338.65	3391.38
338.878	3321.38
339.106	3198.38
339.334	3186.38
339.562	3112.38
339.79	3047.38
340.018	3042.38
340.246	2978.38
340.474	3042.38
340.702	3007.38
340.93	2997.38
341.158	2999.38
341.386	2995.38
341.614	2966.38
341.842	2853.38
342.07	2799.38
342.298	2812.38
342.526	2761.38
342.754	2700.38
342.981	2707.38
343.209	2668.38
343.437	2709.38
343.665	2781.38
343.893	2776.38
344.12	2793.38
344.348	2757.38
344.576	2689.38
344.804	2685.38
345.031	2659.38
345.259	2556.38
345.487	2588.38
345.714	2585.38
345.942	2569.38
346.17	2540.38
346.397	2519.38
346.625	2510.38
346.853	2484.38
347.08	2509.38
347.308	2538.38
347.535	2459.38
347.763	2455.38
347.99	2473.38
348.218	2465.38
348.445	2469.38
348.673	2392.38
348.9	2451.38
349.128	2455.38
349.355	2404.38
349.583	2431.38
349.81	2421.38
350.037	2372.38
350.265	2325.38
350.492	2386.38
350.72	2380.38
350.947	2392.38
351.174	2389.38
351.402	2342.38
351.629	2382.38
351.856	2377.38
352.083	2379.38
352.311	2367.38
352.538	2354.38
352.765	2363.38
352.992	2331.38
353.22	2329.38
353.447	2339.38
353.674	2370.38
353.901	2344.38
354.128	2354.38
354.355	2422.38
354.583	2388.38
354.81	2343.38
355.037	2358.38
355.264	2396.38
355.491	2405.38
355.718	2431.38
355.945	2425.38
356.172	2427.38
356.399	2468.38
356.626	2419.38
356.853	2448.38
357.08	2514.38
357.307	2535.38
357.534	2537.38
357.761	2534.38
357.988	2561.38
358.215	2500.38
358.441	2492.38
358.668	2509.38
358.895	2525.38
359.122	2476.38
359.349	2508.38
359.576	2499.38
359.802	2510.38
360.029	2530.38
360.256	2502.38
360.483	2501.38
360.709	2498.38
360.936	2546.38
361.163	2512.38
361.39	2522.38
361.616	2526.38
361.843	2558.38
362.07	2548.38
362.296	2505.38
362.523	2540.38
362.749	2540.38
362.976	2524.38
363.203	2554.38
363.429	2532.38
363.656	2520.38
363.882	2515.38
364.109	2494.38
364.335	2498.38
364.562	2484.38
364.788	2547.38
365.015	2575.38
365.241	2571.38
365.468	2784.38
365.694	2925.38
365.92	2841.38
366.147	2593.38
366.373	2581.38
366.599	2565.38
366.826	2567.38
367.052	2565.38
367.278	2583.38
367.505	2576.38
367.731	2642.38
367.957	2574.38
368.184	2585.38
368.41	2670.38
368.636	2646.38
368.862	2635.38
369.089	2628.38
369.315	2663.38
369.541	2646.38
369.767	2594.38
369.993	2624.38
370.219	2578.38
370.445	2573.38
370.672	2602.38
370.898	2634.38
371.124	2697.38
371.35	2671.38
371.576	2718.38
371.802	2750.38
372.028	2697.38
372.254	2721.38
372.48	2724.38
372.706	2797.38
372.932	2753.38
373.158	2788.38
373.384	2704.38
373.61	2785.38
373.835	2780.38
374.061	2721.38
374.287	2834.38
374.513	2807.38
374.739	2831.38
374.965	2822.38
375.191	2832.38
375.416	2885.38
375.642	2827.38
375.868	2850.38
376.094	2782.38
376.319	2747.38
376.545	2785.38
376.771	2720.38
376.997	2752.38
377.222	2713.38
377.448	2725.38
377.674	2710.38
377.899	2686.38
378.125	2691.38
378.35	2683.38
378.576	2716.38
378.802	2761.38
379.027	2818.38
379.253	2911.38
379.478	3053.38
379.704	3600.38
379.929	5105.38
380.155	7767.38
380.38	8461.38
380.606	5233.38
380.831	3681.38
381.057	3187.38
381.282	2922.38
381.507	2821.38
381.733	2741.38
381.958	2726.38
382.184	2713.38
382.409	2671.38
382.634	2662.38
382.86	2637.38
383.085	2635.38
383.31	2625.38
383.535	2674.38
383.761	2687.38
383.986	2712.38
384.211	2758.38
384.436	2760.38
384.662	2703.38
384.887	2792.38
385.112	2716.38
385.337	2713.38
385.562	2732.38
385.787	2742.38
386.013	2759.38
386.238	2782.38
386.463	2738.38
386.688	2759.38
386.913	2707.38
387.138	2764.38
387.363	2765.38
387.588	2699.38
387.813	2723.38
388.038	2711.38
388.263	2745.38
388.488	2741.38
388.713	2796.38
388.938	2735.38
389.163	2717.38
389.387	2802.38
389.612	2717.38
389.837	2782.38
390.062	2718.38
390.287	2786.38
390.512	2803.38
390.736	2824.38
390.961	2874.38
391.186	2840.38
391.411	2867.38
391.636	2891.38
391.86	2846.38
392.085	2882.38
392.31	2857.38
392.534	2878.38
392.759	2877.38
392.984	2819.38
393.208	2841.38
393.433	2785.38
393.658	2739.38
393.882	2762.38
394.107	2779.38
394.331	2775.38
394.556	2795.38
394.78	2790.38
395.005	2789.38
395.229	2790.38
395.454	2798.38
395.678	2852.38
395.903	2867.38
396.127	2881.38
396.352	2808.38
396.576	2853.38
396.801	2810.38
397.025	2889.38
397.249	2891.38
397.474	2946.38
397.698	2851.38
397.922	2934.38
398.147	2929.38
398.371	2934.38
398.595	2959.38
398.82	3097.38
399.044	3170.38
399.268	3335.38
399.492	3457.38
399.717	3685.38
399.941	3591.38
400.165	3516.38
400.389	3324.38
400.613	3242.38
400.837	3071.38
401.062	3089.38
401.286	3021.38
401.51	3055.38
401.734	3006.38
401.958	3054.38
402.182	3036.38
402.406	3015.38
402.63	3078.38
402.854	3044.38
403.078	3034.38
403.302	3108.38
403.526	3105.38
403.75	3087.38
403.974	3165.38
404.198	3134.38
404.422	3181.38
404.645	3146.38
404.869	3120.38
405.093	3136.38
405.317	3110.38
405.541	3167.38
405.765	3288.38
405.988	3205.38
406.212	3266.38
406.436	3286.38
406.66	3235.38
406.883	3297.38
407.107	3310.38
407.331	3368.38
407.555	3445.38
407.778	3455.38
408.002	3379.38
408.226	3374.38
408.449	3369.38
408.673	3292.38
408.896	3197.38
409.12	3178.38
409.344	3215.38
409.567	3100.38
409.791	3127.38
410.014	3132.38
410.238	3139.38
410.461	3111.38
410.685	3135.38
410.908	3129.38
411.132	3066.38
411.355	2999.38
411.578	3047.38
411.802	3036.38
412.025	3029.38
412.249	3024.38
412.472	3025.38
412.695	3018.38
412.919	2959.38
413.142	3006.38
413.365	2990.38
413.589	2990.38
413.812	2869.38
414.035	2969.38
414.258	2927.38
414.482	2926.38
414.705	2917.38
414.928	2981.38
415.151	2989.38
415.374	2934.38
415.597	2869.38
415.821	2838.38
416.044	2839.38
416.267	2851.38
416.49	2853.38
416.713	2885.38
416.936	2867.38
417.159	2834.38
417.382	2794.38
417.605	2793.38
417.828	2786.38
418.051	2871.38
418.274	2882.38
418.497	2827.38
418.72	2903.38
418.943	2873.38
419.166	2986.38
419.389	3169.38
419.611	3102.38
419.834	3032.38
420.057	2975.38
420.28	2866.38
420.503	2867.38
420.726	2811.38
420.948	2889.38
421.171	2859.38
421.394	2879.38
421.617	2853.38
421.839	2831.38
422.062	2879.38
422.285	2790.38
422.507	2900.38
422.73	2931.38
422.953	2901.38
423.175	2959.38
423.398	2966.38
423.621	2866.38
423.843	2873.38
424.066	2908.38
424.288	2859.38
424.511	2827.38
424.733	2819.38
424.956	2773.38
425.178	2817.38
425.401	2794.38
425.623	2837.38
425.846	2743.38
426.068	2771.38
426.291	2734.38
426.513	2698.38
426.735	2727.38
426.958	2703.38
427.18	2685.38
427.402	2688.38
427.625	2654.38
427.847	2619.38
428.069	2620.38
428.292	2650.38
428.514	2679.38
428.736	2639.38
428.958	2684.38
429.181	2596.38
429.403	2589.38
429.625	2602.38
429.847	2581.38
430.069	2642.38
430.292	2760.38
430.514	2840.38
430.736	2850.38
430.958	2682.38
431.18	2638.38
431.402	2654.38
431.624	2599.38
431.846	2606.38
432.068	2547.38
432.29	2632.38
432.512	2545.38
432.734	2634.38
432.956	2587.38
433.178	2576.38
433.4	2600.38
433.622	2669.38
433.844	2664.38
434.066	2596.38
434.287	2620.38
434.509	2681.38
434.731	2738.38
434.953	2710.38
435.175	2722.38
435.397	2751.38
435.618	2665.38
435.84	2650.38
436.062	2582.38
436.284	2564.38
436.505	2578.38
436.727	2593.38
436.949	2575.38
437.17	2610.38
437.392	2530.38
437.614	2536.38
437.835	2515.38
438.057	2539.38
438.278	2507.38
438.5	2577.38
438.721	2595.38
438.943	2622.38
439.165	2691.38
439.386	2711.38
439.608	2695.38
439.829	2708.38
440.05	2796.38
440.272	2854.38
440.493	2723.38
440.715	2702.38
440.936	2747.38
441.158	2775.38
441.379	2789.38
441.6	2851.38
441.822	2882.38
442.043	3103.38
442.264	3139.38
442.486	2888.38
442.707	2841.38
442.928	2804.38
443.149	2780.38
443.371	2773.38
443.592	2740.38
443.813	2761.38
444.034	2798.38
444.255	2833.38
444.476	2904.38
444.698	2956.38
444.919	2943.38
445.14	3056.38
445.361	2962.38
445.582	2887.38
445.803	2833.38
446.024	2744.38
446.245	2790.38
446.466	2767.38
446.687	2712.38
446.908	2708.38
447.129	2649.38
447.35	2619.38
447.571	2599.38
447.792	2581.38
448.013	2560.38
448.234	2580.38
448.455	2611.38
448.675	2587.38
448.896	2702.38
449.117	2727.38
449.338	2933.38
449.559	3061.38
449.779	2768.38
450	2604.38
450.221	2492.38
450.442	2573.38
450.662	2501.38
450.883	2512.38
451.104	2502.38
451.324	2557.38
451.545	2490.38
451.766	2533.38
451.986	2629.38
452.207	2761.38
452.428	3594.38
452.648	5523.38
452.869	4570.38
453.089	3168.38
453.31	2897.38
453.53	2939.38
453.751	3015.38
453.971	3103.38
454.192	3053.38
454.412	2703.38
454.633	2529.38
454.853	2477.38
455.073	2405.38
455.294	2403.38
455.514	2354.38
455.734	2430.38
455.955	2353.38
456.175	2369.38
456.395	2403.38
456.616	2401.38
456.836	2392.38
457.056	2468.38
457.276	2435.38
457.497	2661.38
457.717	2583.38
457.937	2563.38
458.157	2500.38
458.377	2531.38
458.598	2600.38
458.818	2619.38
459.038	2619.38
459.258	2602.38
459.478	2632.38
459.698	2678.38
459.918	2644.38
460.138	2698.38
460.358	2810.38
460.578	2770.38
460.798	2858.38
461.018	2819.38
461.238	2830.38
461.458	2907.38
461.678	2876.38
461.898	2943.38
462.118	2964.38
462.338	3021.38
462.558	3036.38
462.777	3084.38
462.997	3233.38
463.217	3394.38
463.437	3466.38
463.657	3522.38
463.876	3497.38
464.096	3324.38
464.316	3192.38
464.536	3129.38
464.755	3101.38
464.975	2938.38
465.195	2878.38
465.414	2821.38
465.634	2723.38
465.854	2699.38
466.073	2669.38
466.293	2681.38
466.512	2593.38
466.732	2651.38
466.951	2799.38
467.171	2982.38
467.391	2940.38
467.61	2643.38
467.829	2587.38
468.049	2568.38
468.268	2545.38
468.488	2493.38
468.707	2563.38
468.927	2546.38
469.146	2522.38
469.365	2619.38
469.585	2597.38
469.804	2678.38
470.023	2725.38
470.243	2712.38
470.462	2841.38
470.681	2932.38
470.901	3242.38
471.12	3757.38
471.339	3702.38
471.558	3165.38
471.777	2835.38
471.997	2697.38
472.216	2713.38
472.435	2647.38
472.654	2589.38
472.873	2550.38
473.092	2551.38
473.311	2562.38
473.53	2625.38
473.749	2699.38
473.968	2731.38
474.187	2570.38
474.406	2537.38
474.625	2621.38
474.844	2600.38
475.063	2617.38
475.282	2577.38
475.501	2626.38
475.72	2609.38
475.939	2630.38
476.158	2662.38
476.377	2721.38
476.596	2753.38
476.814	2741.38
477.033	2706.38
477.252	2784.38
477.471	2793.38
477.69	2862.38
477.908	2927.38
478.127	2925.38
478.346	2901.38
478.564	2998.38
478.783	3037.38
479.002	3049.38
479.22	3103.38
479.439	3062.38
479.658	3047.38
479.876	3081.38
480.095	3141.38
480.313	3147.38
480.532	3183.38
480.751	3193.38
480.969	3157.38
481.188	3123.38
481.406	3130.38
481.624	3139.38
481.843	3155.38
482.061	3199.38
482.28	3108.38
482.498	3071.38
482.717	3101.38
482.935	3153.38
483.153	3178.38
483.372	3213.38
483.59	3263.38
483.808	3325.38
484.027	3340.38
484.245	3617.38
484.463	4054.38
484.681	4456.38
484.9	4081.38
485.118	3764.38
485.336	3682.38
485.554	3790.38
485.772	3967.38
485.99	4425.38
486.209	4723.38
486.427	4076.38
486.645	3645.38
486.863	3504.38
487.081	3409.38
487.299	3384.38
487.517	3369.38
487.735	3302.38
