Data from SnStandardFlinnAPT0064_LampEnergy5.5_LIBS07252019.E.O._I.C._HRD10591_15-16-46-491.txt Node
Date: Thu Jul 25 15:16:46 EDT 2019
User: cochatt
Spectrometer: HR+D1059
Trigger mode: 1
Integration Time (sec): 1.000000E-1
Scans to average: 1
Electric dark correction enabled: true
Nonlinearity correction enabled: false
Boxcar width: 0
XAxis mode: Wavelengths
Number of Pixels in Spectrum: 2048
>>>>>Begin Spectral Data<<<<<
223.165	-10.5
223.4	-10.5
223.635	-10.5
223.869	-19.5
224.104	-27.5
224.338	-28.5
224.573	-11.5
224.808	-24.5
225.042	-5.5
225.277	-6.5
225.511	-8.5
225.746	8.5
225.98	14.5
226.215	14.5
226.449	34.5
226.683	24.5
226.918	23.5
227.152	22.5
227.387	25.5
227.621	43.5
227.856	40.5
228.09	62.5
228.324	42.5
228.559	59.5
228.793	84.5
229.027	154.5
229.262	166.5
229.496	158.5
229.73	150.5
229.964	159.5
230.199	167.5
230.433	155.5
230.667	170.5
230.901	182.5
231.136	173.5
231.37	172.5
231.604	193.5
231.838	214.5
232.072	244.5
232.306	252.5
232.541	224.5
232.775	192.5
233.009	215.5
233.243	202.5
233.477	228.5
233.711	236.5
233.945	280.5
234.179	249.5
234.413	225.5
234.647	236.5
234.881	233.5
235.115	250.5
235.349	283.5
235.583	338.5
235.817	435.5
236.051	431.5
236.285	284.5
236.519	269.5
236.753	233.5
236.987	250.5
237.221	263.5
237.455	249.5
237.689	226.5
237.922	246.5
238.156	239.5
238.39	212.5
238.624	237.5
238.858	224.5
239.091	243.5
239.325	222.5
239.559	229.5
239.793	224.5
240.027	234.5
240.26	260.5
240.494	245.5
240.728	257.5
240.961	304.5
241.195	296.5
241.429	316.5
241.662	301.5
241.896	346.5
242.13	394.5
242.363	505.5
242.597	680.5
242.83	613.5
243.064	649.5
243.298	764.5
243.531	644.5
243.765	411.5
243.998	336.5
244.232	298.5
244.465	287.5
244.699	284.5
244.932	276.5
245.166	281.5
245.399	301.5
245.633	296.5
245.866	302.5
246.099	301.5
246.333	309.5
246.566	308.5
246.8	288.5
247.033	278.5
247.266	286.5
247.5	307.5
247.733	297.5
247.966	324.5
248.2	322.5
248.433	359.5
248.666	413.5
248.899	402.5
249.133	353.5
249.366	376.5
249.599	388.5
249.832	449.5
250.066	456.5
250.299	361.5
250.532	343.5
250.765	342.5
250.998	325.5
251.231	340.5
251.465	349.5
251.698	340.5
251.931	324.5
252.164	347.5
252.397	342.5
252.63	367.5
252.863	347.5
253.096	362.5
253.329	356.5
253.562	358.5
253.795	354.5
254.028	351.5
254.261	364.5
254.494	395.5
254.727	424.5
254.96	522.5
255.193	523.5
255.426	408.5
255.659	380.5
255.892	373.5
256.124	386.5
256.357	381.5
256.59	396.5
256.823	422.5
257.056	476.5
257.289	547.5
257.521	598.5
257.754	516.5
257.987	426.5
258.22	383.5
258.452	386.5
258.685	403.5
258.918	442.5
259.151	432.5
259.383	451.5
259.616	506.5
259.849	523.5
260.081	472.5
260.314	435.5
260.547	435.5
260.779	401.5
261.012	419.5
261.244	441.5
261.477	421.5
261.71	439.5
261.942	441.5
262.175	439.5
262.407	475.5
262.64	466.5
262.872	477.5
263.105	504.5
263.337	527.5
263.57	541.5
263.802	570.5
264.035	574.5
264.267	579.5
264.499	589.5
264.732	619.5
264.964	622.5
265.197	619.5
265.429	625.5
265.661	642.5
265.894	664.5
266.126	735.5
266.358	812.5
266.591	793.5
266.823	692.5
267.055	636.5
267.287	604.5
267.52	576.5
267.752	567.5
267.984	567.5
268.216	558.5
268.448	562.5
268.681	552.5
268.913	559.5
269.145	551.5
269.377	536.5
269.609	555.5
269.841	548.5
270.073	591.5
270.306	668.5
270.538	900.5
270.77	1303.5
271.002	1586.5
271.234	1131.5
271.466	760.5
271.698	622.5
271.93	587.5
272.162	563.5
272.394	569.5
272.626	544.5
272.858	540.5
273.09	556.5
273.322	534.5
273.553	545.5
273.785	536.5
274.017	522.5
274.249	535.5
274.481	508.5
274.713	509.5
274.945	541.5
275.176	520.5
275.408	540.5
275.64	536.5
275.872	533.5
276.104	532.5
276.335	545.5
276.567	565.5
276.799	566.5
277.031	564.5
277.262	581.5
277.494	582.5
277.726	651.5
277.957	738.5
278.189	837.5
278.421	765.5
278.652	683.5
278.884	695.5
279.115	615.5
279.347	619.5
279.579	597.5
279.81	600.5
280.042	595.5
280.273	596.5
280.505	608.5
280.736	628.5
280.968	691.5
281.199	721.5
281.431	810.5
281.662	822.5
281.894	740.5
282.125	661.5
282.356	688.5
282.588	684.5
282.819	716.5
283.051	715.5
283.282	814.5
283.513	1020.5
283.745	1468.5
283.976	2320.5
284.207	3250.5
284.439	2915.5
284.67	1737.5
284.901	1405.5
285.132	1375.5
285.364	1360.5
285.595	1035.5
285.826	951.5
286.057	1117.5
286.288	1560.5
286.52	2104.5
286.751	1940.5
286.982	1162.5
287.213	900.5
287.444	809.5
287.675	753.5
287.906	725.5
288.138	729.5
288.369	715.5
288.6	687.5
288.831	675.5
289.062	706.5
289.293	729.5
289.524	692.5
289.755	683.5
289.986	728.5
290.217	726.5
290.448	705.5
290.679	726.5
290.91	746.5
291.141	778.5
291.371	804.5
291.602	818.5
291.833	788.5
292.064	709.5
292.295	725.5
292.526	689.5
292.757	714.5
292.987	677.5
293.218	670.5
293.449	682.5
293.68	678.5
293.91	660.5
294.141	679.5
294.372	692.5
294.603	672.5
294.833	690.5
295.064	683.5
295.295	672.5
295.525	698.5
295.756	661.5
295.987	631.5
296.217	688.5
296.448	690.5
296.679	652.5
296.909	651.5
297.14	696.5
297.37	683.5
297.601	699.5
297.831	713.5
298.062	719.5
298.292	714.5
298.523	716.5
298.753	728.5
298.984	702.5
299.214	725.5
299.445	742.5
299.675	760.5
299.905	754.5
300.136	818.5
300.366	880.5
300.597	1134.5
300.827	1528.5
301.057	2087.5
301.288	2044.5
301.518	1315.5
301.748	993.5
301.979	923.5
302.209	920.5
302.439	930.5
302.669	969.5
302.9	1185.5
303.13	1630.5
303.36	2375.5
303.59	3200.5
303.82	2751.5
304.051	1605.5
304.281	1174.5
304.511	1010.5
304.741	934.5
304.971	900.5
305.201	855.5
305.431	807.5
305.661	818.5
305.891	811.5
306.121	786.5
306.352	795.5
306.582	757.5
306.812	782.5
307.042	798.5
307.272	795.5
307.502	785.5
307.731	783.5
307.961	772.5
308.191	778.5
308.421	787.5
308.651	768.5
308.881	749.5
309.111	746.5
309.341	772.5
309.571	780.5
309.8	817.5
310.03	795.5
310.26	784.5
310.49	800.5
310.72	794.5
310.949	804.5
311.179	819.5
311.409	794.5
311.639	799.5
311.868	805.5
312.098	826.5
312.328	834.5
312.557	854.5
312.787	841.5
313.017	860.5
313.246	859.5
313.476	832.5
313.706	882.5
313.935	882.5
314.165	938.5
314.394	1003.5
314.624	932.5
314.853	886.5
315.083	911.5
315.312	914.5
315.542	929.5
315.771	914.5
316.001	931.5
316.23	964.5
316.46	986.5
316.689	1055.5
316.919	1289.5
317.148	1863.5
317.377	2852.5
317.607	4264.5
317.836	4405.5
318.065	2491.5
318.295	1606.5
318.524	1308.5
318.753	1151.5
318.983	1082.5
319.212	1055.5
319.441	993.5
319.67	979.5
319.9	997.5
320.129	974.5
320.358	956.5
320.587	958.5
320.816	987.5
321.046	970.5
321.275	997.5
321.504	1015.5
321.733	990.5
321.962	1026.5
322.191	1052.5
322.42	1010.5
322.649	1011.5
322.878	1026.5
323.108	1001.5
323.337	1051.5
323.566	1057.5
323.795	1057.5
324.024	1072.5
324.253	1097.5
324.482	1139.5
324.71	1223.5
324.939	1261.5
325.168	1301.5
325.397	1312.5
325.626	1576.5
325.855	2216.5
326.084	3437.5
326.313	5071.5
326.542	5443.5
326.77	3392.5
326.999	2212.5
327.228	1829.5
327.457	1776.5
327.686	1780.5
327.914	1900.5
328.143	2188.5
328.372	2510.5
328.6	2668.5
328.829	2492.5
329.058	2211.5
329.287	1989.5
329.515	1799.5
329.744	1731.5
329.972	1620.5
330.201	1523.5
330.43	1471.5
330.658	1440.5
330.887	1431.5
331.115	1404.5
331.344	1385.5
331.572	1397.5
331.801	1432.5
332.03	1428.5
332.258	1442.5
332.486	1496.5
332.715	1731.5
332.943	2097.5
333.172	2521.5
333.4	2489.5
333.629	1915.5
333.857	1764.5
334.085	1765.5
334.314	1848.5
334.542	1983.5
334.771	2248.5
334.999	2719.5
335.227	3271.5
335.455	3574.5
335.684	3368.5
335.912	2832.5
336.14	2487.5
336.369	2196.5
336.597	2013.5
336.825	1861.5
337.053	1754.5
337.281	1669.5
337.51	1611.5
337.738	1556.5
337.966	1501.5
338.194	1436.5
338.422	1425.5
338.65	1381.5
338.878	1364.5
339.106	1307.5
339.334	1355.5
339.562	1309.5
339.79	1256.5
340.018	1250.5
340.246	1248.5
340.474	1243.5
340.702	1249.5
340.93	1248.5
341.158	1211.5
341.386	1234.5
341.614	1206.5
341.842	1209.5
342.07	1189.5
342.298	1153.5
342.526	1147.5
342.754	1132.5
342.981	1152.5
343.209	1138.5
343.437	1192.5
343.665	1161.5
343.893	1169.5
344.12	1197.5
344.348	1190.5
344.576	1158.5
344.804	1134.5
345.031	1069.5
345.259	1092.5
345.487	1078.5
345.714	1073.5
345.942	1069.5
346.17	1049.5
346.397	1069.5
346.625	1057.5
346.853	1034.5
347.08	1028.5
347.308	1073.5
347.535	1034.5
347.763	1033.5
347.99	1034.5
348.218	1034.5
348.445	1026.5
348.673	1036.5
348.9	1042.5
349.128	1044.5
349.355	1045.5
349.583	1038.5
349.81	995.5
350.037	1024.5
350.265	1012.5
350.492	1044.5
350.72	1011.5
350.947	1004.5
351.174	997.5
351.402	1009.5
351.629	989.5
351.856	1012.5
352.083	1001.5
352.311	986.5
352.538	991.5
352.765	1017.5
352.992	1014.5
353.22	1009.5
353.447	999.5
353.674	1006.5
353.901	1011.5
354.128	1007.5
354.355	1023.5
354.583	1043.5
354.81	1028.5
355.037	1040.5
355.264	1029.5
355.491	1028.5
355.718	1041.5
355.945	1038.5
356.172	1046.5
356.399	1061.5
356.626	1041.5
356.853	1044.5
357.08	1070.5
357.307	1052.5
357.534	1070.5
357.761	1071.5
357.988	1096.5
358.215	1080.5
358.441	1108.5
358.668	1100.5
358.895	1079.5
359.122	1065.5
359.349	1060.5
359.576	1082.5
359.802	1047.5
360.029	1080.5
360.256	1090.5
360.483	1098.5
360.709	1080.5
360.936	1073.5
361.163	1085.5
361.39	1089.5
361.616	1077.5
361.843	1081.5
362.07	1072.5
362.296	1102.5
362.523	1083.5
362.749	1072.5
362.976	1089.5
363.203	1120.5
363.429	1090.5
363.656	1075.5
363.882	1079.5
364.109	1088.5
364.335	1065.5
364.562	1086.5
364.788	1084.5
365.015	1072.5
365.241	1114.5
365.468	1171.5
365.694	1210.5
365.92	1170.5
366.147	1090.5
366.373	1106.5
366.599	1104.5
366.826	1096.5
367.052	1089.5
367.278	1107.5
367.505	1122.5
367.731	1112.5
367.957	1091.5
368.184	1097.5
368.41	1118.5
368.636	1127.5
368.862	1124.5
369.089	1109.5
369.315	1134.5
369.541	1132.5
369.767	1125.5
369.993	1110.5
370.219	1117.5
370.445	1118.5
370.672	1125.5
370.898	1161.5
371.124	1156.5
371.35	1151.5
371.576	1142.5
371.802	1142.5
372.028	1159.5
372.254	1141.5
372.48	1180.5
372.706	1222.5
372.932	1218.5
373.158	1176.5
373.384	1191.5
373.61	1188.5
373.835	1192.5
374.061	1177.5
374.287	1192.5
374.513	1194.5
374.739	1224.5
374.965	1217.5
375.191	1234.5
375.416	1217.5
375.642	1225.5
375.868	1201.5
376.094	1185.5
376.319	1163.5
376.545	1202.5
376.771	1176.5
376.997	1188.5
377.222	1182.5
377.448	1149.5
377.674	1148.5
377.899	1160.5
378.125	1184.5
378.35	1143.5
378.576	1169.5
378.802	1158.5
379.027	1200.5
379.253	1217.5
379.478	1281.5
379.704	1464.5
379.929	2068.5
380.155	3118.5
380.38	3329.5
380.606	2057.5
380.831	1485.5
381.057	1318.5
381.282	1203.5
381.507	1176.5
381.733	1218.5
381.958	1178.5
382.184	1145.5
382.409	1138.5
382.634	1148.5
382.86	1180.5
383.085	1161.5
383.31	1180.5
383.535	1197.5
383.761	1174.5
383.986	1163.5
384.211	1176.5
384.436	1152.5
384.662	1178.5
384.887	1208.5
385.112	1200.5
385.337	1164.5
385.562	1173.5
385.787	1190.5
386.013	1220.5
386.238	1190.5
386.463	1196.5
386.688	1165.5
386.913	1145.5
387.138	1189.5
387.363	1195.5
387.588	1177.5
387.813	1204.5
388.038	1215.5
388.263	1192.5
388.488	1181.5
388.713	1206.5
388.938	1200.5
389.163	1166.5
389.387	1179.5
389.612	1152.5
389.837	1180.5
390.062	1160.5
390.287	1205.5
390.512	1209.5
390.736	1204.5
390.961	1210.5
391.186	1238.5
391.411	1244.5
391.636	1248.5
391.86	1254.5
392.085	1221.5
392.31	1271.5
392.534	1229.5
392.759	1206.5
392.984	1195.5
393.208	1242.5
393.433	1245.5
393.658	1275.5
393.882	1218.5
394.107	1212.5
394.331	1198.5
394.556	1185.5
394.78	1217.5
395.005	1228.5
395.229	1206.5
395.454	1253.5
395.678	1247.5
395.903	1243.5
396.127	1229.5
396.352	1229.5
396.576	1213.5
396.801	1253.5
397.025	1315.5
397.249	1272.5
397.474	1258.5
397.698	1233.5
397.922	1279.5
398.147	1242.5
398.371	1280.5
398.595	1312.5
398.82	1335.5
399.044	1377.5
399.268	1426.5
399.492	1500.5
399.717	1568.5
399.941	1585.5
400.165	1554.5
400.389	1463.5
400.613	1421.5
400.837	1360.5
401.062	1374.5
401.286	1333.5
401.51	1312.5
401.734	1299.5
401.958	1306.5
402.182	1330.5
402.406	1310.5
402.63	1325.5
402.854	1370.5
403.078	1338.5
403.302	1339.5
403.526	1367.5
403.75	1338.5
403.974	1380.5
404.198	1328.5
404.422	1365.5
404.645	1360.5
404.869	1353.5
405.093	1369.5
405.317	1364.5
405.541	1406.5
405.765	1363.5
405.988	1404.5
406.212	1404.5
406.436	1415.5
406.66	1444.5
406.883	1408.5
407.107	1431.5
407.331	1482.5
407.555	1491.5
407.778	1470.5
408.002	1462.5
408.226	1447.5
408.449	1430.5
408.673	1421.5
408.896	1373.5
409.12	1376.5
409.344	1381.5
409.567	1414.5
409.791	1384.5
410.014	1365.5
410.238	1342.5
410.461	1360.5
410.685	1352.5
410.908	1379.5
411.132	1316.5
411.355	1323.5
411.578	1334.5
411.802	1323.5
412.025	1312.5
412.249	1323.5
412.472	1339.5
412.695	1297.5
412.919	1274.5
413.142	1307.5
413.365	1325.5
413.589	1294.5
413.812	1270.5
414.035	1290.5
414.258	1300.5
414.482	1308.5
414.705	1284.5
414.928	1293.5
415.151	1297.5
415.374	1308.5
415.597	1298.5
415.821	1236.5
416.044	1235.5
416.267	1244.5
416.49	1250.5
416.713	1241.5
416.936	1261.5
417.159	1231.5
417.382	1217.5
417.605	1210.5
417.828	1216.5
418.051	1250.5
418.274	1246.5
418.497	1258.5
418.72	1277.5
418.943	1283.5
419.166	1302.5
419.389	1391.5
419.611	1373.5
419.834	1318.5
420.057	1305.5
420.28	1268.5
420.503	1288.5
420.726	1222.5
420.948	1270.5
421.171	1238.5
421.394	1266.5
421.617	1259.5
421.839	1234.5
422.062	1259.5
422.285	1249.5
422.507	1285.5
422.73	1280.5
422.953	1295.5
423.175	1289.5
423.398	1311.5
423.621	1221.5
423.843	1275.5
424.066	1276.5
424.288	1275.5
424.511	1250.5
424.733	1295.5
424.956	1266.5
425.178	1236.5
425.401	1264.5
425.623	1219.5
425.846	1202.5
426.068	1234.5
426.291	1224.5
426.513	1208.5
426.735	1195.5
426.958	1214.5
427.18	1152.5
427.402	1197.5
427.625	1203.5
427.847	1192.5
428.069	1184.5
428.292	1193.5
428.514	1140.5
428.736	1174.5
428.958	1204.5
429.181	1122.5
429.403	1138.5
429.625	1149.5
429.847	1146.5
430.069	1138.5
430.292	1209.5
430.514	1212.5
430.736	1220.5
430.958	1201.5
431.18	1138.5
431.402	1145.5
431.624	1148.5
431.846	1156.5
432.068	1144.5
432.29	1124.5
432.512	1100.5
432.734	1162.5
432.956	1150.5
433.178	1157.5
433.4	1139.5
433.622	1179.5
433.844	1172.5
434.066	1164.5
434.287	1144.5
434.509	1149.5
434.731	1172.5
434.953	1167.5
435.175	1209.5
435.397	1217.5
435.618	1160.5
435.84	1133.5
436.062	1130.5
436.284	1140.5
436.505	1140.5
436.727	1176.5
436.949	1180.5
437.17	1129.5
437.392	1114.5
437.614	1148.5
437.835	1102.5
438.057	1105.5
438.278	1111.5
438.5	1095.5
438.721	1154.5
438.943	1164.5
439.165	1186.5
439.386	1191.5
439.608	1222.5
439.829	1198.5
440.05	1214.5
440.272	1286.5
440.493	1217.5
440.715	1185.5
440.936	1217.5
441.158	1201.5
441.379	1230.5
441.6	1252.5
441.822	1311.5
442.043	1304.5
442.264	1400.5
442.486	1294.5
442.707	1251.5
442.928	1228.5
443.149	1266.5
443.371	1226.5
443.592	1208.5
443.813	1226.5
444.034	1216.5
444.255	1267.5
444.476	1266.5
444.698	1319.5
444.919	1335.5
445.14	1425.5
445.361	1318.5
445.582	1244.5
445.803	1236.5
446.024	1253.5
446.245	1251.5
446.466	1249.5
446.687	1225.5
446.908	1204.5
447.129	1191.5
447.35	1174.5
447.571	1185.5
447.792	1133.5
448.013	1136.5
448.234	1156.5
448.455	1122.5
448.675	1156.5
448.896	1184.5
449.117	1214.5
449.338	1286.5
449.559	1358.5
449.779	1215.5
450	1148.5
450.221	1117.5
450.442	1101.5
450.662	1089.5
450.883	1087.5
451.104	1106.5
451.324	1115.5
451.545	1084.5
451.766	1076.5
451.986	1130.5
452.207	1206.5
452.428	1475.5
452.648	2021.5
452.869	1742.5
453.089	1286.5
453.31	1230.5
453.53	1193.5
453.751	1228.5
453.971	1308.5
454.192	1300.5
454.412	1139.5
454.633	1108.5
454.853	1070.5
455.073	1071.5
455.294	1062.5
455.514	1046.5
455.734	1079.5
455.955	1037.5
456.175	1043.5
456.395	1042.5
456.616	1061.5
456.836	1065.5
457.056	1088.5
457.276	1044.5
457.497	1119.5
457.717	1114.5
457.937	1077.5
458.157	1120.5
458.377	1097.5
458.598	1144.5
458.818	1168.5
459.038	1133.5
459.258	1120.5
459.478	1124.5
459.698	1181.5
459.918	1176.5
460.138	1181.5
460.358	1180.5
460.578	1212.5
460.798	1200.5
461.018	1240.5
461.238	1260.5
461.458	1253.5
461.678	1249.5
461.898	1241.5
462.118	1265.5
462.338	1323.5
462.558	1334.5
462.777	1372.5
462.997	1389.5
463.217	1467.5
463.437	1477.5
463.657	1509.5
463.876	1475.5
464.096	1436.5
464.316	1369.5
464.536	1369.5
464.755	1357.5
464.975	1301.5
465.195	1232.5
465.414	1223.5
465.634	1218.5
465.854	1158.5
466.073	1166.5
466.293	1179.5
466.512	1144.5
466.732	1214.5
466.951	1229.5
467.171	1283.5
467.391	1250.5
467.61	1187.5
467.829	1138.5
468.049	1148.5
468.268	1105.5
468.488	1117.5
468.707	1134.5
468.927	1111.5
469.146	1103.5
469.365	1154.5
469.585	1142.5
469.804	1164.5
470.023	1191.5
470.243	1213.5
470.462	1261.5
470.681	1320.5
470.901	1392.5
471.12	1602.5
471.339	1645.5
471.558	1317.5
471.777	1265.5
471.997	1188.5
472.216	1164.5
472.435	1127.5
472.654	1130.5
472.873	1114.5
473.092	1152.5
473.311	1160.5
473.53	1129.5
473.749	1143.5
473.968	1193.5
474.187	1133.5
474.406	1131.5
474.625	1146.5
474.844	1138.5
475.063	1159.5
475.282	1122.5
475.501	1147.5
475.72	1147.5
475.939	1164.5
476.158	1184.5
476.377	1170.5
476.596	1189.5
476.814	1200.5
477.033	1195.5
477.252	1197.5
477.471	1259.5
477.69	1242.5
477.908	1257.5
478.127	1312.5
478.346	1323.5
478.564	1308.5
478.783	1316.5
479.002	1353.5
479.22	1292.5
479.439	1358.5
479.658	1318.5
479.876	1333.5
480.095	1338.5
480.313	1404.5
480.532	1406.5
480.751	1362.5
480.969	1332.5
481.188	1329.5
481.406	1318.5
481.624	1331.5
481.843	1341.5
482.061	1378.5
482.28	1338.5
482.498	1341.5
482.717	1356.5
482.935	1342.5
483.153	1366.5
483.372	1374.5
483.59	1405.5
483.808	1414.5
484.027	1443.5
484.245	1528.5
484.463	1692.5
484.681	1899.5
484.9	1705.5
485.118	1607.5
485.336	1562.5
485.554	1611.5
485.772	1650.5
485.99	1889.5
486.209	2102.5
486.427	1698.5
486.645	1520.5
486.863	1524.5
487.081	1491.5
487.299	1448.5
487.517	1454.5
487.735	1438.5
487.953	1471.5
488.171	1446.5
488.389	1466.5
488.607	1417.5
488.825	1395.5
489.043	1381.5
489.261	1382.5
489.479	1383.5
489.696	1415.5
489.914	1416.5
490.132	1419.5
490.35	1438.5
490.568	1425.5
490.786	1498.5
491.003	1461.5
491.221	1475.5
491.439	1462.5
491.657	1481.5
491.874	1494.5
492.092	1525.5
492.31	1571.5
492.527	1571.5
492.745	1506.5
492.963	1464.5
493.18	1492.5
493.398	1476.5
493.615	1502.5
493.833	1467.5
494.05	1520.5
494.268	1504.5
494.485	1490.5
494.703	1529.5
494.92	1520.5
495.138	1491.5
495.355	1481.5
495.573	1504.5
495.79	1472.5
496.008	1508.5
496.225	1550.5
496.442	1559.5
496.66	1594.5
496.877	1685.5
497.094	1627.5
497.312	1576.5
497.529	1602.5
497.746	1620.5
497.963	1638.5
498.181	1663.5
498.398	1706.5
498.615	1738.5
498.832	1816.5
499.049	1895.5
499.267	2024.5
499.484	2160.5
499.701	2186.5
499.918	2236.5
500.135	2363.5
500.352	2497.5
500.569	2492.5
500.786	2435.5
501.003	2412.5
501.22	2308.5
501.437	2171.5
501.654	2070.5
501.871	1951.5
502.088	1906.5
502.305	1819.5
502.522	1755.5
502.739	1764.5
502.956	1658.5
503.172	1631.5
503.389	1593.5
503.606	1574.5
503.823	1548.5
504.04	1564.5
504.256	1544.5
504.473	1527.5
504.69	1504.5
504.907	1510.5
505.123	1480.5
505.34	1472.5
505.557	1412.5
505.773	1415.5
505.99	1396.5
506.207	1361.5
506.423	1368.5
506.64	1353.5
506.856	1299.5
507.073	1330.5
