Data from SnStandardFlinnAPT0064_LampEnergy10_LIBS07252019.E.O._I.C._HRD10591_15-22-18-495.txt Node
Date: Thu Jul 25 15:22:18 EDT 2019
User: cochatt
Spectrometer: HR+D1059
Trigger mode: 1
Integration Time (sec): 1.000000E-1
Scans to average: 1
Electric dark correction enabled: true
Nonlinearity correction enabled: false
Boxcar width: 0
XAxis mode: Wavelengths
Number of Pixels in Spectrum: 2048
>>>>>Begin Spectral Data<<<<<
223.165	-12.81
223.4	-12.81
223.635	-12.81
223.869	-15.81
224.104	-12.81
224.338	-18.81
224.573	-22.81
224.808	-14.81
225.042	-13.81
225.277	-10.81
225.511	12.19
225.746	2.19
225.98	2.19
226.215	17.19
226.449	11.19
226.683	31.19
226.918	18.19
227.152	28.19
227.387	34.19
227.621	44.19
227.856	41.19
228.09	53.19
228.324	61.19
228.559	62.19
228.793	121.19
229.027	318.19
229.262	340.19
229.496	308.19
229.73	276.19
229.964	309.19
230.199	308.19
230.433	287.19
230.667	306.19
230.901	315.19
231.136	326.19
231.37	348.19
231.604	369.19
231.838	426.19
232.072	493.19
232.306	544.19
232.541	471.19
232.775	405.19
233.009	413.19
233.243	401.19
233.477	447.19
233.711	495.19
233.945	572.19
234.179	499.19
234.413	412.19
234.647	434.19
234.881	452.19
235.115	521.19
235.349	605.19
235.583	752.19
235.817	964.19
236.051	973.19
236.285	630.19
236.519	480.19
236.753	466.19
236.987	497.19
237.221	518.19
237.455	497.19
237.689	481.19
237.922	463.19
238.156	468.19
238.39	459.19
238.624	468.19
238.858	487.19
239.091	491.19
239.325	471.19
239.559	473.19
239.793	495.19
240.027	504.19
240.26	518.19
240.494	527.19
240.728	558.19
240.961	585.19
241.195	629.19
241.429	663.19
241.662	675.19
241.896	751.19
242.13	898.19
242.363	1184.19
242.597	1577.19
242.83	1474.19
243.064	1480.19
243.298	1729.19
243.531	1443.19
243.765	924.19
243.998	736.19
244.232	666.19
244.465	633.19
244.699	643.19
244.932	641.19
245.166	696.19
245.399	682.19
245.633	684.19
245.866	688.19
246.099	666.19
246.333	645.19
246.566	630.19
246.8	632.19
247.033	642.19
247.266	640.19
247.5	635.19
247.733	677.19
247.966	712.19
248.2	762.19
248.433	843.19
248.666	975.19
248.899	940.19
249.133	841.19
249.366	828.19
249.599	909.19
249.832	1054.19
250.066	1036.19
250.299	809.19
250.532	733.19
250.765	747.19
250.998	752.19
251.231	714.19
251.465	704.19
251.698	703.19
251.931	754.19
252.164	721.19
252.397	763.19
252.63	792.19
252.863	788.19
253.096	783.19
253.329	765.19
253.562	789.19
253.795	784.19
254.028	800.19
254.261	813.19
254.494	875.19
254.727	998.19
254.96	1189.19
255.193	1205.19
255.426	923.19
255.659	857.19
255.892	843.19
256.124	876.19
256.357	853.19
256.59	882.19
256.823	972.19
257.056	1071.19
257.289	1291.19
257.521	1456.19
257.754	1152.19
257.987	945.19
258.22	908.19
258.452	884.19
258.685	882.19
258.918	952.19
259.151	986.19
259.383	1064.19
259.616	1176.19
259.849	1230.19
260.081	1039.19
260.314	983.19
260.547	937.19
260.779	948.19
261.012	912.19
261.244	950.19
261.477	962.19
261.71	985.19
261.942	971.19
262.175	1018.19
262.407	1037.19
262.64	1064.19
262.872	1090.19
263.105	1170.19
263.337	1163.19
263.57	1232.19
263.802	1284.19
264.035	1289.19
264.267	1316.19
264.499	1354.19
264.732	1405.19
264.964	1440.19
265.197	1423.19
265.429	1430.19
265.661	1475.19
265.894	1524.19
266.126	1762.19
266.358	1941.19
266.591	1860.19
266.823	1559.19
267.055	1410.19
267.287	1381.19
267.52	1284.19
267.752	1294.19
267.984	1277.19
268.216	1247.19
268.448	1240.19
268.681	1201.19
268.913	1220.19
269.145	1230.19
269.377	1238.19
269.609	1226.19
269.841	1233.19
270.073	1321.19
270.306	1532.19
270.538	2130.19
270.77	3144.19
271.002	3779.19
271.234	2644.19
271.466	1806.19
271.698	1480.19
271.93	1347.19
272.162	1322.19
272.394	1271.19
272.626	1266.19
272.858	1223.19
273.09	1196.19
273.322	1224.19
273.553	1191.19
273.785	1190.19
274.017	1170.19
274.249	1172.19
274.481	1221.19
274.713	1172.19
274.945	1195.19
275.176	1213.19
275.408	1217.19
275.64	1183.19
275.872	1221.19
276.104	1221.19
276.335	1274.19
276.567	1253.19
276.799	1263.19
277.031	1290.19
277.262	1289.19
277.494	1345.19
277.726	1523.19
277.957	1779.19
278.189	2042.19
278.421	1874.19
278.652	1670.19
278.884	1645.19
279.115	1475.19
279.347	1372.19
279.579	1354.19
279.81	1353.19
280.042	1375.19
280.273	1407.19
280.505	1421.19
280.736	1491.19
280.968	1551.19
281.199	1720.19
281.431	1972.19
281.662	2033.19
281.894	1734.19
282.125	1584.19
282.356	1614.19
282.588	1621.19
282.819	1673.19
283.051	1776.19
283.282	1965.19
283.513	2412.19
283.745	3507.19
283.976	5472.19
284.207	7836.19
284.439	7006.19
284.67	4318.19
284.901	3539.19
285.132	3552.19
285.364	3366.19
285.595	2608.19
285.826	2338.19
286.057	2764.19
286.288	3718.19
286.52	5016.19
286.751	4725.19
286.982	2913.19
287.213	2182.19
287.444	1941.19
287.675	1846.19
287.906	1747.19
288.138	1698.19
288.369	1653.19
288.6	1666.19
288.831	1660.19
289.062	1655.19
289.293	1656.19
289.524	1668.19
289.755	1708.19
289.986	1691.19
290.217	1668.19
290.448	1688.19
290.679	1741.19
290.91	1748.19
291.141	1808.19
291.371	1966.19
291.602	2021.19
291.833	1885.19
292.064	1701.19
292.295	1640.19
292.526	1630.19
292.757	1637.19
292.987	1588.19
293.218	1542.19
293.449	1566.19
293.68	1545.19
293.91	1554.19
294.141	1576.19
294.372	1528.19
294.603	1566.19
294.833	1563.19
295.064	1539.19
295.295	1572.19
295.525	1525.19
295.756	1576.19
295.987	1531.19
296.217	1551.19
296.448	1548.19
296.679	1572.19
296.909	1570.19
297.14	1579.19
297.37	1607.19
297.601	1581.19
297.831	1608.19
298.062	1576.19
298.292	1611.19
298.523	1665.19
298.753	1652.19
298.984	1699.19
299.214	1694.19
299.445	1724.19
299.675	1721.19
299.905	1779.19
300.136	1854.19
300.366	2092.19
300.597	2682.19
300.827	3716.19
301.057	5035.19
301.288	5043.19
301.518	3226.19
301.748	2539.19
301.979	2296.19
302.209	2212.19
302.439	2260.19
302.669	2362.19
302.9	2848.19
303.13	4051.19
303.36	5899.19
303.59	7914.19
303.82	6881.19
304.051	4020.19
304.281	2898.19
304.511	2436.19
304.741	2226.19
304.971	2096.19
305.201	2018.19
305.431	1956.19
305.661	1949.19
305.891	1889.19
306.121	1838.19
306.352	1852.19
306.582	1837.19
306.812	1817.19
307.042	1809.19
307.272	1798.19
307.502	1794.19
307.731	1772.19
307.961	1772.19
308.191	1778.19
308.421	1810.19
308.651	1777.19
308.881	1787.19
309.111	1780.19
309.341	1790.19
309.571	1842.19
309.8	1853.19
310.03	1800.19
310.26	1844.19
310.49	1824.19
310.72	1841.19
310.949	1864.19
311.179	1870.19
311.409	1937.19
311.639	1951.19
311.868	1908.19
312.098	1913.19
312.328	1955.19
312.557	1957.19
312.787	1928.19
313.017	1942.19
313.246	1962.19
313.476	2004.19
313.706	2072.19
313.935	2160.19
314.165	2318.19
314.394	2440.19
314.624	2293.19
314.853	2121.19
315.083	2105.19
315.312	2152.19
315.542	2101.19
315.771	2197.19
316.001	2227.19
316.23	2269.19
316.46	2370.19
316.689	2616.19
316.919	3161.19
317.148	4541.19
317.377	6910.19
317.607	10102.19
317.836	10518.19
318.065	6295.19
318.295	4028.19
318.524	3275.19
318.753	2911.19
318.983	2676.19
319.212	2522.19
319.441	2443.19
319.67	2390.19
319.9	2363.19
320.129	2339.19
320.358	2333.19
320.587	2315.19
320.816	2317.19
321.046	2310.19
321.275	2332.19
321.504	2340.19
321.733	2388.19
321.962	2402.19
322.191	2495.19
322.42	2453.19
322.649	2434.19
322.878	2439.19
323.108	2428.19
323.337	2475.19
323.566	2542.19
323.795	2582.19
324.024	2617.19
324.253	2658.19
324.482	2794.19
324.71	2957.19
324.939	3144.19
325.168	3215.19
325.397	3302.19
325.626	3962.19
325.855	5438.19
326.084	8502.19
326.313	12313.19
326.542	13120.19
326.77	8586.19
326.999	5677.19
327.228	4791.19
327.457	4626.19
327.686	4614.19
327.914	4973.19
328.143	5773.19
328.372	6862.19
328.6	7438.19
328.829	6654.19
329.058	5637.19
329.287	4843.19
329.515	4524.19
329.744	4161.19
329.972	3965.19
330.201	3801.19
330.43	3702.19
330.658	3588.19
330.887	3512.19
331.115	3486.19
331.344	3461.19
331.572	3412.19
331.801	3482.19
332.03	3466.19
332.258	3552.19
332.486	3682.19
332.715	4234.19
332.943	5162.19
333.172	6363.19
333.4	6284.19
333.629	4841.19
333.857	4384.19
334.085	4409.19
334.314	4592.19
334.542	5018.19
334.771	5804.19
334.999	7198.19
335.227	8997.19
335.455	9990.19
335.684	8968.19
335.912	7390.19
336.14	6241.19
336.369	5490.19
336.597	5080.19
336.825	4752.19
337.053	4457.19
337.281	4187.19
337.51	3972.19
337.738	3829.19
337.966	3634.19
338.194	3574.19
338.422	3491.19
338.65	3333.19
338.878	3270.19
339.106	3170.19
339.334	3176.19
339.562	3155.19
339.79	3053.19
340.018	3051.19
340.246	3074.19
340.474	2968.19
340.702	2982.19
340.93	2985.19
341.158	2987.19
341.386	2973.19
341.614	2966.19
341.842	2855.19
342.07	2865.19
342.298	2848.19
342.526	2749.19
342.754	2725.19
342.981	2730.19
343.209	2685.19
343.437	2717.19
343.665	2737.19
343.893	2756.19
344.12	2796.19
344.348	2744.19
344.576	2701.19
344.804	2681.19
345.031	2577.19
345.259	2598.19
345.487	2563.19
345.714	2550.19
345.942	2572.19
346.17	2540.19
346.397	2482.19
346.625	2519.19
346.853	2473.19
347.08	2458.19
347.308	2509.19
347.535	2507.19
347.763	2498.19
347.99	2464.19
348.218	2457.19
348.445	2436.19
348.673	2459.19
348.9	2471.19
349.128	2446.19
349.355	2420.19
349.583	2413.19
349.81	2392.19
350.037	2365.19
350.265	2377.19
350.492	2439.19
350.72	2394.19
350.947	2344.19
351.174	2388.19
351.402	2445.19
351.629	2375.19
351.856	2378.19
352.083	2360.19
352.311	2378.19
352.538	2350.19
352.765	2372.19
352.992	2360.19
353.22	2348.19
353.447	2368.19
353.674	2376.19
353.901	2366.19
354.128	2344.19
354.355	2377.19
354.583	2396.19
354.81	2387.19
355.037	2406.19
355.264	2397.19
355.491	2437.19
355.718	2441.19
355.945	2450.19
356.172	2453.19
356.399	2468.19
356.626	2461.19
356.853	2485.19
357.08	2496.19
357.307	2525.19
357.534	2533.19
357.761	2552.19
357.988	2520.19
358.215	2516.19
358.441	2561.19
358.668	2531.19
358.895	2548.19
359.122	2455.19
359.349	2521.19
359.576	2509.19
359.802	2498.19
360.029	2501.19
360.256	2511.19
360.483	2525.19
360.709	2530.19
360.936	2528.19
361.163	2559.19
361.39	2546.19
361.616	2603.19
361.843	2519.19
362.07	2568.19
362.296	2601.19
362.523	2558.19
362.749	2523.19
362.976	2545.19
363.203	2509.19
363.429	2488.19
363.656	2562.19
363.882	2544.19
364.109	2517.19
364.335	2459.19
364.562	2511.19
364.788	2511.19
365.015	2554.19
365.241	2627.19
365.468	2767.19
365.694	2899.19
365.92	2766.19
366.147	2655.19
366.373	2613.19
366.599	2599.19
366.826	2572.19
367.052	2550.19
367.278	2584.19
367.505	2548.19
367.731	2570.19
367.957	2537.19
368.184	2629.19
368.41	2657.19
368.636	2657.19
368.862	2634.19
369.089	2605.19
369.315	2656.19
369.541	2592.19
369.767	2663.19
369.993	2593.19
370.219	2621.19
370.445	2620.19
370.672	2637.19
370.898	2646.19
371.124	2676.19
371.35	2718.19
371.576	2712.19
371.802	2729.19
372.028	2708.19
372.254	2714.19
372.48	2803.19
372.706	2759.19
372.932	2816.19
373.158	2748.19
373.384	2784.19
373.61	2752.19
373.835	2769.19
374.061	2760.19
374.287	2758.19
374.513	2837.19
374.739	2860.19
374.965	2894.19
375.191	2916.19
375.416	2880.19
375.642	2790.19
375.868	2808.19
376.094	2796.19
376.319	2746.19
376.545	2766.19
376.771	2762.19
376.997	2732.19
377.222	2713.19
377.448	2737.19
377.674	2731.19
377.899	2674.19
378.125	2676.19
378.35	2737.19
378.576	2721.19
378.802	2754.19
379.027	2779.19
379.253	2853.19
379.478	3009.19
379.704	3582.19
379.929	5094.19
380.155	7646.19
380.38	8234.19
380.606	5072.19
380.831	3572.19
381.057	3178.19
381.282	2924.19
381.507	2797.19
381.733	2732.19
381.958	2694.19
382.184	2696.19
382.409	2678.19
382.634	2690.19
382.86	2652.19
383.085	2729.19
383.31	2682.19
383.535	2633.19
383.761	2621.19
383.986	2692.19
384.211	2731.19
384.436	2760.19
384.662	2708.19
384.887	2738.19
385.112	2771.19
385.337	2778.19
385.562	2752.19
385.787	2736.19
386.013	2827.19
386.238	2760.19
386.463	2793.19
386.688	2826.19
386.913	2779.19
387.138	2758.19
387.363	2766.19
387.588	2731.19
387.813	2743.19
388.038	2696.19
388.263	2749.19
388.488	2747.19
388.713	2780.19
388.938	2770.19
389.163	2712.19
389.387	2721.19
389.612	2742.19
389.837	2774.19
390.062	2744.19
390.287	2733.19
390.512	2790.19
390.736	2801.19
390.961	2860.19
391.186	2824.19
391.411	2892.19
391.636	2929.19
391.86	2907.19
392.085	2896.19
392.31	2843.19
392.534	2848.19
392.759	2855.19
392.984	2860.19
393.208	2878.19
393.433	2871.19
393.658	2803.19
393.882	2798.19
394.107	2800.19
394.331	2773.19
394.556	2847.19
394.78	2825.19
395.005	2783.19
395.229	2839.19
395.454	2846.19
395.678	2901.19
395.903	2830.19
396.127	2823.19
396.352	2852.19
396.576	2861.19
396.801	2824.19
397.025	2898.19
397.249	2871.19
397.474	2905.19
397.698	2884.19
397.922	2934.19
398.147	2909.19
398.371	2932.19
398.595	3016.19
398.82	3075.19
399.044	3168.19
399.268	3288.19
399.492	3496.19
399.717	3598.19
399.941	3598.19
400.165	3574.19
400.389	3365.19
400.613	3237.19
400.837	3179.19
401.062	3078.19
401.286	3079.19
401.51	3035.19
401.734	3023.19
401.958	3048.19
402.182	3078.19
402.406	3005.19
402.63	3038.19
402.854	3126.19
403.078	3040.19
403.302	3150.19
403.526	3135.19
403.75	3132.19
403.974	3179.19
404.198	3158.19
404.422	3163.19
404.645	3148.19
404.869	3161.19
405.093	3156.19
405.317	3159.19
405.541	3203.19
405.765	3213.19
405.988	3261.19
406.212	3285.19
406.436	3265.19
406.66	3301.19
406.883	3224.19
407.107	3330.19
407.331	3421.19
407.555	3485.19
407.778	3392.19
408.002	3368.19
408.226	3418.19
408.449	3362.19
408.673	3264.19
408.896	3189.19
409.12	3219.19
409.344	3224.19
409.567	3172.19
409.791	3172.19
410.014	3182.19
410.238	3151.19
410.461	3144.19
410.685	3091.19
410.908	3132.19
411.132	3118.19
411.355	3022.19
411.578	3037.19
411.802	3031.19
412.025	3037.19
412.249	3009.19
412.472	3026.19
412.695	2977.19
412.919	2960.19
413.142	2966.19
413.365	3012.19
413.589	2994.19
413.812	2988.19
414.035	2982.19
414.258	3017.19
414.482	2985.19
414.705	3004.19
414.928	2944.19
415.151	2976.19
415.374	2934.19
415.597	2898.19
415.821	2827.19
416.044	2838.19
416.267	2852.19
416.49	2832.19
416.713	2855.19
416.936	2888.19
417.159	2878.19
417.382	2801.19
417.605	2842.19
417.828	2824.19
418.051	2851.19
418.274	2948.19
418.497	2859.19
418.72	2973.19
418.943	2882.19
419.166	3044.19
419.389	3177.19
419.611	3146.19
419.834	3040.19
420.057	2970.19
420.28	2887.19
420.503	2843.19
420.726	2838.19
420.948	2794.19
421.171	2866.19
421.394	2876.19
421.617	2854.19
421.839	2863.19
422.062	2910.19
422.285	2848.19
422.507	2943.19
422.73	2888.19
422.953	2940.19
423.175	2937.19
423.398	2916.19
423.621	2866.19
423.843	2832.19
424.066	2906.19
424.288	2834.19
424.511	2856.19
424.733	2887.19
424.956	2813.19
425.178	2816.19
425.401	2804.19
425.623	2827.19
425.846	2782.19
426.068	2804.19
426.291	2727.19
426.513	2701.19
426.735	2739.19
426.958	2714.19
427.18	2672.19
427.402	2729.19
427.625	2730.19
427.847	2667.19
428.069	2692.19
428.292	2681.19
428.514	2620.19
428.736	2622.19
428.958	2700.19
429.181	2634.19
429.403	2597.19
429.625	2604.19
429.847	2668.19
430.069	2709.19
430.292	2804.19
430.514	2853.19
430.736	2818.19
430.958	2695.19
431.18	2646.19
431.402	2628.19
431.624	2623.19
431.846	2644.19
432.068	2610.19
432.29	2617.19
432.512	2574.19
432.734	2672.19
432.956	2573.19
433.178	2663.19
433.4	2629.19
433.622	2658.19
433.844	2653.19
434.066	2643.19
434.287	2629.19
434.509	2694.19
434.731	2689.19
434.953	2741.19
435.175	2716.19
435.397	2780.19
435.618	2707.19
435.84	2634.19
436.062	2626.19
436.284	2643.19
436.505	2595.19
436.727	2659.19
436.949	2595.19
437.17	2588.19
437.392	2593.19
437.614	2499.19
437.835	2465.19
438.057	2540.19
438.278	2505.19
438.5	2563.19
438.721	2620.19
438.943	2654.19
439.165	2702.19
439.386	2726.19
439.608	2643.19
439.829	2733.19
440.05	2837.19
440.272	2826.19
440.493	2742.19
440.715	2685.19
440.936	2677.19
441.158	2772.19
441.379	2746.19
441.6	2807.19
441.822	2904.19
442.043	3052.19
442.264	3167.19
442.486	2905.19
442.707	2854.19
442.928	2801.19
443.149	2830.19
443.371	2781.19
443.592	2797.19
443.813	2824.19
444.034	2819.19
444.255	2896.19
444.476	2953.19
444.698	2942.19
444.919	3022.19
445.14	3102.19
445.361	2948.19
445.582	2842.19
445.803	2806.19
446.024	2726.19
446.245	2816.19
446.466	2795.19
446.687	2754.19
446.908	2725.19
447.129	2634.19
447.35	2667.19
447.571	2637.19
447.792	2619.19
448.013	2595.19
448.234	2538.19
448.455	2551.19
448.675	2584.19
448.896	2622.19
449.117	2753.19
449.338	2966.19
449.559	3101.19
449.779	2789.19
450	2604.19
450.221	2561.19
450.442	2523.19
450.662	2499.19
450.883	2507.19
451.104	2510.19
451.324	2490.19
451.545	2546.19
451.766	2532.19
451.986	2547.19
452.207	2814.19
452.428	3521.19
452.648	5216.19
452.869	4341.19
453.089	3108.19
453.31	2880.19
453.53	2900.19
453.751	2961.19
453.971	3113.19
454.192	3052.19
454.412	2663.19
454.633	2480.19
454.853	2460.19
455.073	2389.19
455.294	2466.19
455.514	2409.19
455.734	2406.19
455.955	2390.19
456.175	2384.19
456.395	2415.19
456.616	2444.19
456.836	2449.19
457.056	2462.19
457.276	2411.19
457.497	2637.19
457.717	2646.19
457.937	2580.19
458.157	2530.19
458.377	2522.19
458.598	2550.19
458.818	2546.19
459.038	2599.19
459.258	2598.19
459.478	2626.19
459.698	2680.19
459.918	2678.19
460.138	2760.19
460.358	2733.19
460.578	2763.19
460.798	2816.19
461.018	2877.19
461.238	2860.19
461.458	2892.19
461.678	2916.19
461.898	2978.19
462.118	2935.19
462.338	3033.19
462.558	3028.19
462.777	3157.19
462.997	3240.19
463.217	3405.19
463.437	3478.19
463.657	3572.19
463.876	3516.19
464.096	3317.19
464.316	3135.19
464.536	3147.19
464.755	3034.19
464.975	3026.19
465.195	2905.19
465.414	2791.19
465.634	2726.19
465.854	2716.19
466.073	2687.19
466.293	2648.19
466.512	2626.19
466.732	2686.19
466.951	2790.19
467.171	2952.19
467.391	2926.19
467.61	2692.19
467.829	2634.19
468.049	2609.19
468.268	2525.19
468.488	2542.19
468.707	2510.19
468.927	2537.19
469.146	2593.19
469.365	2596.19
469.585	2544.19
469.804	2647.19
470.023	2676.19
470.243	2733.19
470.462	2843.19
470.681	3009.19
470.901	3245.19
471.12	3691.19
471.339	3784.19
471.558	3107.19
471.777	2854.19
471.997	2781.19
472.216	2693.19
472.435	2641.19
472.654	2594.19
472.873	2546.19
473.092	2593.19
473.311	2584.19
473.53	2553.19
473.749	2707.19
473.968	2826.19
474.187	2591.19
474.406	2562.19
474.625	2584.19
474.844	2560.19
475.063	2574.19
475.282	2573.19
475.501	2602.19
475.72	2651.19
475.939	2638.19
476.158	2732.19
476.377	2773.19
476.596	2700.19
476.814	2664.19
477.033	2699.19
477.252	2754.19
477.471	2798.19
477.69	2894.19
477.908	2890.19
478.127	2909.19
478.346	2949.19
478.564	2976.19
478.783	2987.19
479.002	3056.19
479.22	3047.19
479.439	3072.19
479.658	3084.19
479.876	3077.19
480.095	3120.19
480.313	3242.19
480.532	3218.19
480.751	3190.19
480.969	3130.19
481.188	3120.19
481.406	3109.19
481.624	3094.19
481.843	3148.19
482.061	3099.19
482.28	3163.19
482.498	3099.19
482.717	3142.19
482.935	3129.19
483.153	3198.19
483.372	3231.19
483.59	3259.19
483.808	3334.19
484.027	3380.19
484.245	3595.19
484.463	4052.19
484.681	4478.19
484.9	4045.19
485.118	3799.19
485.336	3693.19
485.554	3742.19
485.772	3888.19
485.99	4482.19
486.209	4824.19
486.427	4078.19
486.645	3656.19
486.863	3538.19
487.081	3421.19
487.299	3360.19
487.517	3276.19
487.735	3388.19
