Data from SnStandardFlinnAPT0064_LampEnergy10_LIBS07252019.E.O._I.C._HRD10591_15-20-09-494.txt Node
Date: Thu Jul 25 15:20:09 EDT 2019
User: cochatt
Spectrometer: HR+D1059
Trigger mode: 1
Integration Time (sec): 1.000000E-1
Scans to average: 1
Electric dark correction enabled: true
Nonlinearity correction enabled: false
Boxcar width: 0
XAxis mode: Wavelengths
Number of Pixels in Spectrum: 2048
>>>>>Begin Spectral Data<<<<<
223.165	-2.88
223.4	-2.88
223.635	-2.88
223.869	-15.88
224.104	-21.88
224.338	-15.88
224.573	-0.88
224.808	-11.88
225.042	-5.88
225.277	-5.88
225.511	-13.88
225.746	-5.88
225.98	5.12
226.215	2.12
226.449	16.12
226.683	20.12
226.918	31.12
227.152	26.12
227.387	35.12
227.621	33.12
227.856	35.12
228.09	31.12
228.324	46.12
228.559	62.12
228.793	120.12
229.027	311.12
229.262	348.12
229.496	296.12
229.73	284.12
229.964	313.12
230.199	306.12
230.433	310.12
230.667	316.12
230.901	324.12
231.136	324.12
231.37	351.12
231.604	395.12
231.838	432.12
232.072	516.12
232.306	548.12
232.541	469.12
232.775	435.12
233.009	430.12
233.243	421.12
233.477	470.12
233.711	526.12
233.945	592.12
234.179	496.12
234.413	447.12
234.647	455.12
234.881	463.12
235.115	524.12
235.349	607.12
235.583	800.12
235.817	1028.12
236.051	972.12
236.285	668.12
236.519	538.12
236.753	507.12
236.987	528.12
237.221	555.12
237.455	509.12
237.689	480.12
237.922	489.12
238.156	472.12
238.39	501.12
238.624	491.12
238.858	507.12
239.091	479.12
239.325	494.12
239.559	510.12
239.793	517.12
240.027	532.12
240.26	567.12
240.494	551.12
240.728	597.12
240.961	623.12
241.195	700.12
241.429	662.12
241.662	696.12
241.896	780.12
242.13	938.12
242.363	1284.12
242.597	1601.12
242.83	1540.12
243.064	1509.12
243.298	1809.12
243.531	1462.12
243.765	962.12
243.998	794.12
244.232	727.12
244.465	683.12
244.699	654.12
244.932	679.12
245.166	669.12
245.399	661.12
245.633	696.12
245.866	708.12
246.099	682.12
246.333	666.12
246.566	635.12
246.8	654.12
247.033	656.12
247.266	653.12
247.5	670.12
247.733	683.12
247.966	707.12
248.2	767.12
248.433	894.12
248.666	993.12
248.899	966.12
249.133	837.12
249.366	906.12
249.599	967.12
249.832	1083.12
250.066	1108.12
250.299	878.12
250.532	807.12
250.765	766.12
250.998	756.12
251.231	729.12
251.465	723.12
251.698	718.12
251.931	738.12
252.164	730.12
252.397	768.12
252.63	781.12
252.863	806.12
253.096	822.12
253.329	782.12
253.562	761.12
253.795	769.12
254.028	796.12
254.261	831.12
254.494	898.12
254.727	1019.12
254.96	1259.12
255.193	1259.12
255.426	1025.12
255.659	859.12
255.892	858.12
256.124	873.12
256.357	899.12
256.59	911.12
256.823	1001.12
257.056	1120.12
257.289	1358.12
257.521	1532.12
257.754	1208.12
257.987	989.12
258.22	905.12
258.452	933.12
258.685	938.12
258.918	953.12
259.151	996.12
259.383	1109.12
259.616	1223.12
259.849	1274.12
260.081	1103.12
260.314	998.12
260.547	972.12
260.779	955.12
261.012	950.12
261.244	947.12
261.477	959.12
261.71	972.12
261.942	991.12
262.175	990.12
262.407	1022.12
262.64	1030.12
262.872	1058.12
263.105	1137.12
263.337	1197.12
263.57	1239.12
263.802	1282.12
264.035	1291.12
264.267	1338.12
264.499	1366.12
264.732	1417.12
264.964	1456.12
265.197	1416.12
265.429	1425.12
265.661	1440.12
265.894	1522.12
266.126	1711.12
266.358	1916.12
266.591	1867.12
266.823	1608.12
267.055	1422.12
267.287	1372.12
267.52	1338.12
267.752	1289.12
267.984	1308.12
268.216	1239.12
268.448	1249.12
268.681	1192.12
268.913	1203.12
269.145	1219.12
269.377	1216.12
269.609	1250.12
269.841	1283.12
270.073	1328.12
270.306	1632.12
270.538	2128.12
270.77	3154.12
271.002	3892.12
271.234	2838.12
271.466	1884.12
271.698	1560.12
271.93	1384.12
272.162	1353.12
272.394	1322.12
272.626	1253.12
272.858	1240.12
273.09	1205.12
273.322	1215.12
273.553	1198.12
273.785	1200.12
274.017	1211.12
274.249	1192.12
274.481	1197.12
274.713	1178.12
274.945	1202.12
275.176	1239.12
275.408	1233.12
275.64	1243.12
275.872	1183.12
276.104	1252.12
276.335	1262.12
276.567	1282.12
276.799	1256.12
277.031	1275.12
277.262	1376.12
277.494	1412.12
277.726	1568.12
277.957	1838.12
278.189	2131.12
278.421	2015.12
278.652	1769.12
278.884	1761.12
279.115	1484.12
279.347	1447.12
279.579	1420.12
279.81	1396.12
280.042	1379.12
280.273	1429.12
280.505	1473.12
280.736	1479.12
280.968	1610.12
281.199	1787.12
281.431	2082.12
281.662	2131.12
281.894	1806.12
282.125	1651.12
282.356	1667.12
282.588	1696.12
282.819	1727.12
283.051	1862.12
283.282	2032.12
283.513	2513.12
283.745	3556.12
283.976	5589.12
284.207	7932.12
284.439	7274.12
284.67	4681.12
284.901	3777.12
285.132	3912.12
285.364	3656.12
285.595	2778.12
285.826	2483.12
286.057	2878.12
286.288	3928.12
286.52	5247.12
286.751	4889.12
286.982	3112.12
287.213	2330.12
287.444	2054.12
287.675	1892.12
287.906	1819.12
288.138	1692.12
288.369	1684.12
288.6	1712.12
288.831	1662.12
289.062	1681.12
289.293	1688.12
289.524	1719.12
289.755	1719.12
289.986	1693.12
290.217	1685.12
290.448	1719.12
290.679	1735.12
290.91	1801.12
291.141	1882.12
291.371	2052.12
291.602	2144.12
291.833	1900.12
292.064	1740.12
292.295	1677.12
292.526	1678.12
292.757	1620.12
292.987	1600.12
293.218	1557.12
293.449	1585.12
293.68	1563.12
293.91	1605.12
294.141	1558.12
294.372	1546.12
294.603	1566.12
294.833	1533.12
295.064	1576.12
295.295	1528.12
295.525	1554.12
295.756	1572.12
295.987	1549.12
296.217	1606.12
296.448	1588.12
296.679	1588.12
296.909	1566.12
297.14	1586.12
297.37	1620.12
297.601	1664.12
297.831	1601.12
298.062	1596.12
298.292	1638.12
298.523	1654.12
298.753	1736.12
298.984	1696.12
299.214	1746.12
299.445	1727.12
299.675	1772.12
299.905	1864.12
300.136	1906.12
300.366	2130.12
300.597	2774.12
300.827	3854.12
301.057	5214.12
301.288	5236.12
301.518	3449.12
301.748	2631.12
301.979	2351.12
302.209	2323.12
302.439	2304.12
302.669	2459.12
302.9	3003.12
303.13	4215.12
303.36	6135.12
303.59	8157.12
303.82	7198.12
304.051	4297.12
304.281	3064.12
304.511	2602.12
304.741	2325.12
304.971	2187.12
305.201	2113.12
305.431	1989.12
305.661	1988.12
305.891	1942.12
306.121	1913.12
306.352	1873.12
306.582	1864.12
306.812	1846.12
307.042	1842.12
307.272	1840.12
307.502	1834.12
307.731	1846.12
307.961	1819.12
308.191	1804.12
308.421	1788.12
308.651	1775.12
308.881	1763.12
309.111	1818.12
309.341	1778.12
309.571	1822.12
309.8	1893.12
310.03	1855.12
310.26	1843.12
310.49	1859.12
310.72	1871.12
310.949	1848.12
311.179	1844.12
311.409	1888.12
311.639	1915.12
311.868	1942.12
312.098	1903.12
312.328	1919.12
312.557	1943.12
312.787	1987.12
313.017	1942.12
313.246	2049.12
313.476	1993.12
313.706	2081.12
313.935	2185.12
314.165	2381.12
314.394	2443.12
314.624	2398.12
314.853	2182.12
315.083	2147.12
315.312	2164.12
315.542	2179.12
315.771	2209.12
316.001	2238.12
316.23	2313.12
316.46	2469.12
316.689	2695.12
316.919	3225.12
317.148	4643.12
317.377	7045.12
317.607	10278.12
317.836	10795.12
318.065	6789.12
318.295	4331.12
318.524	3462.12
318.753	2994.12
318.983	2776.12
319.212	2613.12
319.441	2540.12
319.67	2503.12
319.9	2433.12
320.129	2362.12
320.358	2331.12
320.587	2360.12
320.816	2336.12
321.046	2298.12
321.275	2364.12
321.504	2421.12
321.733	2442.12
321.962	2496.12
322.191	2457.12
322.42	2528.12
322.649	2480.12
322.878	2483.12
323.108	2489.12
323.337	2504.12
323.566	2548.12
323.795	2582.12
324.024	2711.12
324.253	2734.12
324.482	2858.12
324.71	3024.12
324.939	3200.12
325.168	3286.12
325.397	3416.12
325.626	4050.12
325.855	5626.12
326.084	8747.12
326.313	12637.12
326.542	13353.12
326.77	9249.12
326.999	6051.12
327.228	5154.12
327.457	4862.12
327.686	4770.12
327.914	5083.12
328.143	5944.12
328.372	7169.12
328.6	7772.12
328.829	6985.12
329.058	5819.12
329.287	5092.12
329.515	4620.12
329.744	4260.12
329.972	4046.12
330.201	3806.12
330.43	3705.12
330.658	3605.12
330.887	3569.12
331.115	3503.12
331.344	3490.12
331.572	3427.12
331.801	3414.12
332.03	3504.12
332.258	3577.12
332.486	3802.12
332.715	4299.12
332.943	5251.12
333.172	6589.12
333.4	6618.12
333.629	5076.12
333.857	4497.12
334.085	4490.12
334.314	4720.12
334.542	5084.12
334.771	5996.12
334.999	7359.12
335.227	9256.12
335.455	10400.12
335.684	9333.12
335.912	7618.12
336.14	6474.12
336.369	5711.12
336.597	5159.12
336.825	4850.12
337.053	4462.12
337.281	4217.12
337.51	4022.12
337.738	3842.12
337.966	3681.12
338.194	3532.12
338.422	3445.12
338.65	3315.12
338.878	3315.12
339.106	3216.12
339.334	3170.12
339.562	3115.12
339.79	3026.12
340.018	3051.12
340.246	3001.12
340.474	3014.12
340.702	2993.12
340.93	3004.12
341.158	3009.12
341.386	2991.12
341.614	2954.12
341.842	2857.12
342.07	2833.12
342.298	2804.12
342.526	2763.12
342.754	2746.12
342.981	2721.12
343.209	2662.12
343.437	2712.12
343.665	2760.12
343.893	2769.12
344.12	2772.12
344.348	2715.12
344.576	2717.12
344.804	2648.12
345.031	2590.12
345.259	2564.12
345.487	2585.12
345.714	2538.12
345.942	2535.12
346.17	2535.12
346.397	2508.12
346.625	2454.12
346.853	2536.12
347.08	2488.12
347.308	2542.12
347.535	2550.12
347.763	2516.12
347.99	2440.12
348.218	2454.12
348.445	2452.12
348.673	2444.12
348.9	2451.12
349.128	2445.12
349.355	2412.12
349.583	2418.12
349.81	2393.12
350.037	2380.12
350.265	2392.12
350.492	2386.12
350.72	2415.12
350.947	2366.12
351.174	2387.12
351.402	2354.12
351.629	2358.12
351.856	2370.12
352.083	2394.12
352.311	2361.12
352.538	2391.12
352.765	2388.12
352.992	2317.12
353.22	2345.12
353.447	2342.12
353.674	2337.12
353.901	2398.12
354.128	2417.12
354.355	2361.12
354.583	2378.12
354.81	2390.12
355.037	2405.12
355.264	2387.12
355.491	2405.12
355.718	2425.12
355.945	2399.12
356.172	2414.12
356.399	2391.12
356.626	2450.12
356.853	2520.12
357.08	2496.12
357.307	2503.12
357.534	2543.12
357.761	2592.12
357.988	2583.12
358.215	2567.12
358.441	2529.12
358.668	2542.12
358.895	2527.12
359.122	2504.12
359.349	2504.12
359.576	2533.12
359.802	2519.12
360.029	2502.12
360.256	2509.12
360.483	2516.12
360.709	2477.12
360.936	2535.12
361.163	2526.12
361.39	2522.12
361.616	2529.12
361.843	2544.12
362.07	2543.12
362.296	2518.12
362.523	2545.12
362.749	2558.12
362.976	2530.12
363.203	2487.12
363.429	2508.12
363.656	2499.12
363.882	2566.12
364.109	2534.12
364.335	2500.12
364.562	2517.12
364.788	2521.12
365.015	2561.12
365.241	2616.12
365.468	2782.12
365.694	2937.12
365.92	2802.12
366.147	2612.12
366.373	2607.12
366.599	2618.12
366.826	2552.12
367.052	2503.12
367.278	2598.12
367.505	2559.12
367.731	2565.12
367.957	2582.12
368.184	2571.12
368.41	2678.12
368.636	2645.12
368.862	2627.12
369.089	2638.12
369.315	2626.12
369.541	2592.12
369.767	2609.12
369.993	2613.12
370.219	2588.12
370.445	2547.12
370.672	2584.12
370.898	2590.12
371.124	2675.12
371.35	2699.12
371.576	2643.12
371.802	2702.12
372.028	2706.12
372.254	2746.12
372.48	2757.12
372.706	2729.12
372.932	2732.12
373.158	2741.12
373.384	2760.12
373.61	2755.12
373.835	2726.12
374.061	2810.12
374.287	2755.12
374.513	2829.12
374.739	2841.12
374.965	2805.12
375.191	2914.12
375.416	2885.12
375.642	2853.12
375.868	2770.12
376.094	2761.12
376.319	2747.12
376.545	2779.12
376.771	2706.12
376.997	2684.12
377.222	2710.12
377.448	2672.12
377.674	2719.12
377.899	2678.12
378.125	2680.12
378.35	2727.12
378.576	2742.12
378.802	2675.12
379.027	2803.12
379.253	2868.12
379.478	3028.12
379.704	3532.12
379.929	5149.12
380.155	7879.12
380.38	8649.12
380.606	5392.12
380.831	3686.12
381.057	3214.12
381.282	2963.12
381.507	2851.12
381.733	2792.12
381.958	2744.12
382.184	2675.12
382.409	2712.12
382.634	2681.12
382.86	2683.12
383.085	2656.12
383.31	2681.12
383.535	2669.12
383.761	2660.12
383.986	2688.12
384.211	2712.12
384.436	2686.12
384.662	2716.12
384.887	2748.12
385.112	2728.12
385.337	2743.12
385.562	2767.12
385.787	2770.12
386.013	2717.12
386.238	2781.12
386.463	2754.12
386.688	2737.12
386.913	2768.12
387.138	2720.12
387.363	2744.12
387.588	2675.12
387.813	2731.12
388.038	2701.12
388.263	2735.12
388.488	2708.12
388.713	2731.12
388.938	2699.12
389.163	2683.12
389.387	2793.12
389.612	2746.12
389.837	2712.12
390.062	2731.12
390.287	2785.12
390.512	2739.12
390.736	2816.12
390.961	2866.12
391.186	2817.12
391.411	2860.12
391.636	2843.12
391.86	2891.12
392.085	2864.12
392.31	2850.12
392.534	2816.12
392.759	2834.12
392.984	2825.12
393.208	2818.12
393.433	2793.12
393.658	2752.12
393.882	2731.12
394.107	2725.12
394.331	2787.12
394.556	2803.12
394.78	2828.12
395.005	2814.12
395.229	2823.12
395.454	2819.12
395.678	2854.12
395.903	2859.12
396.127	2825.12
396.352	2863.12
396.576	2830.12
396.801	2836.12
397.025	2862.12
397.249	2861.12
397.474	2879.12
397.698	2891.12
397.922	2945.12
398.147	2875.12
398.371	2944.12
398.595	2978.12
398.82	3076.12
399.044	3112.12
399.268	3302.12
399.492	3502.12
399.717	3628.12
399.941	3586.12
400.165	3497.12
400.389	3382.12
400.613	3233.12
400.837	3122.12
401.062	3081.12
401.286	3020.12
401.51	2996.12
401.734	2987.12
401.958	2999.12
402.182	3007.12
402.406	3041.12
402.63	3011.12
402.854	3073.12
403.078	3080.12
403.302	3037.12
403.526	3120.12
403.75	3131.12
403.974	3148.12
404.198	3088.12
404.422	3130.12
404.645	3081.12
404.869	3109.12
405.093	3106.12
405.317	3134.12
405.541	3179.12
405.765	3193.12
405.988	3231.12
406.212	3272.12
406.436	3176.12
406.66	3304.12
406.883	3297.12
407.107	3307.12
407.331	3388.12
407.555	3517.12
407.778	3406.12
408.002	3308.12
408.226	3315.12
408.449	3374.12
408.673	3294.12
408.896	3212.12
409.12	3169.12
409.344	3187.12
409.567	3162.12
409.791	3135.12
410.014	3130.12
410.238	3110.12
410.461	3143.12
410.685	3083.12
410.908	3075.12
411.132	3023.12
411.355	3015.12
411.578	3003.12
411.802	2974.12
412.025	3069.12
412.249	2999.12
412.472	2987.12
412.695	2972.12
412.919	2953.12
413.142	2960.12
413.365	2942.12
413.589	2977.12
413.812	2976.12
414.035	2960.12
414.258	2975.12
414.482	2970.12
414.705	2977.12
414.928	2951.12
415.151	2991.12
415.374	2960.12
415.597	2974.12
415.821	2806.12
416.044	2876.12
416.267	2832.12
416.49	2854.12
416.713	2850.12
416.936	2855.12
417.159	2827.12
417.382	2812.12
417.605	2798.12
417.828	2806.12
418.051	2900.12
418.274	2891.12
418.497	2866.12
418.72	2988.12
418.943	2859.12
419.166	3019.12
419.389	3167.12
419.611	3072.12
419.834	3098.12
420.057	2978.12
420.28	2880.12
420.503	2830.12
420.726	2814.12
420.948	2875.12
421.171	2826.12
421.394	2878.12
421.617	2887.12
421.839	2872.12
422.062	2901.12
422.285	2831.12
422.507	2882.12
422.73	2913.12
422.953	2956.12
423.175	2897.12
423.398	2967.12
423.621	2837.12
423.843	2862.12
424.066	2873.12
424.288	2840.12
424.511	2834.12
424.733	2839.12
424.956	2864.12
425.178	2811.12
425.401	2842.12
425.623	2841.12
425.846	2754.12
426.068	2776.12
426.291	2734.12
426.513	2733.12
426.735	2681.12
426.958	2682.12
427.18	2642.12
427.402	2748.12
427.625	2730.12
427.847	2610.12
428.069	2600.12
428.292	2709.12
428.514	2658.12
428.736	2644.12
428.958	2623.12
429.181	2618.12
429.403	2611.12
429.625	2610.12
429.847	2621.12
430.069	2639.12
430.292	2718.12
430.514	2852.12
430.736	2840.12
430.958	2674.12
431.18	2614.12
431.402	2576.12
431.624	2594.12
431.846	2592.12
432.068	2551.12
432.29	2650.12
432.512	2563.12
432.734	2614.12
432.956	2590.12
433.178	2618.12
433.4	2593.12
433.622	2644.12
433.844	2673.12
434.066	2598.12
434.287	2667.12
434.509	2663.12
434.731	2706.12
434.953	2700.12
435.175	2740.12
435.397	2757.12
435.618	2635.12
435.84	2611.12
436.062	2586.12
436.284	2578.12
436.505	2574.12
436.727	2601.12
436.949	2629.12
437.17	2586.12
437.392	2544.12
437.614	2576.12
437.835	2523.12
438.057	2509.12
438.278	2475.12
438.5	2568.12
438.721	2580.12
438.943	2642.12
439.165	2697.12
439.386	2736.12
439.608	2677.12
439.829	2734.12
440.05	2852.12
440.272	2846.12
440.493	2760.12
440.715	2725.12
440.936	2716.12
441.158	2688.12
441.379	2766.12
441.6	2856.12
441.822	2922.12
442.043	3003.12
442.264	3161.12
442.486	2950.12
442.707	2862.12
442.928	2785.12
443.149	2807.12
443.371	2746.12
443.592	2820.12
443.813	2833.12
444.034	2804.12
444.255	2866.12
444.476	2903.12
444.698	2926.12
444.919	2974.12
445.14	3038.12
445.361	2883.12
445.582	2849.12
445.803	2776.12
446.024	2828.12
446.245	2794.12
446.466	2782.12
446.687	2759.12
446.908	2692.12
447.129	2630.12
447.35	2636.12
447.571	2624.12
447.792	2533.12
448.013	2558.12
448.234	2568.12
448.455	2546.12
448.675	2643.12
448.896	2673.12
449.117	2727.12
449.338	2934.12
449.559	3072.12
449.779	2787.12
450	2611.12
450.221	2576.12
450.442	2544.12
450.662	2529.12
450.883	2515.12
451.104	2514.12
451.324	2519.12
451.545	2548.12
451.766	2595.12
451.986	2592.12
452.207	2840.12
452.428	3621.12
452.648	5548.12
452.869	4666.12
453.089	3211.12
453.31	2990.12
453.53	2931.12
453.751	3036.12
453.971	3180.12
454.192	3074.12
454.412	2688.12
454.633	2554.12
454.853	2526.12
455.073	2480.12
455.294	2402.12
455.514	2400.12
455.734	2405.12
455.955	2350.12
456.175	2404.12
456.395	2372.12
456.616	2407.12
456.836	2443.12
457.056	2464.12
457.276	2499.12
457.497	2604.12
457.717	2642.12
457.937	2571.12
458.157	2575.12
458.377	2548.12
458.598	2581.12
458.818	2594.12
459.038	2609.12
459.258	2530.12
459.478	2584.12
459.698	2659.12
459.918	2679.12
460.138	2692.12
460.358	2734.12
460.578	2820.12
460.798	2890.12
461.018	2852.12
461.238	2819.12
461.458	2868.12
461.678	2856.12
461.898	2945.12
462.118	2960.12
462.338	3036.12
462.558	3046.12
462.777	3138.12
462.997	3230.12
463.217	3324.12
463.437	3490.12
463.657	3530.12
463.876	3487.12
464.096	3305.12
464.316	3166.12
464.536	3138.12
464.755	3088.12
464.975	2988.12
465.195	2939.12
465.414	2833.12
465.634	2788.12
465.854	2724.12
466.073	2731.12
466.293	2630.12
466.512	2599.12
466.732	2661.12
466.951	2816.12
467.171	2958.12
467.391	2873.12
467.61	2704.12
467.829	2566.12
468.049	2597.12
468.268	2610.12
468.488	2498.12
468.707	2554.12
468.927	2585.12
469.146	2555.12
469.365	2581.12
469.585	2645.12
469.804	2656.12
470.023	2684.12
470.243	2704.12
470.462	2827.12
470.681	2998.12
470.901	3278.12
471.12	3644.12
471.339	3678.12
471.558	3088.12
471.777	2833.12
471.997	2734.12
472.216	2708.12
472.435	2642.12
472.654	2603.12
472.873	2562.12
473.092	2588.12
473.311	2591.12
473.53	2656.12
473.749	2679.12
473.968	2779.12
474.187	2637.12
474.406	2558.12
474.625	2599.12
474.844	2577.12
475.063	2602.12
475.282	2531.12
475.501	2535.12
475.72	2676.12
475.939	2664.12
476.158	2663.12
476.377	2767.12
476.596	2710.12
476.814	2758.12
477.033	2742.12
477.252	2767.12
477.471	2769.12
477.69	2828.12
477.908	2874.12
478.127	2983.12
478.346	2942.12
478.564	2962.12
478.783	3065.12
479.002	3090.12
479.22	3046.12
479.439	3037.12
479.658	3041.12
479.876	3146.12
480.095	3067.12
480.313	3199.12
480.532	3229.12
480.751	3222.12
480.969	3123.12
481.188	3140.12
481.406	3099.12
481.624	3097.12
481.843	3110.12
482.061	3184.12
482.28	3111.12
482.498	3169.12
482.717	3079.12
482.935	3138.12
483.153	3211.12
483.372	3280.12
483.59	3286.12
483.808	3303.12
484.027	3407.12
484.245	3600.12
484.463	4056.12
484.681	4432.12
484.9	4070.12
485.118	3819.12
485.336	3742.12
485.554	3806.12
485.772	4008.12
485.99	4498.12
486.209	4787.12
486.427	4065.12
486.645	3694.12
486.863	3492.12
487.081	3403.12
487.299	3367.12
487.517	3302.12
487.735	3279.12
