Data from SnStandardFlinnAPT0064_LampEnergy10_LIBS07252019.E.O._I.C._HRD10591_15-21-45-494.txt Node
Date: Thu Jul 25 15:21:45 EDT 2019
User: cochatt
Spectrometer: HR+D1059
Trigger mode: 1
Integration Time (sec): 1.000000E-1
Scans to average: 1
Electric dark correction enabled: true
Nonlinearity correction enabled: false
Boxcar width: 0
XAxis mode: Wavelengths
Number of Pixels in Spectrum: 2048
>>>>>Begin Spectral Data<<<<<
223.165	-16.12
223.4	-16.12
223.635	-16.12
223.869	-13.12
224.104	-8.12
224.338	-15.12
224.573	-22.12
224.808	-25.12
225.042	-12.12
225.277	-13.12
225.511	3.88
225.746	-0.12
225.98	12.88
226.215	12.88
226.449	8.88
226.683	19.88
226.918	28.88
227.152	37.88
227.387	36.88
227.621	37.88
227.856	39.88
228.09	60.88
228.324	53.88
228.559	56.88
228.793	122.88
229.027	303.88
229.262	334.88
229.496	296.88
229.73	311.88
229.964	308.88
230.199	300.88
230.433	316.88
230.667	309.88
230.901	312.88
231.136	310.88
231.37	340.88
231.604	396.88
231.838	443.88
232.072	518.88
232.306	536.88
232.541	466.88
232.775	407.88
233.009	418.88
233.243	407.88
233.477	456.88
233.711	514.88
233.945	585.88
234.179	519.88
234.413	450.88
234.647	459.88
234.881	484.88
235.115	514.88
235.349	621.88
235.583	766.88
235.817	976.88
236.051	935.88
236.285	641.88
236.519	515.88
236.753	497.88
236.987	505.88
237.221	540.88
237.455	506.88
237.689	474.88
237.922	462.88
238.156	504.88
238.39	484.88
238.624	527.88
238.858	491.88
239.091	498.88
239.325	498.88
239.559	499.88
239.793	529.88
240.027	532.88
240.26	535.88
240.494	548.88
240.728	621.88
240.961	622.88
241.195	644.88
241.429	694.88
241.662	705.88
241.896	789.88
242.13	932.88
242.363	1225.88
242.597	1569.88
242.83	1530.88
243.064	1525.88
243.298	1772.88
243.531	1464.88
243.765	951.88
243.998	785.88
244.232	717.88
244.465	655.88
244.699	650.88
244.932	666.88
245.166	671.88
245.399	680.88
245.633	686.88
245.866	694.88
246.099	670.88
246.333	650.88
246.566	644.88
246.8	653.88
247.033	647.88
247.266	635.88
247.5	637.88
247.733	679.88
247.966	729.88
248.2	781.88
248.433	872.88
248.666	989.88
248.899	964.88
249.133	830.88
249.366	882.88
249.599	963.88
249.832	1113.88
250.066	1088.88
250.299	856.88
250.532	779.88
250.765	769.88
250.998	749.88
251.231	738.88
251.465	743.88
251.698	743.88
251.931	756.88
252.164	719.88
252.397	765.88
252.63	788.88
252.863	807.88
253.096	789.88
253.329	779.88
253.562	781.88
253.795	788.88
254.028	779.88
254.261	813.88
254.494	892.88
254.727	1001.88
254.96	1236.88
255.193	1220.88
255.426	989.88
255.659	878.88
255.892	867.88
256.124	870.88
256.357	884.88
256.59	884.88
256.823	982.88
257.056	1138.88
257.289	1335.88
257.521	1466.88
257.754	1151.88
257.987	962.88
258.22	901.88
258.452	933.88
258.685	935.88
258.918	964.88
259.151	999.88
259.383	1130.88
259.616	1229.88
259.849	1302.88
260.081	1102.88
260.314	1005.88
260.547	955.88
260.779	958.88
261.012	963.88
261.244	983.88
261.477	979.88
261.71	975.88
261.942	1033.88
262.175	1018.88
262.407	1053.88
262.64	1071.88
262.872	1103.88
263.105	1148.88
263.337	1219.88
263.57	1296.88
263.802	1334.88
264.035	1331.88
264.267	1375.88
264.499	1391.88
264.732	1419.88
264.964	1490.88
265.197	1458.88
265.429	1512.88
265.661	1524.88
265.894	1594.88
266.126	1791.88
266.358	1964.88
266.591	1930.88
266.823	1630.88
267.055	1450.88
267.287	1414.88
267.52	1345.88
267.752	1312.88
267.984	1316.88
268.216	1283.88
268.448	1286.88
268.681	1242.88
268.913	1253.88
269.145	1266.88
269.377	1256.88
269.609	1238.88
269.841	1287.88
270.073	1355.88
270.306	1596.88
270.538	2125.88
270.77	3138.88
271.002	3882.88
271.234	2756.88
271.466	1868.88
271.698	1514.88
271.93	1363.88
272.162	1338.88
272.394	1287.88
272.626	1282.88
272.858	1246.88
273.09	1225.88
273.322	1242.88
273.553	1204.88
273.785	1220.88
274.017	1220.88
274.249	1206.88
274.481	1232.88
274.713	1175.88
274.945	1228.88
275.176	1229.88
275.408	1199.88
275.64	1227.88
275.872	1255.88
276.104	1275.88
276.335	1279.88
276.567	1255.88
276.799	1316.88
277.031	1294.88
277.262	1346.88
277.494	1384.88
277.726	1533.88
277.957	1822.88
278.189	2120.88
278.421	1988.88
278.652	1807.88
278.884	1706.88
279.115	1494.88
279.347	1437.88
279.579	1380.88
279.81	1397.88
280.042	1406.88
280.273	1439.88
280.505	1444.88
280.736	1502.88
280.968	1582.88
281.199	1792.88
281.431	2086.88
281.662	2102.88
281.894	1821.88
282.125	1679.88
282.356	1641.88
282.588	1675.88
282.819	1726.88
283.051	1795.88
283.282	2051.88
283.513	2485.88
283.745	3534.88
283.976	5526.88
284.207	7855.88
284.439	7195.88
284.67	4527.88
284.901	3708.88
285.132	3743.88
285.364	3487.88
285.595	2729.88
285.826	2420.88
286.057	2829.88
286.288	3833.88
286.52	5150.88
286.751	4777.88
286.982	3002.88
287.213	2264.88
287.444	2003.88
287.675	1855.88
287.906	1793.88
288.138	1738.88
288.369	1708.88
288.6	1728.88
288.831	1656.88
289.062	1709.88
289.293	1676.88
289.524	1711.88
289.755	1710.88
289.986	1720.88
290.217	1740.88
290.448	1705.88
290.679	1732.88
290.91	1793.88
291.141	1908.88
291.371	2054.88
291.602	2142.88
291.833	1914.88
292.064	1767.88
292.295	1696.88
292.526	1706.88
292.757	1643.88
292.987	1603.88
293.218	1619.88
293.449	1631.88
293.68	1598.88
293.91	1598.88
294.141	1612.88
294.372	1588.88
294.603	1589.88
294.833	1572.88
295.064	1573.88
295.295	1539.88
295.525	1538.88
295.756	1522.88
295.987	1549.88
296.217	1553.88
296.448	1599.88
296.679	1576.88
296.909	1584.88
297.14	1619.88
297.37	1636.88
297.601	1633.88
297.831	1630.88
298.062	1644.88
298.292	1681.88
298.523	1681.88
298.753	1722.88
298.984	1706.88
299.214	1741.88
299.445	1780.88
299.675	1789.88
299.905	1853.88
300.136	1922.88
300.366	2162.88
300.597	2733.88
300.827	3819.88
301.057	5152.88
301.288	5158.88
301.518	3390.88
301.748	2586.88
301.979	2356.88
302.209	2290.88
302.439	2285.88
302.669	2466.88
302.9	2972.88
303.13	4157.88
303.36	6043.88
303.59	8018.88
303.82	6986.88
304.051	4230.88
304.281	3025.88
304.511	2497.88
304.741	2382.88
304.971	2186.88
305.201	2086.88
305.431	2013.88
305.661	1981.88
305.891	1916.88
306.121	1934.88
306.352	1867.88
306.582	1866.88
306.812	1839.88
307.042	1865.88
307.272	1839.88
307.502	1843.88
307.731	1812.88
307.961	1805.88
308.191	1778.88
308.421	1771.88
308.651	1820.88
308.881	1806.88
309.111	1860.88
309.341	1835.88
309.571	1852.88
309.8	1881.88
310.03	1887.88
310.26	1893.88
310.49	1850.88
310.72	1901.88
310.949	1869.88
311.179	1919.88
311.409	1915.88
311.639	1933.88
311.868	1926.88
312.098	2003.88
312.328	1921.88
312.557	1972.88
312.787	1992.88
313.017	1989.88
313.246	2031.88
313.476	2020.88
313.706	2133.88
313.935	2216.88
314.165	2377.88
314.394	2472.88
314.624	2394.88
314.853	2170.88
315.083	2158.88
315.312	2154.88
315.542	2165.88
315.771	2223.88
316.001	2286.88
316.23	2355.88
316.46	2380.88
316.689	2671.88
316.919	3174.88
317.148	4572.88
317.377	6923.88
317.607	10088.88
317.836	10603.88
318.065	6500.88
318.295	4213.88
318.524	3388.88
318.753	2962.88
318.983	2770.88
319.212	2599.88
319.441	2529.88
319.67	2458.88
319.9	2390.88
320.129	2404.88
320.358	2328.88
320.587	2353.88
320.816	2359.88
321.046	2358.88
321.275	2346.88
321.504	2395.88
321.733	2462.88
321.962	2509.88
322.191	2550.88
322.42	2523.88
322.649	2498.88
322.878	2520.88
323.108	2508.88
323.337	2533.88
323.566	2559.88
323.795	2588.88
324.024	2619.88
324.253	2742.88
324.482	2886.88
324.71	3061.88
324.939	3189.88
325.168	3252.88
325.397	3389.88
325.626	3936.88
325.855	5599.88
326.084	8602.88
326.313	12508.88
326.542	13206.88
326.77	8900.88
326.999	5865.88
327.228	4911.88
327.457	4741.88
327.686	4863.88
327.914	5110.88
328.143	6041.88
328.372	7238.88
328.6	7832.88
328.829	7030.88
329.058	5847.88
329.287	5046.88
329.515	4670.88
329.744	4328.88
329.972	3998.88
330.201	3839.88
330.43	3789.88
330.658	3616.88
330.887	3616.88
331.115	3537.88
331.344	3484.88
331.572	3497.88
331.801	3534.88
332.03	3561.88
332.258	3614.88
332.486	3801.88
332.715	4312.88
332.943	5273.88
333.172	6504.88
333.4	6501.88
333.629	4968.88
333.857	4528.88
334.085	4474.88
334.314	4755.88
334.542	5146.88
334.771	6078.88
334.999	7484.88
335.227	9352.88
335.455	10485.88
335.684	9336.88
335.912	7713.88
336.14	6494.88
336.369	5750.88
336.597	5261.88
336.825	4860.88
337.053	4542.88
337.281	4278.88
337.51	4070.88
337.738	3903.88
337.966	3716.88
338.194	3621.88
338.422	3552.88
338.65	3415.88
338.878	3374.88
339.106	3242.88
339.334	3307.88
339.562	3178.88
339.79	3111.88
340.018	3128.88
340.246	3083.88
340.474	3075.88
340.702	3035.88
340.93	3042.88
341.158	3022.88
341.386	3008.88
341.614	2968.88
341.842	2901.88
342.07	2910.88
342.298	2856.88
342.526	2818.88
342.754	2782.88
342.981	2768.88
343.209	2756.88
343.437	2778.88
343.665	2809.88
343.893	2814.88
344.12	2851.88
344.348	2779.88
344.576	2763.88
344.804	2727.88
345.031	2676.88
345.259	2648.88
345.487	2578.88
345.714	2595.88
345.942	2568.88
346.17	2574.88
346.397	2556.88
346.625	2589.88
346.853	2535.88
347.08	2550.88
347.308	2530.88
347.535	2544.88
347.763	2566.88
347.99	2540.88
348.218	2522.88
348.445	2442.88
348.673	2448.88
348.9	2512.88
349.128	2491.88
349.355	2466.88
349.583	2493.88
349.81	2393.88
350.037	2404.88
350.265	2449.88
350.492	2371.88
350.72	2442.88
350.947	2407.88
351.174	2447.88
351.402	2405.88
351.629	2440.88
351.856	2424.88
352.083	2435.88
352.311	2407.88
352.538	2422.88
352.765	2422.88
352.992	2405.88
353.22	2375.88
353.447	2371.88
353.674	2418.88
353.901	2400.88
354.128	2419.88
354.355	2406.88
354.583	2452.88
354.81	2451.88
355.037	2468.88
355.264	2451.88
355.491	2456.88
355.718	2477.88
355.945	2457.88
356.172	2499.88
356.399	2471.88
356.626	2515.88
356.853	2560.88
357.08	2544.88
357.307	2558.88
357.534	2606.88
357.761	2606.88
357.988	2624.88
358.215	2591.88
358.441	2607.88
358.668	2568.88
358.895	2570.88
359.122	2574.88
359.349	2572.88
359.576	2564.88
359.802	2585.88
360.029	2557.88
360.256	2552.88
360.483	2570.88
360.709	2572.88
360.936	2597.88
361.163	2551.88
361.39	2549.88
361.616	2569.88
361.843	2588.88
362.07	2603.88
362.296	2580.88
362.523	2588.88
362.749	2607.88
362.976	2567.88
363.203	2567.88
363.429	2543.88
363.656	2570.88
363.882	2551.88
364.109	2586.88
364.335	2566.88
364.562	2535.88
364.788	2586.88
365.015	2572.88
365.241	2718.88
365.468	2823.88
365.694	2957.88
365.92	2884.88
366.147	2663.88
366.373	2638.88
366.599	2669.88
366.826	2598.88
367.052	2626.88
367.278	2647.88
367.505	2621.88
367.731	2687.88
367.957	2602.88
368.184	2618.88
368.41	2702.88
368.636	2677.88
368.862	2700.88
369.089	2708.88
369.315	2652.88
369.541	2698.88
369.767	2713.88
369.993	2686.88
370.219	2635.88
370.445	2644.88
370.672	2705.88
370.898	2688.88
371.124	2726.88
371.35	2724.88
371.576	2731.88
371.802	2746.88
372.028	2793.88
372.254	2791.88
372.48	2803.88
372.706	2846.88
372.932	2791.88
373.158	2820.88
373.384	2843.88
373.61	2829.88
373.835	2864.88
374.061	2862.88
374.287	2957.88
374.513	2867.88
374.739	2924.88
374.965	2918.88
375.191	2930.88
375.416	2921.88
375.642	2892.88
375.868	2884.88
376.094	2889.88
376.319	2841.88
376.545	2836.88
376.771	2803.88
376.997	2776.88
377.222	2783.88
377.448	2728.88
377.674	2752.88
377.899	2751.88
378.125	2791.88
378.35	2762.88
378.576	2719.88
378.802	2815.88
379.027	2817.88
379.253	2914.88
379.478	3082.88
379.704	3590.88
379.929	5143.88
380.155	7839.88
380.38	8483.88
380.606	5216.88
380.831	3700.88
381.057	3285.88
381.282	2966.88
381.507	2874.88
381.733	2830.88
381.958	2783.88
382.184	2803.88
382.409	2782.88
382.634	2726.88
382.86	2719.88
383.085	2718.88
383.31	2700.88
383.535	2708.88
383.761	2721.88
383.986	2740.88
384.211	2776.88
384.436	2797.88
384.662	2758.88
384.887	2773.88
385.112	2795.88
385.337	2781.88
385.562	2725.88
385.787	2776.88
386.013	2811.88
386.238	2761.88
386.463	2816.88
386.688	2842.88
386.913	2758.88
387.138	2765.88
387.363	2805.88
387.588	2737.88
387.813	2798.88
388.038	2804.88
388.263	2790.88
388.488	2766.88
388.713	2824.88
388.938	2783.88
389.163	2731.88
389.387	2802.88
389.612	2758.88
389.837	2800.88
390.062	2811.88
390.287	2810.88
390.512	2853.88
390.736	2863.88
390.961	2914.88
391.186	2872.88
391.411	2960.88
391.636	2926.88
391.86	2973.88
392.085	2942.88
392.31	3001.88
392.534	2899.88
392.759	2936.88
392.984	2856.88
393.208	2820.88
393.433	2887.88
393.658	2846.88
393.882	2796.88
394.107	2793.88
394.331	2792.88
394.556	2836.88
394.78	2790.88
395.005	2889.88
395.229	2840.88
395.454	2893.88
395.678	2914.88
395.903	2887.88
396.127	2898.88
396.352	2888.88
396.576	2865.88
396.801	2899.88
397.025	2942.88
397.249	2946.88
397.474	2969.88
397.698	2910.88
397.922	2998.88
398.147	2952.88
398.371	3007.88
398.595	3048.88
398.82	3126.88
399.044	3289.88
399.268	3454.88
399.492	3586.88
399.717	3692.88
399.941	3713.88
400.165	3559.88
400.389	3444.88
400.613	3270.88
400.837	3139.88
401.062	3100.88
401.286	3077.88
401.51	3062.88
401.734	3067.88
401.958	3145.88
402.182	3110.88
402.406	3056.88
402.63	3112.88
402.854	3153.88
403.078	3096.88
403.302	3176.88
403.526	3149.88
403.75	3160.88
403.974	3210.88
404.198	3156.88
404.422	3194.88
404.645	3203.88
404.869	3179.88
405.093	3238.88
405.317	3154.88
405.541	3266.88
405.765	3283.88
405.988	3329.88
406.212	3277.88
406.436	3239.88
406.66	3376.88
406.883	3294.88
407.107	3427.88
407.331	3446.88
407.555	3516.88
407.778	3500.88
408.002	3442.88
408.226	3472.88
408.449	3423.88
408.673	3356.88
408.896	3256.88
409.12	3221.88
409.344	3284.88
409.567	3221.88
409.791	3206.88
410.014	3268.88
410.238	3204.88
410.461	3207.88
410.685	3165.88
410.908	3132.88
411.132	3134.88
411.355	3070.88
411.578	3103.88
411.802	3047.88
412.025	3108.88
412.249	3110.88
412.472	3086.88
412.695	3044.88
412.919	2975.88
413.142	3054.88
413.365	3058.88
413.589	3077.88
413.812	3024.88
414.035	3082.88
414.258	3051.88
414.482	3002.88
414.705	3056.88
414.928	3072.88
415.151	3011.88
415.374	2998.88
415.597	2940.88
415.821	2935.88
416.044	2857.88
416.267	2918.88
416.49	2900.88
416.713	2885.88
416.936	2906.88
417.159	2838.88
417.382	2854.88
417.605	2855.88
417.828	2842.88
418.051	2907.88
418.274	2926.88
418.497	2956.88
418.72	2990.88
418.943	2939.88
419.166	3021.88
419.389	3240.88
419.611	3148.88
419.834	3110.88
420.057	3019.88
420.28	2978.88
420.503	2878.88
420.726	2870.88
420.948	2866.88
421.171	2889.88
421.394	2910.88
421.617	2892.88
421.839	2915.88
422.062	2979.88
422.285	2862.88
422.507	2935.88
422.73	2958.88
422.953	3010.88
423.175	2996.88
423.398	2908.88
423.621	2910.88
423.843	2921.88
424.066	2968.88
424.288	2913.88
424.511	2941.88
424.733	2915.88
424.956	2855.88
425.178	2874.88
425.401	2884.88
425.623	2872.88
425.846	2776.88
426.068	2819.88
426.291	2775.88
426.513	2748.88
426.735	2764.88
426.958	2768.88
427.18	2759.88
427.402	2749.88
427.625	2750.88
427.847	2668.88
428.069	2677.88
428.292	2711.88
428.514	2689.88
428.736	2680.88
428.958	2684.88
429.181	2627.88
429.403	2687.88
429.625	2635.88
429.847	2638.88
430.069	2671.88
430.292	2803.88
430.514	2854.88
430.736	2837.88
430.958	2720.88
431.18	2676.88
431.402	2623.88
431.624	2650.88
431.846	2680.88
432.068	2628.88
432.29	2710.88
432.512	2606.88
432.734	2663.88
432.956	2670.88
433.178	2676.88
433.4	2682.88
433.622	2667.88
433.844	2664.88
434.066	2710.88
434.287	2666.88
434.509	2770.88
434.731	2690.88
434.953	2803.88
435.175	2766.88
435.397	2776.88
435.618	2690.88
435.84	2709.88
436.062	2623.88
436.284	2631.88
436.505	2631.88
436.727	2700.88
436.949	2645.88
437.17	2654.88
437.392	2614.88
437.614	2603.88
437.835	2530.88
438.057	2546.88
438.278	2567.88
438.5	2583.88
438.721	2602.88
438.943	2689.88
439.165	2742.88
439.386	2746.88
439.608	2784.88
439.829	2774.88
440.05	2862.88
440.272	2841.88
440.493	2776.88
440.715	2708.88
440.936	2718.88
441.158	2778.88
441.379	2778.88
441.6	2922.88
441.822	2979.88
442.043	3071.88
442.264	3166.88
442.486	2925.88
442.707	2877.88
442.928	2831.88
443.149	2852.88
443.371	2788.88
443.592	2829.88
443.813	2842.88
444.034	2864.88
444.255	2891.88
444.476	2971.88
444.698	3010.88
444.919	3043.88
445.14	3114.88
445.361	3004.88
445.582	2936.88
445.803	2850.88
446.024	2785.88
446.245	2850.88
446.466	2799.88
446.687	2754.88
446.908	2780.88
447.129	2731.88
447.35	2682.88
447.571	2674.88
447.792	2617.88
448.013	2603.88
448.234	2586.88
448.455	2626.88
448.675	2669.88
448.896	2687.88
449.117	2742.88
449.338	3028.88
449.559	3153.88
449.779	2821.88
450	2605.88
450.221	2582.88
450.442	2571.88
450.662	2564.88
450.883	2543.88
451.104	2558.88
451.324	2551.88
451.545	2578.88
451.766	2582.88
451.986	2648.88
452.207	2800.88
452.428	3620.88
452.648	5496.88
452.869	4537.88
453.089	3134.88
453.31	2952.88
453.53	2951.88
453.751	3023.88
453.971	3165.88
454.192	3158.88
454.412	2681.88
454.633	2596.88
454.853	2589.88
455.073	2458.88
455.294	2454.88
455.514	2441.88
455.734	2456.88
455.955	2415.88
456.175	2453.88
456.395	2431.88
456.616	2420.88
456.836	2487.88
457.056	2499.88
457.276	2493.88
457.497	2648.88
457.717	2654.88
457.937	2599.88
458.157	2598.88
458.377	2577.88
458.598	2584.88
458.818	2646.88
459.038	2651.88
459.258	2622.88
459.478	2695.88
459.698	2671.88
459.918	2683.88
460.138	2791.88
460.358	2836.88
460.578	2866.88
460.798	2922.88
461.018	2898.88
461.238	2878.88
461.458	2920.88
461.678	2939.88
461.898	3023.88
462.118	2982.88
462.338	3098.88
462.558	3022.88
462.777	3150.88
462.997	3303.88
463.217	3334.88
463.437	3510.88
463.657	3536.88
463.876	3534.88
464.096	3389.88
464.316	3238.88
464.536	3217.88
464.755	3113.88
464.975	3030.88
465.195	2956.88
465.414	2876.88
465.634	2735.88
465.854	2777.88
466.073	2720.88
466.293	2672.88
466.512	2653.88
466.732	2686.88
466.951	2824.88
467.171	2987.88
467.391	2932.88
467.61	2673.88
467.829	2674.88
468.049	2592.88
468.268	2576.88
468.488	2598.88
468.707	2584.88
468.927	2605.88
469.146	2613.88
469.365	2630.88
469.585	2677.88
469.804	2690.88
470.023	2790.88
470.243	2823.88
470.462	2856.88
470.681	2999.88
470.901	3308.88
471.12	3708.88
471.339	3714.88
471.558	3125.88
471.777	2887.88
471.997	2793.88
472.216	2732.88
472.435	2674.88
472.654	2645.88
472.873	2612.88
473.092	2596.88
473.311	2605.88
473.53	2622.88
473.749	2704.88
473.968	2806.88
474.187	2655.88
474.406	2656.88
474.625	2631.88
474.844	2703.88
475.063	2629.88
475.282	2688.88
475.501	2640.88
475.72	2637.88
475.939	2725.88
476.158	2736.88
476.377	2802.88
476.596	2783.88
476.814	2789.88
477.033	2774.88
477.252	2790.88
477.471	2848.88
477.69	2916.88
477.908	2930.88
478.127	2977.88
478.346	2965.88
478.564	3049.88
478.783	3062.88
479.002	3111.88
479.22	3036.88
479.439	3118.88
479.658	3163.88
479.876	3186.88
480.095	3152.88
480.313	3250.88
480.532	3214.88
480.751	3260.88
480.969	3236.88
481.188	3209.88
481.406	3178.88
481.624	3141.88
481.843	3193.88
482.061	3158.88
482.28	3160.88
482.498	3162.88
482.717	3160.88
482.935	3191.88
483.153	3215.88
483.372	3291.88
483.59	3344.88
483.808	3338.88
484.027	3453.88
484.245	3621.88
484.463	4106.88
484.681	4416.88
484.9	4075.88
485.118	3883.88
485.336	3830.88
485.554	3806.88
485.772	4041.88
485.99	4506.88
486.209	4853.88
486.427	4098.88
486.645	3676.88
486.863	3547.88
487.081	3471.88
487.299	3447.88
487.517	3391.88
487.735	3328.88
