Data from SnStandardFlinnAPT0064_LampEnergy10_LIBS07252019.E.O._I.C._HRD10591_15-20-37-493.txt Node
Date: Thu Jul 25 15:20:37 EDT 2019
User: cochatt
Spectrometer: HR+D1059
Trigger mode: 1
Integration Time (sec): 1.000000E-1
Scans to average: 1
Electric dark correction enabled: true
Nonlinearity correction enabled: false
Boxcar width: 0
XAxis mode: Wavelengths
Number of Pixels in Spectrum: 2048
>>>>>Begin Spectral Data<<<<<
223.165	-20.94
223.4	-20.94
223.635	-20.94
223.869	-18.94
224.104	-21.94
224.338	-8.94
224.573	-12.94
224.808	0.06
225.042	-12.94
225.277	-4.94
225.511	-5.94
225.746	22.06
225.98	3.06
226.215	3.06
226.449	27.06
226.683	16.06
226.918	13.06
227.152	23.06
227.387	38.06
227.621	42.06
227.856	50.06
228.09	55.06
228.324	56.06
228.559	67.06
228.793	124.06
229.027	281.06
229.262	331.06
229.496	307.06
229.73	284.06
229.964	310.06
230.199	305.06
230.433	322.06
230.667	325.06
230.901	313.06
231.136	320.06
231.37	353.06
231.604	392.06
231.838	462.06
232.072	535.06
232.306	565.06
232.541	477.06
232.775	403.06
233.009	419.06
233.243	413.06
233.477	465.06
233.711	513.06
233.945	594.06
234.179	517.06
234.413	439.06
234.647	452.06
234.881	458.06
235.115	519.06
235.349	600.06
235.583	787.06
235.817	1017.06
236.051	969.06
236.285	651.06
236.519	522.06
236.753	498.06
236.987	495.06
237.221	546.06
237.455	508.06
237.689	462.06
237.922	460.06
238.156	472.06
238.39	472.06
238.624	481.06
238.858	484.06
239.091	490.06
239.325	511.06
239.559	501.06
239.793	517.06
240.027	522.06
240.26	543.06
240.494	536.06
240.728	568.06
240.961	608.06
241.195	635.06
241.429	674.06
241.662	719.06
241.896	780.06
242.13	958.06
242.363	1232.06
242.597	1625.06
242.83	1535.06
243.064	1551.06
243.298	1821.06
243.531	1521.06
243.765	986.06
243.998	773.06
244.232	714.06
244.465	682.06
244.699	641.06
244.932	635.06
245.166	663.06
245.399	655.06
245.633	682.06
245.866	687.06
246.099	671.06
246.333	645.06
246.566	634.06
246.8	626.06
247.033	643.06
247.266	656.06
247.5	662.06
247.733	648.06
247.966	689.06
248.2	769.06
248.433	877.06
248.666	1006.06
248.899	946.06
249.133	841.06
249.366	897.06
249.599	958.06
249.832	1071.06
250.066	1062.06
250.299	905.06
250.532	771.06
250.765	730.06
250.998	733.06
251.231	719.06
251.465	734.06
251.698	718.06
251.931	736.06
252.164	742.06
252.397	752.06
252.63	798.06
252.863	784.06
253.096	797.06
253.329	781.06
253.562	763.06
253.795	754.06
254.028	779.06
254.261	825.06
254.494	852.06
254.727	1036.06
254.96	1239.06
255.193	1211.06
255.426	964.06
255.659	874.06
255.892	858.06
256.124	858.06
256.357	882.06
256.59	917.06
256.823	952.06
257.056	1103.06
257.289	1344.06
257.521	1504.06
257.754	1175.06
257.987	953.06
258.22	927.06
258.452	877.06
258.685	913.06
258.918	946.06
259.151	997.06
259.383	1097.06
259.616	1227.06
259.849	1305.06
260.081	1065.06
260.314	983.06
260.547	954.06
260.779	945.06
261.012	920.06
261.244	951.06
261.477	961.06
261.71	977.06
261.942	996.06
262.175	991.06
262.407	1025.06
262.64	1035.06
262.872	1071.06
263.105	1143.06
263.337	1185.06
263.57	1246.06
263.802	1285.06
264.035	1284.06
264.267	1283.06
264.499	1355.06
264.732	1406.06
264.964	1419.06
265.197	1420.06
265.429	1417.06
265.661	1455.06
265.894	1545.06
266.126	1742.06
266.358	1931.06
266.591	1888.06
266.823	1585.06
267.055	1421.06
267.287	1388.06
267.52	1310.06
267.752	1287.06
267.984	1272.06
268.216	1231.06
268.448	1217.06
268.681	1224.06
268.913	1223.06
269.145	1209.06
269.377	1239.06
269.609	1227.06
269.841	1264.06
270.073	1384.06
270.306	1579.06
270.538	2149.06
270.77	3213.06
271.002	3979.06
271.234	2821.06
271.466	1896.06
271.698	1490.06
271.93	1386.06
272.162	1345.06
272.394	1267.06
272.626	1242.06
272.858	1218.06
273.09	1199.06
273.322	1170.06
273.553	1183.06
273.785	1190.06
274.017	1182.06
274.249	1180.06
274.481	1169.06
274.713	1222.06
274.945	1215.06
275.176	1190.06
275.408	1189.06
275.64	1239.06
275.872	1227.06
276.104	1258.06
276.335	1222.06
276.567	1299.06
276.799	1271.06
277.031	1259.06
277.262	1301.06
277.494	1374.06
277.726	1533.06
277.957	1799.06
278.189	2086.06
278.421	1945.06
278.652	1750.06
278.884	1649.06
279.115	1472.06
279.347	1433.06
279.579	1363.06
279.81	1413.06
280.042	1380.06
280.273	1445.06
280.505	1423.06
280.736	1512.06
280.968	1555.06
281.199	1753.06
281.431	2039.06
281.662	2085.06
281.894	1777.06
282.125	1629.06
282.356	1624.06
282.588	1684.06
282.819	1690.06
283.051	1781.06
283.282	1981.06
283.513	2510.06
283.745	3566.06
283.976	5646.06
284.207	7973.06
284.439	7329.06
284.67	4533.06
284.901	3733.06
285.132	3778.06
285.364	3529.06
285.595	2682.06
285.826	2410.06
286.057	2869.06
286.288	3902.06
286.52	5174.06
286.751	4850.06
286.982	3048.06
287.213	2291.06
287.444	1995.06
287.675	1827.06
287.906	1765.06
288.138	1719.06
288.369	1671.06
288.6	1655.06
288.831	1632.06
289.062	1663.06
289.293	1681.06
289.524	1675.06
289.755	1685.06
289.986	1683.06
290.217	1689.06
290.448	1703.06
290.679	1701.06
290.91	1752.06
291.141	1855.06
291.371	2031.06
291.602	2049.06
291.833	1911.06
292.064	1775.06
292.295	1657.06
292.526	1610.06
292.757	1606.06
292.987	1578.06
293.218	1611.06
293.449	1570.06
293.68	1576.06
293.91	1543.06
294.141	1581.06
294.372	1541.06
294.603	1584.06
294.833	1544.06
295.064	1569.06
295.295	1543.06
295.525	1543.06
295.756	1545.06
295.987	1521.06
296.217	1542.06
296.448	1590.06
296.679	1538.06
296.909	1554.06
297.14	1554.06
297.37	1607.06
297.601	1655.06
297.831	1600.06
298.062	1603.06
298.292	1620.06
298.523	1673.06
298.753	1695.06
298.984	1689.06
299.214	1714.06
299.445	1751.06
299.675	1785.06
299.905	1800.06
300.136	1926.06
300.366	2153.06
300.597	2731.06
300.827	3846.06
301.057	5209.06
301.288	5253.06
301.518	3399.06
301.748	2583.06
301.979	2349.06
302.209	2222.06
302.439	2286.06
302.669	2406.06
302.9	2932.06
303.13	4186.06
303.36	6160.06
303.59	8225.06
303.82	7179.06
304.051	4216.06
304.281	3030.06
304.511	2553.06
304.741	2297.06
304.971	2157.06
305.201	2050.06
305.431	1987.06
305.661	1931.06
305.891	1874.06
306.121	1872.06
306.352	1844.06
306.582	1827.06
306.812	1812.06
307.042	1831.06
307.272	1820.06
307.502	1760.06
307.731	1783.06
307.961	1773.06
308.191	1766.06
308.421	1748.06
308.651	1807.06
308.881	1750.06
309.111	1812.06
309.341	1811.06
309.571	1825.06
309.8	1840.06
310.03	1841.06
310.26	1833.06
310.49	1819.06
310.72	1848.06
310.949	1849.06
311.179	1856.06
311.409	1877.06
311.639	1880.06
311.868	1906.06
312.098	1943.06
312.328	1928.06
312.557	1949.06
312.787	1981.06
313.017	1975.06
313.246	1991.06
313.476	1967.06
313.706	2097.06
313.935	2133.06
314.165	2355.06
314.394	2444.06
314.624	2371.06
314.853	2157.06
315.083	2125.06
315.312	2126.06
315.542	2145.06
315.771	2142.06
316.001	2245.06
316.23	2309.06
316.46	2416.06
316.689	2607.06
316.919	3185.06
317.148	4672.06
317.377	7097.06
317.607	10503.06
317.836	10891.06
318.065	6524.06
318.295	4241.06
318.524	3421.06
318.753	2959.06
318.983	2707.06
319.212	2546.06
319.441	2468.06
319.67	2481.06
319.9	2371.06
320.129	2339.06
320.358	2353.06
320.587	2333.06
320.816	2317.06
321.046	2335.06
321.275	2316.06
321.504	2353.06
321.733	2397.06
321.962	2485.06
322.191	2477.06
322.42	2513.06
322.649	2457.06
322.878	2488.06
323.108	2466.06
323.337	2532.06
323.566	2491.06
323.795	2588.06
324.024	2653.06
324.253	2669.06
324.482	2793.06
324.71	2956.06
324.939	3198.06
325.168	3219.06
325.397	3381.06
325.626	3990.06
325.855	5662.06
326.084	8782.06
326.313	12676.06
326.542	13424.06
326.77	9027.06
326.999	5897.06
327.228	4981.06
327.457	4715.06
327.686	4764.06
327.914	5119.06
328.143	5915.06
328.372	7115.06
328.6	7842.06
328.829	6954.06
329.058	5842.06
329.287	4982.06
329.515	4580.06
329.744	4189.06
329.972	4036.06
330.201	3826.06
330.43	3679.06
330.658	3595.06
330.887	3491.06
331.115	3445.06
331.344	3466.06
331.572	3406.06
331.801	3394.06
332.03	3428.06
332.258	3536.06
332.486	3701.06
332.715	4219.06
332.943	5267.06
333.172	6508.06
333.4	6543.06
333.629	4948.06
333.857	4457.06
334.085	4456.06
334.314	4686.06
334.542	5043.06
334.771	6021.06
334.999	7376.06
335.227	9409.06
335.455	10465.06
335.684	9468.06
335.912	7647.06
336.14	6385.06
336.369	5652.06
336.597	5177.06
336.825	4750.06
337.053	4445.06
337.281	4235.06
337.51	3930.06
337.738	3857.06
337.966	3683.06
338.194	3555.06
338.422	3459.06
338.65	3317.06
338.878	3281.06
339.106	3153.06
339.334	3166.06
339.562	3106.06
339.79	3016.06
340.018	3038.06
340.246	2911.06
340.474	3021.06
340.702	3012.06
340.93	2993.06
341.158	3018.06
341.386	2961.06
341.614	2927.06
341.842	2888.06
342.07	2842.06
342.298	2745.06
342.526	2763.06
342.754	2698.06
342.981	2703.06
343.209	2707.06
343.437	2735.06
343.665	2755.06
343.893	2777.06
344.12	2794.06
344.348	2769.06
344.576	2639.06
344.804	2594.06
345.031	2623.06
345.259	2648.06
345.487	2528.06
345.714	2512.06
345.942	2530.06
346.17	2508.06
346.397	2450.06
346.625	2485.06
346.853	2458.06
347.08	2470.06
347.308	2504.06
347.535	2506.06
347.763	2497.06
347.99	2415.06
348.218	2429.06
348.445	2437.06
348.673	2422.06
348.9	2432.06
349.128	2398.06
349.355	2387.06
349.583	2386.06
349.81	2402.06
350.037	2351.06
350.265	2354.06
350.492	2356.06
350.72	2379.06
350.947	2383.06
351.174	2392.06
351.402	2405.06
351.629	2368.06
351.856	2358.06
352.083	2397.06
352.311	2362.06
352.538	2319.06
352.765	2329.06
352.992	2330.06
353.22	2342.06
353.447	2298.06
353.674	2368.06
353.901	2361.06
354.128	2371.06
354.355	2345.06
354.583	2405.06
354.81	2392.06
355.037	2372.06
355.264	2383.06
355.491	2418.06
355.718	2426.06
355.945	2447.06
356.172	2417.06
356.399	2418.06
356.626	2439.06
356.853	2489.06
357.08	2509.06
357.307	2455.06
357.534	2575.06
357.761	2546.06
357.988	2524.06
358.215	2527.06
358.441	2498.06
358.668	2505.06
358.895	2528.06
359.122	2495.06
359.349	2498.06
359.576	2531.06
359.802	2461.06
360.029	2474.06
360.256	2494.06
360.483	2471.06
360.709	2504.06
360.936	2546.06
361.163	2514.06
361.39	2483.06
361.616	2538.06
361.843	2546.06
362.07	2536.06
362.296	2500.06
362.523	2517.06
362.749	2541.06
362.976	2505.06
363.203	2497.06
363.429	2453.06
363.656	2517.06
363.882	2486.06
364.109	2450.06
364.335	2487.06
364.562	2510.06
364.788	2502.06
365.015	2578.06
365.241	2624.06
365.468	2749.06
365.694	2879.06
365.92	2786.06
366.147	2559.06
366.373	2557.06
366.599	2563.06
366.826	2571.06
367.052	2582.06
367.278	2581.06
367.505	2564.06
367.731	2592.06
367.957	2551.06
368.184	2605.06
368.41	2632.06
368.636	2660.06
368.862	2551.06
369.089	2610.06
369.315	2579.06
369.541	2592.06
369.767	2630.06
369.993	2582.06
370.219	2586.06
370.445	2599.06
370.672	2633.06
370.898	2619.06
371.124	2615.06
371.35	2631.06
371.576	2700.06
371.802	2721.06
372.028	2693.06
372.254	2697.06
372.48	2699.06
372.706	2731.06
372.932	2776.06
373.158	2759.06
373.384	2754.06
373.61	2733.06
373.835	2767.06
374.061	2783.06
374.287	2784.06
374.513	2779.06
374.739	2798.06
374.965	2837.06
375.191	2845.06
375.416	2842.06
375.642	2826.06
375.868	2818.06
376.094	2782.06
376.319	2737.06
376.545	2740.06
376.771	2677.06
376.997	2737.06
377.222	2690.06
377.448	2632.06
377.674	2677.06
377.899	2693.06
378.125	2721.06
378.35	2680.06
378.576	2711.06
378.802	2719.06
379.027	2768.06
379.253	2856.06
379.478	3016.06
379.704	3588.06
379.929	5162.06
380.155	7830.06
380.38	8591.06
380.606	5191.06
380.831	3635.06
381.057	3213.06
381.282	2985.06
381.507	2800.06
381.733	2783.06
381.958	2714.06
382.184	2677.06
382.409	2703.06
382.634	2666.06
382.86	2631.06
383.085	2653.06
383.31	2650.06
383.535	2648.06
383.761	2656.06
383.986	2633.06
384.211	2711.06
384.436	2783.06
384.662	2760.06
384.887	2743.06
385.112	2694.06
385.337	2721.06
385.562	2759.06
385.787	2756.06
386.013	2799.06
386.238	2768.06
386.463	2753.06
386.688	2735.06
386.913	2706.06
387.138	2736.06
387.363	2745.06
387.588	2715.06
387.813	2677.06
388.038	2657.06
388.263	2714.06
388.488	2770.06
388.713	2721.06
388.938	2684.06
389.163	2699.06
389.387	2717.06
389.612	2670.06
389.837	2749.06
390.062	2758.06
390.287	2747.06
390.512	2774.06
390.736	2763.06
390.961	2778.06
391.186	2823.06
391.411	2881.06
391.636	2876.06
391.86	2862.06
392.085	2833.06
392.31	2833.06
392.534	2843.06
392.759	2799.06
392.984	2786.06
393.208	2804.06
393.433	2823.06
393.658	2769.06
393.882	2757.06
394.107	2745.06
394.331	2779.06
394.556	2759.06
394.78	2783.06
395.005	2741.06
395.229	2778.06
395.454	2767.06
395.678	2856.06
395.903	2877.06
396.127	2873.06
396.352	2839.06
396.576	2800.06
396.801	2827.06
397.025	2860.06
397.249	2883.06
397.474	2890.06
397.698	2902.06
397.922	2856.06
398.147	2904.06
398.371	2937.06
398.595	2948.06
398.82	3043.06
399.044	3175.06
399.268	3318.06
399.492	3443.06
399.717	3605.06
399.941	3641.06
400.165	3442.06
400.389	3341.06
400.613	3225.06
400.837	3149.06
401.062	3099.06
401.286	3023.06
401.51	2975.06
401.734	2962.06
401.958	3058.06
402.182	2976.06
402.406	3001.06
402.63	3002.06
402.854	3029.06
403.078	2978.06
403.302	3097.06
403.526	3086.06
403.75	3162.06
403.974	3149.06
404.198	3147.06
404.422	3153.06
404.645	3110.06
404.869	3127.06
405.093	3178.06
405.317	3135.06
405.541	3146.06
405.765	3198.06
405.988	3248.06
406.212	3140.06
406.436	3157.06
406.66	3294.06
406.883	3258.06
407.107	3275.06
407.331	3357.06
407.555	3459.06
407.778	3431.06
408.002	3349.06
408.226	3359.06
408.449	3317.06
408.673	3230.06
408.896	3205.06
409.12	3211.06
409.344	3208.06
409.567	3139.06
409.791	3113.06
410.014	3160.06
410.238	3059.06
410.461	3134.06
410.685	3092.06
410.908	3104.06
411.132	3036.06
411.355	2998.06
411.578	2992.06
411.802	2949.06
412.025	3004.06
412.249	3014.06
412.472	3014.06
412.695	3023.06
412.919	2911.06
413.142	2894.06
413.365	2922.06
413.589	2978.06
413.812	2905.06
414.035	2956.06
414.258	2969.06
414.482	2978.06
414.705	2943.06
414.928	2974.06
415.151	2934.06
415.374	2922.06
415.597	2898.06
415.821	2848.06
416.044	2823.06
416.267	2807.06
416.49	2811.06
416.713	2805.06
416.936	2846.06
417.159	2807.06
417.382	2819.06
417.605	2839.06
417.828	2801.06
418.051	2845.06
418.274	2851.06
418.497	2877.06
418.72	2970.06
418.943	2888.06
419.166	3031.06
419.389	3145.06
419.611	3102.06
419.834	3006.06
420.057	2958.06
420.28	2918.06
420.503	2853.06
420.726	2841.06
420.948	2833.06
421.171	2835.06
421.394	2874.06
421.617	2783.06
421.839	2860.06
422.062	2889.06
422.285	2854.06
422.507	2894.06
422.73	2901.06
422.953	2951.06
423.175	2904.06
423.398	2882.06
423.621	2815.06
423.843	2831.06
424.066	2866.06
424.288	2813.06
424.511	2815.06
424.733	2872.06
424.956	2820.06
425.178	2837.06
425.401	2827.06
425.623	2799.06
425.846	2725.06
426.068	2755.06
426.291	2707.06
426.513	2720.06
426.735	2727.06
426.958	2691.06
427.18	2677.06
427.402	2684.06
427.625	2713.06
427.847	2663.06
428.069	2658.06
428.292	2687.06
428.514	2642.06
428.736	2647.06
428.958	2618.06
429.181	2584.06
429.403	2599.06
429.625	2658.06
429.847	2614.06
430.069	2687.06
430.292	2712.06
430.514	2793.06
430.736	2804.06
430.958	2681.06
431.18	2612.06
431.402	2655.06
431.624	2614.06
431.846	2558.06
432.068	2621.06
432.29	2626.06
432.512	2519.06
432.734	2593.06
432.956	2581.06
433.178	2582.06
433.4	2572.06
433.622	2661.06
433.844	2662.06
434.066	2593.06
434.287	2597.06
434.509	2649.06
434.731	2679.06
434.953	2731.06
435.175	2742.06
435.397	2699.06
435.618	2650.06
435.84	2607.06
436.062	2581.06
436.284	2607.06
436.505	2547.06
436.727	2626.06
436.949	2593.06
437.17	2576.06
437.392	2612.06
437.614	2557.06
437.835	2485.06
438.057	2506.06
438.278	2537.06
438.5	2565.06
438.721	2591.06
438.943	2635.06
439.165	2724.06
439.386	2731.06
439.608	2671.06
439.829	2681.06
440.05	2793.06
440.272	2829.06
440.493	2774.06
440.715	2671.06
440.936	2699.06
441.158	2693.06
441.379	2730.06
441.6	2824.06
441.822	2906.06
442.043	3042.06
442.264	3139.06
442.486	2953.06
442.707	2845.06
442.928	2784.06
443.149	2773.06
443.371	2758.06
443.592	2763.06
443.813	2806.06
444.034	2797.06
444.255	2866.06
444.476	2889.06
444.698	2940.06
444.919	3047.06
445.14	3056.06
445.361	2888.06
445.582	2897.06
445.803	2815.06
446.024	2763.06
446.245	2759.06
446.466	2792.06
446.687	2723.06
446.908	2722.06
447.129	2618.06
447.35	2617.06
447.571	2625.06
447.792	2506.06
448.013	2568.06
448.234	2523.06
448.455	2591.06
448.675	2574.06
448.896	2632.06
449.117	2767.06
449.338	2932.06
449.559	3098.06
449.779	2771.06
450	2594.06
450.221	2555.06
450.442	2533.06
450.662	2487.06
450.883	2534.06
451.104	2553.06
451.324	2478.06
451.545	2481.06
451.766	2488.06
451.986	2579.06
452.207	2774.06
452.428	3592.06
452.648	5518.06
452.869	4588.06
453.089	3108.06
453.31	2957.06
453.53	2901.06
453.751	3028.06
453.971	3219.06
454.192	3121.06
454.412	2678.06
454.633	2568.06
454.853	2454.06
455.073	2375.06
455.294	2417.06
455.514	2375.06
455.734	2396.06
455.955	2380.06
456.175	2372.06
456.395	2402.06
456.616	2397.06
456.836	2440.06
457.056	2504.06
457.276	2445.06
457.497	2590.06
457.717	2618.06
457.937	2520.06
458.157	2489.06
458.377	2547.06
458.598	2549.06
458.818	2590.06
459.038	2555.06
459.258	2532.06
459.478	2640.06
459.698	2656.06
459.918	2632.06
460.138	2685.06
460.358	2755.06
460.578	2819.06
460.798	2800.06
461.018	2821.06
461.238	2788.06
461.458	2839.06
461.678	2844.06
461.898	2967.06
462.118	2971.06
462.338	3037.06
462.558	3063.06
462.777	3126.06
462.997	3189.06
463.217	3323.06
463.437	3479.06
463.657	3585.06
463.876	3550.06
464.096	3342.06
464.316	3173.06
464.536	3134.06
464.755	3053.06
464.975	2999.06
465.195	2881.06
465.414	2828.06
465.634	2735.06
465.854	2675.06
466.073	2702.06
466.293	2629.06
466.512	2673.06
466.732	2683.06
466.951	2773.06
467.171	2981.06
467.391	2848.06
467.61	2680.06
467.829	2615.06
468.049	2543.06
468.268	2528.06
468.488	2535.06
468.707	2502.06
468.927	2518.06
469.146	2533.06
469.365	2584.06
469.585	2593.06
469.804	2705.06
470.023	2697.06
470.243	2755.06
470.462	2848.06
470.681	2956.06
470.901	3271.06
471.12	3794.06
471.339	3761.06
471.558	3112.06
471.777	2849.06
471.997	2722.06
472.216	2695.06
472.435	2614.06
472.654	2567.06
472.873	2541.06
473.092	2565.06
473.311	2570.06
473.53	2645.06
473.749	2650.06
473.968	2787.06
474.187	2625.06
474.406	2574.06
474.625	2563.06
474.844	2576.06
475.063	2579.06
475.282	2589.06
475.501	2590.06
475.72	2610.06
475.939	2660.06
476.158	2694.06
476.377	2695.06
476.596	2706.06
476.814	2697.06
477.033	2757.06
477.252	2735.06
477.471	2786.06
477.69	2835.06
477.908	2903.06
478.127	2887.06
478.346	2933.06
478.564	2945.06
478.783	2989.06
479.002	3070.06
479.22	3075.06
479.439	3062.06
479.658	3042.06
479.876	3041.06
480.095	3140.06
480.313	3169.06
480.532	3201.06
480.751	3222.06
480.969	3130.06
481.188	3135.06
481.406	3093.06
481.624	3113.06
481.843	3143.06
482.061	3148.06
482.28	3130.06
482.498	3104.06
482.717	3138.06
482.935	3140.06
483.153	3201.06
483.372	3237.06
483.59	3250.06
483.808	3307.06
484.027	3342.06
484.245	3578.06
484.463	4049.06
484.681	4465.06
484.9	4056.06
485.118	3788.06
485.336	3712.06
485.554	3815.06
485.772	3987.06
485.99	4538.06
486.209	4882.06
486.427	4105.06
486.645	3625.06
486.863	3491.06
487.081	3441.06
487.299	3369.06
487.517	3312.06
487.735	3349.06
