Data from SnStandardFlinnAPT0064_LampEnergy10_LIBS07252019.E.O._I.C._HRD10591_15-22-21-494.txt Node
Date: Thu Jul 25 15:22:21 EDT 2019
User: cochatt
Spectrometer: HR+D1059
Trigger mode: 1
Integration Time (sec): 1.000000E-1
Scans to average: 1
Electric dark correction enabled: true
Nonlinearity correction enabled: false
Boxcar width: 0
XAxis mode: Wavelengths
Number of Pixels in Spectrum: 2048
>>>>>Begin Spectral Data<<<<<
223.165	-1.31
223.4	-1.31
223.635	-1.31
223.869	-22.31
224.104	-32.31
224.338	-15.31
224.573	-25.31
224.808	-13.31
225.042	-7.31
225.277	14.69
225.511	5.69
225.746	12.69
225.98	3.69
226.215	5.69
226.449	2.69
226.683	19.69
226.918	23.69
227.152	28.69
227.387	19.69
227.621	33.69
227.856	55.69
228.09	42.69
228.324	63.69
228.559	61.69
228.793	123.69
229.027	296.69
229.262	329.69
229.496	305.69
229.73	282.69
229.964	301.69
230.199	325.69
230.433	301.69
230.667	302.69
230.901	314.69
231.136	327.69
231.37	339.69
231.604	387.69
231.838	409.69
232.072	502.69
232.306	524.69
232.541	456.69
232.775	406.69
233.009	421.69
233.243	405.69
233.477	454.69
233.711	504.69
233.945	560.69
234.179	485.69
234.413	437.69
234.647	445.69
234.881	454.69
235.115	490.69
235.349	603.69
235.583	762.69
235.817	971.69
236.051	946.69
236.285	618.69
236.519	509.69
236.753	475.69
236.987	483.69
237.221	516.69
237.455	501.69
237.689	443.69
237.922	431.69
238.156	439.69
238.39	490.69
238.624	480.69
238.858	485.69
239.091	486.69
239.325	479.69
239.559	494.69
239.793	481.69
240.027	515.69
240.26	507.69
240.494	562.69
240.728	580.69
240.961	578.69
241.195	634.69
241.429	668.69
241.662	699.69
241.896	737.69
242.13	907.69
242.363	1214.69
242.597	1567.69
242.83	1478.69
243.064	1478.69
243.298	1737.69
243.531	1443.69
243.765	938.69
243.998	758.69
244.232	689.69
244.465	683.69
244.699	637.69
244.932	641.69
245.166	654.69
245.399	651.69
245.633	676.69
245.866	648.69
246.099	661.69
246.333	629.69
246.566	633.69
246.8	616.69
247.033	647.69
247.266	632.69
247.5	633.69
247.733	682.69
247.966	683.69
248.2	744.69
248.433	844.69
248.666	977.69
248.899	926.69
249.133	847.69
249.366	853.69
249.599	926.69
249.832	1044.69
250.066	1055.69
250.299	837.69
250.532	775.69
250.765	730.69
250.998	751.69
251.231	721.69
251.465	694.69
251.698	719.69
251.931	726.69
252.164	720.69
252.397	737.69
252.63	779.69
252.863	785.69
253.096	744.69
253.329	760.69
253.562	769.69
253.795	795.69
254.028	790.69
254.261	827.69
254.494	872.69
254.727	1001.69
254.96	1146.69
255.193	1177.69
255.426	955.69
255.659	875.69
255.892	844.69
256.124	854.69
256.357	898.69
256.59	913.69
256.823	959.69
257.056	1077.69
257.289	1297.69
257.521	1455.69
257.754	1166.69
257.987	951.69
258.22	893.69
258.452	870.69
258.685	884.69
258.918	924.69
259.151	974.69
259.383	1043.69
259.616	1201.69
259.849	1242.69
260.081	1064.69
260.314	1000.69
260.547	943.69
260.779	917.69
261.012	960.69
261.244	940.69
261.477	945.69
261.71	990.69
261.942	994.69
262.175	1002.69
262.407	1046.69
262.64	1070.69
262.872	1095.69
263.105	1167.69
263.337	1162.69
263.57	1261.69
263.802	1313.69
264.035	1330.69
264.267	1353.69
264.499	1341.69
264.732	1412.69
264.964	1433.69
265.197	1423.69
265.429	1425.69
265.661	1465.69
265.894	1557.69
266.126	1786.69
266.358	1943.69
266.591	1880.69
266.823	1601.69
267.055	1483.69
267.287	1367.69
267.52	1328.69
267.752	1286.69
267.984	1285.69
268.216	1273.69
268.448	1241.69
268.681	1218.69
268.913	1208.69
269.145	1207.69
269.377	1225.69
269.609	1246.69
269.841	1266.69
270.073	1360.69
270.306	1605.69
270.538	2104.69
270.77	3099.69
271.002	3761.69
271.234	2607.69
271.466	1809.69
271.698	1499.69
271.93	1366.69
272.162	1311.69
272.394	1268.69
272.626	1210.69
272.858	1225.69
273.09	1210.69
273.322	1181.69
273.553	1200.69
273.785	1206.69
274.017	1187.69
274.249	1198.69
274.481	1174.69
274.713	1190.69
274.945	1170.69
275.176	1183.69
275.408	1201.69
275.64	1190.69
275.872	1206.69
276.104	1247.69
276.335	1281.69
276.567	1297.69
276.799	1255.69
277.031	1286.69
277.262	1305.69
277.494	1380.69
277.726	1535.69
277.957	1787.69
278.189	2050.69
278.421	1929.69
278.652	1664.69
278.884	1624.69
279.115	1458.69
279.347	1421.69
279.579	1393.69
279.81	1366.69
280.042	1389.69
280.273	1376.69
280.505	1431.69
280.736	1471.69
280.968	1553.69
281.199	1712.69
281.431	1995.69
281.662	2055.69
281.894	1728.69
282.125	1611.69
282.356	1604.69
282.588	1600.69
282.819	1701.69
283.051	1793.69
283.282	1967.69
283.513	2406.69
283.745	3439.69
283.976	5457.69
284.207	7705.69
284.439	6989.69
284.67	4341.69
284.901	3610.69
285.132	3573.69
285.364	3435.69
285.595	2621.69
285.826	2363.69
286.057	2709.69
286.288	3705.69
286.52	4989.69
286.751	4639.69
286.982	2963.69
287.213	2262.69
287.444	1953.69
287.675	1855.69
287.906	1737.69
288.138	1694.69
288.369	1693.69
288.6	1675.69
288.831	1653.69
289.062	1661.69
289.293	1667.69
289.524	1654.69
289.755	1678.69
289.986	1704.69
290.217	1655.69
290.448	1671.69
290.679	1719.69
290.91	1741.69
291.141	1903.69
291.371	2018.69
291.602	2093.69
291.833	1937.69
292.064	1719.69
292.295	1683.69
292.526	1633.69
292.757	1625.69
292.987	1569.69
293.218	1560.69
293.449	1576.69
293.68	1586.69
293.91	1556.69
294.141	1535.69
294.372	1543.69
294.603	1552.69
294.833	1553.69
295.064	1573.69
295.295	1518.69
295.525	1519.69
295.756	1544.69
295.987	1541.69
296.217	1561.69
296.448	1575.69
296.679	1559.69
296.909	1573.69
297.14	1574.69
297.37	1618.69
297.601	1573.69
297.831	1606.69
298.062	1601.69
298.292	1634.69
298.523	1648.69
298.753	1700.69
298.984	1669.69
299.214	1692.69
299.445	1715.69
299.675	1749.69
299.905	1823.69
300.136	1903.69
300.366	2077.69
300.597	2685.69
300.827	3779.69
301.057	5039.69
301.288	5060.69
301.518	3285.69
301.748	2490.69
301.979	2283.69
302.209	2232.69
302.439	2256.69
302.669	2423.69
302.9	2888.69
303.13	4069.69
303.36	5951.69
303.59	7929.69
303.82	6837.69
304.051	4021.69
304.281	2910.69
304.511	2445.69
304.741	2207.69
304.971	2183.69
305.201	2054.69
305.431	1956.69
305.661	1925.69
305.891	1841.69
306.121	1858.69
306.352	1850.69
306.582	1850.69
306.812	1846.69
307.042	1808.69
307.272	1882.69
307.502	1792.69
307.731	1786.69
307.961	1796.69
308.191	1787.69
308.421	1795.69
308.651	1798.69
308.881	1763.69
309.111	1789.69
309.341	1810.69
309.571	1795.69
309.8	1803.69
310.03	1817.69
310.26	1793.69
310.49	1829.69
310.72	1838.69
310.949	1866.69
311.179	1860.69
311.409	1877.69
311.639	1933.69
311.868	1907.69
312.098	1916.69
312.328	1913.69
312.557	1907.69
312.787	1956.69
313.017	1961.69
313.246	1964.69
313.476	1991.69
313.706	2051.69
313.935	2190.69
314.165	2335.69
314.394	2453.69
314.624	2291.69
314.853	2134.69
315.083	2153.69
315.312	2165.69
315.542	2143.69
315.771	2159.69
316.001	2203.69
316.23	2328.69
316.46	2417.69
316.689	2629.69
316.919	3121.69
317.148	4497.69
317.377	6853.69
317.607	10049.69
317.836	10339.69
318.065	6289.69
318.295	4163.69
318.524	3336.69
318.753	2868.69
318.983	2651.69
319.212	2509.69
319.441	2441.69
319.67	2402.69
319.9	2355.69
320.129	2333.69
320.358	2322.69
320.587	2324.69
320.816	2316.69
321.046	2343.69
321.275	2317.69
321.504	2347.69
321.733	2422.69
321.962	2443.69
322.191	2509.69
322.42	2475.69
322.649	2469.69
322.878	2477.69
323.108	2440.69
323.337	2478.69
323.566	2464.69
323.795	2570.69
324.024	2666.69
324.253	2708.69
324.482	2789.69
324.71	2955.69
324.939	3117.69
325.168	3222.69
325.397	3336.69
325.626	3945.69
325.855	5441.69
326.084	8426.69
326.313	12333.69
326.542	13024.69
326.77	8674.69
326.999	5697.69
327.228	4793.69
327.457	4583.69
327.686	4665.69
327.914	5012.69
328.143	5834.69
328.372	6903.69
328.6	7587.69
328.829	6813.69
329.058	5712.69
329.287	4927.69
329.515	4545.69
329.744	4173.69
329.972	4005.69
330.201	3789.69
330.43	3708.69
330.658	3547.69
330.887	3506.69
331.115	3462.69
331.344	3467.69
331.572	3420.69
331.801	3455.69
332.03	3485.69
332.258	3566.69
332.486	3714.69
332.715	4239.69
332.943	5226.69
333.172	6376.69
333.4	6337.69
333.629	4758.69
333.857	4400.69
334.085	4360.69
334.314	4554.69
334.542	5010.69
334.771	5853.69
334.999	7261.69
335.227	9139.69
335.455	10110.69
335.684	9099.69
335.912	7527.69
336.14	6301.69
336.369	5535.69
336.597	5187.69
336.825	4734.69
337.053	4405.69
337.281	4199.69
337.51	3949.69
337.738	3769.69
337.966	3717.69
338.194	3578.69
338.422	3468.69
338.65	3391.69
338.878	3296.69
339.106	3216.69
339.334	3153.69
339.562	3121.69
339.79	3066.69
340.018	3118.69
340.246	3032.69
340.474	3016.69
340.702	2995.69
340.93	3033.69
341.158	3026.69
341.386	2975.69
341.614	2985.69
341.842	2916.69
342.07	2826.69
342.298	2801.69
342.526	2768.69
342.754	2719.69
342.981	2728.69
343.209	2718.69
343.437	2777.69
343.665	2758.69
343.893	2809.69
344.12	2826.69
344.348	2730.69
344.576	2728.69
344.804	2721.69
345.031	2585.69
345.259	2574.69
345.487	2578.69
345.714	2586.69
345.942	2547.69
346.17	2513.69
346.397	2490.69
346.625	2506.69
346.853	2496.69
347.08	2516.69
347.308	2515.69
347.535	2520.69
347.763	2538.69
347.99	2490.69
348.218	2457.69
348.445	2416.69
348.673	2475.69
348.9	2455.69
349.128	2455.69
349.355	2436.69
349.583	2465.69
349.81	2413.69
350.037	2406.69
350.265	2378.69
350.492	2402.69
350.72	2365.69
350.947	2403.69
351.174	2379.69
351.402	2403.69
351.629	2354.69
351.856	2369.69
352.083	2400.69
352.311	2367.69
352.538	2340.69
352.765	2325.69
352.992	2374.69
353.22	2391.69
353.447	2347.69
353.674	2384.69
353.901	2376.69
354.128	2423.69
354.355	2358.69
354.583	2371.69
354.81	2388.69
355.037	2426.69
355.264	2424.69
355.491	2387.69
355.718	2426.69
355.945	2430.69
356.172	2465.69
356.399	2445.69
356.626	2481.69
356.853	2500.69
357.08	2437.69
357.307	2514.69
357.534	2585.69
357.761	2561.69
357.988	2597.69
358.215	2556.69
358.441	2523.69
358.668	2532.69
358.895	2579.69
359.122	2526.69
359.349	2490.69
359.576	2498.69
359.802	2574.69
360.029	2524.69
360.256	2513.69
360.483	2566.69
360.709	2549.69
360.936	2507.69
361.163	2494.69
361.39	2521.69
361.616	2544.69
361.843	2521.69
362.07	2580.69
362.296	2575.69
362.523	2537.69
362.749	2530.69
362.976	2541.69
363.203	2527.69
363.429	2460.69
363.656	2563.69
363.882	2529.69
364.109	2509.69
364.335	2538.69
364.562	2529.69
364.788	2507.69
365.015	2585.69
365.241	2665.69
365.468	2798.69
365.694	2925.69
365.92	2850.69
366.147	2633.69
366.373	2618.69
366.599	2593.69
366.826	2590.69
367.052	2562.69
367.278	2629.69
367.505	2590.69
367.731	2650.69
367.957	2619.69
368.184	2633.69
368.41	2623.69
368.636	2648.69
368.862	2645.69
369.089	2670.69
369.315	2597.69
369.541	2613.69
369.767	2644.69
369.993	2634.69
370.219	2597.69
370.445	2647.69
370.672	2659.69
370.898	2663.69
371.124	2690.69
371.35	2705.69
371.576	2714.69
371.802	2703.69
372.028	2762.69
372.254	2763.69
372.48	2764.69
372.706	2746.69
372.932	2807.69
373.158	2797.69
373.384	2814.69
373.61	2759.69
373.835	2805.69
374.061	2857.69
374.287	2811.69
374.513	2842.69
374.739	2889.69
374.965	2882.69
375.191	2879.69
375.416	2914.69
375.642	2833.69
375.868	2869.69
376.094	2806.69
376.319	2804.69
376.545	2744.69
376.771	2761.69
376.997	2686.69
377.222	2713.69
377.448	2709.69
377.674	2708.69
377.899	2681.69
378.125	2799.69
378.35	2721.69
378.576	2721.69
378.802	2756.69
379.027	2854.69
379.253	2891.69
379.478	3038.69
379.704	3567.69
379.929	5037.69
380.155	7711.69
380.38	8235.69
380.606	5091.69
380.831	3651.69
381.057	3160.69
381.282	2890.69
381.507	2862.69
381.733	2755.69
381.958	2760.69
382.184	2688.69
382.409	2707.69
382.634	2689.69
382.86	2680.69
383.085	2623.69
383.31	2634.69
383.535	2641.69
383.761	2654.69
383.986	2685.69
384.211	2706.69
384.436	2739.69
384.662	2728.69
384.887	2795.69
385.112	2769.69
385.337	2743.69
385.562	2776.69
385.787	2778.69
386.013	2763.69
386.238	2785.69
386.463	2736.69
386.688	2772.69
386.913	2778.69
387.138	2753.69
387.363	2802.69
387.588	2755.69
387.813	2734.69
388.038	2801.69
388.263	2746.69
388.488	2789.69
388.713	2757.69
388.938	2710.69
389.163	2744.69
389.387	2779.69
389.612	2709.69
389.837	2778.69
390.062	2771.69
390.287	2772.69
390.512	2760.69
390.736	2847.69
390.961	2857.69
391.186	2865.69
391.411	2968.69
391.636	2896.69
391.86	2878.69
392.085	2906.69
392.31	2889.69
392.534	2895.69
392.759	2828.69
392.984	2823.69
393.208	2863.69
393.433	2887.69
393.658	2827.69
393.882	2805.69
394.107	2764.69
394.331	2763.69
394.556	2786.69
394.78	2805.69
395.005	2879.69
395.229	2813.69
395.454	2877.69
395.678	2942.69
395.903	2923.69
396.127	2913.69
396.352	2828.69
396.576	2858.69
396.801	2873.69
397.025	2872.69
397.249	2897.69
397.474	2954.69
397.698	2924.69
397.922	2949.69
398.147	2943.69
398.371	2964.69
398.595	2969.69
398.82	3103.69
399.044	3154.69
399.268	3318.69
399.492	3525.69
399.717	3654.69
399.941	3654.69
400.165	3528.69
400.389	3338.69
400.613	3205.69
400.837	3121.69
401.062	3138.69
401.286	3088.69
401.51	3041.69
401.734	3088.69
401.958	3041.69
402.182	3066.69
402.406	3074.69
402.63	3017.69
402.854	3045.69
403.078	3144.69
403.302	3099.69
403.526	3180.69
403.75	3189.69
403.974	3124.69
404.198	3147.69
404.422	3161.69
404.645	3149.69
404.869	3127.69
405.093	3128.69
405.317	3124.69
405.541	3242.69
405.765	3261.69
405.988	3247.69
406.212	3239.69
406.436	3255.69
406.66	3288.69
406.883	3265.69
407.107	3365.69
407.331	3457.69
407.555	3423.69
407.778	3407.69
408.002	3404.69
408.226	3367.69
408.449	3389.69
408.673	3346.69
408.896	3207.69
409.12	3213.69
409.344	3259.69
409.567	3121.69
409.791	3183.69
410.014	3122.69
410.238	3115.69
410.461	3165.69
410.685	3091.69
410.908	3089.69
411.132	3058.69
411.355	3001.69
411.578	3047.69
411.802	3069.69
412.025	3037.69
412.249	3025.69
412.472	3029.69
412.695	3001.69
412.919	2935.69
413.142	3016.69
413.365	2982.69
413.589	3028.69
413.812	2962.69
414.035	3011.69
414.258	2937.69
414.482	2967.69
414.705	2990.69
414.928	3015.69
415.151	2983.69
415.374	2973.69
415.597	2907.69
415.821	2865.69
416.044	2843.69
416.267	2882.69
416.49	2904.69
416.713	2877.69
416.936	2853.69
417.159	2856.69
417.382	2814.69
417.605	2775.69
417.828	2825.69
418.051	2872.69
418.274	2916.69
418.497	2865.69
418.72	2917.69
418.943	2893.69
419.166	3080.69
419.389	3181.69
419.611	3117.69
419.834	3071.69
420.057	2985.69
420.28	2954.69
420.503	2840.69
420.726	2854.69
420.948	2855.69
421.171	2912.69
421.394	2885.69
421.617	2837.69
421.839	2776.69
422.062	2920.69
422.285	2798.69
422.507	2916.69
422.73	2916.69
422.953	2934.69
423.175	2976.69
423.398	2943.69
423.621	2894.69
423.843	2865.69
424.066	2902.69
424.288	2819.69
424.511	2839.69
424.733	2797.69
424.956	2839.69
425.178	2794.69
425.401	2851.69
425.623	2846.69
425.846	2762.69
426.068	2738.69
426.291	2771.69
426.513	2790.69
426.735	2704.69
426.958	2776.69
427.18	2730.69
427.402	2744.69
427.625	2700.69
427.847	2641.69
428.069	2691.69
428.292	2693.69
428.514	2656.69
428.736	2635.69
428.958	2658.69
429.181	2575.69
429.403	2607.69
429.625	2637.69
429.847	2635.69
430.069	2673.69
430.292	2785.69
430.514	2829.69
430.736	2884.69
430.958	2690.69
431.18	2615.69
431.402	2634.69
431.624	2624.69
431.846	2618.69
432.068	2586.69
432.29	2632.69
432.512	2588.69
432.734	2650.69
432.956	2611.69
433.178	2673.69
433.4	2631.69
433.622	2649.69
433.844	2638.69
434.066	2631.69
434.287	2641.69
434.509	2649.69
434.731	2699.69
434.953	2687.69
435.175	2760.69
435.397	2777.69
435.618	2657.69
435.84	2650.69
436.062	2657.69
436.284	2621.69
436.505	2617.69
436.727	2612.69
436.949	2610.69
437.17	2582.69
437.392	2560.69
437.614	2501.69
437.835	2459.69
438.057	2545.69
438.278	2550.69
438.5	2555.69
438.721	2564.69
438.943	2697.69
439.165	2694.69
439.386	2684.69
439.608	2713.69
439.829	2706.69
440.05	2825.69
440.272	2803.69
440.493	2721.69
440.715	2716.69
440.936	2663.69
441.158	2737.69
441.379	2726.69
441.6	2800.69
441.822	2917.69
442.043	3034.69
442.264	3129.69
442.486	2907.69
442.707	2786.69
442.928	2839.69
443.149	2789.69
443.371	2786.69
443.592	2808.69
443.813	2839.69
444.034	2830.69
444.255	2881.69
444.476	2962.69
444.698	2939.69
444.919	3038.69
445.14	3061.69
445.361	2986.69
445.582	2889.69
445.803	2854.69
446.024	2803.69
446.245	2782.69
446.466	2743.69
446.687	2725.69
446.908	2703.69
447.129	2659.69
447.35	2652.69
447.571	2614.69
447.792	2549.69
448.013	2618.69
448.234	2565.69
448.455	2630.69
448.675	2629.69
448.896	2636.69
449.117	2759.69
449.338	2943.69
449.559	3027.69
449.779	2770.69
450	2585.69
450.221	2565.69
450.442	2526.69
450.662	2541.69
450.883	2493.69
451.104	2504.69
451.324	2486.69
451.545	2518.69
451.766	2594.69
451.986	2599.69
452.207	2727.69
452.428	3519.69
452.648	5361.69
452.869	4430.69
453.089	3109.69
453.31	2961.69
453.53	2926.69
453.751	3005.69
453.971	3063.69
454.192	3044.69
454.412	2683.69
454.633	2484.69
454.853	2492.69
455.073	2400.69
455.294	2407.69
455.514	2450.69
455.734	2399.69
455.955	2378.69
456.175	2406.69
456.395	2341.69
456.616	2455.69
456.836	2447.69
457.056	2443.69
457.276	2437.69
457.497	2612.69
457.717	2651.69
457.937	2548.69
458.157	2582.69
458.377	2554.69
458.598	2562.69
458.818	2556.69
459.038	2581.69
459.258	2605.69
459.478	2663.69
459.698	2650.69
459.918	2721.69
460.138	2703.69
460.358	2817.69
460.578	2816.69
460.798	2803.69
461.018	2845.69
461.238	2861.69
461.458	2815.69
461.678	2906.69
461.898	2953.69
462.118	2973.69
462.338	3041.69
462.558	3074.69
462.777	3148.69
462.997	3250.69
463.217	3305.69
463.437	3482.69
463.657	3543.69
463.876	3433.69
464.096	3255.69
464.316	3192.69
464.536	3125.69
464.755	3027.69
464.975	2979.69
465.195	2856.69
465.414	2772.69
465.634	2703.69
465.854	2709.69
466.073	2697.69
466.293	2644.69
466.512	2635.69
466.732	2677.69
466.951	2811.69
467.171	2975.69
467.391	2881.69
467.61	2695.69
467.829	2671.69
468.049	2572.69
468.268	2477.69
468.488	2509.69
468.707	2563.69
468.927	2518.69
469.146	2525.69
469.365	2578.69
469.585	2595.69
469.804	2637.69
470.023	2718.69
470.243	2714.69
470.462	2865.69
470.681	2949.69
470.901	3221.69
471.12	3705.69
471.339	3705.69
471.558	3118.69
471.777	2857.69
471.997	2751.69
472.216	2693.69
472.435	2640.69
472.654	2633.69
472.873	2563.69
473.092	2583.69
473.311	2557.69
473.53	2606.69
473.749	2685.69
473.968	2787.69
474.187	2637.69
474.406	2561.69
474.625	2607.69
474.844	2583.69
475.063	2550.69
475.282	2624.69
475.501	2589.69
475.72	2626.69
475.939	2655.69
476.158	2706.69
476.377	2804.69
476.596	2733.69
476.814	2688.69
477.033	2759.69
477.252	2757.69
477.471	2814.69
477.69	2895.69
477.908	2884.69
478.127	2911.69
478.346	2942.69
478.564	3002.69
478.783	2998.69
479.002	3030.69
479.22	3009.69
479.439	3117.69
479.658	3027.69
479.876	3035.69
480.095	3151.69
480.313	3202.69
480.532	3205.69
480.751	3229.69
480.969	3177.69
481.188	3137.69
481.406	3111.69
481.624	3129.69
481.843	3155.69
482.061	3139.69
482.28	3081.69
482.498	3160.69
482.717	3145.69
482.935	3121.69
483.153	3208.69
483.372	3235.69
483.59	3276.69
483.808	3271.69
484.027	3356.69
484.245	3589.69
484.463	4021.69
484.681	4412.69
484.9	4043.69
485.118	3753.69
485.336	3685.69
485.554	3759.69
485.772	3967.69
485.99	4400.69
486.209	4770.69
486.427	4039.69
486.645	3634.69
486.863	3498.69
487.081	3468.69
487.299	3364.69
487.517	3375.69
487.735	3357.69
487.953	3356.69
