Data from SnStandardFlinnAPT0064_QswitchEnergy10_LIBS07252019.E.O._I.C._HRD10591_15-27-03-974.txt Node
Date: Thu Jul 25 15:27:03 EDT 2019
User: cochatt
Spectrometer: HR+D1059
Trigger mode: 1
Integration Time (sec): 1.000000E-1
Scans to average: 1
Electric dark correction enabled: true
Nonlinearity correction enabled: false
Boxcar width: 0
XAxis mode: Wavelengths
Number of Pixels in Spectrum: 2048
>>>>>Begin Spectral Data<<<<<
223.165	-16.06
223.4	-16.06
223.635	-16.06
223.869	-21.06
224.104	-32.06
224.338	-3.06
224.573	-14.06
224.808	-23.06
225.042	-11.06
225.277	-19.06
225.511	7.94
225.746	8.94
225.98	8.94
226.215	8.94
226.449	24.94
226.683	15.94
226.918	27.94
227.152	35.94
227.387	27.94
227.621	41.94
227.856	47.94
228.09	39.94
228.324	40.94
228.559	52.94
228.793	52.94
229.027	76.94
229.262	84.94
229.496	82.94
229.73	84.94
229.964	73.94
230.199	75.94
230.433	86.94
230.667	80.94
230.901	94.94
231.136	87.94
231.37	89.94
231.604	89.94
231.838	92.94
232.072	97.94
232.306	109.94
232.541	103.94
232.775	91.94
233.009	80.94
233.243	85.94
233.477	81.94
233.711	92.94
233.945	85.94
234.179	96.94
234.413	77.94
234.647	78.94
234.881	91.94
235.115	87.94
235.349	77.94
235.583	95.94
235.817	117.94
236.051	118.94
236.285	79.94
236.519	81.94
236.753	84.94
236.987	86.94
237.221	83.94
237.455	92.94
237.689	76.94
237.922	63.94
238.156	83.94
238.39	85.94
238.624	92.94
238.858	85.94
239.091	73.94
239.325	70.94
239.559	73.94
239.793	78.94
240.027	84.94
240.26	69.94
240.494	84.94
240.728	74.94
240.961	77.94
241.195	99.94
241.429	97.94
241.662	86.94
241.896	88.94
242.13	102.94
242.363	128.94
242.597	158.94
242.83	136.94
243.064	139.94
243.298	169.94
243.531	170.94
243.765	100.94
243.998	70.94
244.232	76.94
244.465	76.94
244.699	79.94
244.932	65.94
245.166	85.94
245.399	94.94
245.633	88.94
245.866	87.94
246.099	87.94
246.333	106.94
246.566	89.94
246.8	97.94
247.033	73.94
247.266	86.94
247.5	85.94
247.733	89.94
247.966	76.94
248.2	83.94
248.433	99.94
248.666	144.94
248.899	119.94
249.133	86.94
249.366	99.94
249.599	112.94
249.832	129.94
250.066	102.94
250.299	90.94
250.532	96.94
250.765	79.94
250.998	79.94
251.231	84.94
251.465	77.94
251.698	83.94
251.931	88.94
252.164	85.94
252.397	88.94
252.63	90.94
252.863	106.94
253.096	98.94
253.329	101.94
253.562	81.94
253.795	109.94
254.028	98.94
254.261	95.94
254.494	104.94
254.727	122.94
254.96	140.94
255.193	144.94
255.426	103.94
255.659	85.94
255.892	93.94
256.124	98.94
256.357	101.94
256.59	96.94
256.823	97.94
257.056	114.94
257.289	133.94
257.521	164.94
257.754	125.94
257.987	95.94
258.22	84.94
258.452	73.94
258.685	76.94
258.918	86.94
259.151	93.94
259.383	112.94
259.616	135.94
259.849	146.94
260.081	103.94
260.314	101.94
260.547	80.94
260.779	91.94
261.012	86.94
261.244	79.94
261.477	86.94
261.71	97.94
261.942	90.94
262.175	84.94
262.407	100.94
262.64	80.94
262.872	70.94
263.105	88.94
263.337	87.94
263.57	107.94
263.802	93.94
264.035	84.94
264.267	67.94
264.499	85.94
264.732	102.94
264.964	85.94
265.197	89.94
265.429	87.94
265.661	80.94
265.894	98.94
266.126	126.94
266.358	157.94
266.591	150.94
266.823	102.94
267.055	80.94
267.287	90.94
267.52	82.94
267.752	91.94
267.984	96.94
268.216	87.94
268.448	92.94
268.681	97.94
268.913	84.94
269.145	87.94
269.377	94.94
269.609	99.94
269.841	89.94
270.073	94.94
270.306	127.94
270.538	184.94
270.77	297.94
271.002	353.94
271.234	180.94
271.466	114.94
271.698	102.94
271.93	90.94
272.162	77.94
272.394	85.94
272.626	96.94
272.858	92.94
273.09	88.94
273.322	94.94
273.553	97.94
273.785	90.94
274.017	80.94
274.249	77.94
274.481	106.94
274.713	82.94
274.945	84.94
275.176	103.94
275.408	96.94
275.64	96.94
275.872	102.94
276.104	98.94
276.335	107.94
276.567	101.94
276.799	85.94
277.031	87.94
277.262	94.94
277.494	102.94
277.726	113.94
277.957	154.94
278.189	215.94
278.421	211.94
278.652	177.94
278.884	183.94
279.115	122.94
279.347	115.94
279.579	86.94
279.81	84.94
280.042	104.94
280.273	103.94
280.505	104.94
280.736	109.94
280.968	121.94
281.199	147.94
281.431	205.94
281.662	250.94
281.894	154.94
282.125	116.94
282.356	98.94
282.588	93.94
282.819	97.94
283.051	110.94
283.282	127.94
283.513	164.94
283.745	290.94
283.976	506.94
284.207	740.94
284.439	556.94
284.67	251.94
284.901	215.94
285.132	311.94
285.364	361.94
285.595	209.94
285.826	160.94
286.057	240.94
286.288	377.94
286.52	604.94
286.751	453.94
286.982	185.94
287.213	116.94
287.444	112.94
287.675	96.94
287.906	98.94
288.138	89.94
288.369	91.94
288.6	95.94
288.831	96.94
289.062	90.94
289.293	94.94
289.524	90.94
289.755	99.94
289.986	97.94
290.217	90.94
290.448	91.94
290.679	108.94
290.91	116.94
291.141	152.94
291.371	201.94
291.602	239.94
291.833	165.94
292.064	104.94
292.295	98.94
292.526	104.94
292.757	93.94
292.987	88.94
293.218	87.94
293.449	99.94
293.68	90.94
293.91	85.94
294.141	90.94
294.372	101.94
294.603	88.94
294.833	107.94
295.064	98.94
295.295	93.94
295.525	92.94
295.756	86.94
295.987	77.94
296.217	105.94
296.448	96.94
296.679	100.94
296.909	89.94
297.14	111.94
297.37	104.94
297.601	103.94
297.831	83.94
298.062	102.94
298.292	96.94
298.523	100.94
298.753	106.94
298.984	105.94
299.214	105.94
299.445	104.94
299.675	106.94
299.905	124.94
300.136	129.94
300.366	152.94
300.597	247.94
300.827	406.94
301.057	635.94
301.288	581.94
301.518	231.94
301.748	149.94
301.979	115.94
302.209	116.94
302.439	124.94
302.669	151.94
302.9	249.94
303.13	438.94
303.36	819.94
303.59	1104.94
303.82	776.94
304.051	268.94
304.281	143.94
304.511	133.94
304.741	101.94
304.971	107.94
305.201	108.94
305.431	90.94
305.661	118.94
305.891	107.94
306.121	111.94
306.352	107.94
306.582	91.94
306.812	111.94
307.042	120.94
307.272	108.94
307.502	111.94
307.731	98.94
307.961	91.94
308.191	81.94
308.421	102.94
308.651	101.94
308.881	100.94
309.111	94.94
309.341	110.94
309.571	106.94
309.8	104.94
310.03	113.94
310.26	98.94
310.49	98.94
310.72	108.94
310.949	97.94
311.179	101.94
311.409	103.94
311.639	111.94
311.868	105.94
312.098	111.94
312.328	100.94
312.557	108.94
312.787	107.94
313.017	119.94
313.246	105.94
313.476	104.94
313.706	111.94
313.935	147.94
314.165	175.94
314.394	198.94
314.624	161.94
314.853	117.94
315.083	128.94
315.312	128.94
315.542	132.94
315.771	122.94
316.001	123.94
316.23	114.94
316.46	137.94
316.689	175.94
316.919	233.94
317.148	448.94
317.377	815.94
317.607	1358.94
317.836	1285.94
318.065	487.94
318.295	198.94
318.524	142.94
318.753	133.94
318.983	122.94
319.212	128.94
319.441	114.94
319.67	116.94
319.9	103.94
320.129	108.94
320.358	110.94
320.587	115.94
320.816	115.94
321.046	135.94
321.275	127.94
321.504	122.94
321.733	139.94
321.962	150.94
322.191	163.94
322.42	140.94
322.649	99.94
322.878	97.94
323.108	120.94
323.337	127.94
323.566	116.94
323.795	119.94
324.024	116.94
324.253	121.94
324.482	160.94
324.71	195.94
324.939	247.94
325.168	201.94
325.397	172.94
325.626	240.94
325.855	426.94
326.084	849.94
326.313	1433.94
326.542	1461.94
326.77	566.94
326.999	226.94
327.228	197.94
327.457	194.94
327.686	200.94
327.914	143.94
328.143	127.94
328.372	118.94
328.6	134.94
328.829	114.94
329.058	118.94
329.287	123.94
329.515	115.94
329.744	104.94
329.972	113.94
330.201	128.94
330.43	100.94
330.658	112.94
330.887	124.94
331.115	123.94
331.344	121.94
331.572	120.94
331.801	115.94
332.03	115.94
332.258	121.94
332.486	151.94
332.715	277.94
332.943	445.94
333.172	680.94
333.4	627.94
333.629	232.94
333.857	141.94
334.085	122.94
334.314	120.94
334.542	113.94
334.771	118.94
334.999	115.94
335.227	129.94
335.455	127.94
335.684	111.94
335.912	119.94
336.14	114.94
336.369	119.94
336.597	106.94
336.825	106.94
337.053	107.94
337.281	114.94
337.51	92.94
337.738	118.94
337.966	103.94
338.194	100.94
338.422	102.94
338.65	100.94
338.878	128.94
339.106	104.94
339.334	115.94
339.562	112.94
339.79	103.94
340.018	99.94
340.246	112.94
340.474	117.94
340.702	97.94
340.93	111.94
341.158	99.94
341.386	101.94
341.614	113.94
341.842	120.94
342.07	100.94
342.298	131.94
342.526	118.94
342.754	105.94
342.981	113.94
343.209	108.94
343.437	115.94
343.665	97.94
343.893	115.94
344.12	119.94
344.348	102.94
344.576	108.94
344.804	100.94
345.031	97.94
345.259	116.94
345.487	116.94
345.714	104.94
345.942	100.94
346.17	113.94
346.397	94.94
346.625	90.94
346.853	107.94
347.08	110.94
347.308	91.94
347.535	99.94
347.763	100.94
347.99	108.94
348.218	107.94
348.445	116.94
348.673	123.94
348.9	111.94
349.128	111.94
349.355	120.94
349.583	123.94
349.81	122.94
350.037	122.94
350.265	113.94
350.492	111.94
350.72	116.94
350.947	111.94
351.174	114.94
351.402	115.94
351.629	114.94
351.856	115.94
352.083	91.94
352.311	105.94
352.538	110.94
352.765	115.94
352.992	91.94
353.22	93.94
353.447	111.94
353.674	106.94
353.901	100.94
354.128	118.94
354.355	109.94
354.583	109.94
354.81	108.94
355.037	102.94
355.264	103.94
355.491	104.94
355.718	111.94
355.945	99.94
356.172	86.94
356.399	94.94
356.626	109.94
356.853	126.94
357.08	111.94
357.307	97.94
357.534	103.94
357.761	94.94
357.988	98.94
358.215	96.94
358.441	104.94
358.668	88.94
358.895	112.94
359.122	111.94
359.349	117.94
359.576	113.94
359.802	111.94
360.029	114.94
360.256	106.94
360.483	115.94
360.709	107.94
360.936	112.94
361.163	117.94
361.39	107.94
361.616	103.94
361.843	102.94
362.07	100.94
362.296	107.94
362.523	113.94
362.749	105.94
362.976	90.94
363.203	96.94
363.429	113.94
363.656	103.94
363.882	108.94
364.109	111.94
364.335	99.94
364.562	88.94
364.788	100.94
365.015	105.94
365.241	123.94
365.468	163.94
365.694	213.94
365.92	188.94
366.147	103.94
366.373	113.94
366.599	99.94
366.826	102.94
367.052	105.94
367.278	101.94
367.505	108.94
367.731	109.94
367.957	114.94
368.184	117.94
368.41	109.94
368.636	121.94
368.862	105.94
369.089	104.94
369.315	98.94
369.541	111.94
369.767	98.94
369.993	111.94
370.219	109.94
370.445	115.94
370.672	92.94
370.898	100.94
371.124	103.94
371.35	112.94
371.576	108.94
371.802	99.94
372.028	105.94
372.254	111.94
372.48	99.94
372.706	107.94
372.932	100.94
373.158	109.94
373.384	106.94
373.61	106.94
373.835	119.94
374.061	97.94
374.287	122.94
374.513	108.94
374.739	117.94
374.965	105.94
375.191	99.94
375.416	107.94
375.642	115.94
375.868	113.94
376.094	97.94
376.319	98.94
376.545	112.94
376.771	106.94
376.997	100.94
377.222	99.94
377.448	115.94
377.674	107.94
377.899	116.94
378.125	99.94
378.35	123.94
378.576	103.94
378.802	122.94
379.027	111.94
379.253	116.94
379.478	182.94
379.704	285.94
379.929	714.94
380.155	1383.94
380.38	1470.94
380.606	463.94
380.831	177.94
381.057	124.94
381.282	120.94
381.507	120.94
381.733	112.94
381.958	112.94
382.184	102.94
382.409	95.94
382.634	97.94
382.86	101.94
383.085	98.94
383.31	92.94
383.535	108.94
383.761	111.94
383.986	113.94
384.211	101.94
384.436	113.94
384.662	86.94
384.887	103.94
385.112	89.94
385.337	107.94
385.562	99.94
385.787	98.94
386.013	108.94
386.238	112.94
386.463	100.94
386.688	91.94
386.913	91.94
387.138	104.94
387.363	100.94
387.588	115.94
387.813	115.94
388.038	104.94
388.263	113.94
388.488	108.94
388.713	81.94
388.938	97.94
389.163	91.94
389.387	103.94
389.612	101.94
389.837	97.94
390.062	93.94
390.287	98.94
390.512	100.94
390.736	92.94
390.961	120.94
391.186	99.94
391.411	98.94
391.636	100.94
391.86	99.94
392.085	103.94
392.31	99.94
392.534	82.94
392.759	94.94
392.984	96.94
393.208	100.94
393.433	120.94
393.658	129.94
393.882	101.94
394.107	105.94
394.331	90.94
394.556	98.94
394.78	102.94
395.005	88.94
395.229	104.94
395.454	104.94
395.678	98.94
395.903	103.94
396.127	93.94
396.352	96.94
396.576	113.94
396.801	98.94
397.025	100.94
397.249	104.94
397.474	92.94
397.698	90.94
397.922	91.94
398.147	84.94
398.371	100.94
398.595	103.94
398.82	101.94
399.044	107.94
399.268	97.94
399.492	97.94
399.717	100.94
399.941	104.94
400.165	99.94
400.389	96.94
400.613	108.94
400.837	88.94
401.062	95.94
401.286	109.94
401.51	107.94
401.734	83.94
401.958	104.94
402.182	89.94
402.406	94.94
402.63	102.94
402.854	92.94
403.078	85.94
403.302	104.94
403.526	101.94
403.75	91.94
403.974	96.94
404.198	101.94
404.422	108.94
404.645	101.94
404.869	105.94
405.093	99.94
405.317	107.94
405.541	119.94
405.765	108.94
405.988	145.94
406.212	109.94
406.436	106.94
406.66	98.94
406.883	83.94
407.107	100.94
407.331	103.94
407.555	90.94
407.778	90.94
408.002	96.94
408.226	90.94
408.449	103.94
408.673	115.94
408.896	82.94
409.12	102.94
409.344	103.94
409.567	99.94
409.791	102.94
410.014	112.94
410.238	103.94
410.461	92.94
410.685	101.94
410.908	104.94
411.132	99.94
411.355	104.94
411.578	109.94
411.802	100.94
412.025	100.94
412.249	86.94
412.472	96.94
412.695	105.94
412.919	96.94
413.142	97.94
413.365	85.94
413.589	109.94
413.812	100.94
414.035	109.94
414.258	107.94
414.482	108.94
414.705	101.94
414.928	106.94
415.151	101.94
415.374	102.94
415.597	92.94
415.821	89.94
416.044	103.94
416.267	99.94
416.49	98.94
416.713	100.94
416.936	104.94
417.159	83.94
417.382	87.94
417.605	87.94
417.828	84.94
418.051	104.94
418.274	95.94
418.497	108.94
418.72	102.94
418.943	86.94
419.166	101.94
419.389	104.94
419.611	103.94
419.834	106.94
420.057	107.94
420.28	95.94
420.503	104.94
420.726	95.94
420.948	104.94
421.171	97.94
421.394	90.94
421.617	89.94
421.839	84.94
422.062	88.94
422.285	105.94
422.507	104.94
422.73	117.94
422.953	123.94
423.175	99.94
423.398	97.94
423.621	94.94
423.843	98.94
424.066	104.94
424.288	97.94
424.511	89.94
424.733	93.94
424.956	85.94
425.178	87.94
425.401	90.94
425.623	99.94
425.846	92.94
426.068	87.94
426.291	76.94
426.513	96.94
426.735	84.94
426.958	102.94
427.18	87.94
427.402	93.94
427.625	90.94
427.847	100.94
428.069	99.94
428.292	96.94
428.514	106.94
428.736	94.94
428.958	91.94
429.181	100.94
429.403	92.94
429.625	111.94
429.847	91.94
430.069	99.94
430.292	103.94
430.514	96.94
430.736	101.94
430.958	77.94
431.18	92.94
431.402	82.94
431.624	91.94
431.846	100.94
432.068	95.94
432.29	81.94
432.512	106.94
432.734	103.94
432.956	114.94
433.178	109.94
433.4	94.94
433.622	101.94
433.844	93.94
434.066	83.94
434.287	111.94
434.509	98.94
434.731	97.94
434.953	91.94
435.175	93.94
435.397	99.94
435.618	91.94
435.84	89.94
436.062	92.94
436.284	87.94
436.505	87.94
436.727	94.94
436.949	89.94
437.17	93.94
437.392	97.94
437.614	92.94
437.835	96.94
438.057	94.94
438.278	114.94
438.5	104.94
438.721	100.94
438.943	90.94
439.165	123.94
439.386	99.94
439.608	111.94
439.829	106.94
440.05	116.94
440.272	121.94
440.493	103.94
440.715	83.94
440.936	101.94
441.158	101.94
441.379	86.94
441.6	78.94
441.822	97.94
442.043	120.94
442.264	141.94
442.486	127.94
442.707	88.94
442.928	92.94
443.149	88.94
443.371	98.94
443.592	102.94
443.813	92.94
444.034	97.94
444.255	108.94
444.476	99.94
444.698	98.94
444.919	93.94
445.14	205.94
445.361	154.94
445.582	92.94
445.803	84.94
446.024	98.94
446.245	85.94
446.466	104.94
446.687	100.94
446.908	105.94
447.129	90.94
447.35	88.94
447.571	113.94
447.792	109.94
448.013	80.94
448.234	83.94
448.455	104.94
448.675	96.94
448.896	100.94
449.117	115.94
449.338	133.94
449.559	150.94
449.779	115.94
450	103.94
450.221	97.94
450.442	115.94
450.662	94.94
450.883	100.94
451.104	106.94
451.324	112.94
451.545	102.94
451.766	123.94
451.986	121.94
452.207	197.94
452.428	462.94
452.648	1147.94
452.869	647.94
453.089	181.94
453.31	109.94
453.53	105.94
453.751	156.94
453.971	149.94
454.192	139.94
454.412	102.94
454.633	93.94
454.853	100.94
455.073	103.94
455.294	86.94
455.514	103.94
455.734	92.94
455.955	83.94
456.175	94.94
456.395	94.94
456.616	101.94
456.836	89.94
457.056	106.94
457.276	98.94
457.497	107.94
457.717	120.94
457.937	97.94
458.157	104.94
458.377	92.94
458.598	90.94
458.818	92.94
459.038	83.94
459.258	84.94
459.478	100.94
459.698	93.94
459.918	86.94
460.138	86.94
460.358	96.94
460.578	90.94
460.798	86.94
461.018	110.94
461.238	85.94
461.458	101.94
461.678	102.94
461.898	73.94
462.118	84.94
462.338	95.94
462.558	100.94
462.777	89.94
462.997	84.94
463.217	105.94
463.437	122.94
463.657	175.94
463.876	164.94
464.096	120.94
464.316	111.94
464.536	105.94
464.755	90.94
464.975	101.94
465.195	85.94
465.414	97.94
465.634	99.94
465.854	102.94
466.073	92.94
466.293	95.94
466.512	87.94
466.732	109.94
466.951	117.94
467.171	145.94
467.391	142.94
467.61	94.94
467.829	89.94
468.049	96.94
468.268	94.94
468.488	86.94
468.707	96.94
468.927	91.94
469.146	100.94
469.365	101.94
469.585	85.94
469.804	86.94
470.023	98.94
470.243	92.94
470.462	101.94
470.681	93.94
470.901	115.94
471.12	173.94
471.339	202.94
471.558	135.94
471.777	107.94
471.997	114.94
472.216	89.94
472.435	97.94
472.654	94.94
472.873	112.94
473.092	98.94
473.311	97.94
473.53	101.94
473.749	108.94
473.968	101.94
474.187	99.94
474.406	92.94
474.625	102.94
474.844	94.94
475.063	92.94
475.282	106.94
475.501	96.94
475.72	95.94
475.939	96.94
476.158	98.94
476.377	108.94
476.596	113.94
476.814	95.94
477.033	97.94
477.252	88.94
477.471	101.94
477.69	98.94
477.908	100.94
478.127	97.94
478.346	89.94
478.564	93.94
478.783	96.94
479.002	98.94
479.22	98.94
479.439	100.94
479.658	113.94
479.876	89.94
480.095	80.94
480.313	93.94
480.532	96.94
480.751	107.94
480.969	83.94
481.188	95.94
481.406	98.94
481.624	104.94
481.843	107.94
482.061	93.94
482.28	107.94
482.498	97.94
482.717	92.94
482.935	108.94
483.153	104.94
483.372	102.94
483.59	97.94
483.808	98.94
484.027	113.94
484.245	115.94
484.463	164.94
484.681	235.94
484.9	146.94
485.118	88.94
485.336	100.94
485.554	119.94
485.772	121.94
485.99	175.94
486.209	223.94
486.427	157.94
486.645	118.94
486.863	111.94
487.081	97.94
487.299	93.94
487.517	93.94
487.735	99.94
487.953	107.94
488.171	105.94
488.389	103.94
488.607	112.94
488.825	103.94
489.043	87.94
489.261	105.94
489.479	78.94
489.696	100.94
489.914	95.94
490.132	107.94
490.35	96.94
490.568	95.94
490.786	103.94
491.003	107.94
491.221	99.94
491.439	100.94
491.657	100.94
491.874	103.94
492.092	115.94
492.31	105.94
492.527	103.94
492.745	99.94
492.963	101.94
493.18	104.94
493.398	109.94
493.615	103.94
493.833	88.94
494.05	109.94
494.268	114.94
494.485	91.94
494.703	103.94
494.92	87.94
495.138	89.94
495.355	96.94
495.573	112.94
495.79	108.94
496.008	113.94
496.225	109.94
496.442	111.94
496.66	106.94
496.877	161.94
497.094	158.94
497.312	100.94
497.529	103.94
497.746	97.94
497.963	95.94
498.181	99.94
498.398	99.94
498.615	105.94
498.832	102.94
499.049	104.94
499.267	147.94
499.484	159.94
499.701	129.94
499.918	103.94
500.135	92.94
500.352	95.94
500.569	111.94
500.786	95.94
501.003	112.94
501.22	96.94
501.437	90.94
501.654	86.94
501.871	112.94
502.088	92.94
502.305	97.94
502.522	100.94
502.739	93.94
502.956	95.94
503.172	93.94
503.389	111.94
503.606	104.94
503.823	83.94
504.04	102.94
504.256	91.94
504.473	95.94
504.69	96.94
504.907	120.94
505.123	108.94
505.34	106.94
505.557	88.94
505.773	112.94
505.99	108.94
506.207	86.94
506.423	113.94
506.64	113.94
506.856	99.94
507.073	98.94
507.289	94.94
507.506	109.94
507.722	102.94
507.939	99.94
508.155	99.94
508.372	120.94
508.588	91.94
508.805	97.94
