Data from SnStandardFlinnAPT0064_LampEnergy10_LIBS07252019.E.O._I.C._HRD10591_15-21-26-494.txt Node
Date: Thu Jul 25 15:21:26 EDT 2019
User: cochatt
Spectrometer: HR+D1059
Trigger mode: 1
Integration Time (sec): 1.000000E-1
Scans to average: 1
Electric dark correction enabled: true
Nonlinearity correction enabled: false
Boxcar width: 0
XAxis mode: Wavelengths
Number of Pixels in Spectrum: 2048
>>>>>Begin Spectral Data<<<<<
223.165	-5.69
223.4	-5.69
223.635	-5.69
223.869	-8.69
224.104	-23.69
224.338	-14.69
224.573	4.31
224.808	-14.69
225.042	-8.69
225.277	-16.69
225.511	-1.69
225.746	-2.69
225.98	4.31
226.215	2.31
226.449	5.31
226.683	20.31
226.918	35.31
227.152	25.31
227.387	21.31
227.621	36.31
227.856	34.31
228.09	44.31
228.324	44.31
228.559	52.31
228.793	123.31
229.027	324.31
229.262	318.31
229.496	295.31
229.73	279.31
229.964	299.31
230.199	306.31
230.433	305.31
230.667	319.31
230.901	315.31
231.136	324.31
231.37	339.31
231.604	379.31
231.838	435.31
232.072	500.31
232.306	564.31
232.541	478.31
232.775	427.31
233.009	402.31
233.243	415.31
233.477	438.31
233.711	498.31
233.945	563.31
234.179	506.31
234.413	462.31
234.647	452.31
234.881	463.31
235.115	511.31
235.349	601.31
235.583	754.31
235.817	958.31
236.051	946.31
236.285	662.31
236.519	516.31
236.753	488.31
236.987	494.31
237.221	528.31
237.455	518.31
237.689	487.31
237.922	470.31
238.156	482.31
238.39	492.31
238.624	486.31
238.858	462.31
239.091	472.31
239.325	475.31
239.559	504.31
239.793	505.31
240.027	502.31
240.26	527.31
240.494	539.31
240.728	555.31
240.961	614.31
241.195	644.31
241.429	676.31
241.662	699.31
241.896	775.31
242.13	926.31
242.363	1227.31
242.597	1570.31
242.83	1511.31
243.064	1491.31
243.298	1761.31
243.531	1464.31
243.765	952.31
243.998	784.31
244.232	675.31
244.465	674.31
244.699	662.31
244.932	649.31
245.166	647.31
245.399	668.31
245.633	668.31
245.866	680.31
246.099	663.31
246.333	657.31
246.566	631.31
246.8	656.31
247.033	613.31
247.266	627.31
247.5	627.31
247.733	656.31
247.966	679.31
248.2	750.31
248.433	848.31
248.666	964.31
248.899	920.31
249.133	842.31
249.366	855.31
249.599	918.31
249.832	1059.31
250.066	1100.31
250.299	862.31
250.532	764.31
250.765	746.31
250.998	752.31
251.231	728.31
251.465	677.31
251.698	730.31
251.931	737.31
252.164	721.31
252.397	765.31
252.63	762.31
252.863	775.31
253.096	739.31
253.329	778.31
253.562	780.31
253.795	750.31
254.028	773.31
254.261	798.31
254.494	858.31
254.727	1021.31
254.96	1196.31
255.193	1176.31
255.426	932.31
255.659	877.31
255.892	874.31
256.124	851.31
256.357	848.31
256.59	899.31
256.823	961.31
257.056	1085.31
257.289	1355.31
257.521	1466.31
257.754	1184.31
257.987	965.31
258.22	920.31
258.452	878.31
258.685	926.31
258.918	954.31
259.151	1001.31
259.383	1096.31
259.616	1212.31
259.849	1260.31
260.081	1076.31
260.314	968.31
260.547	917.31
260.779	938.31
261.012	940.31
261.244	951.31
261.477	972.31
261.71	969.31
261.942	982.31
262.175	1020.31
262.407	1033.31
262.64	1046.31
262.872	1093.31
263.105	1111.31
263.337	1189.31
263.57	1280.31
263.802	1308.31
264.035	1309.31
264.267	1327.31
264.499	1364.31
264.732	1419.31
264.964	1460.31
265.197	1458.31
265.429	1414.31
265.661	1431.31
265.894	1536.31
266.126	1738.31
266.358	1941.31
266.591	1888.31
266.823	1584.31
267.055	1450.31
267.287	1362.31
267.52	1320.31
267.752	1248.31
267.984	1265.31
268.216	1282.31
268.448	1243.31
268.681	1219.31
268.913	1224.31
269.145	1190.31
269.377	1205.31
269.609	1249.31
269.841	1264.31
270.073	1358.31
270.306	1583.31
270.538	2160.31
270.77	3163.31
271.002	3824.31
271.234	2730.31
271.466	1845.31
271.698	1509.31
271.93	1377.31
272.162	1326.31
272.394	1258.31
272.626	1223.31
272.858	1223.31
273.09	1245.31
273.322	1200.31
273.553	1182.31
273.785	1207.31
274.017	1190.31
274.249	1199.31
274.481	1202.31
274.713	1209.31
274.945	1216.31
275.176	1190.31
275.408	1185.31
275.64	1248.31
275.872	1210.31
276.104	1268.31
276.335	1258.31
276.567	1260.31
276.799	1258.31
277.031	1295.31
277.262	1318.31
277.494	1373.31
277.726	1531.31
277.957	1778.31
278.189	2041.31
278.421	1941.31
278.652	1739.31
278.884	1644.31
279.115	1442.31
279.347	1426.31
279.579	1358.31
279.81	1368.31
280.042	1377.31
280.273	1393.31
280.505	1447.31
280.736	1504.31
280.968	1553.31
281.199	1703.31
281.431	1959.31
281.662	2068.31
281.894	1723.31
282.125	1591.31
282.356	1632.31
282.588	1658.31
282.819	1678.31
283.051	1760.31
283.282	1972.31
283.513	2441.31
283.745	3499.31
283.976	5575.31
284.207	7809.31
284.439	7137.31
284.67	4498.31
284.901	3651.31
285.132	3638.31
285.364	3507.31
285.595	2652.31
285.826	2388.31
286.057	2762.31
286.288	3799.31
286.52	4994.31
286.751	4758.31
286.982	2995.31
287.213	2239.31
287.444	1969.31
287.675	1870.31
287.906	1761.31
288.138	1698.31
288.369	1665.31
288.6	1681.31
288.831	1668.31
289.062	1659.31
289.293	1681.31
289.524	1690.31
289.755	1666.31
289.986	1722.31
290.217	1675.31
290.448	1692.31
290.679	1720.31
290.91	1749.31
291.141	1869.31
291.371	2006.31
291.602	2092.31
291.833	1900.31
292.064	1739.31
292.295	1665.31
292.526	1642.31
292.757	1618.31
292.987	1582.31
293.218	1594.31
293.449	1592.31
293.68	1551.31
293.91	1549.31
294.141	1572.31
294.372	1526.31
294.603	1561.31
294.833	1548.31
295.064	1558.31
295.295	1571.31
295.525	1543.31
295.756	1551.31
295.987	1566.31
296.217	1584.31
296.448	1530.31
296.679	1558.31
296.909	1572.31
297.14	1557.31
297.37	1621.31
297.601	1617.31
297.831	1628.31
298.062	1591.31
298.292	1623.31
298.523	1686.31
298.753	1684.31
298.984	1706.31
299.214	1712.31
299.445	1755.31
299.675	1755.31
299.905	1818.31
300.136	1915.31
300.366	2101.31
300.597	2695.31
300.827	3805.31
301.057	5096.31
301.288	5158.31
301.518	3362.31
301.748	2601.31
301.979	2357.31
302.209	2230.31
302.439	2298.31
302.669	2426.31
302.9	2904.31
303.13	4055.31
303.36	6042.31
303.59	7973.31
303.82	6895.31
304.051	4126.31
304.281	3006.31
304.511	2478.31
304.741	2295.31
304.971	2148.31
305.201	2078.31
305.431	1986.31
305.661	1942.31
305.891	1903.31
306.121	1855.31
306.352	1863.31
306.582	1815.31
306.812	1859.31
307.042	1818.31
307.272	1795.31
307.502	1810.31
307.731	1786.31
307.961	1804.31
308.191	1758.31
308.421	1790.31
308.651	1764.31
308.881	1771.31
309.111	1796.31
309.341	1780.31
309.571	1856.31
309.8	1819.31
310.03	1810.31
310.26	1850.31
310.49	1830.31
310.72	1832.31
310.949	1850.31
311.179	1885.31
311.409	1885.31
311.639	1913.31
311.868	1894.31
312.098	1922.31
312.328	1943.31
312.557	1910.31
312.787	1942.31
313.017	1970.31
313.246	1975.31
313.476	1965.31
313.706	2032.31
313.935	2221.31
314.165	2334.31
314.394	2488.31
314.624	2335.31
314.853	2164.31
315.083	2133.31
315.312	2135.31
315.542	2182.31
315.771	2149.31
316.001	2255.31
316.23	2322.31
316.46	2403.31
316.689	2643.31
316.919	3180.31
317.148	4517.31
317.377	6960.31
317.607	10120.31
317.836	10548.31
318.065	6491.31
318.295	4226.31
318.524	3334.31
318.753	2939.31
318.983	2725.31
319.212	2546.31
319.441	2476.31
319.67	2412.31
319.9	2389.31
320.129	2358.31
320.358	2300.31
320.587	2316.31
320.816	2301.31
321.046	2332.31
321.275	2330.31
321.504	2325.31
321.733	2378.31
321.962	2494.31
322.191	2530.31
322.42	2496.31
322.649	2455.31
322.878	2474.31
323.108	2416.31
323.337	2499.31
323.566	2542.31
323.795	2586.31
324.024	2640.31
324.253	2686.31
324.482	2841.31
324.71	2961.31
324.939	3134.31
325.168	3242.31
325.397	3347.31
325.626	3955.31
325.855	5470.31
326.084	8634.31
326.313	12318.31
326.542	13160.31
326.77	8818.31
326.999	5923.31
327.228	4890.31
327.457	4730.31
327.686	4764.31
327.914	5077.31
328.143	5932.31
328.372	7072.31
328.6	7738.31
328.829	6886.31
329.058	5751.31
329.287	4987.31
329.515	4545.31
329.744	4335.31
329.972	4046.31
330.201	3806.31
330.43	3727.31
330.658	3637.31
330.887	3521.31
331.115	3469.31
331.344	3485.31
331.572	3382.31
331.801	3482.31
332.03	3450.31
332.258	3544.31
332.486	3741.31
332.715	4243.31
332.943	5202.31
333.172	6473.31
333.4	6436.31
333.629	4916.31
333.857	4448.31
334.085	4495.31
334.314	4655.31
334.542	5075.31
334.771	6003.31
334.999	7391.31
335.227	9205.31
335.455	10470.31
335.684	9348.31
335.912	7744.31
336.14	6442.31
336.369	5628.31
336.597	5237.31
336.825	4772.31
337.053	4552.31
337.281	4193.31
337.51	4015.31
337.738	3822.31
337.966	3679.31
338.194	3602.31
338.422	3440.31
338.65	3418.31
338.878	3353.31
339.106	3240.31
339.334	3220.31
339.562	3153.31
339.79	3079.31
340.018	3062.31
340.246	3038.31
340.474	2980.31
340.702	3002.31
340.93	2991.31
341.158	2996.31
341.386	2962.31
341.614	3012.31
341.842	2963.31
342.07	2820.31
342.298	2803.31
342.526	2778.31
342.754	2736.31
342.981	2700.31
343.209	2724.31
343.437	2767.31
343.665	2826.31
343.893	2840.31
344.12	2826.31
344.348	2731.31
344.576	2686.31
344.804	2687.31
345.031	2636.31
345.259	2590.31
345.487	2572.31
345.714	2592.31
345.942	2549.31
346.17	2508.31
346.397	2514.31
346.625	2531.31
346.853	2472.31
347.08	2525.31
347.308	2515.31
347.535	2535.31
347.763	2516.31
347.99	2493.31
348.218	2452.31
348.445	2498.31
348.673	2430.31
348.9	2448.31
349.128	2406.31
349.355	2416.31
349.583	2474.31
349.81	2425.31
350.037	2381.31
350.265	2388.31
350.492	2413.31
350.72	2436.31
350.947	2398.31
351.174	2403.31
351.402	2374.31
351.629	2380.31
351.856	2373.31
352.083	2361.31
352.311	2387.31
352.538	2380.31
352.765	2356.31
352.992	2346.31
353.22	2368.31
353.447	2341.31
353.674	2316.31
353.901	2354.31
354.128	2351.31
354.355	2380.31
354.583	2374.31
354.81	2404.31
355.037	2414.31
355.264	2420.31
355.491	2418.31
355.718	2436.31
355.945	2428.31
356.172	2462.31
356.399	2423.31
356.626	2484.31
356.853	2520.31
357.08	2518.31
357.307	2514.31
357.534	2543.31
357.761	2568.31
357.988	2584.31
358.215	2550.31
358.441	2532.31
358.668	2535.31
358.895	2516.31
359.122	2541.31
359.349	2548.31
359.576	2510.31
359.802	2557.31
360.029	2518.31
360.256	2543.31
360.483	2574.31
360.709	2527.31
360.936	2541.31
361.163	2503.31
361.39	2581.31
361.616	2535.31
361.843	2590.31
362.07	2573.31
362.296	2504.31
362.523	2613.31
362.749	2538.31
362.976	2575.31
363.203	2531.31
363.429	2520.31
363.656	2569.31
363.882	2559.31
364.109	2576.31
364.335	2535.31
364.562	2527.31
364.788	2567.31
365.015	2557.31
365.241	2643.31
365.468	2763.31
365.694	2903.31
365.92	2771.31
366.147	2644.31
366.373	2588.31
366.599	2591.31
366.826	2580.31
367.052	2586.31
367.278	2629.31
367.505	2604.31
367.731	2572.31
367.957	2587.31
368.184	2573.31
368.41	2643.31
368.636	2616.31
368.862	2629.31
369.089	2632.31
369.315	2650.31
369.541	2610.31
369.767	2705.31
369.993	2650.31
370.219	2604.31
370.445	2614.31
370.672	2671.31
370.898	2699.31
371.124	2625.31
371.35	2714.31
371.576	2659.31
371.802	2718.31
372.028	2773.31
372.254	2745.31
372.48	2747.31
372.706	2796.31
372.932	2783.31
373.158	2816.31
373.384	2850.31
373.61	2788.31
373.835	2799.31
374.061	2836.31
374.287	2814.31
374.513	2847.31
374.739	2838.31
374.965	2864.31
375.191	2843.31
375.416	2894.31
375.642	2816.31
375.868	2791.31
376.094	2839.31
376.319	2795.31
376.545	2775.31
376.771	2735.31
376.997	2732.31
377.222	2731.31
377.448	2663.31
377.674	2772.31
377.899	2748.31
378.125	2697.31
378.35	2713.31
378.576	2702.31
378.802	2723.31
379.027	2798.31
379.253	2836.31
379.478	3006.31
379.704	3517.31
379.929	5018.31
380.155	7841.31
380.38	8370.31
380.606	5166.31
380.831	3683.31
381.057	3175.31
381.282	2956.31
381.507	2829.31
381.733	2797.31
381.958	2749.31
382.184	2730.31
382.409	2699.31
382.634	2700.31
382.86	2682.31
383.085	2708.31
383.31	2661.31
383.535	2662.31
383.761	2692.31
383.986	2730.31
384.211	2694.31
384.436	2768.31
384.662	2747.31
384.887	2769.31
385.112	2763.31
385.337	2784.31
385.562	2790.31
385.787	2689.31
386.013	2763.31
386.238	2771.31
386.463	2787.31
386.688	2742.31
386.913	2710.31
387.138	2705.31
387.363	2723.31
387.588	2756.31
387.813	2720.31
388.038	2714.31
388.263	2709.31
388.488	2754.31
388.713	2784.31
388.938	2780.31
389.163	2741.31
389.387	2750.31
389.612	2728.31
389.837	2786.31
390.062	2758.31
390.287	2805.31
390.512	2777.31
390.736	2825.31
390.961	2853.31
391.186	2877.31
391.411	2895.31
391.636	2915.31
391.86	2914.31
392.085	2914.31
392.31	2941.31
392.534	2848.31
392.759	2871.31
392.984	2884.31
393.208	2780.31
393.433	2831.31
393.658	2819.31
393.882	2801.31
394.107	2832.31
394.331	2778.31
394.556	2784.31
394.78	2816.31
395.005	2814.31
395.229	2830.31
395.454	2877.31
395.678	2859.31
395.903	2881.31
396.127	2884.31
396.352	2883.31
396.576	2836.31
396.801	2860.31
397.025	2887.31
397.249	2876.31
397.474	2930.31
397.698	2895.31
397.922	2907.31
398.147	2897.31
398.371	2976.31
398.595	3018.31
398.82	3060.31
399.044	3211.31
399.268	3354.31
399.492	3532.31
399.717	3636.31
399.941	3681.31
400.165	3522.31
400.389	3385.31
400.613	3262.31
400.837	3112.31
401.062	3175.31
401.286	3056.31
401.51	3036.31
401.734	2990.31
401.958	3063.31
402.182	3014.31
402.406	3034.31
402.63	3050.31
402.854	3169.31
403.078	3077.31
403.302	3132.31
403.526	3118.31
403.75	3203.31
403.974	3214.31
404.198	3160.31
404.422	3149.31
404.645	3149.31
404.869	3167.31
405.093	3201.31
405.317	3171.31
405.541	3184.31
405.765	3253.31
405.988	3261.31
406.212	3218.31
406.436	3199.31
406.66	3352.31
406.883	3284.31
407.107	3389.31
407.331	3388.31
407.555	3419.31
407.778	3413.31
408.002	3429.31
408.226	3373.31
408.449	3411.31
408.673	3270.31
408.896	3212.31
409.12	3188.31
409.344	3235.31
409.567	3183.31
409.791	3213.31
410.014	3188.31
410.238	3068.31
410.461	3162.31
410.685	3082.31
410.908	3107.31
411.132	3102.31
411.355	3015.31
411.578	3024.31
411.802	3011.31
412.025	3010.31
412.249	3022.31
412.472	2984.31
412.695	2994.31
412.919	2947.31
413.142	3039.31
413.365	2975.31
413.589	2997.31
413.812	2923.31
414.035	2962.31
414.258	2986.31
414.482	2982.31
414.705	2948.31
414.928	3000.31
415.151	2952.31
415.374	2953.31
415.597	2923.31
415.821	2872.31
416.044	2841.31
416.267	2906.31
416.49	2833.31
416.713	2862.31
416.936	2868.31
417.159	2832.31
417.382	2858.31
417.605	2797.31
417.828	2863.31
418.051	2828.31
418.274	2882.31
418.497	2860.31
418.72	2959.31
418.943	2894.31
419.166	3050.31
419.389	3238.31
419.611	3111.31
419.834	3039.31
420.057	2991.31
420.28	2935.31
420.503	2816.31
420.726	2800.31
420.948	2820.31
421.171	2868.31
421.394	2853.31
421.617	2824.31
421.839	2839.31
422.062	2908.31
422.285	2822.31
422.507	2940.31
422.73	2930.31
422.953	2953.31
423.175	2988.31
423.398	2911.31
423.621	2834.31
423.843	2912.31
424.066	2906.31
424.288	2874.31
424.511	2845.31
424.733	2903.31
424.956	2824.31
425.178	2781.31
425.401	2809.31
425.623	2820.31
425.846	2724.31
426.068	2763.31
426.291	2694.31
426.513	2704.31
426.735	2730.31
426.958	2714.31
427.18	2691.31
427.402	2699.31
427.625	2748.31
427.847	2672.31
428.069	2640.31
428.292	2661.31
428.514	2655.31
428.736	2636.31
428.958	2679.31
429.181	2606.31
429.403	2584.31
429.625	2639.31
429.847	2622.31
430.069	2663.31
430.292	2745.31
430.514	2836.31
430.736	2798.31
430.958	2684.31
431.18	2641.31
431.402	2653.31
431.624	2580.31
431.846	2602.31
432.068	2623.31
432.29	2625.31
432.512	2571.31
432.734	2616.31
432.956	2675.31
433.178	2672.31
433.4	2602.31
433.622	2658.31
433.844	2635.31
434.066	2631.31
434.287	2621.31
434.509	2679.31
434.731	2695.31
434.953	2726.31
435.175	2761.31
435.397	2767.31
435.618	2669.31
435.84	2622.31
436.062	2608.31
436.284	2605.31
436.505	2642.31
436.727	2594.31
436.949	2627.31
437.17	2588.31
437.392	2575.31
437.614	2561.31
437.835	2524.31
438.057	2572.31
438.278	2506.31
438.5	2557.31
438.721	2594.31
438.943	2655.31
439.165	2694.31
439.386	2713.31
439.608	2724.31
439.829	2702.31
440.05	2797.31
440.272	2841.31
440.493	2740.31
440.715	2688.31
440.936	2732.31
441.158	2760.31
441.379	2740.31
441.6	2872.31
441.822	2920.31
442.043	3058.31
442.264	3127.31
442.486	2952.31
442.707	2812.31
442.928	2850.31
443.149	2810.31
443.371	2819.31
443.592	2772.31
443.813	2815.31
444.034	2855.31
444.255	2879.31
444.476	2945.31
444.698	2980.31
444.919	3016.31
445.14	3121.31
445.361	2959.31
445.582	2876.31
445.803	2823.31
446.024	2778.31
446.245	2761.31
446.466	2821.31
446.687	2694.31
446.908	2718.31
447.129	2648.31
447.35	2666.31
447.571	2591.31
447.792	2562.31
448.013	2587.31
448.234	2574.31
448.455	2627.31
448.675	2612.31
448.896	2688.31
449.117	2824.31
449.338	2964.31
449.559	3062.31
449.779	2765.31
450	2588.31
450.221	2547.31
450.442	2557.31
450.662	2532.31
450.883	2502.31
451.104	2486.31
451.324	2477.31
451.545	2515.31
451.766	2548.31
451.986	2524.31
452.207	2802.31
452.428	3634.31
452.648	5300.31
452.869	4476.31
453.089	3144.31
453.31	2962.31
453.53	2914.31
453.751	2990.31
453.971	3136.31
454.192	3103.31
454.412	2666.31
454.633	2558.31
454.853	2497.31
455.073	2466.31
455.294	2454.31
455.514	2427.31
455.734	2381.31
455.955	2417.31
456.175	2385.31
456.395	2456.31
456.616	2440.31
456.836	2465.31
457.056	2467.31
457.276	2493.31
457.497	2636.31
457.717	2645.31
457.937	2541.31
458.157	2542.31
458.377	2538.31
458.598	2579.31
458.818	2586.31
459.038	2559.31
459.258	2574.31
459.478	2651.31
459.698	2667.31
459.918	2706.31
460.138	2758.31
460.358	2787.31
460.578	2790.31
460.798	2820.31
461.018	2874.31
461.238	2853.31
461.458	2925.31
461.678	2916.31
461.898	3001.31
462.118	2963.31
462.338	3064.31
462.558	3068.31
462.777	3151.31
462.997	3294.31
463.217	3359.31
463.437	3463.31
463.657	3551.31
463.876	3462.31
464.096	3356.31
464.316	3219.31
464.536	3208.31
464.755	3057.31
464.975	3006.31
465.195	2889.31
465.414	2775.31
465.634	2747.31
465.854	2743.31
466.073	2690.31
466.293	2642.31
466.512	2651.31
466.732	2691.31
466.951	2782.31
467.171	2968.31
467.391	2935.31
467.61	2676.31
467.829	2590.31
468.049	2619.31
468.268	2549.31
468.488	2581.31
468.707	2495.31
468.927	2549.31
469.146	2565.31
469.365	2632.31
469.585	2618.31
469.804	2684.31
470.023	2747.31
470.243	2738.31
470.462	2790.31
470.681	3011.31
470.901	3207.31
471.12	3742.31
471.339	3740.31
471.558	3122.31
471.777	2878.31
471.997	2765.31
472.216	2686.31
472.435	2575.31
472.654	2645.31
472.873	2628.31
473.092	2622.31
473.311	2607.31
473.53	2629.31
473.749	2717.31
473.968	2771.31
474.187	2652.31
474.406	2546.31
474.625	2598.31
474.844	2591.31
475.063	2588.31
475.282	2630.31
475.501	2625.31
475.72	2620.31
475.939	2614.31
476.158	2700.31
476.377	2710.31
476.596	2765.31
476.814	2743.31
477.033	2730.31
477.252	2782.31
477.471	2837.31
477.69	2838.31
477.908	2873.31
478.127	2991.31
478.346	2967.31
478.564	2994.31
478.783	3005.31
479.002	3013.31
479.22	3111.31
479.439	3125.31
479.658	3096.31
479.876	3098.31
480.095	3134.31
480.313	3200.31
480.532	3216.31
480.751	3171.31
480.969	3127.31
481.188	3162.31
481.406	3138.31
481.624	3105.31
481.843	3200.31
482.061	3174.31
482.28	3186.31
482.498	3171.31
482.717	3128.31
482.935	3152.31
483.153	3166.31
483.372	3230.31
483.59	3315.31
483.808	3342.31
484.027	3451.31
484.245	3606.31
484.463	4018.31
484.681	4439.31
484.9	4067.31
485.118	3836.31
485.336	3767.31
485.554	3712.31
485.772	3998.31
485.99	4501.31
486.209	4832.31
486.427	4051.31
486.645	3663.31
486.863	3537.31
487.081	3406.31
487.299	3340.31
487.517	3384.31
487.735	3366.31
487.953	3418.31
