Data from SnStandardFlinnAPT0064_QswitchEnergy10_LIBS07252019.E.O._I.C._HRD10591_15-27-12-973.txt Node
Date: Thu Jul 25 15:27:12 EDT 2019
User: cochatt
Spectrometer: HR+D1059
Trigger mode: 1
Integration Time (sec): 1.000000E-1
Scans to average: 1
Electric dark correction enabled: true
Nonlinearity correction enabled: false
Boxcar width: 0
XAxis mode: Wavelengths
Number of Pixels in Spectrum: 2048
>>>>>Begin Spectral Data<<<<<
223.165	-9.75
223.4	-9.75
223.635	-9.75
223.869	-21.75
224.104	-19.75
224.338	-6.75
224.573	-11.75
224.808	-5.75
225.042	-7.75
225.277	8.25
225.511	-0.75
225.746	-22.75
225.98	7.25
226.215	8.25
226.449	5.25
226.683	19.25
226.918	28.25
227.152	30.25
227.387	41.25
227.621	28.25
227.856	35.25
228.09	51.25
228.324	56.25
228.559	59.25
228.793	50.25
229.027	76.25
229.262	63.25
229.496	64.25
229.73	83.25
229.964	79.25
230.199	84.25
230.433	80.25
230.667	66.25
230.901	83.25
231.136	84.25
231.37	80.25
231.604	87.25
231.838	97.25
232.072	92.25
232.306	129.25
232.541	98.25
232.775	81.25
233.009	88.25
233.243	91.25
233.477	95.25
233.711	92.25
233.945	115.25
234.179	94.25
234.413	81.25
234.647	81.25
234.881	94.25
235.115	92.25
235.349	87.25
235.583	101.25
235.817	123.25
236.051	119.25
236.285	97.25
236.519	80.25
236.753	65.25
236.987	86.25
237.221	73.25
237.455	83.25
237.689	86.25
237.922	86.25
238.156	84.25
238.39	83.25
238.624	78.25
238.858	81.25
239.091	82.25
239.325	83.25
239.559	87.25
239.793	91.25
240.027	99.25
240.26	85.25
240.494	82.25
240.728	85.25
240.961	85.25
241.195	82.25
241.429	74.25
241.662	75.25
241.896	88.25
242.13	87.25
242.363	122.25
242.597	151.25
242.83	128.25
243.064	125.25
243.298	151.25
243.531	147.25
243.765	96.25
243.998	97.25
244.232	77.25
244.465	89.25
244.699	87.25
244.932	95.25
245.166	96.25
245.399	76.25
245.633	71.25
245.866	71.25
246.099	96.25
246.333	81.25
246.566	78.25
246.8	91.25
247.033	84.25
247.266	82.25
247.5	78.25
247.733	83.25
247.966	79.25
248.2	82.25
248.433	104.25
248.666	125.25
248.899	107.25
249.133	86.25
249.366	104.25
249.599	85.25
249.832	126.25
250.066	115.25
250.299	97.25
250.532	83.25
250.765	77.25
250.998	85.25
251.231	79.25
251.465	87.25
251.698	83.25
251.931	85.25
252.164	86.25
252.397	70.25
252.63	100.25
252.863	93.25
253.096	97.25
253.329	96.25
253.562	94.25
253.795	87.25
254.028	87.25
254.261	79.25
254.494	102.25
254.727	117.25
254.96	129.25
255.193	129.25
255.426	102.25
255.659	89.25
255.892	91.25
256.124	83.25
256.357	90.25
256.59	86.25
256.823	80.25
257.056	105.25
257.289	131.25
257.521	164.25
257.754	116.25
257.987	83.25
258.22	77.25
258.452	79.25
258.685	81.25
258.918	73.25
259.151	88.25
259.383	120.25
259.616	127.25
259.849	129.25
260.081	100.25
260.314	76.25
260.547	81.25
260.779	90.25
261.012	86.25
261.244	88.25
261.477	87.25
261.71	86.25
261.942	87.25
262.175	81.25
262.407	80.25
262.64	86.25
262.872	83.25
263.105	87.25
263.337	91.25
263.57	87.25
263.802	89.25
264.035	82.25
264.267	91.25
264.499	79.25
264.732	86.25
264.964	89.25
265.197	77.25
265.429	81.25
265.661	73.25
265.894	97.25
266.126	132.25
266.358	153.25
266.591	125.25
266.823	90.25
267.055	89.25
267.287	82.25
267.52	99.25
267.752	89.25
267.984	93.25
268.216	77.25
268.448	74.25
268.681	80.25
268.913	93.25
269.145	79.25
269.377	97.25
269.609	97.25
269.841	96.25
270.073	106.25
270.306	128.25
270.538	182.25
270.77	275.25
271.002	358.25
271.234	177.25
271.466	121.25
271.698	102.25
271.93	107.25
272.162	95.25
272.394	84.25
272.626	90.25
272.858	77.25
273.09	88.25
273.322	83.25
273.553	89.25
273.785	94.25
274.017	74.25
274.249	98.25
274.481	93.25
274.713	102.25
274.945	87.25
275.176	88.25
275.408	84.25
275.64	94.25
275.872	92.25
276.104	105.25
276.335	96.25
276.567	86.25
276.799	93.25
277.031	95.25
277.262	97.25
277.494	106.25
277.726	121.25
277.957	167.25
278.189	238.25
278.421	220.25
278.652	161.25
278.884	175.25
279.115	137.25
279.347	111.25
279.579	93.25
279.81	103.25
280.042	92.25
280.273	103.25
280.505	92.25
280.736	97.25
280.968	111.25
281.199	139.25
281.431	200.25
281.662	219.25
281.894	139.25
282.125	111.25
282.356	102.25
282.588	113.25
282.819	108.25
283.051	131.25
283.282	129.25
283.513	176.25
283.745	274.25
283.976	460.25
284.207	677.25
284.439	531.25
284.67	252.25
284.901	224.25
285.132	307.25
285.364	344.25
285.595	189.25
285.826	164.25
286.057	231.25
286.288	376.25
286.52	549.25
286.751	427.25
286.982	175.25
287.213	133.25
287.444	103.25
287.675	91.25
287.906	104.25
288.138	93.25
288.369	96.25
288.6	86.25
288.831	82.25
289.062	90.25
289.293	111.25
289.524	104.25
289.755	85.25
289.986	90.25
290.217	87.25
290.448	91.25
290.679	107.25
290.91	108.25
291.141	146.25
291.371	192.25
291.602	237.25
291.833	168.25
292.064	104.25
292.295	88.25
292.526	83.25
292.757	95.25
292.987	88.25
293.218	96.25
293.449	89.25
293.68	90.25
293.91	76.25
294.141	88.25
294.372	93.25
294.603	92.25
294.833	97.25
295.064	83.25
295.295	94.25
295.525	103.25
295.756	92.25
295.987	90.25
296.217	88.25
296.448	99.25
296.679	100.25
296.909	98.25
297.14	85.25
297.37	96.25
297.601	97.25
297.831	88.25
298.062	115.25
298.292	101.25
298.523	103.25
298.753	100.25
298.984	96.25
299.214	104.25
299.445	103.25
299.675	103.25
299.905	108.25
300.136	127.25
300.366	158.25
300.597	253.25
300.827	394.25
301.057	620.25
301.288	561.25
301.518	230.25
301.748	124.25
301.979	118.25
302.209	118.25
302.439	129.25
302.669	150.25
302.9	255.25
303.13	451.25
303.36	755.25
303.59	1078.25
303.82	724.25
304.051	264.25
304.281	142.25
304.511	122.25
304.741	98.25
304.971	112.25
305.201	111.25
305.431	113.25
305.661	91.25
305.891	107.25
306.121	99.25
306.352	100.25
306.582	104.25
306.812	101.25
307.042	116.25
307.272	113.25
307.502	103.25
307.731	106.25
307.961	118.25
308.191	102.25
308.421	98.25
308.651	104.25
308.881	95.25
309.111	92.25
309.341	101.25
309.571	103.25
309.8	108.25
310.03	99.25
310.26	103.25
310.49	104.25
310.72	112.25
310.949	111.25
311.179	108.25
311.409	98.25
311.639	105.25
311.868	92.25
312.098	97.25
312.328	111.25
312.557	99.25
312.787	126.25
313.017	124.25
313.246	104.25
313.476	122.25
313.706	129.25
313.935	153.25
314.165	161.25
314.394	204.25
314.624	157.25
314.853	122.25
315.083	116.25
315.312	119.25
315.542	117.25
315.771	121.25
316.001	129.25
316.23	138.25
316.46	133.25
316.689	161.25
316.919	234.25
317.148	443.25
317.377	802.25
317.607	1299.25
317.836	1223.25
318.065	457.25
318.295	209.25
318.524	150.25
318.753	121.25
318.983	120.25
319.212	119.25
319.441	120.25
319.67	115.25
319.9	100.25
320.129	98.25
320.358	113.25
320.587	95.25
320.816	118.25
321.046	106.25
321.275	119.25
321.504	124.25
321.733	137.25
321.962	150.25
322.191	137.25
322.42	127.25
322.649	123.25
322.878	118.25
323.108	121.25
323.337	105.25
323.566	117.25
323.795	114.25
324.024	120.25
324.253	132.25
324.482	147.25
324.71	203.25
324.939	233.25
325.168	195.25
325.397	182.25
325.626	244.25
325.855	425.25
326.084	821.25
326.313	1385.25
326.542	1368.25
326.77	519.25
326.999	231.25
327.228	186.25
327.457	200.25
327.686	193.25
327.914	137.25
328.143	136.25
328.372	121.25
328.6	118.25
328.829	101.25
329.058	107.25
329.287	121.25
329.515	113.25
329.744	116.25
329.972	105.25
330.201	111.25
330.43	109.25
330.658	99.25
330.887	115.25
331.115	96.25
331.344	108.25
331.572	123.25
331.801	119.25
332.03	100.25
332.258	119.25
332.486	160.25
332.715	253.25
332.943	439.25
333.172	653.25
333.4	602.25
333.629	222.25
333.857	154.25
334.085	125.25
334.314	112.25
334.542	130.25
334.771	101.25
334.999	124.25
335.227	121.25
335.455	109.25
335.684	113.25
335.912	123.25
336.14	118.25
336.369	114.25
336.597	105.25
336.825	99.25
337.053	118.25
337.281	107.25
337.51	122.25
337.738	117.25
337.966	112.25
338.194	103.25
338.422	109.25
338.65	105.25
338.878	114.25
339.106	93.25
339.334	104.25
339.562	112.25
339.79	111.25
340.018	104.25
340.246	98.25
340.474	105.25
340.702	111.25
340.93	106.25
341.158	87.25
341.386	115.25
341.614	114.25
341.842	108.25
342.07	113.25
342.298	111.25
342.526	108.25
342.754	109.25
342.981	111.25
343.209	98.25
343.437	124.25
343.665	98.25
343.893	108.25
344.12	120.25
344.348	99.25
344.576	101.25
344.804	100.25
345.031	96.25
345.259	102.25
345.487	109.25
345.714	111.25
345.942	117.25
346.17	107.25
346.397	111.25
346.625	102.25
346.853	113.25
347.08	105.25
347.308	103.25
347.535	92.25
347.763	89.25
347.99	89.25
348.218	111.25
348.445	109.25
348.673	115.25
348.9	121.25
349.128	107.25
349.355	125.25
349.583	112.25
349.81	119.25
350.037	114.25
350.265	93.25
350.492	109.25
350.72	101.25
350.947	116.25
351.174	107.25
351.402	102.25
351.629	114.25
351.856	99.25
352.083	99.25
352.311	103.25
352.538	90.25
352.765	97.25
352.992	91.25
353.22	96.25
353.447	102.25
353.674	104.25
353.901	101.25
354.128	99.25
354.355	104.25
354.583	87.25
354.81	97.25
355.037	99.25
355.264	109.25
355.491	95.25
355.718	109.25
355.945	106.25
356.172	107.25
356.399	105.25
356.626	102.25
356.853	95.25
357.08	105.25
357.307	102.25
357.534	116.25
357.761	112.25
357.988	120.25
358.215	94.25
358.441	105.25
358.668	112.25
358.895	115.25
359.122	95.25
359.349	111.25
359.576	104.25
359.802	101.25
360.029	119.25
360.256	105.25
360.483	103.25
360.709	106.25
360.936	105.25
361.163	96.25
361.39	99.25
361.616	119.25
361.843	111.25
362.07	96.25
362.296	101.25
362.523	109.25
362.749	102.25
362.976	102.25
363.203	107.25
363.429	108.25
363.656	104.25
363.882	98.25
364.109	108.25
364.335	89.25
364.562	98.25
364.788	102.25
365.015	101.25
365.241	130.25
365.468	165.25
365.694	210.25
365.92	171.25
366.147	100.25
366.373	90.25
366.599	89.25
366.826	88.25
367.052	103.25
367.278	111.25
367.505	99.25
367.731	90.25
367.957	91.25
368.184	120.25
368.41	121.25
368.636	103.25
368.862	97.25
369.089	90.25
369.315	97.25
369.541	119.25
369.767	112.25
369.993	111.25
370.219	102.25
370.445	85.25
370.672	116.25
370.898	111.25
371.124	104.25
371.35	95.25
371.576	103.25
371.802	109.25
372.028	110.25
372.254	118.25
372.48	109.25
372.706	103.25
372.932	110.25
373.158	121.25
373.384	111.25
373.61	97.25
373.835	97.25
374.061	107.25
374.287	100.25
374.513	100.25
374.739	95.25
374.965	116.25
375.191	113.25
375.416	93.25
375.642	107.25
375.868	99.25
376.094	105.25
376.319	89.25
376.545	97.25
376.771	107.25
376.997	107.25
377.222	94.25
377.448	103.25
377.674	94.25
377.899	105.25
378.125	105.25
378.35	116.25
378.576	127.25
378.802	116.25
379.027	104.25
379.253	128.25
379.478	156.25
379.704	270.25
379.929	665.25
380.155	1372.25
380.38	1398.25
380.606	471.25
380.831	168.25
381.057	123.25
381.282	117.25
381.507	116.25
381.733	109.25
381.958	108.25
382.184	86.25
382.409	120.25
382.634	100.25
382.86	95.25
383.085	109.25
383.31	101.25
383.535	99.25
383.761	113.25
383.986	99.25
384.211	92.25
384.436	110.25
384.662	115.25
384.887	101.25
385.112	104.25
385.337	88.25
385.562	87.25
385.787	100.25
386.013	112.25
386.238	103.25
386.463	93.25
386.688	111.25
386.913	89.25
387.138	109.25
387.363	111.25
387.588	117.25
387.813	101.25
388.038	106.25
388.263	107.25
388.488	98.25
388.713	101.25
388.938	84.25
389.163	90.25
389.387	94.25
389.612	86.25
389.837	101.25
390.062	114.25
390.287	98.25
390.512	88.25
390.736	90.25
390.961	83.25
391.186	90.25
391.411	85.25
391.636	88.25
391.86	100.25
392.085	100.25
392.31	89.25
392.534	102.25
392.759	97.25
392.984	89.25
393.208	93.25
393.433	114.25
393.658	119.25
393.882	90.25
394.107	103.25
394.331	87.25
394.556	96.25
394.78	99.25
395.005	96.25
395.229	81.25
395.454	102.25
395.678	79.25
395.903	85.25
396.127	87.25
396.352	94.25
396.576	102.25
396.801	107.25
397.025	113.25
397.249	103.25
397.474	110.25
397.698	91.25
397.922	82.25
398.147	93.25
398.371	84.25
398.595	94.25
398.82	87.25
399.044	93.25
399.268	98.25
399.492	89.25
399.717	97.25
399.941	103.25
400.165	102.25
400.389	81.25
400.613	99.25
400.837	95.25
401.062	98.25
401.286	84.25
401.51	93.25
401.734	105.25
401.958	97.25
402.182	94.25
402.406	103.25
402.63	106.25
402.854	104.25
403.078	109.25
403.302	101.25
403.526	78.25
403.75	102.25
403.974	95.25
404.198	100.25
404.422	93.25
404.645	93.25
404.869	102.25
405.093	100.25
405.317	95.25
405.541	111.25
405.765	121.25
405.988	123.25
406.212	116.25
406.436	90.25
406.66	102.25
406.883	101.25
407.107	99.25
407.331	89.25
407.555	96.25
407.778	99.25
408.002	100.25
408.226	94.25
408.449	86.25
408.673	95.25
408.896	101.25
409.12	87.25
409.344	93.25
409.567	101.25
409.791	89.25
410.014	101.25
410.238	93.25
410.461	102.25
410.685	84.25
410.908	86.25
411.132	100.25
411.355	96.25
411.578	104.25
411.802	88.25
412.025	91.25
412.249	95.25
412.472	89.25
412.695	89.25
412.919	92.25
413.142	91.25
413.365	107.25
413.589	104.25
413.812	102.25
414.035	96.25
414.258	111.25
414.482	83.25
414.705	91.25
414.928	92.25
415.151	109.25
415.374	98.25
415.597	98.25
415.821	88.25
416.044	100.25
416.267	91.25
416.49	102.25
416.713	83.25
416.936	99.25
417.159	87.25
417.382	77.25
417.605	89.25
417.828	102.25
418.051	83.25
418.274	100.25
418.497	97.25
418.72	95.25
418.943	96.25
419.166	123.25
419.389	98.25
419.611	109.25
419.834	105.25
420.057	91.25
420.28	89.25
420.503	108.25
420.726	98.25
420.948	89.25
421.171	100.25
421.394	93.25
421.617	90.25
421.839	79.25
422.062	87.25
422.285	93.25
422.507	83.25
422.73	113.25
422.953	124.25
423.175	105.25
423.398	91.25
423.621	94.25
423.843	98.25
424.066	96.25
424.288	88.25
424.511	87.25
424.733	94.25
424.956	79.25
425.178	87.25
425.401	80.25
425.623	91.25
425.846	93.25
426.068	83.25
426.291	84.25
426.513	97.25
426.735	98.25
426.958	97.25
427.18	100.25
427.402	95.25
427.625	83.25
427.847	77.25
428.069	89.25
428.292	91.25
428.514	84.25
428.736	94.25
428.958	95.25
429.181	97.25
429.403	91.25
429.625	100.25
429.847	101.25
430.069	108.25
430.292	124.25
430.514	102.25
430.736	104.25
430.958	86.25
431.18	86.25
431.402	107.25
431.624	92.25
431.846	87.25
432.068	93.25
432.29	98.25
432.512	80.25
432.734	98.25
432.956	81.25
433.178	92.25
433.4	81.25
433.622	86.25
433.844	93.25
434.066	86.25
434.287	85.25
434.509	102.25
434.731	88.25
434.953	92.25
435.175	96.25
435.397	102.25
435.618	87.25
435.84	102.25
436.062	95.25
436.284	83.25
436.505	83.25
436.727	83.25
436.949	90.25
437.17	81.25
437.392	97.25
437.614	104.25
437.835	89.25
438.057	89.25
438.278	93.25
438.5	92.25
438.721	83.25
438.943	105.25
439.165	123.25
439.386	104.25
439.608	95.25
439.829	102.25
440.05	101.25
440.272	113.25
440.493	101.25
440.715	99.25
440.936	107.25
441.158	91.25
441.379	95.25
441.6	89.25
441.822	94.25
442.043	104.25
442.264	130.25
442.486	119.25
442.707	99.25
442.928	94.25
443.149	83.25
443.371	104.25
443.592	91.25
443.813	96.25
444.034	99.25
444.255	109.25
444.476	93.25
444.698	95.25
444.919	96.25
445.14	223.25
445.361	155.25
445.582	101.25
445.803	98.25
446.024	83.25
446.245	85.25
446.466	107.25
446.687	101.25
446.908	98.25
447.129	91.25
447.35	103.25
447.571	93.25
447.792	96.25
448.013	92.25
448.234	84.25
448.455	95.25
448.675	91.25
448.896	97.25
449.117	113.25
449.338	128.25
449.559	148.25
449.779	112.25
450	103.25
450.221	87.25
450.442	114.25
450.662	101.25
450.883	102.25
451.104	123.25
451.324	115.25
451.545	102.25
451.766	105.25
451.986	133.25
452.207	195.25
452.428	466.25
452.648	1105.25
452.869	647.25
453.089	179.25
453.31	107.25
453.53	119.25
453.751	135.25
453.971	149.25
454.192	127.25
454.412	101.25
454.633	92.25
454.853	89.25
455.073	104.25
455.294	81.25
455.514	103.25
455.734	96.25
455.955	87.25
456.175	84.25
456.395	86.25
456.616	105.25
456.836	101.25
457.056	94.25
457.276	93.25
457.497	114.25
457.717	111.25
457.937	103.25
458.157	85.25
458.377	90.25
458.598	72.25
458.818	90.25
459.038	80.25
459.258	86.25
459.478	79.25
459.698	79.25
459.918	81.25
460.138	85.25
460.358	85.25
460.578	91.25
460.798	77.25
461.018	93.25
461.238	95.25
461.458	83.25
461.678	84.25
461.898	85.25
462.118	85.25
462.338	88.25
462.558	95.25
462.777	95.25
462.997	87.25
463.217	104.25
463.437	112.25
463.657	162.25
463.876	182.25
464.096	106.25
464.316	100.25
464.536	95.25
464.755	94.25
464.975	92.25
465.195	109.25
465.414	86.25
465.634	92.25
465.854	97.25
466.073	101.25
466.293	89.25
466.512	91.25
466.732	102.25
466.951	126.25
467.171	145.25
467.391	136.25
467.61	107.25
467.829	93.25
468.049	113.25
468.268	86.25
468.488	92.25
468.707	92.25
468.927	88.25
469.146	88.25
469.365	114.25
469.585	93.25
469.804	114.25
470.023	102.25
470.243	95.25
470.462	92.25
470.681	109.25
470.901	125.25
471.12	173.25
471.339	192.25
471.558	111.25
471.777	93.25
471.997	92.25
472.216	100.25
472.435	96.25
472.654	95.25
472.873	92.25
473.092	89.25
473.311	95.25
473.53	93.25
473.749	99.25
473.968	98.25
474.187	96.25
474.406	96.25
474.625	106.25
474.844	107.25
475.063	96.25
475.282	99.25
475.501	95.25
475.72	81.25
475.939	97.25
476.158	95.25
476.377	119.25
476.596	102.25
476.814	94.25
477.033	102.25
477.252	92.25
477.471	92.25
477.69	95.25
477.908	98.25
478.127	90.25
478.346	99.25
478.564	90.25
478.783	93.25
479.002	89.25
479.22	106.25
479.439	92.25
479.658	88.25
479.876	84.25
480.095	86.25
480.313	99.25
480.532	82.25
480.751	97.25
480.969	91.25
481.188	86.25
481.406	81.25
481.624	102.25
481.843	98.25
482.061	100.25
482.28	102.25
482.498	85.25
482.717	107.25
482.935	73.25
483.153	100.25
483.372	77.25
483.59	101.25
483.808	115.25
484.027	94.25
484.245	131.25
484.463	185.25
484.681	209.25
484.9	150.25
485.118	105.25
485.336	102.25
485.554	119.25
485.772	123.25
485.99	171.25
486.209	218.25
486.427	152.25
486.645	106.25
486.863	93.25
487.081	112.25
487.299	85.25
487.517	95.25
487.735	106.25
487.953	108.25
488.171	101.25
488.389	101.25
488.607	95.25
488.825	102.25
489.043	83.25
489.261	95.25
489.479	93.25
489.696	96.25
489.914	105.25
490.132	88.25
490.35	98.25
490.568	103.25
490.786	101.25
491.003	114.25
491.221	106.25
491.439	111.25
491.657	95.25
491.874	104.25
492.092	102.25
492.31	98.25
492.527	100.25
492.745	93.25
492.963	112.25
493.18	109.25
493.398	109.25
493.615	104.25
493.833	97.25
494.05	103.25
494.268	86.25
494.485	105.25
494.703	104.25
494.92	100.25
495.138	91.25
495.355	115.25
495.573	106.25
495.79	111.25
496.008	95.25
496.225	123.25
496.442	92.25
496.66	106.25
496.877	145.25
497.094	151.25
497.312	122.25
497.529	100.25
497.746	108.25
497.963	87.25
498.181	108.25
498.398	112.25
498.615	88.25
498.832	99.25
499.049	100.25
499.267	136.25
499.484	155.25
499.701	108.25
499.918	102.25
500.135	107.25
500.352	102.25
500.569	89.25
500.786	99.25
501.003	98.25
501.22	95.25
501.437	96.25
501.654	103.25
501.871	100.25
502.088	107.25
502.305	110.25
502.522	92.25
502.739	100.25
502.956	102.25
503.172	88.25
503.389	99.25
503.606	103.25
503.823	101.25
504.04	108.25
504.256	106.25
504.473	91.25
504.69	99.25
504.907	101.25
505.123	116.25
505.34	87.25
505.557	98.25
505.773	93.25
505.99	86.25
506.207	91.25
506.423	105.25
506.64	112.25
506.856	107.25
507.073	101.25
507.289	106.25
507.506	98.25
507.722	93.25
507.939	86.25
508.155	101.25
508.372	81.25
508.588	85.25
508.805	100.25
509.021	86.25
509.238	123.25
509.454	125.25
509.67	155.25
509.887	107.25
