Data from SnStandardFlinnAPT0064_QswitchEnergy10_LIBS07252019.E.O._I.C._HRD10591_15-26-22-972.txt Node
Date: Thu Jul 25 15:26:22 EDT 2019
User: cochatt
Spectrometer: HR+D1059
Trigger mode: 1
Integration Time (sec): 1.000000E-1
Scans to average: 1
Electric dark correction enabled: true
Nonlinearity correction enabled: false
Boxcar width: 0
XAxis mode: Wavelengths
Number of Pixels in Spectrum: 2048
>>>>>Begin Spectral Data<<<<<
223.165	-15.5
223.4	-15.5
223.635	-15.5
223.869	-18.5
224.104	-24.5
224.338	-16.5
224.573	-12.5
224.808	-9.5
225.042	0.5
225.277	-12.5
225.511	-18.5
225.746	4.5
225.98	11.5
226.215	9.5
226.449	16.5
226.683	25.5
226.918	27.5
227.152	32.5
227.387	27.5
227.621	41.5
227.856	42.5
228.09	63.5
228.324	53.5
228.559	54.5
228.793	48.5
229.027	69.5
229.262	69.5
229.496	77.5
229.73	68.5
229.964	77.5
230.199	77.5
230.433	86.5
230.667	89.5
230.901	84.5
231.136	94.5
231.37	78.5
231.604	91.5
231.838	78.5
232.072	104.5
232.306	124.5
232.541	105.5
232.775	104.5
233.009	91.5
233.243	89.5
233.477	92.5
233.711	99.5
233.945	110.5
234.179	106.5
234.413	90.5
234.647	87.5
234.881	92.5
235.115	94.5
235.349	100.5
235.583	104.5
235.817	117.5
236.051	117.5
236.285	95.5
236.519	97.5
236.753	91.5
236.987	85.5
237.221	82.5
237.455	78.5
237.689	71.5
237.922	78.5
238.156	72.5
238.39	92.5
238.624	101.5
238.858	96.5
239.091	86.5
239.325	79.5
239.559	72.5
239.793	94.5
240.027	86.5
240.26	85.5
240.494	79.5
240.728	86.5
240.961	97.5
241.195	94.5
241.429	95.5
241.662	79.5
241.896	79.5
242.13	107.5
242.363	131.5
242.597	159.5
242.83	127.5
243.064	136.5
243.298	180.5
243.531	169.5
243.765	99.5
243.998	80.5
244.232	88.5
244.465	94.5
244.699	78.5
244.932	98.5
245.166	86.5
245.399	81.5
245.633	84.5
245.866	83.5
246.099	81.5
246.333	87.5
246.566	83.5
246.8	83.5
247.033	97.5
247.266	75.5
247.5	76.5
247.733	96.5
247.966	90.5
248.2	93.5
248.433	92.5
248.666	124.5
248.899	120.5
249.133	91.5
249.366	105.5
249.599	106.5
249.832	127.5
250.066	119.5
250.299	93.5
250.532	76.5
250.765	72.5
250.998	80.5
251.231	102.5
251.465	94.5
251.698	87.5
251.931	88.5
252.164	79.5
252.397	87.5
252.63	86.5
252.863	99.5
253.096	86.5
253.329	104.5
253.562	101.5
253.795	92.5
254.028	94.5
254.261	85.5
254.494	99.5
254.727	107.5
254.96	146.5
255.193	127.5
255.426	104.5
255.659	101.5
255.892	104.5
256.124	95.5
256.357	94.5
256.59	90.5
256.823	89.5
257.056	111.5
257.289	144.5
257.521	163.5
257.754	123.5
257.987	95.5
258.22	81.5
258.452	80.5
258.685	88.5
258.918	84.5
259.151	100.5
259.383	112.5
259.616	132.5
259.849	159.5
260.081	109.5
260.314	91.5
260.547	87.5
260.779	92.5
261.012	92.5
261.244	97.5
261.477	97.5
261.71	74.5
261.942	84.5
262.175	92.5
262.407	103.5
262.64	81.5
262.872	81.5
263.105	103.5
263.337	102.5
263.57	90.5
263.802	86.5
264.035	92.5
264.267	77.5
264.499	86.5
264.732	87.5
264.964	72.5
265.197	85.5
265.429	87.5
265.661	99.5
265.894	95.5
266.126	130.5
266.358	168.5
266.591	160.5
266.823	95.5
267.055	91.5
267.287	94.5
267.52	97.5
267.752	85.5
267.984	97.5
268.216	91.5
268.448	93.5
268.681	73.5
268.913	102.5
269.145	100.5
269.377	89.5
269.609	94.5
269.841	97.5
270.073	105.5
270.306	131.5
270.538	189.5
270.77	294.5
271.002	363.5
271.234	190.5
271.466	118.5
271.698	104.5
271.93	91.5
272.162	104.5
272.394	117.5
272.626	92.5
272.858	93.5
273.09	111.5
273.322	94.5
273.553	87.5
273.785	89.5
274.017	78.5
274.249	93.5
274.481	91.5
274.713	85.5
274.945	76.5
275.176	107.5
275.408	87.5
275.64	94.5
275.872	101.5
276.104	100.5
276.335	93.5
276.567	120.5
276.799	90.5
277.031	110.5
277.262	104.5
277.494	117.5
277.726	135.5
277.957	190.5
278.189	268.5
278.421	230.5
278.652	184.5
278.884	171.5
279.115	131.5
279.347	111.5
279.579	104.5
279.81	84.5
280.042	91.5
280.273	110.5
280.505	119.5
280.736	105.5
280.968	137.5
281.199	162.5
281.431	227.5
281.662	238.5
281.894	148.5
282.125	118.5
282.356	108.5
282.588	101.5
282.819	111.5
283.051	122.5
283.282	153.5
283.513	183.5
283.745	297.5
283.976	515.5
284.207	755.5
284.439	555.5
284.67	247.5
284.901	227.5
285.132	335.5
285.364	386.5
285.595	225.5
285.826	181.5
286.057	229.5
286.288	393.5
286.52	580.5
286.751	468.5
286.982	186.5
287.213	111.5
287.444	108.5
287.675	91.5
287.906	100.5
288.138	110.5
288.369	113.5
288.6	93.5
288.831	83.5
289.062	104.5
289.293	93.5
289.524	92.5
289.755	103.5
289.986	114.5
290.217	97.5
290.448	123.5
290.679	113.5
290.91	110.5
291.141	136.5
291.371	233.5
291.602	267.5
291.833	185.5
292.064	131.5
292.295	101.5
292.526	97.5
292.757	109.5
292.987	102.5
293.218	109.5
293.449	107.5
293.68	86.5
293.91	91.5
294.141	89.5
294.372	88.5
294.603	92.5
294.833	101.5
295.064	86.5
295.295	95.5
295.525	100.5
295.756	98.5
295.987	98.5
296.217	96.5
296.448	94.5
296.679	90.5
296.909	95.5
297.14	93.5
297.37	79.5
297.601	98.5
297.831	103.5
298.062	101.5
298.292	112.5
298.523	105.5
298.753	103.5
298.984	90.5
299.214	105.5
299.445	89.5
299.675	117.5
299.905	122.5
300.136	128.5
300.366	166.5
300.597	256.5
300.827	409.5
301.057	644.5
301.288	576.5
301.518	241.5
301.748	141.5
301.979	125.5
302.209	120.5
302.439	129.5
302.669	175.5
302.9	253.5
303.13	449.5
303.36	796.5
303.59	1123.5
303.82	795.5
304.051	276.5
304.281	155.5
304.511	142.5
304.741	121.5
304.971	119.5
305.201	115.5
305.431	107.5
305.661	123.5
305.891	126.5
306.121	119.5
306.352	111.5
306.582	107.5
306.812	121.5
307.042	123.5
307.272	104.5
307.502	107.5
307.731	105.5
307.961	113.5
308.191	101.5
308.421	109.5
308.651	109.5
308.881	111.5
309.111	107.5
309.341	110.5
309.571	104.5
309.8	110.5
310.03	111.5
310.26	113.5
310.49	95.5
310.72	108.5
310.949	99.5
311.179	94.5
311.409	115.5
311.639	110.5
311.868	96.5
312.098	111.5
312.328	104.5
312.557	102.5
312.787	125.5
313.017	120.5
313.246	115.5
313.476	122.5
313.706	126.5
313.935	149.5
314.165	195.5
314.394	226.5
314.624	182.5
314.853	134.5
315.083	140.5
315.312	129.5
315.542	113.5
315.771	135.5
316.001	135.5
316.23	141.5
316.46	141.5
316.689	176.5
316.919	244.5
317.148	469.5
317.377	829.5
317.607	1387.5
317.836	1304.5
318.065	491.5
318.295	225.5
318.524	160.5
318.753	138.5
318.983	118.5
319.212	124.5
319.441	126.5
319.67	128.5
319.9	126.5
320.129	119.5
320.358	120.5
320.587	109.5
320.816	117.5
321.046	110.5
321.275	127.5
321.504	127.5
321.733	138.5
321.962	155.5
322.191	155.5
322.42	130.5
322.649	136.5
322.878	110.5
323.108	112.5
323.337	133.5
323.566	125.5
323.795	113.5
324.024	138.5
324.253	130.5
324.482	174.5
324.71	201.5
324.939	268.5
325.168	207.5
325.397	199.5
325.626	238.5
325.855	449.5
326.084	864.5
326.313	1515.5
326.542	1473.5
326.77	593.5
326.999	240.5
327.228	208.5
327.457	229.5
327.686	223.5
327.914	158.5
328.143	142.5
328.372	127.5
328.6	124.5
328.829	130.5
329.058	127.5
329.287	123.5
329.515	109.5
329.744	121.5
329.972	113.5
330.201	124.5
330.43	121.5
330.658	123.5
330.887	125.5
331.115	121.5
331.344	108.5
331.572	131.5
331.801	127.5
332.03	120.5
332.258	127.5
332.486	169.5
332.715	282.5
332.943	469.5
333.172	712.5
333.4	597.5
333.629	250.5
333.857	157.5
334.085	122.5
334.314	127.5
334.542	121.5
334.771	115.5
334.999	138.5
335.227	129.5
335.455	123.5
335.684	126.5
335.912	108.5
336.14	133.5
336.369	123.5
336.597	113.5
336.825	108.5
337.053	105.5
337.281	123.5
337.51	107.5
337.738	111.5
337.966	101.5
338.194	107.5
338.422	106.5
338.65	105.5
338.878	112.5
339.106	104.5
339.334	123.5
339.562	123.5
339.79	119.5
340.018	120.5
340.246	100.5
340.474	108.5
340.702	108.5
340.93	125.5
341.158	111.5
341.386	101.5
341.614	129.5
341.842	115.5
342.07	126.5
342.298	126.5
342.526	112.5
342.754	115.5
342.981	116.5
343.209	125.5
343.437	113.5
343.665	104.5
343.893	100.5
344.12	117.5
344.348	107.5
344.576	107.5
344.804	107.5
345.031	110.5
345.259	107.5
345.487	107.5
345.714	119.5
345.942	117.5
346.17	121.5
346.397	111.5
346.625	111.5
346.853	111.5
347.08	97.5
347.308	111.5
347.535	105.5
347.763	107.5
347.99	100.5
348.218	106.5
348.445	98.5
348.673	115.5
348.9	119.5
349.128	124.5
349.355	107.5
349.583	123.5
349.81	125.5
350.037	120.5
350.265	112.5
350.492	100.5
350.72	116.5
350.947	107.5
351.174	125.5
351.402	127.5
351.629	129.5
351.856	116.5
352.083	104.5
352.311	119.5
352.538	107.5
352.765	118.5
352.992	105.5
353.22	102.5
353.447	106.5
353.674	107.5
353.901	111.5
354.128	117.5
354.355	104.5
354.583	113.5
354.81	112.5
355.037	108.5
355.264	119.5
355.491	83.5
355.718	109.5
355.945	104.5
356.172	81.5
356.399	108.5
356.626	109.5
356.853	121.5
357.08	98.5
357.307	106.5
357.534	109.5
357.761	114.5
357.988	102.5
358.215	112.5
358.441	123.5
358.668	115.5
358.895	121.5
359.122	109.5
359.349	127.5
359.576	111.5
359.802	119.5
360.029	113.5
360.256	109.5
360.483	113.5
360.709	103.5
360.936	121.5
361.163	120.5
361.39	105.5
361.616	113.5
361.843	121.5
362.07	111.5
362.296	104.5
362.523	103.5
362.749	113.5
362.976	121.5
363.203	126.5
363.429	117.5
363.656	99.5
363.882	117.5
364.109	121.5
364.335	117.5
364.562	124.5
364.788	112.5
365.015	121.5
365.241	127.5
365.468	181.5
365.694	240.5
365.92	202.5
366.147	125.5
366.373	106.5
366.599	103.5
366.826	108.5
367.052	102.5
367.278	97.5
367.505	107.5
367.731	106.5
367.957	96.5
368.184	111.5
368.41	120.5
368.636	113.5
368.862	109.5
369.089	103.5
369.315	109.5
369.541	117.5
369.767	121.5
369.993	99.5
370.219	114.5
370.445	113.5
370.672	117.5
370.898	118.5
371.124	117.5
371.35	97.5
371.576	113.5
371.802	97.5
372.028	101.5
372.254	114.5
372.48	108.5
372.706	104.5
372.932	111.5
373.158	118.5
373.384	109.5
373.61	122.5
373.835	119.5
374.061	109.5
374.287	117.5
374.513	89.5
374.739	116.5
374.965	120.5
375.191	109.5
375.416	108.5
375.642	104.5
375.868	101.5
376.094	101.5
376.319	117.5
376.545	111.5
376.771	103.5
376.997	104.5
377.222	111.5
377.448	125.5
377.674	112.5
377.899	101.5
378.125	111.5
378.35	108.5
378.576	117.5
378.802	117.5
379.027	125.5
379.253	141.5
379.478	185.5
379.704	296.5
379.929	727.5
380.155	1447.5
380.38	1520.5
380.606	498.5
380.831	185.5
381.057	141.5
381.282	109.5
381.507	112.5
381.733	110.5
381.958	114.5
382.184	96.5
382.409	110.5
382.634	118.5
382.86	115.5
383.085	85.5
383.31	105.5
383.535	108.5
383.761	118.5
383.986	109.5
384.211	101.5
384.436	106.5
384.662	112.5
384.887	95.5
385.112	108.5
385.337	106.5
385.562	103.5
385.787	119.5
386.013	110.5
386.238	105.5
386.463	101.5
386.688	107.5
386.913	96.5
387.138	108.5
387.363	104.5
387.588	99.5
387.813	115.5
388.038	101.5
388.263	116.5
388.488	112.5
388.713	111.5
388.938	102.5
389.163	97.5
389.387	112.5
389.612	99.5
389.837	93.5
390.062	100.5
390.287	93.5
390.512	91.5
390.736	115.5
390.961	94.5
391.186	113.5
391.411	101.5
391.636	108.5
391.86	86.5
392.085	108.5
392.31	111.5
392.534	97.5
392.759	119.5
392.984	111.5
393.208	116.5
393.433	149.5
393.658	138.5
393.882	99.5
394.107	100.5
394.331	89.5
394.556	96.5
394.78	94.5
395.005	113.5
395.229	92.5
395.454	112.5
395.678	113.5
395.903	110.5
396.127	92.5
396.352	96.5
396.576	98.5
396.801	106.5
397.025	110.5
397.249	103.5
397.474	117.5
397.698	84.5
397.922	101.5
398.147	105.5
398.371	84.5
398.595	115.5
398.82	94.5
399.044	111.5
399.268	102.5
399.492	87.5
399.717	103.5
399.941	103.5
400.165	104.5
400.389	104.5
400.613	96.5
400.837	126.5
401.062	101.5
401.286	89.5
401.51	102.5
401.734	111.5
401.958	89.5
402.182	108.5
402.406	102.5
402.63	99.5
402.854	96.5
403.078	112.5
403.302	110.5
403.526	94.5
403.75	96.5
403.974	107.5
404.198	101.5
404.422	103.5
404.645	96.5
404.869	103.5
405.093	105.5
405.317	107.5
405.541	113.5
405.765	129.5
405.988	140.5
406.212	101.5
406.436	116.5
406.66	105.5
406.883	91.5
407.107	105.5
407.331	111.5
407.555	89.5
407.778	118.5
408.002	109.5
408.226	103.5
408.449	102.5
408.673	96.5
408.896	101.5
409.12	89.5
409.344	93.5
409.567	117.5
409.791	101.5
410.014	100.5
410.238	116.5
410.461	91.5
410.685	112.5
410.908	96.5
411.132	121.5
411.355	100.5
411.578	105.5
411.802	107.5
412.025	92.5
412.249	105.5
412.472	103.5
412.695	90.5
412.919	95.5
413.142	103.5
413.365	106.5
413.589	91.5
413.812	117.5
414.035	112.5
414.258	114.5
414.482	82.5
414.705	112.5
414.928	106.5
415.151	110.5
415.374	108.5
415.597	99.5
415.821	111.5
416.044	97.5
416.267	101.5
416.49	99.5
416.713	109.5
416.936	106.5
417.159	99.5
417.382	104.5
417.605	96.5
417.828	112.5
418.051	104.5
418.274	105.5
418.497	102.5
418.72	102.5
418.943	103.5
419.166	119.5
419.389	108.5
419.611	90.5
419.834	102.5
420.057	85.5
420.28	96.5
420.503	103.5
420.726	104.5
420.948	111.5
421.171	99.5
421.394	100.5
421.617	102.5
421.839	91.5
422.062	96.5
422.285	92.5
422.507	105.5
422.73	131.5
422.953	142.5
423.175	119.5
423.398	90.5
423.621	96.5
423.843	92.5
424.066	101.5
424.288	87.5
424.511	102.5
424.733	109.5
424.956	107.5
425.178	98.5
425.401	106.5
425.623	95.5
425.846	109.5
426.068	104.5
426.291	94.5
426.513	93.5
426.735	99.5
426.958	97.5
427.18	108.5
427.402	110.5
427.625	101.5
427.847	94.5
428.069	101.5
428.292	95.5
428.514	106.5
428.736	116.5
428.958	93.5
429.181	104.5
429.403	98.5
429.625	99.5
429.847	104.5
430.069	109.5
430.292	104.5
430.514	95.5
430.736	111.5
430.958	116.5
431.18	115.5
431.402	103.5
431.624	99.5
431.846	86.5
432.068	79.5
432.29	94.5
432.512	96.5
432.734	92.5
432.956	116.5
433.178	94.5
433.4	105.5
433.622	98.5
433.844	100.5
434.066	104.5
434.287	102.5
434.509	99.5
434.731	98.5
434.953	89.5
435.175	108.5
435.397	105.5
435.618	90.5
435.84	98.5
436.062	95.5
436.284	113.5
436.505	100.5
436.727	103.5
436.949	100.5
437.17	87.5
437.392	96.5
437.614	84.5
437.835	97.5
438.057	83.5
438.278	102.5
438.5	101.5
438.721	91.5
438.943	106.5
439.165	113.5
439.386	112.5
439.608	97.5
439.829	116.5
440.05	109.5
440.272	135.5
440.493	99.5
440.715	108.5
440.936	109.5
441.158	110.5
441.379	94.5
441.6	92.5
441.822	113.5
442.043	109.5
442.264	137.5
442.486	118.5
442.707	99.5
442.928	96.5
443.149	98.5
443.371	104.5
443.592	105.5
443.813	100.5
444.034	101.5
444.255	102.5
444.476	98.5
444.698	100.5
444.919	100.5
445.14	216.5
445.361	148.5
445.582	94.5
445.803	101.5
446.024	101.5
446.245	86.5
446.466	100.5
446.687	113.5
446.908	104.5
447.129	108.5
447.35	110.5
447.571	92.5
447.792	94.5
448.013	104.5
448.234	105.5
448.455	105.5
448.675	93.5
448.896	87.5
449.117	103.5
449.338	119.5
449.559	143.5
449.779	113.5
450	105.5
450.221	129.5
450.442	116.5
450.662	115.5
450.883	99.5
451.104	102.5
451.324	143.5
451.545	121.5
451.766	120.5
451.986	129.5
452.207	202.5
452.428	520.5
452.648	1261.5
452.869	711.5
453.089	187.5
453.31	123.5
453.53	104.5
453.751	149.5
453.971	160.5
454.192	138.5
454.412	116.5
454.633	104.5
454.853	88.5
455.073	101.5
455.294	98.5
455.514	105.5
455.734	99.5
455.955	98.5
456.175	94.5
456.395	80.5
456.616	95.5
456.836	107.5
457.056	100.5
457.276	86.5
457.497	122.5
457.717	125.5
457.937	97.5
458.157	103.5
458.377	96.5
458.598	92.5
458.818	91.5
459.038	99.5
459.258	101.5
459.478	84.5
459.698	88.5
459.918	103.5
460.138	93.5
460.358	89.5
460.578	95.5
460.798	91.5
461.018	97.5
461.238	96.5
461.458	91.5
461.678	97.5
461.898	92.5
462.118	102.5
462.338	99.5
462.558	103.5
462.777	86.5
462.997	94.5
463.217	95.5
463.437	121.5
463.657	169.5
463.876	187.5
464.096	129.5
464.316	95.5
464.536	114.5
464.755	81.5
464.975	102.5
465.195	94.5
465.414	101.5
465.634	95.5
465.854	95.5
466.073	113.5
466.293	92.5
466.512	125.5
466.732	104.5
466.951	105.5
467.171	134.5
467.391	142.5
467.61	109.5
467.829	106.5
468.049	89.5
468.268	86.5
468.488	106.5
468.707	100.5
468.927	87.5
469.146	104.5
469.365	95.5
469.585	105.5
469.804	101.5
470.023	101.5
470.243	104.5
470.462	121.5
470.681	112.5
470.901	137.5
471.12	176.5
471.339	221.5
471.558	133.5
471.777	114.5
471.997	97.5
472.216	103.5
472.435	94.5
472.654	112.5
472.873	109.5
473.092	114.5
473.311	102.5
473.53	79.5
473.749	107.5
473.968	119.5
474.187	96.5
474.406	102.5
474.625	104.5
474.844	100.5
475.063	99.5
475.282	93.5
475.501	107.5
475.72	105.5
475.939	96.5
476.158	94.5
476.377	118.5
476.596	107.5
476.814	105.5
477.033	104.5
477.252	108.5
477.471	108.5
477.69	99.5
477.908	115.5
478.127	99.5
478.346	100.5
478.564	98.5
478.783	88.5
479.002	99.5
479.22	112.5
479.439	101.5
479.658	107.5
479.876	96.5
480.095	93.5
480.313	87.5
480.532	96.5
480.751	103.5
480.969	95.5
481.188	85.5
481.406	106.5
481.624	97.5
481.843	115.5
482.061	105.5
482.28	103.5
482.498	100.5
482.717	87.5
482.935	87.5
483.153	105.5
483.372	93.5
483.59	109.5
483.808	102.5
484.027	92.5
484.245	111.5
484.463	174.5
484.681	222.5
484.9	148.5
485.118	125.5
485.336	97.5
485.554	107.5
485.772	127.5
485.99	192.5
486.209	229.5
486.427	167.5
486.645	126.5
486.863	109.5
487.081	109.5
487.299	89.5
487.517	100.5
487.735	90.5
487.953	104.5
488.171	101.5
488.389	101.5
488.607	93.5
488.825	93.5
489.043	108.5
489.261	96.5
489.479	100.5
489.696	101.5
489.914	88.5
490.132	101.5
490.35	93.5
490.568	90.5
490.786	109.5
491.003	94.5
491.221	125.5
491.439	109.5
491.657	118.5
491.874	107.5
492.092	95.5
492.31	99.5
492.527	101.5
492.745	112.5
492.963	104.5
493.18	114.5
493.398	112.5
493.615	106.5
493.833	99.5
494.05	109.5
494.268	118.5
494.485	108.5
494.703	90.5
494.92	98.5
495.138	94.5
495.355	83.5
495.573	120.5
495.79	102.5
496.008	104.5
496.225	112.5
496.442	116.5
496.66	116.5
496.877	147.5
497.094	160.5
497.312	123.5
497.529	111.5
497.746	110.5
497.963	116.5
498.181	99.5
498.398	115.5
498.615	117.5
498.832	124.5
499.049	105.5
499.267	137.5
499.484	165.5
499.701	112.5
499.918	107.5
500.135	108.5
500.352	103.5
500.569	113.5
500.786	96.5
501.003	98.5
501.22	113.5
501.437	103.5
501.654	100.5
501.871	107.5
502.088	105.5
502.305	84.5
502.522	107.5
502.739	115.5
502.956	105.5
503.172	102.5
503.389	88.5
503.606	103.5
503.823	105.5
504.04	96.5
504.256	107.5
504.473	101.5
504.69	103.5
504.907	105.5
505.123	115.5
505.34	93.5
505.557	99.5
505.773	90.5
505.99	103.5
506.207	96.5
506.423	104.5
506.64	108.5
506.856	112.5
507.073	111.5
507.289	100.5
507.506	99.5
507.722	88.5
507.939	88.5
508.155	100.5
508.372	100.5
508.588	88.5
508.805	111.5
509.021	92.5
509.238	108.5
509.454	143.5
509.67	150.5
509.887	103.5
510.103	87.5
510.319	91.5
510.536	102.5
510.752	117.5
510.968	118.5
511.184	100.5
511.401	99.5
511.617	112.5
511.833	97.5
512.049	107.5
512.265	111.5
512.481	96.5
512.698	107.5
512.914	107.5
513.13	110.5
513.346	96.5
513.562	88.5
513.778	100.5
513.994	108.5
514.21	115.5
514.426	137.5
514.642	204.5
514.858	122.5
515.074	107.5
515.29	99.5
515.506	89.5
515.721	110.5
515.937	99.5
516.153	103.5
516.369	95.5
516.585	86.5
516.801	92.5
517.016	96.5
517.232	105.5
517.448	104.5
517.664	108.5
517.879	99.5
518.095	109.5
518.311	108.5
518.527	118.5
518.742	116.5
518.958	114.5
519.173	146.5
519.389	136.5
519.605	99.5
519.82	97.5
520.036	107.5
520.251	104.5
520.467	105.5
520.682	110.5
520.898	97.5
521.113	95.5
521.329	99.5
521.544	92.5
521.76	104.5
521.975	112.5
522.19	106.5
522.406	103.5
522.621	93.5
522.836	107.5
523.052	102.5
523.267	99.5
523.482	92.5
523.698	94.5
523.913	95.5
524.128	91.5
524.343	91.5
524.559	104.5
524.774	105.5
524.989	99.5
525.204	95.5
525.419	99.5
525.634	96.5
