Data from SnStandardFlinnAPT0064_LampEnergy5.5_LIBS07252019.E.O._I.C._HRD10591_15-14-40-490.txt Node
Date: Thu Jul 25 15:14:40 EDT 2019
User: cochatt
Spectrometer: HR+D1059
Trigger mode: 1
Integration Time (sec): 1.000000E-1
Scans to average: 1
Electric dark correction enabled: true
Nonlinearity correction enabled: false
Boxcar width: 0
XAxis mode: Wavelengths
Number of Pixels in Spectrum: 2048
>>>>>Begin Spectral Data<<<<<
223.165	-17.38
223.4	-17.38
223.635	-17.38
223.869	-19.38
224.104	-17.38
224.338	-20.38
224.573	-1.38
224.808	-15.38
225.042	-1.38
225.277	-1.38
225.511	-7.38
225.746	8.62
225.98	1.62
226.215	18.62
226.449	10.62
226.683	12.62
226.918	17.62
227.152	31.62
227.387	33.62
227.621	25.62
227.856	48.62
228.09	50.62
228.324	61.62
228.559	48.62
228.793	80.62
229.027	137.62
229.262	128.62
229.496	144.62
229.73	151.62
229.964	146.62
230.199	150.62
230.433	135.62
230.667	165.62
230.901	158.62
231.136	163.62
231.37	166.62
231.604	180.62
231.838	193.62
232.072	207.62
232.306	205.62
232.541	187.62
232.775	186.62
233.009	189.62
233.243	184.62
233.477	198.62
233.711	217.62
233.945	227.62
234.179	216.62
234.413	196.62
234.647	194.62
234.881	200.62
235.115	231.62
235.349	242.62
235.583	260.62
235.817	353.62
236.051	352.62
236.285	246.62
236.519	220.62
236.753	208.62
236.987	214.62
237.221	231.62
237.455	201.62
237.689	191.62
237.922	206.62
238.156	211.62
238.39	206.62
238.624	216.62
238.858	216.62
239.091	199.62
239.325	214.62
239.559	228.62
239.793	207.62
240.027	234.62
240.26	226.62
240.494	223.62
240.728	219.62
240.961	240.62
241.195	251.62
241.429	267.62
241.662	283.62
241.896	299.62
242.13	326.62
242.363	419.62
242.597	508.62
242.83	514.62
243.064	510.62
243.298	601.62
243.531	510.62
243.765	357.62
243.998	310.62
244.232	286.62
244.465	276.62
244.699	279.62
244.932	280.62
245.166	272.62
245.399	271.62
245.633	268.62
245.866	283.62
246.099	295.62
246.333	271.62
246.566	273.62
246.8	250.62
247.033	265.62
247.266	258.62
247.5	276.62
247.733	274.62
247.966	300.62
248.2	316.62
248.433	341.62
248.666	353.62
248.899	339.62
249.133	345.62
249.366	332.62
249.599	342.62
249.832	372.62
250.066	380.62
250.299	331.62
250.532	310.62
250.765	306.62
250.998	292.62
251.231	292.62
251.465	300.62
251.698	315.62
251.931	312.62
252.164	314.62
252.397	310.62
252.63	316.62
252.863	310.62
253.096	331.62
253.329	330.62
253.562	321.62
253.795	307.62
254.028	328.62
254.261	315.62
254.494	361.62
254.727	405.62
254.96	450.62
255.193	422.62
255.426	380.62
255.659	361.62
255.892	366.62
256.124	331.62
256.357	355.62
256.59	322.62
256.823	372.62
257.056	425.62
257.289	452.62
257.521	476.62
257.754	447.62
257.987	386.62
258.22	374.62
258.452	370.62
258.685	396.62
258.918	382.62
259.151	386.62
259.383	423.62
259.616	430.62
259.849	471.62
260.081	407.62
260.314	387.62
260.547	395.62
260.779	380.62
261.012	404.62
261.244	392.62
261.477	420.62
261.71	411.62
261.942	435.62
262.175	416.62
262.407	422.62
262.64	443.62
262.872	452.62
263.105	467.62
263.337	499.62
263.57	521.62
263.802	547.62
264.035	524.62
264.267	548.62
264.499	556.62
264.732	570.62
264.964	585.62
265.197	596.62
265.429	590.62
265.661	612.62
265.894	660.62
266.126	679.62
266.358	706.62
266.591	717.62
266.823	638.62
267.055	583.62
267.287	570.62
267.52	543.62
267.752	544.62
267.984	519.62
268.216	528.62
268.448	507.62
268.681	522.62
268.913	506.62
269.145	493.62
269.377	498.62
269.609	481.62
269.841	516.62
270.073	535.62
270.306	614.62
270.538	743.62
270.77	994.62
271.002	1189.62
271.234	922.62
271.466	670.62
271.698	568.62
271.93	527.62
272.162	527.62
272.394	520.62
272.626	518.62
272.858	503.62
273.09	494.62
273.322	494.62
273.553	471.62
273.785	494.62
274.017	504.62
274.249	486.62
274.481	496.62
274.713	481.62
274.945	455.62
275.176	491.62
275.408	506.62
275.64	480.62
275.872	500.62
276.104	488.62
276.335	506.62
276.567	526.62
276.799	506.62
277.031	519.62
277.262	511.62
277.494	536.62
277.726	576.62
277.957	606.62
278.189	666.62
278.421	641.62
278.652	601.62
278.884	599.62
279.115	543.62
279.347	561.62
279.579	528.62
279.81	532.62
280.042	526.62
280.273	538.62
280.505	569.62
280.736	547.62
280.968	562.62
281.199	624.62
281.431	686.62
281.662	715.62
281.894	617.62
282.125	617.62
282.356	612.62
282.588	616.62
282.819	648.62
283.051	656.62
283.282	714.62
283.513	854.62
283.745	1148.62
283.976	1769.62
284.207	2398.62
284.439	2204.62
284.67	1443.62
284.901	1184.62
285.132	1101.62
285.364	1079.62
285.595	905.62
285.826	835.62
286.057	958.62
286.288	1219.62
286.52	1546.62
286.751	1492.62
286.982	1003.62
287.213	825.62
287.444	742.62
287.675	690.62
287.906	678.62
288.138	638.62
288.369	658.62
288.6	639.62
288.831	632.62
289.062	655.62
289.293	650.62
289.524	658.62
289.755	671.62
289.986	660.62
290.217	663.62
290.448	642.62
290.679	660.62
290.91	660.62
291.141	665.62
291.371	702.62
291.602	704.62
291.833	691.62
292.064	655.62
292.295	648.62
292.526	652.62
292.757	619.62
292.987	616.62
293.218	628.62
293.449	622.62
293.68	625.62
293.91	630.62
294.141	611.62
294.372	605.62
294.603	618.62
294.833	622.62
295.064	595.62
295.295	605.62
295.525	625.62
295.756	589.62
295.987	604.62
296.217	613.62
296.448	604.62
296.679	607.62
296.909	633.62
297.14	628.62
297.37	611.62
297.601	663.62
297.831	614.62
298.062	638.62
298.292	632.62
298.523	626.62
298.753	650.62
298.984	643.62
299.214	655.62
299.445	664.62
299.675	682.62
299.905	683.62
300.136	688.62
300.366	782.62
300.597	942.62
300.827	1219.62
301.057	1540.62
301.288	1570.62
301.518	1106.62
301.748	875.62
301.979	851.62
302.209	836.62
302.439	807.62
302.669	833.62
302.9	945.62
303.13	1288.62
303.36	1754.62
303.59	2316.62
303.82	2066.62
304.051	1311.62
304.281	1034.62
304.511	899.62
304.741	826.62
304.971	791.62
305.201	761.62
305.431	755.62
305.661	735.62
305.891	732.62
306.121	709.62
306.352	713.62
306.582	691.62
306.812	690.62
307.042	693.62
307.272	728.62
307.502	727.62
307.731	701.62
307.961	689.62
308.191	720.62
308.421	701.62
308.651	691.62
308.881	692.62
309.111	693.62
309.341	730.62
309.571	710.62
309.8	720.62
310.03	738.62
310.26	716.62
310.49	721.62
310.72	740.62
310.949	736.62
311.179	733.62
311.409	732.62
311.639	730.62
311.868	750.62
312.098	738.62
312.328	759.62
312.557	751.62
312.787	763.62
313.017	762.62
313.246	752.62
313.476	759.62
313.706	785.62
313.935	784.62
314.165	830.62
314.394	865.62
314.624	829.62
314.853	803.62
315.083	821.62
315.312	830.62
315.542	831.62
315.771	836.62
316.001	826.62
316.23	852.62
316.46	878.62
316.689	966.62
316.919	1090.62
317.148	1465.62
317.377	2160.62
317.607	3049.62
317.836	3154.62
318.065	1982.62
318.295	1387.62
318.524	1138.62
318.753	1018.62
318.983	972.62
319.212	946.62
319.441	878.62
319.67	904.62
319.9	894.62
320.129	884.62
320.358	883.62
320.587	854.62
320.816	874.62
321.046	867.62
321.275	857.62
321.504	907.62
321.733	920.62
321.962	904.62
322.191	949.62
322.42	924.62
322.649	911.62
322.878	938.62
323.108	937.62
323.337	976.62
323.566	970.62
323.795	950.62
324.024	1007.62
324.253	990.62
324.482	1032.62
324.71	1066.62
324.939	1111.62
325.168	1157.62
325.397	1184.62
325.626	1356.62
325.855	1748.62
326.084	2613.62
326.313	3766.62
326.542	4005.62
326.77	2760.62
326.999	1906.62
327.228	1642.62
327.457	1589.62
327.686	1576.62
327.914	1699.62
328.143	1927.62
328.372	2177.62
328.6	2309.62
328.829	2223.62
329.058	1946.62
329.287	1782.62
329.515	1636.62
329.744	1566.62
329.972	1483.62
330.201	1392.62
330.43	1369.62
330.658	1316.62
330.887	1332.62
331.115	1301.62
331.344	1294.62
331.572	1275.62
331.801	1265.62
332.03	1297.62
332.258	1306.62
332.486	1367.62
332.715	1484.62
332.943	1688.62
333.172	1995.62
333.4	2004.62
333.629	1670.62
333.857	1577.62
334.085	1580.62
334.314	1669.62
334.542	1780.62
334.771	2046.62
334.999	2342.62
335.227	2765.62
335.455	3078.62
335.684	2953.62
335.912	2608.62
336.14	2250.62
336.369	2054.62
336.597	1833.62
336.825	1723.62
337.053	1650.62
337.281	1530.62
337.51	1478.62
337.738	1399.62
337.966	1398.62
338.194	1320.62
338.422	1322.62
338.65	1290.62
338.878	1267.62
339.106	1193.62
339.334	1219.62
339.562	1190.62
339.79	1168.62
340.018	1159.62
340.246	1149.62
340.474	1122.62
340.702	1147.62
340.93	1146.62
341.158	1131.62
341.386	1126.62
341.614	1135.62
341.842	1088.62
342.07	1103.62
342.298	1059.62
342.526	1050.62
342.754	1046.62
342.981	1056.62
343.209	1045.62
343.437	1057.62
343.665	1091.62
343.893	1084.62
344.12	1086.62
344.348	1086.62
344.576	1047.62
344.804	1036.62
345.031	1016.62
345.259	1033.62
345.487	999.62
345.714	962.62
345.942	970.62
346.17	979.62
346.397	993.62
346.625	998.62
346.853	971.62
347.08	958.62
347.308	986.62
347.535	977.62
347.763	978.62
347.99	971.62
348.218	957.62
348.445	950.62
348.673	931.62
348.9	931.62
349.128	996.62
349.355	913.62
349.583	950.62
349.81	942.62
350.037	927.62
350.265	934.62
350.492	931.62
350.72	938.62
350.947	961.62
351.174	952.62
351.402	942.62
351.629	947.62
351.856	912.62
352.083	922.62
352.311	902.62
352.538	922.62
352.765	924.62
352.992	913.62
353.22	915.62
353.447	916.62
353.674	891.62
353.901	930.62
354.128	916.62
354.355	933.62
354.583	925.62
354.81	936.62
355.037	954.62
355.264	918.62
355.491	926.62
355.718	935.62
355.945	926.62
356.172	958.62
356.399	932.62
356.626	950.62
356.853	960.62
357.08	947.62
357.307	980.62
357.534	1001.62
357.761	967.62
357.988	980.62
358.215	950.62
358.441	955.62
358.668	957.62
358.895	975.62
359.122	971.62
359.349	970.62
359.576	976.62
359.802	1031.62
360.029	1014.62
360.256	966.62
360.483	985.62
360.709	982.62
360.936	992.62
361.163	1008.62
361.39	1008.62
361.616	979.62
361.843	989.62
362.07	1006.62
362.296	984.62
362.523	989.62
362.749	974.62
362.976	958.62
363.203	984.62
363.429	993.62
363.656	975.62
363.882	985.62
364.109	982.62
364.335	955.62
364.562	987.62
364.788	983.62
365.015	1011.62
365.241	994.62
365.468	1038.62
365.694	1065.62
365.92	1044.62
366.147	996.62
366.373	1001.62
366.599	1038.62
366.826	1032.62
367.052	1003.62
367.278	1029.62
367.505	1015.62
367.731	997.62
367.957	1046.62
368.184	1031.62
368.41	1040.62
368.636	1023.62
368.862	1030.62
369.089	1026.62
369.315	1019.62
369.541	1048.62
369.767	1043.62
369.993	1009.62
370.219	1044.62
370.445	1054.62
370.672	1035.62
370.898	1040.62
371.124	1050.62
371.35	1047.62
371.576	1065.62
371.802	1047.62
372.028	1072.62
372.254	1071.62
372.48	1082.62
372.706	1073.62
372.932	1070.62
373.158	1102.62
373.384	1091.62
373.61	1074.62
373.835	1085.62
374.061	1074.62
374.287	1116.62
374.513	1093.62
374.739	1135.62
374.965	1147.62
375.191	1118.62
375.416	1132.62
375.642	1146.62
375.868	1089.62
376.094	1115.62
376.319	1103.62
376.545	1075.62
376.771	1065.62
376.997	1065.62
377.222	1062.62
377.448	1095.62
377.674	1050.62
377.899	1044.62
378.125	1061.62
378.35	1059.62
378.576	1087.62
378.802	1055.62
379.027	1052.62
379.253	1096.62
379.478	1136.62
379.704	1290.62
379.929	1666.62
380.155	2287.62
380.38	2427.62
380.606	1658.62
380.831	1304.62
381.057	1194.62
381.282	1127.62
381.507	1085.62
381.733	1076.62
381.958	1068.62
382.184	1068.62
382.409	1059.62
382.634	1051.62
382.86	1083.62
383.085	1059.62
383.31	1070.62
383.535	1081.62
383.761	1013.62
383.986	1072.62
384.211	1082.62
384.436	1100.62
384.662	1064.62
384.887	1038.62
385.112	1074.62
385.337	1112.62
385.562	1083.62
385.787	1079.62
386.013	1112.62
386.238	1092.62
386.463	1122.62
386.688	1097.62
386.913	1083.62
387.138	1103.62
387.363	1114.62
387.588	1131.62
387.813	1098.62
388.038	1084.62
388.263	1075.62
388.488	1061.62
388.713	1090.62
388.938	1111.62
389.163	1078.62
389.387	1081.62
389.612	1105.62
389.837	1093.62
390.062	1112.62
390.287	1094.62
390.512	1077.62
390.736	1108.62
390.961	1123.62
391.186	1133.62
391.411	1148.62
391.636	1154.62
391.86	1167.62
392.085	1130.62
392.31	1086.62
392.534	1146.62
392.759	1128.62
392.984	1098.62
393.208	1101.62
393.433	1103.62
393.658	1084.62
393.882	1079.62
394.107	1127.62
394.331	1133.62
394.556	1122.62
394.78	1116.62
395.005	1100.62
395.229	1114.62
395.454	1108.62
395.678	1162.62
395.903	1113.62
396.127	1144.62
396.352	1097.62
396.576	1115.62
396.801	1122.62
397.025	1116.62
397.249	1161.62
397.474	1186.62
397.698	1150.62
397.922	1184.62
398.147	1161.62
398.371	1212.62
398.595	1178.62
398.82	1219.62
399.044	1251.62
399.268	1317.62
399.492	1375.62
399.717	1461.62
399.941	1454.62
400.165	1412.62
400.389	1317.62
400.613	1288.62
400.837	1259.62
401.062	1247.62
401.286	1237.62
401.51	1213.62
401.734	1203.62
401.958	1234.62
402.182	1234.62
402.406	1184.62
402.63	1233.62
402.854	1231.62
403.078	1235.62
403.302	1247.62
403.526	1270.62
403.75	1297.62
403.974	1285.62
404.198	1244.62
404.422	1258.62
404.645	1269.62
404.869	1246.62
405.093	1242.62
405.317	1231.62
405.541	1288.62
405.765	1265.62
405.988	1278.62
406.212	1279.62
406.436	1268.62
406.66	1302.62
406.883	1285.62
407.107	1351.62
407.331	1366.62
407.555	1362.62
407.778	1356.62
408.002	1348.62
408.226	1340.62
408.449	1323.62
408.673	1309.62
408.896	1282.62
409.12	1283.62
409.344	1274.62
409.567	1282.62
409.791	1280.62
410.014	1264.62
410.238	1247.62
410.461	1255.62
410.685	1217.62
410.908	1210.62
411.132	1225.62
411.355	1230.62
411.578	1240.62
411.802	1239.62
412.025	1177.62
412.249	1205.62
412.472	1223.62
412.695	1202.62
412.919	1168.62
413.142	1189.62
413.365	1188.62
413.589	1185.62
413.812	1178.62
414.035	1157.62
414.258	1198.62
414.482	1209.62
414.705	1182.62
414.928	1184.62
415.151	1175.62
415.374	1156.62
415.597	1198.62
415.821	1127.62
416.044	1146.62
416.267	1144.62
416.49	1141.62
416.713	1130.62
416.936	1154.62
417.159	1135.62
417.382	1155.62
417.605	1171.62
417.828	1130.62
418.051	1183.62
418.274	1152.62
418.497	1159.62
418.72	1161.62
418.943	1182.62
419.166	1204.62
419.389	1256.62
419.611	1212.62
419.834	1224.62
420.057	1211.62
420.28	1184.62
420.503	1171.62
420.726	1160.62
420.948	1155.62
421.171	1154.62
421.394	1141.62
421.617	1170.62
421.839	1129.62
422.062	1182.62
422.285	1146.62
422.507	1160.62
422.73	1147.62
422.953	1165.62
423.175	1169.62
423.398	1184.62
423.621	1168.62
423.843	1182.62
424.066	1146.62
424.288	1141.62
424.511	1146.62
424.733	1164.62
424.956	1148.62
425.178	1140.62
425.401	1123.62
425.623	1131.62
425.846	1155.62
426.068	1147.62
426.291	1100.62
426.513	1086.62
426.735	1122.62
426.958	1105.62
427.18	1060.62
427.402	1091.62
427.625	1107.62
427.847	1065.62
428.069	1050.62
428.292	1097.62
428.514	1066.62
428.736	1068.62
428.958	1063.62
429.181	1060.62
429.403	1039.62
429.625	1039.62
429.847	1065.62
430.069	1074.62
430.292	1089.62
430.514	1115.62
430.736	1112.62
430.958	1104.62
431.18	1059.62
431.402	1092.62
431.624	1064.62
431.846	1029.62
432.068	990.62
432.29	1048.62
432.512	1031.62
432.734	1060.62
432.956	1082.62
433.178	1099.62
433.4	1077.62
433.622	1046.62
433.844	1075.62
434.066	1045.62
434.287	1032.62
434.509	1080.62
434.731	1087.62
434.953	1084.62
435.175	1104.62
435.397	1146.62
435.618	1099.62
435.84	1094.62
436.062	1032.62
436.284	1084.62
436.505	1053.62
436.727	1048.62
436.949	1068.62
437.17	1064.62
437.392	1051.62
437.614	1019.62
437.835	1013.62
438.057	1043.62
438.278	1038.62
438.5	1055.62
438.721	1032.62
438.943	1075.62
439.165	1041.62
439.386	1082.62
439.608	1092.62
439.829	1094.62
440.05	1122.62
440.272	1113.62
440.493	1121.62
440.715	1140.62
440.936	1077.62
441.158	1103.62
441.379	1100.62
441.6	1166.62
441.822	1170.62
442.043	1246.62
442.264	1248.62
442.486	1158.62
442.707	1136.62
442.928	1150.62
443.149	1145.62
443.371	1094.62
443.592	1123.62
443.813	1106.62
444.034	1127.62
444.255	1144.62
444.476	1194.62
444.698	1207.62
444.919	1232.62
445.14	1287.62
445.361	1182.62
445.582	1183.62
445.803	1168.62
446.024	1136.62
446.245	1142.62
446.466	1145.62
446.687	1114.62
446.908	1123.62
447.129	1078.62
447.35	1072.62
447.571	1090.62
447.792	1063.62
448.013	1064.62
448.234	1055.62
448.455	1074.62
448.675	1051.62
448.896	1084.62
449.117	1080.62
449.338	1190.62
449.559	1188.62
449.779	1092.62
450	1037.62
450.221	1045.62
450.442	1042.62
450.662	1022.62
450.883	1001.62
451.104	1034.62
451.324	1018.62
451.545	1008.62
451.766	1000.62
451.986	1022.62
452.207	1071.62
452.428	1229.62
452.648	1586.62
452.869	1362.62
453.089	1140.62
453.31	1077.62
453.53	1088.62
453.751	1111.62
453.971	1160.62
454.192	1106.62
454.412	1028.62
454.633	987.62
454.853	1001.62
455.073	980.62
455.294	977.62
455.514	990.62
455.734	980.62
455.955	950.62
456.175	953.62
456.395	963.62
456.616	954.62
456.836	1001.62
457.056	955.62
457.276	981.62
457.497	1007.62
457.717	1036.62
457.937	1013.62
458.157	1014.62
458.377	1028.62
458.598	1014.62
458.818	1072.62
459.038	1033.62
459.258	1043.62
459.478	1060.62
459.698	1045.62
459.918	1072.62
460.138	1094.62
460.358	1162.62
460.578	1124.62
460.798	1136.62
461.018	1143.62
461.238	1144.62
461.458	1176.62
461.678	1127.62
461.898	1177.62
462.118	1170.62
462.338	1241.62
462.558	1266.62
462.777	1233.62
462.997	1255.62
463.217	1319.62
463.437	1391.62
463.657	1356.62
463.876	1354.62
464.096	1299.62
464.316	1257.62
464.536	1233.62
464.755	1210.62
464.975	1168.62
465.195	1150.62
465.414	1116.62
465.634	1088.62
465.854	1092.62
466.073	1078.62
466.293	1093.62
466.512	1054.62
466.732	1094.62
466.951	1117.62
467.171	1165.62
467.391	1132.62
467.61	1093.62
467.829	1047.62
468.049	1077.62
468.268	1062.62
468.488	1050.62
468.707	1041.62
468.927	1082.62
469.146	1040.62
469.365	1077.62
469.585	1067.62
469.804	1055.62
470.023	1082.62
470.243	1115.62
470.462	1141.62
470.681	1147.62
470.901	1252.62
471.12	1374.62
471.339	1366.62
471.558	1200.62
471.777	1114.62
471.997	1090.62
472.216	1040.62
472.435	1024.62
472.654	1057.62
472.873	1025.62
473.092	1019.62
473.311	1042.62
473.53	1050.62
473.749	1092.62
473.968	1111.62
474.187	1048.62
474.406	1038.62
474.625	1059.62
474.844	1070.62
475.063	1072.62
475.282	1037.62
475.501	1046.62
475.72	1076.62
475.939	1095.62
476.158	1092.62
476.377	1102.62
476.596	1092.62
476.814	1107.62
477.033	1119.62
477.252	1075.62
477.471	1154.62
477.69	1184.62
477.908	1136.62
478.127	1202.62
478.346	1184.62
478.564	1220.62
478.783	1228.62
479.002	1280.62
479.22	1255.62
479.439	1270.62
479.658	1232.62
479.876	1247.62
480.095	1232.62
480.313	1282.62
480.532	1294.62
480.751	1268.62
480.969	1258.62
481.188	1230.62
481.406	1209.62
481.624	1224.62
481.843	1207.62
482.061	1234.62
482.28	1232.62
482.498	1201.62
482.717	1214.62
482.935	1236.62
483.153	1259.62
483.372	1283.62
483.59	1283.62
483.808	1317.62
484.027	1338.62
484.245	1353.62
484.463	1488.62
484.681	1616.62
484.9	1506.62
485.118	1441.62
485.336	1410.62
485.554	1432.62
485.772	1480.62
485.99	1635.62
486.209	1703.62
486.427	1483.62
486.645	1378.62
486.863	1392.62
487.081	1337.62
487.299	1348.62
487.517	1314.62
487.735	1364.62
487.953	1386.62
488.171	1376.62
488.389	1334.62
488.607	1327.62
488.825	1305.62
489.043	1295.62
489.261	1283.62
489.479	1296.62
489.696	1304.62
489.914	1323.62
490.132	1305.62
490.35	1320.62
490.568	1315.62
490.786	1326.62
491.003	1352.62
491.221	1374.62
491.439	1432.62
491.657	1401.62
491.874	1426.62
492.092	1424.62
492.31	1459.62
