Data from SnStandardFlinnAPT0064_LampEnergy10_LIBS07252019.E.O._I.C._HRD10591_15-20-02-493.txt Node
Date: Thu Jul 25 15:20:02 EDT 2019
User: cochatt
Spectrometer: HR+D1059
Trigger mode: 1
Integration Time (sec): 1.000000E-1
Scans to average: 1
Electric dark correction enabled: true
Nonlinearity correction enabled: false
Boxcar width: 0
XAxis mode: Wavelengths
Number of Pixels in Spectrum: 2048
>>>>>Begin Spectral Data<<<<<
223.165	-22.56
223.4	-22.56
223.635	-22.56
223.869	-10.56
224.104	-16.56
224.338	-15.56
224.573	-15.56
224.808	-4.56
225.042	-23.56
225.277	-10.56
225.511	1.44
225.746	8.44
225.98	3.44
226.215	12.44
226.449	23.44
226.683	24.44
226.918	20.44
227.152	25.44
227.387	36.44
227.621	49.44
227.856	47.44
228.09	36.44
228.324	49.44
228.559	62.44
228.793	134.44
229.027	310.44
229.262	350.44
229.496	326.44
229.73	293.44
229.964	296.44
230.199	309.44
230.433	306.44
230.667	328.44
230.901	346.44
231.136	343.44
231.37	354.44
231.604	411.44
231.838	467.44
232.072	549.44
232.306	596.44
232.541	489.44
232.775	439.44
233.009	403.44
233.243	451.44
233.477	470.44
233.711	541.44
233.945	624.44
234.179	521.44
234.413	459.44
234.647	453.44
234.881	488.44
235.115	547.44
235.349	659.44
235.583	824.44
235.817	1062.44
236.051	1026.44
236.285	693.44
236.519	538.44
236.753	517.44
236.987	511.44
237.221	532.44
237.455	531.44
237.689	472.44
237.922	477.44
238.156	475.44
238.39	490.44
238.624	485.44
238.858	476.44
239.091	497.44
239.325	489.44
239.559	498.44
239.793	503.44
240.027	525.44
240.26	556.44
240.494	581.44
240.728	600.44
240.961	608.44
241.195	670.44
241.429	687.44
241.662	736.44
241.896	839.44
242.13	1008.44
242.363	1289.44
242.597	1685.44
242.83	1619.44
243.064	1644.44
243.298	1899.44
243.531	1555.44
243.765	999.44
243.998	820.44
244.232	738.44
244.465	673.44
244.699	687.44
244.932	666.44
245.166	688.44
245.399	669.44
245.633	706.44
245.866	724.44
246.099	693.44
246.333	654.44
246.566	650.44
246.8	653.44
247.033	648.44
247.266	650.44
247.5	680.44
247.733	701.44
247.966	720.44
248.2	750.44
248.433	916.44
248.666	1031.44
248.899	1018.44
249.133	845.44
249.366	892.44
249.599	979.44
249.832	1126.44
250.066	1131.44
250.299	906.44
250.532	812.44
250.765	789.44
250.998	733.44
251.231	736.44
251.465	728.44
251.698	765.44
251.931	762.44
252.164	728.44
252.397	788.44
252.63	805.44
252.863	800.44
253.096	813.44
253.329	776.44
253.562	776.44
253.795	773.44
254.028	813.44
254.261	842.44
254.494	904.44
254.727	1037.44
254.96	1293.44
255.193	1274.44
255.426	1002.44
255.659	893.44
255.892	868.44
256.124	865.44
256.357	891.44
256.59	949.44
256.823	1014.44
257.056	1180.44
257.289	1413.44
257.521	1574.44
257.754	1252.44
257.987	1031.44
258.22	949.44
258.452	967.44
258.685	956.44
258.918	960.44
259.151	1033.44
259.383	1109.44
259.616	1259.44
259.849	1305.44
260.081	1094.44
260.314	1019.44
260.547	960.44
260.779	963.44
261.012	939.44
261.244	995.44
261.477	980.44
261.71	1000.44
261.942	982.44
262.175	1036.44
262.407	1043.44
262.64	1092.44
262.872	1109.44
263.105	1151.44
263.337	1221.44
263.57	1273.44
263.802	1293.44
264.035	1263.44
264.267	1354.44
264.499	1321.44
264.732	1437.44
264.964	1443.44
265.197	1418.44
265.429	1423.44
265.661	1484.44
265.894	1580.44
266.126	1768.44
266.358	1989.44
266.591	1945.44
266.823	1662.44
267.055	1453.44
267.287	1391.44
267.52	1359.44
267.752	1293.44
267.984	1281.44
268.216	1233.44
268.448	1274.44
268.681	1268.44
268.913	1234.44
269.145	1247.44
269.377	1249.44
269.609	1258.44
269.841	1292.44
270.073	1383.44
270.306	1665.44
270.538	2251.44
270.77	3367.44
271.002	4136.44
271.234	2948.44
271.466	1964.44
271.698	1587.44
271.93	1435.44
272.162	1355.44
272.394	1307.44
272.626	1299.44
272.858	1252.44
273.09	1270.44
273.322	1265.44
273.553	1237.44
273.785	1219.44
274.017	1217.44
274.249	1237.44
274.481	1234.44
274.713	1236.44
274.945	1253.44
275.176	1224.44
275.408	1240.44
275.64	1268.44
275.872	1301.44
276.104	1296.44
276.335	1296.44
276.567	1306.44
276.799	1289.44
277.031	1346.44
277.262	1379.44
277.494	1411.44
277.726	1619.44
277.957	1954.44
278.189	2241.44
278.421	2053.44
278.652	1840.44
278.884	1723.44
279.115	1520.44
279.347	1484.44
279.579	1448.44
279.81	1419.44
280.042	1436.44
280.273	1441.44
280.505	1495.44
280.736	1531.44
280.968	1611.44
281.199	1846.44
281.431	2098.44
281.662	2173.44
281.894	1856.44
282.125	1698.44
282.356	1672.44
282.588	1711.44
282.819	1760.44
283.051	1854.44
283.282	2078.44
283.513	2601.44
283.745	3750.44
283.976	5917.44
284.207	8339.44
284.439	7683.44
284.67	4824.44
284.901	3942.44
285.132	3988.44
285.364	3733.44
285.595	2865.44
285.826	2471.44
286.057	3001.44
286.288	4035.44
286.52	5456.44
286.751	5092.44
286.982	3192.44
287.213	2427.44
287.444	2101.44
287.675	1940.44
287.906	1840.44
288.138	1807.44
288.369	1723.44
288.6	1725.44
288.831	1705.44
289.062	1721.44
289.293	1720.44
289.524	1719.44
289.755	1763.44
289.986	1748.44
290.217	1748.44
290.448	1730.44
290.679	1749.44
290.91	1836.44
291.141	1947.44
291.371	2115.44
291.602	2165.44
291.833	2034.44
292.064	1790.44
292.295	1693.44
292.526	1677.44
292.757	1648.44
292.987	1633.44
293.218	1591.44
293.449	1617.44
293.68	1629.44
293.91	1599.44
294.141	1659.44
294.372	1578.44
294.603	1593.44
294.833	1587.44
295.064	1590.44
295.295	1582.44
295.525	1558.44
295.756	1601.44
295.987	1583.44
296.217	1555.44
296.448	1591.44
296.679	1596.44
296.909	1593.44
297.14	1636.44
297.37	1657.44
297.601	1655.44
297.831	1660.44
298.062	1619.44
298.292	1651.44
298.523	1684.44
298.753	1702.44
298.984	1706.44
299.214	1765.44
299.445	1752.44
299.675	1828.44
299.905	1867.44
300.136	1976.44
300.366	2229.44
300.597	2855.44
300.827	3983.44
301.057	5505.44
301.288	5500.44
301.518	3587.44
301.748	2660.44
301.979	2458.44
302.209	2389.44
302.439	2360.44
302.669	2518.44
302.9	3101.44
303.13	4377.44
303.36	6443.44
303.59	8650.44
303.82	7518.44
304.051	4531.44
304.281	3196.44
304.511	2684.44
304.741	2423.44
304.971	2252.44
305.201	2175.44
305.431	2074.44
305.661	2045.44
305.891	1964.44
306.121	1927.44
306.352	1924.44
306.582	1877.44
306.812	1888.44
307.042	1871.44
307.272	1873.44
307.502	1831.44
307.731	1853.44
307.961	1839.44
308.191	1823.44
308.421	1833.44
308.651	1849.44
308.881	1801.44
309.111	1868.44
309.341	1851.44
309.571	1860.44
309.8	1895.44
310.03	1850.44
310.26	1910.44
310.49	1880.44
310.72	1908.44
310.949	1839.44
311.179	1956.44
311.409	1949.44
311.639	1975.44
311.868	1961.44
312.098	1985.44
312.328	1985.44
312.557	2000.44
312.787	2008.44
313.017	2073.44
313.246	2038.44
313.476	2035.44
313.706	2128.44
313.935	2255.44
314.165	2447.44
314.394	2576.44
314.624	2396.44
314.853	2171.44
315.083	2195.44
315.312	2234.44
315.542	2173.44
315.771	2257.44
316.001	2315.44
316.23	2372.44
316.46	2492.44
316.689	2759.44
316.919	3362.44
317.148	4806.44
317.377	7401.44
317.607	10955.44
317.836	11282.44
318.065	6929.44
318.295	4492.44
318.524	3606.44
318.753	3069.44
318.983	2843.44
319.212	2622.44
319.441	2575.44
319.67	2525.44
319.9	2430.44
320.129	2419.44
320.358	2397.44
320.587	2420.44
320.816	2388.44
321.046	2381.44
321.275	2377.44
321.504	2463.44
321.733	2479.44
321.962	2536.44
322.191	2595.44
322.42	2572.44
322.649	2568.44
322.878	2517.44
323.108	2529.44
323.337	2603.44
323.566	2631.44
323.795	2683.44
324.024	2697.44
324.253	2773.44
324.482	2893.44
324.71	3101.44
324.939	3339.44
325.168	3431.44
325.397	3487.44
325.626	4208.44
325.855	5884.44
326.084	9138.44
326.313	13163.44
326.542	13843.44
326.77	9576.44
326.999	6321.44
327.228	5155.44
327.457	4954.44
327.686	5064.44
327.914	5312.44
328.143	6158.44
328.372	7292.44
328.6	7961.44
328.829	7179.44
329.058	5923.44
329.287	5319.44
329.515	4766.44
329.744	4379.44
329.972	4177.44
330.201	3964.44
330.43	3858.44
330.658	3720.44
330.887	3633.44
331.115	3609.44
331.344	3549.44
331.572	3532.44
331.801	3548.44
332.03	3537.44
332.258	3567.44
332.486	3880.44
332.715	4422.44
332.943	5496.44
333.172	6882.44
333.4	6854.44
333.629	5159.44
333.857	4672.44
334.085	4583.44
334.314	4864.44
334.542	5243.44
334.771	6199.44
334.999	7519.44
335.227	9455.44
335.455	10656.44
335.684	9619.44
335.912	7940.44
336.14	6736.44
336.369	5860.44
336.597	5396.44
336.825	4913.44
337.053	4633.44
337.281	4382.44
337.51	4155.44
337.738	3902.44
337.966	3751.44
338.194	3635.44
338.422	3587.44
338.65	3425.44
338.878	3392.44
339.106	3244.44
339.334	3198.44
339.562	3214.44
339.79	3156.44
340.018	3069.44
340.246	3077.44
340.474	3041.44
340.702	3040.44
340.93	3066.44
341.158	3012.44
341.386	3025.44
341.614	2984.44
341.842	2922.44
342.07	2883.44
342.298	2779.44
342.526	2781.44
342.754	2772.44
342.981	2794.44
343.209	2724.44
343.437	2759.44
343.665	2855.44
343.893	2830.44
344.12	2815.44
344.348	2821.44
344.576	2722.44
344.804	2698.44
345.031	2671.44
345.259	2652.44
345.487	2597.44
345.714	2589.44
345.942	2565.44
346.17	2561.44
346.397	2573.44
346.625	2563.44
346.853	2551.44
347.08	2545.44
347.308	2562.44
347.535	2553.44
347.763	2561.44
347.99	2532.44
348.218	2505.44
348.445	2497.44
348.673	2473.44
348.9	2507.44
349.128	2473.44
349.355	2474.44
349.583	2455.44
349.81	2447.44
350.037	2426.44
350.265	2441.44
350.492	2435.44
350.72	2421.44
350.947	2404.44
351.174	2421.44
351.402	2435.44
351.629	2400.44
351.856	2423.44
352.083	2412.44
352.311	2360.44
352.538	2409.44
352.765	2388.44
352.992	2330.44
353.22	2433.44
353.447	2380.44
353.674	2386.44
353.901	2419.44
354.128	2424.44
354.355	2376.44
354.583	2400.44
354.81	2451.44
355.037	2410.44
355.264	2415.44
355.491	2439.44
355.718	2458.44
355.945	2431.44
356.172	2473.44
356.399	2519.44
356.626	2510.44
356.853	2551.44
357.08	2565.44
357.307	2507.44
357.534	2585.44
357.761	2588.44
357.988	2623.44
358.215	2603.44
358.441	2570.44
358.668	2600.44
358.895	2585.44
359.122	2559.44
359.349	2546.44
359.576	2543.44
359.802	2559.44
360.029	2553.44
360.256	2588.44
360.483	2532.44
360.709	2571.44
360.936	2567.44
361.163	2600.44
361.39	2544.44
361.616	2545.44
361.843	2584.44
362.07	2602.44
362.296	2614.44
362.523	2587.44
362.749	2585.44
362.976	2588.44
363.203	2560.44
363.429	2571.44
363.656	2575.44
363.882	2576.44
364.109	2555.44
364.335	2547.44
364.562	2576.44
364.788	2558.44
365.015	2597.44
365.241	2698.44
365.468	2850.44
365.694	3009.44
365.92	2908.44
366.147	2647.44
366.373	2649.44
366.599	2631.44
366.826	2601.44
367.052	2659.44
367.278	2608.44
367.505	2621.44
367.731	2624.44
367.957	2593.44
368.184	2651.44
368.41	2655.44
368.636	2705.44
368.862	2696.44
369.089	2671.44
369.315	2655.44
369.541	2689.44
369.767	2648.44
369.993	2625.44
370.219	2601.44
370.445	2665.44
370.672	2697.44
370.898	2666.44
371.124	2737.44
371.35	2726.44
371.576	2761.44
371.802	2705.44
372.028	2732.44
372.254	2753.44
372.48	2788.44
372.706	2793.44
372.932	2769.44
373.158	2783.44
373.384	2812.44
373.61	2821.44
373.835	2793.44
374.061	2819.44
374.287	2848.44
374.513	2854.44
374.739	2908.44
374.965	2882.44
375.191	2965.44
375.416	2938.44
375.642	2883.44
375.868	2831.44
376.094	2825.44
376.319	2790.44
376.545	2764.44
376.771	2791.44
376.997	2766.44
377.222	2746.44
377.448	2769.44
377.674	2761.44
377.899	2711.44
378.125	2737.44
378.35	2783.44
378.576	2755.44
378.802	2775.44
379.027	2825.44
379.253	2907.44
379.478	3042.44
379.704	3678.44
379.929	5356.44
380.155	8303.44
380.38	9037.44
380.606	5522.44
380.831	3815.44
381.057	3356.44
381.282	2997.44
381.507	2916.44
381.733	2825.44
381.958	2788.44
382.184	2723.44
382.409	2749.44
382.634	2684.44
382.86	2645.44
383.085	2698.44
383.31	2703.44
383.535	2684.44
383.761	2713.44
383.986	2753.44
384.211	2760.44
384.436	2800.44
384.662	2780.44
384.887	2812.44
385.112	2784.44
385.337	2772.44
385.562	2779.44
385.787	2829.44
386.013	2771.44
386.238	2777.44
386.463	2821.44
386.688	2790.44
386.913	2757.44
387.138	2763.44
387.363	2822.44
387.588	2749.44
387.813	2769.44
388.038	2767.44
388.263	2738.44
388.488	2789.44
388.713	2769.44
388.938	2770.44
389.163	2743.44
389.387	2791.44
389.612	2730.44
389.837	2747.44
390.062	2755.44
390.287	2815.44
390.512	2815.44
390.736	2814.44
390.961	2818.44
391.186	2836.44
391.411	2890.44
391.636	2918.44
391.86	2924.44
392.085	2881.44
392.31	2927.44
392.534	2892.44
392.759	2870.44
392.984	2878.44
393.208	2800.44
393.433	2898.44
393.658	2845.44
393.882	2810.44
394.107	2769.44
394.331	2793.44
394.556	2821.44
394.78	2886.44
395.005	2830.44
395.229	2841.44
395.454	2945.44
395.678	2912.44
395.903	2885.44
396.127	2897.44
396.352	2871.44
396.576	2822.44
396.801	2895.44
397.025	2961.44
397.249	2963.44
397.474	2925.44
397.698	2896.44
397.922	2931.44
398.147	2957.44
398.371	2963.44
398.595	3030.44
398.82	3112.44
399.044	3269.44
399.268	3359.44
399.492	3552.44
399.717	3669.44
399.941	3650.44
400.165	3588.44
400.389	3435.44
400.613	3261.44
400.837	3159.44
401.062	3144.44
401.286	3116.44
401.51	3052.44
401.734	3021.44
401.958	3051.44
402.182	3058.44
402.406	3038.44
402.63	3136.44
402.854	3104.44
403.078	3183.44
403.302	3160.44
403.526	3173.44
403.75	3171.44
403.974	3220.44
404.198	3129.44
404.422	3183.44
404.645	3141.44
404.869	3135.44
405.093	3191.44
405.317	3181.44
405.541	3201.44
405.765	3267.44
405.988	3337.44
406.212	3272.44
406.436	3240.44
406.66	3259.44
406.883	3253.44
407.107	3435.44
407.331	3385.44
407.555	3469.44
407.778	3469.44
408.002	3401.44
408.226	3418.44
408.449	3419.44
408.673	3313.44
408.896	3266.44
409.12	3251.44
409.344	3253.44
409.567	3165.44
409.791	3193.44
410.014	3152.44
410.238	3168.44
410.461	3145.44
410.685	3201.44
410.908	3093.44
411.132	3102.44
411.355	3037.44
411.578	3006.44
411.802	3059.44
412.025	3031.44
412.249	3085.44
412.472	3088.44
412.695	3031.44
412.919	3018.44
413.142	3033.44
413.365	2994.44
413.589	3021.44
413.812	3015.44
414.035	2961.44
414.258	3002.44
414.482	2999.44
414.705	3007.44
414.928	2979.44
415.151	3006.44
415.374	2965.44
415.597	2909.44
415.821	2894.44
416.044	2929.44
416.267	2900.44
416.49	2854.44
416.713	2867.44
416.936	2873.44
417.159	2848.44
417.382	2841.44
417.605	2844.44
417.828	2821.44
418.051	2875.44
418.274	2924.44
418.497	2925.44
418.72	2940.44
418.943	2908.44
419.166	3045.44
419.389	3189.44
419.611	3147.44
419.834	3083.44
420.057	3008.44
420.28	2891.44
420.503	2865.44
420.726	2847.44
420.948	2855.44
421.171	2901.44
421.394	2899.44
421.617	2917.44
421.839	2900.44
422.062	2933.44
422.285	2849.44
422.507	2948.44
422.73	3011.44
422.953	2991.44
423.175	3009.44
423.398	2897.44
423.621	2906.44
423.843	2863.44
424.066	2872.44
424.288	2841.44
424.511	2893.44
424.733	2849.44
424.956	2860.44
425.178	2872.44
425.401	2885.44
425.623	2857.44
425.846	2773.44
426.068	2784.44
426.291	2800.44
426.513	2749.44
426.735	2736.44
426.958	2769.44
427.18	2737.44
427.402	2727.44
427.625	2753.44
427.847	2717.44
428.069	2646.44
428.292	2750.44
428.514	2706.44
428.736	2668.44
428.958	2707.44
429.181	2641.44
429.403	2585.44
429.625	2629.44
429.847	2657.44
430.069	2731.44
430.292	2856.44
430.514	2867.44
430.736	2927.44
430.958	2745.44
431.18	2650.44
431.402	2675.44
431.624	2620.44
431.846	2612.44
432.068	2641.44
432.29	2624.44
432.512	2593.44
432.734	2652.44
432.956	2674.44
433.178	2632.44
433.4	2631.44
433.622	2682.44
433.844	2719.44
434.066	2651.44
434.287	2635.44
434.509	2643.44
434.731	2784.44
434.953	2832.44
435.175	2743.44
435.397	2713.44
435.618	2739.44
435.84	2693.44
436.062	2675.44
436.284	2657.44
436.505	2671.44
436.727	2646.44
436.949	2623.44
437.17	2634.44
437.392	2578.44
437.614	2604.44
437.835	2507.44
438.057	2615.44
438.278	2520.44
438.5	2628.44
438.721	2611.44
438.943	2754.44
439.165	2768.44
439.386	2770.44
439.608	2744.44
439.829	2774.44
440.05	2860.44
440.272	2896.44
440.493	2753.44
440.715	2716.44
440.936	2731.44
441.158	2791.44
441.379	2745.44
441.6	2848.44
441.822	2977.44
442.043	3108.44
442.264	3236.44
442.486	2967.44
442.707	2920.44
442.928	2863.44
443.149	2879.44
443.371	2825.44
443.592	2855.44
443.813	2854.44
444.034	2801.44
444.255	2867.44
444.476	2903.44
444.698	2980.44
444.919	3048.44
445.14	3055.44
445.361	2973.44
445.582	2942.44
445.803	2829.44
446.024	2842.44
446.245	2795.44
446.466	2823.44
446.687	2772.44
446.908	2751.44
447.129	2719.44
447.35	2651.44
447.571	2657.44
447.792	2594.44
448.013	2593.44
448.234	2631.44
448.455	2611.44
448.675	2664.44
448.896	2724.44
449.117	2819.44
449.338	3035.44
449.559	3140.44
449.779	2875.44
450	2626.44
450.221	2592.44
450.442	2619.44
450.662	2603.44
450.883	2506.44
451.104	2516.44
451.324	2491.44
451.545	2566.44
451.766	2607.44
451.986	2657.44
452.207	2860.44
452.428	3711.44
452.648	5756.44
452.869	4775.44
453.089	3258.44
453.31	3013.44
453.53	2917.44
453.751	3085.44
453.971	3311.44
454.192	3195.44
454.412	2740.44
454.633	2579.44
454.853	2515.44
455.073	2520.44
455.294	2487.44
455.514	2405.44
455.734	2497.44
455.955	2415.44
456.175	2444.44
456.395	2411.44
456.616	2459.44
456.836	2507.44
457.056	2487.44
457.276	2491.44
457.497	2658.44
457.717	2724.44
457.937	2569.44
458.157	2555.44
458.377	2536.44
458.598	2617.44
458.818	2667.44
459.038	2661.44
459.258	2637.44
459.478	2677.44
459.698	2683.44
459.918	2748.44
460.138	2790.44
460.358	2809.44
460.578	2877.44
460.798	2889.44
461.018	2891.44
461.238	2859.44
461.458	2911.44
461.678	2993.44
461.898	3005.44
462.118	3022.44
462.338	3070.44
462.558	3135.44
462.777	3120.44
462.997	3294.44
463.217	3417.44
463.437	3526.44
463.657	3595.44
463.876	3627.44
464.096	3404.44
464.316	3229.44
464.536	3180.44
464.755	3105.44
464.975	3027.44
465.195	2934.44
465.414	2817.44
465.634	2733.44
465.854	2724.44
466.073	2744.44
466.293	2722.44
466.512	2677.44
466.732	2688.44
466.951	2807.44
467.171	3015.44
467.391	2999.44
467.61	2725.44
467.829	2636.44
468.049	2666.44
468.268	2557.44
468.488	2605.44
468.707	2591.44
468.927	2579.44
469.146	2574.44
469.365	2640.44
469.585	2709.44
469.804	2719.44
470.023	2820.44
470.243	2769.44
470.462	2923.44
470.681	3035.44
470.901	3369.44
471.12	3863.44
471.339	3859.44
471.558	3199.44
471.777	2978.44
471.997	2845.44
472.216	2769.44
472.435	2725.44
472.654	2649.44
472.873	2602.44
473.092	2668.44
473.311	2633.44
473.53	2651.44
473.749	2702.44
473.968	2823.44
474.187	2639.44
474.406	2592.44
474.625	2641.44
474.844	2624.44
475.063	2669.44
475.282	2643.44
475.501	2654.44
475.72	2707.44
475.939	2695.44
476.158	2763.44
476.377	2802.44
476.596	2819.44
476.814	2803.44
477.033	2777.44
477.252	2727.44
477.471	2829.44
477.69	2880.44
477.908	3000.44
478.127	3026.44
478.346	3011.44
478.564	3027.44
478.783	3058.44
479.002	3113.44
479.22	3111.44
479.439	3127.44
479.658	3149.44
479.876	3198.44
480.095	3164.44
480.313	3346.44
480.532	3272.44
480.751	3251.44
480.969	3211.44
481.188	3196.44
481.406	3189.44
481.624	3184.44
481.843	3268.44
482.061	3197.44
482.28	3203.44
482.498	3196.44
482.717	3153.44
482.935	3210.44
483.153	3222.44
483.372	3333.44
483.59	3352.44
483.808	3366.44
484.027	3503.44
484.245	3667.44
484.463	4139.44
484.681	4532.44
484.9	4171.44
485.118	3855.44
485.336	3831.44
485.554	3941.44
485.772	4123.44
485.99	4651.44
486.209	4922.44
486.427	4229.44
486.645	3740.44
486.863	3603.44
487.081	3524.44
487.299	3463.44
487.517	3415.44
487.735	3444.44
