Data from SnStandardFlinnAPT0064_LampEnergy5.5_LIBS07252019.E.O._I.C._HRD10591_15-16-28-492.txt Node
Date: Thu Jul 25 15:16:28 EDT 2019
User: cochatt
Spectrometer: HR+D1059
Trigger mode: 1
Integration Time (sec): 1.000000E-1
Scans to average: 1
Electric dark correction enabled: true
Nonlinearity correction enabled: false
Boxcar width: 0
XAxis mode: Wavelengths
Number of Pixels in Spectrum: 2048
>>>>>Begin Spectral Data<<<<<
223.165	-15
223.4	-15
223.635	-15
223.869	-18
224.104	-24
224.338	-22
224.573	-19
224.808	-4
225.042	-16
225.277	-4
225.511	0
225.746	9
225.98	10
226.215	17
226.449	16
226.683	19
226.918	16
227.152	35
227.387	55
227.621	44
227.856	30
228.09	54
228.324	48
228.559	54
228.793	88
229.027	152
229.262	156
229.496	154
229.73	159
229.964	162
230.199	157
230.433	154
230.667	176
230.901	162
231.136	174
231.37	198
231.604	199
231.838	202
232.072	244
232.306	241
232.541	218
232.775	213
233.009	222
233.243	206
233.477	226
233.711	238
233.945	271
234.179	259
234.413	226
234.647	232
234.881	221
235.115	244
235.349	280
235.583	339
235.817	445
236.051	445
236.285	298
236.519	246
236.753	230
236.987	240
237.221	263
237.455	240
237.689	223
237.922	233
238.156	229
238.39	233
238.624	217
238.858	228
239.091	231
239.325	229
239.559	240
239.793	236
240.027	253
240.26	265
240.494	251
240.728	274
240.961	276
241.195	305
241.429	306
241.662	307
241.896	335
242.13	395
242.363	506
242.597	626
242.83	629
243.064	627
243.298	717
243.531	604
243.765	416
243.998	337
244.232	312
244.465	308
244.699	292
244.932	284
245.166	308
245.399	326
245.633	312
245.866	297
246.099	292
246.333	302
246.566	312
246.8	284
247.033	297
247.266	294
247.5	310
247.733	319
247.966	347
248.2	338
248.433	354
248.666	410
248.899	402
249.133	348
249.366	354
249.599	404
249.832	462
250.066	433
250.299	376
250.532	350
250.765	347
250.998	333
251.231	338
251.465	358
251.698	331
251.931	330
252.164	332
252.397	345
252.63	360
252.863	360
253.096	348
253.329	364
253.562	346
253.795	377
254.028	368
254.261	357
254.494	407
254.727	456
254.96	502
255.193	507
255.426	409
255.659	372
255.892	388
256.124	380
256.357	380
256.59	409
256.823	416
257.056	465
257.289	541
257.521	581
257.754	508
257.987	427
258.22	392
258.452	429
258.685	416
258.918	420
259.151	449
259.383	457
259.616	504
259.849	518
260.081	453
260.314	451
260.547	426
260.779	459
261.012	431
261.244	437
261.477	453
261.71	456
261.942	464
262.175	467
262.407	472
262.64	489
262.872	492
263.105	519
263.337	556
263.57	559
263.802	588
264.035	592
264.267	589
264.499	588
264.732	624
264.964	632
265.197	637
265.429	639
265.661	641
265.894	703
266.126	786
266.358	798
266.591	777
266.823	701
267.055	636
267.287	620
267.52	596
267.752	589
267.984	566
268.216	569
268.448	571
268.681	546
268.913	557
269.145	562
269.377	536
269.609	547
269.841	590
270.073	596
270.306	690
270.538	909
270.77	1312
271.002	1539
271.234	1063
271.466	731
271.698	644
271.93	602
272.162	581
272.394	531
272.626	542
272.858	548
273.09	532
273.322	536
273.553	525
273.785	542
274.017	530
274.249	533
274.481	553
274.713	546
274.945	543
275.176	545
275.408	506
275.64	521
275.872	526
276.104	544
276.335	564
276.567	554
276.799	553
277.031	588
277.262	572
277.494	612
277.726	640
277.957	732
278.189	797
278.421	777
278.652	699
278.884	654
279.115	617
279.347	600
279.579	589
279.81	612
280.042	610
280.273	612
280.505	629
280.736	645
280.968	660
281.199	712
281.431	779
281.662	842
281.894	714
282.125	676
282.356	694
282.588	698
282.819	732
283.051	768
283.282	836
283.513	989
283.745	1435
283.976	2252
284.207	3128
284.439	2820
284.67	1678
284.901	1368
285.132	1357
285.364	1284
285.595	1014
285.826	972
286.057	1107
286.288	1542
286.52	2019
286.751	1870
286.982	1182
287.213	898
287.444	819
287.675	778
287.906	742
288.138	737
288.369	747
288.6	721
288.831	709
289.062	732
289.293	719
289.524	732
289.755	730
289.986	717
290.217	724
290.448	727
290.679	717
290.91	757
291.141	765
291.371	812
291.602	836
291.833	770
292.064	739
292.295	707
292.526	695
292.757	667
292.987	672
293.218	692
293.449	692
293.68	671
293.91	662
294.141	676
294.372	685
294.603	657
294.833	676
295.064	668
295.295	673
295.525	670
295.756	690
295.987	638
296.217	688
296.448	662
296.679	676
296.909	697
297.14	696
297.37	683
297.601	714
297.831	728
298.062	692
298.292	713
298.523	706
298.753	710
298.984	725
299.214	731
299.445	723
299.675	752
299.905	768
300.136	788
300.366	866
300.597	1102
300.827	1491
301.057	1982
301.288	2008
301.518	1298
301.748	1021
301.979	931
302.209	904
302.439	942
302.669	984
302.9	1163
303.13	1584
303.36	2298
303.59	3044
303.82	2659
304.051	1580
304.281	1164
304.511	988
304.741	924
304.971	889
305.201	852
305.431	840
305.661	818
305.891	822
306.121	807
306.352	792
306.582	781
306.812	778
307.042	801
307.272	778
307.502	767
307.731	777
307.961	781
308.191	793
308.421	766
308.651	783
308.881	746
309.111	759
309.341	762
309.571	799
309.8	801
310.03	796
310.26	806
310.49	808
310.72	790
310.949	796
311.179	810
311.409	844
311.639	827
311.868	824
312.098	833
312.328	829
312.557	824
312.787	816
313.017	837
313.246	823
313.476	851
313.706	872
313.935	880
314.165	922
314.394	954
314.624	933
314.853	894
315.083	924
315.312	903
315.542	914
315.771	904
316.001	924
316.23	992
316.46	988
316.689	1043
316.919	1248
317.148	1785
317.377	2753
317.607	4053
317.836	4179
318.065	2467
318.295	1628
318.524	1291
318.753	1166
318.983	1088
319.212	1055
319.441	996
319.67	998
319.9	971
320.129	958
320.358	949
320.587	947
320.816	974
321.046	972
321.275	980
321.504	997
321.733	993
321.962	1030
322.191	1042
322.42	1053
322.649	1043
322.878	1037
323.108	1049
323.337	1019
323.566	1074
323.795	1094
324.024	1112
324.253	1114
324.482	1149
324.71	1226
324.939	1278
325.168	1275
325.397	1350
325.626	1588
325.855	2141
326.084	3387
326.313	4961
326.542	5145
326.77	3348
326.999	2204
327.228	1880
327.457	1814
327.686	1802
327.914	1894
328.143	2149
328.372	2491
328.6	2703
328.829	2511
329.058	2198
329.287	1961
329.515	1790
329.744	1714
329.972	1611
330.201	1564
330.43	1506
330.658	1463
330.887	1444
331.115	1434
331.344	1412
331.572	1392
331.801	1445
332.03	1433
332.258	1430
332.486	1507
332.715	1661
332.943	2028
333.172	2428
333.4	2461
333.629	1907
333.857	1764
334.085	1765
334.314	1883
334.542	2001
334.771	2243
334.999	2694
335.227	3280
335.455	3598
335.684	3302
335.912	2891
336.14	2502
336.369	2265
336.597	2061
336.825	1908
337.053	1819
337.281	1702
337.51	1620
337.738	1553
337.966	1521
338.194	1417
338.422	1431
338.65	1405
338.878	1374
339.106	1342
339.334	1355
339.562	1324
339.79	1301
340.018	1285
340.246	1262
340.474	1234
340.702	1245
340.93	1249
341.158	1254
341.386	1244
341.614	1232
341.842	1212
342.07	1176
342.298	1167
342.526	1156
342.754	1136
342.981	1138
343.209	1148
343.437	1201
343.665	1169
343.893	1196
344.12	1204
344.348	1186
344.576	1144
344.804	1158
345.031	1125
345.259	1100
345.487	1121
345.714	1082
345.942	1085
346.17	1076
346.397	1086
346.625	1072
346.853	1065
347.08	1063
347.308	1074
347.535	1064
347.763	1073
347.99	1028
348.218	1044
348.445	1050
348.673	1061
348.9	1068
349.128	1047
349.355	1035
349.583	1022
349.81	1051
350.037	1024
350.265	1036
350.492	1005
350.72	1009
350.947	1014
351.174	1010
351.402	1034
351.629	1009
351.856	1040
352.083	1029
352.311	1045
352.538	1010
352.765	1045
352.992	994
353.22	1028
353.447	1040
353.674	1024
353.901	1025
354.128	1027
354.355	1029
354.583	1011
354.81	1065
355.037	1038
355.264	1023
355.491	1074
355.718	1049
355.945	1032
356.172	1035
356.399	1051
356.626	1055
356.853	1048
357.08	1050
357.307	1080
357.534	1055
357.761	1093
357.988	1099
358.215	1070
358.441	1090
358.668	1067
358.895	1103
359.122	1090
359.349	1078
359.576	1077
359.802	1082
360.029	1059
360.256	1054
360.483	1104
360.709	1081
360.936	1106
361.163	1083
361.39	1077
361.616	1074
361.843	1083
362.07	1081
362.296	1091
362.523	1106
362.749	1105
362.976	1088
363.203	1102
363.429	1070
363.656	1083
363.882	1087
364.109	1064
364.335	1107
364.562	1121
364.788	1082
365.015	1107
365.241	1122
365.468	1168
365.694	1158
365.92	1141
366.147	1143
366.373	1109
366.599	1128
366.826	1136
367.052	1129
367.278	1132
367.505	1096
367.731	1096
367.957	1109
368.184	1126
368.41	1140
368.636	1136
368.862	1132
369.089	1114
369.315	1126
369.541	1124
369.767	1125
369.993	1118
370.219	1128
370.445	1132
370.672	1158
370.898	1172
371.124	1145
371.35	1146
371.576	1188
371.802	1192
372.028	1187
372.254	1157
372.48	1193
372.706	1195
372.932	1165
373.158	1160
373.384	1185
373.61	1226
373.835	1225
374.061	1208
374.287	1207
374.513	1240
374.739	1211
374.965	1229
375.191	1225
375.416	1238
375.642	1240
375.868	1209
376.094	1189
376.319	1193
376.545	1194
376.771	1185
376.997	1167
377.222	1168
377.448	1159
377.674	1146
377.899	1146
378.125	1164
378.35	1122
378.576	1189
378.802	1166
379.027	1176
379.253	1202
379.478	1289
379.704	1472
379.929	2013
380.155	2981
380.38	3202
380.606	2010
380.831	1463
381.057	1336
381.282	1235
381.507	1193
381.733	1171
381.958	1172
382.184	1157
382.409	1161
382.634	1150
382.86	1138
383.085	1170
383.31	1162
383.535	1180
383.761	1143
383.986	1180
384.211	1188
384.436	1180
384.662	1186
384.887	1223
385.112	1204
385.337	1156
385.562	1216
385.787	1255
386.013	1196
386.238	1181
386.463	1190
386.688	1197
386.913	1174
387.138	1191
387.363	1191
387.588	1183
387.813	1184
388.038	1174
388.263	1228
388.488	1236
388.713	1187
388.938	1193
389.163	1179
389.387	1200
389.612	1170
389.837	1192
390.062	1160
390.287	1220
390.512	1212
390.736	1245
390.961	1228
391.186	1246
391.411	1236
391.636	1270
391.86	1290
392.085	1298
392.31	1269
392.534	1257
392.759	1224
392.984	1227
393.208	1230
393.433	1276
393.658	1279
393.882	1220
394.107	1202
394.331	1210
394.556	1226
394.78	1229
395.005	1236
395.229	1204
395.454	1233
395.678	1238
395.903	1254
396.127	1266
396.352	1237
396.576	1240
396.801	1264
397.025	1260
397.249	1246
397.474	1281
397.698	1261
397.922	1286
398.147	1290
398.371	1285
398.595	1319
398.82	1361
399.044	1383
399.268	1472
399.492	1544
399.717	1601
399.941	1606
400.165	1518
400.389	1444
400.613	1409
400.837	1373
401.062	1346
401.286	1312
401.51	1311
401.734	1329
401.958	1368
402.182	1369
402.406	1336
402.63	1322
402.854	1350
403.078	1322
403.302	1364
403.526	1387
403.75	1367
403.974	1378
404.198	1341
404.422	1382
404.645	1365
404.869	1377
405.093	1361
405.317	1357
405.541	1370
405.765	1433
405.988	1432
406.212	1394
406.436	1397
406.66	1428
406.883	1402
407.107	1446
407.331	1509
407.555	1518
407.778	1496
408.002	1489
408.226	1465
408.449	1468
408.673	1424
408.896	1408
409.12	1397
409.344	1415
409.567	1371
409.791	1390
410.014	1385
410.238	1389
410.461	1401
410.685	1377
410.908	1334
411.132	1329
411.355	1300
411.578	1304
411.802	1334
412.025	1336
412.249	1348
412.472	1316
412.695	1346
412.919	1298
413.142	1292
413.365	1284
413.589	1302
413.812	1281
414.035	1286
414.258	1306
414.482	1296
414.705	1294
414.928	1282
415.151	1286
415.374	1313
415.597	1289
415.821	1251
416.044	1249
416.267	1242
416.49	1274
416.713	1243
416.936	1250
417.159	1241
417.382	1238
417.605	1232
417.828	1236
418.051	1254
418.274	1284
418.497	1256
418.72	1282
418.943	1268
419.166	1367
419.389	1403
419.611	1392
419.834	1328
420.057	1313
420.28	1277
420.503	1239
420.726	1256
420.948	1244
421.171	1253
421.394	1227
421.617	1256
421.839	1237
422.062	1289
422.285	1276
422.507	1284
422.73	1286
422.953	1311
423.175	1296
423.398	1292
423.621	1254
423.843	1273
424.066	1298
424.288	1267
424.511	1288
424.733	1267
424.956	1229
425.178	1230
425.401	1234
425.623	1271
425.846	1207
426.068	1211
426.291	1185
426.513	1220
426.735	1197
426.958	1193
427.18	1189
427.402	1189
427.625	1194
427.847	1179
428.069	1193
428.292	1160
428.514	1160
428.736	1170
428.958	1197
429.181	1131
429.403	1147
429.625	1183
429.847	1146
430.069	1163
430.292	1233
430.514	1229
430.736	1239
430.958	1168
431.18	1172
431.402	1161
431.624	1113
431.846	1142
432.068	1112
432.29	1135
432.512	1146
432.734	1143
432.956	1136
433.178	1172
433.4	1171
433.622	1192
433.844	1181
434.066	1148
434.287	1158
434.509	1185
434.731	1175
434.953	1165
435.175	1192
435.397	1199
435.618	1184
435.84	1156
436.062	1163
436.284	1184
436.505	1173
436.727	1177
436.949	1189
437.17	1153
437.392	1122
437.614	1136
437.835	1117
438.057	1123
438.278	1102
438.5	1149
438.721	1172
438.943	1162
439.165	1214
439.386	1182
439.608	1210
439.829	1200
440.05	1232
440.272	1243
440.493	1178
440.715	1216
440.936	1222
441.158	1215
441.379	1216
441.6	1265
441.822	1302
442.043	1346
442.264	1377
442.486	1276
442.707	1259
442.928	1232
443.149	1232
443.371	1222
443.592	1255
443.813	1271
444.034	1234
444.255	1300
444.476	1318
444.698	1330
444.919	1363
445.14	1433
445.361	1324
445.582	1264
445.803	1228
446.024	1189
446.245	1246
446.466	1220
446.687	1237
446.908	1253
447.129	1214
447.35	1208
447.571	1152
447.792	1174
448.013	1153
448.234	1166
448.455	1147
448.675	1150
448.896	1189
449.117	1188
449.338	1290
449.559	1361
449.779	1216
450	1114
450.221	1113
450.442	1153
450.662	1096
450.883	1123
451.104	1107
451.324	1117
451.545	1123
451.766	1138
451.986	1128
452.207	1195
452.428	1437
452.648	1996
452.869	1717
453.089	1248
453.31	1258
453.53	1194
453.751	1243
453.971	1328
454.192	1286
454.412	1143
454.633	1076
454.853	1034
455.073	1065
455.294	1055
455.514	1023
455.734	1052
455.955	1022
456.175	1016
456.395	1059
456.616	1077
456.836	1095
457.056	1078
457.276	1073
457.497	1137
457.717	1128
457.937	1122
458.157	1105
458.377	1109
458.598	1127
458.818	1140
459.038	1114
459.258	1147
459.478	1176
459.698	1160
459.918	1175
460.138	1203
460.358	1221
460.578	1219
460.798	1235
461.018	1254
461.238	1292
461.458	1257
461.678	1276
461.898	1293
462.118	1284
462.338	1304
462.558	1367
462.777	1346
462.997	1412
463.217	1481
463.437	1508
463.657	1488
463.876	1504
464.096	1411
464.316	1376
464.536	1342
464.755	1336
464.975	1317
465.195	1285
465.414	1240
465.634	1197
465.854	1212
466.073	1204
466.293	1180
466.512	1197
466.732	1164
466.951	1206
467.171	1271
467.391	1248
467.61	1187
467.829	1150
468.049	1132
468.268	1129
468.488	1117
468.707	1148
468.927	1128
469.146	1124
469.365	1140
469.585	1143
469.804	1174
470.023	1212
470.243	1198
470.462	1230
470.681	1272
470.901	1392
471.12	1604
471.339	1620
471.558	1390
471.777	1234
471.997	1202
472.216	1133
472.435	1129
472.654	1111
472.873	1126
473.092	1126
473.311	1130
473.53	1148
473.749	1153
473.968	1211
474.187	1163
474.406	1142
474.625	1131
474.844	1138
475.063	1166
475.282	1158
475.501	1153
475.72	1181
475.939	1186
476.158	1166
476.377	1187
476.596	1180
476.814	1200
477.033	1184
477.252	1180
477.471	1224
477.69	1311
477.908	1272
478.127	1315
478.346	1300
478.564	1321
478.783	1325
479.002	1354
479.22	1362
479.439	1340
479.658	1337
479.876	1349
480.095	1358
480.313	1386
480.532	1403
480.751	1402
480.969	1352
481.188	1340
481.406	1328
481.624	1308
481.843	1336
482.061	1337
482.28	1345
482.498	1344
482.717	1321
482.935	1393
483.153	1378
483.372	1405
483.59	1412
483.808	1431
484.027	1451
484.245	1551
484.463	1698
484.681	1842
484.9	1672
485.118	1606
485.336	1600
485.554	1580
485.772	1665
485.99	1915
486.209	2023
486.427	1717
486.645	1563
486.863	1503
487.081	1468
487.299	1474
487.517	1477
487.735	1466
487.953	1484
488.171	1480
488.389	1462
488.607	1433
488.825	1393
489.043	1373
489.261	1380
489.479	1402
489.696	1406
489.914	1401
490.132	1438
490.35	1436
490.568	1432
490.786	1450
491.003	1488
491.221	1501
491.439	1492
491.657	1476
491.874	1525
492.092	1552
492.31	1554
492.527	1534
492.745	1509
492.963	1495
493.18	1499
493.398	1518
493.615	1526
493.833	1499
494.05	1508
494.268	1498
494.485	1495
494.703	1520
494.92	1499
495.138	1492
495.355	1497
495.573	1484
495.79	1491
496.008	1511
496.225	1560
496.442	1546
496.66	1595
496.877	1686
497.094	1644
497.312	1597
497.529	1593
497.746	1633
497.963	1636
498.181	1682
498.398	1703
498.615	1769
498.832	1825
499.049	1882
499.267	2027
499.484	2176
499.701	2198
499.918	2268
500.135	2405
500.352	2504
500.569	2534
500.786	2521
501.003	2413
501.22	2326
501.437	2190
501.654	2034
501.871	1981
502.088	1883
502.305	1851
502.522	1797
502.739	1708
502.956	1754
503.172	1678
503.389	1593
503.606	1564
503.823	1585
504.04	1556
504.256	1535
504.473	1591
504.69	1544
504.907	1524
505.123	1502
505.34	1437
505.557	1433
505.773	1431
505.99	1444
506.207	1382
506.423	1325
506.64	1340
506.856	1312
507.073	1353
507.289	1314
507.506	1311
507.722	1324
507.939	1349
508.155	1280
508.372	1316
508.588	1272
508.805	1291
509.021	1318
509.238	1274
509.454	1346
509.67	1404
509.887	1328
510.103	1278
510.319	1293
510.536	1259
510.752	1255
510.968	1221
511.184	1218
511.401	1262
511.617	1222
511.833	1206
512.049	1222
512.265	1205
512.481	1222
512.698	1240
512.914	1200
513.13	1187
513.346	1211
513.562	1233
513.778	1213
513.994	1242
514.21	1266
514.426	1333
514.642	1372
514.858	1256
515.074	1250
515.29	1249
515.506	1273
515.721	1253
515.937	1257
516.153	1265
516.369	1304
516.585	1308
516.801	1350
517.016	1321
517.232	1348
517.448	1386
517.664	1420
517.879	1371
518.095	1395
518.311	1359
518.527	1313
518.742	1345
518.958	1351
519.173	1374
519.389	1330
519.605	1270
519.82	1284
520.036	1272
520.251	1244
520.467	1236
520.682	1217
520.898	1229
521.113	1219
521.329	1210
521.544	1251
521.76	1210
521.975	1174
522.19	1209
522.406	1202
522.621	1181
522.836	1189
523.052	1177
523.267	1162
523.482	1208
523.698	1165
523.913	1174
524.128	1186
524.343	1174
524.559	1184
524.774	1178
524.989	1169
525.204	1235
525.419	1187
525.634	1164
525.849	1170
526.064	1158
526.28	1187
526.495	1172
526.71	1185
526.925	1214
527.14	1154
527.355	1202
527.57	1201
527.785	1195
527.999	1181
528.214	1200
528.429	1208
528.644	1215
528.859	1284
529.074	1249
529.289	1278
529.503	1269
529.718	1265
529.933	1217
530.148	1236
530.363	1227
530.577	1244
530.792	1248
531.007	1293
531.221	1270
531.436	1272
531.651	1269
531.865	1303
532.08	1280
532.295	1392
532.509	1405
532.724	1355
532.938	1391
533.153	1408
533.367	1509
533.582	1549
533.796	1568
534.011	1541
534.225	1471
534.44	1430
534.654	1429
534.868	1402
535.083	1400
535.297	1376
535.511	1348
535.726	1285
535.94	1309
536.154	1291
536.369	1257
536.583	1229
536.797	1222
537.011	1232
537.225	1198
537.44	1242
537.654	1224
537.868	1197
538.082	1194
538.296	1179
538.51	1181
538.724	1186
538.938	1181
539.153	1157
539.367	1180
539.581	1178
539.795	1117
540.009	1136
540.222	1140
540.436	1129
540.65	1131
540.864	1174
541.078	1209
541.292	1246
541.506	1468
541.72	1516
541.934	1365
542.147	1274
542.361	1237
542.575	1217
542.789	1200
543.002	1122
543.216	1140
543.43	1106
543.644	1134
543.857	1105
544.071	1118
544.285	1149
544.498	1114
544.712	1144
544.925	1157
545.139	1136
545.352	1155
545.566	1130
545.779	1141
545.993	1164
