Data from SnStandardFlinnAPT0064_QswitchEnergy10_LIBS07252019.E.O._I.C._HRD10591_15-26-49-972.txt Node
Date: Thu Jul 25 15:26:49 EDT 2019
User: cochatt
Spectrometer: HR+D1059
Trigger mode: 1
Integration Time (sec): 1.000000E-1
Scans to average: 1
Electric dark correction enabled: true
Nonlinearity correction enabled: false
Boxcar width: 0
XAxis mode: Wavelengths
Number of Pixels in Spectrum: 2048
>>>>>Begin Spectral Data<<<<<
223.165	-13.06
223.4	-13.06
223.635	-13.06
223.869	-11.06
224.104	-19.06
224.338	-14.06
224.573	-15.06
224.808	-8.06
225.042	-26.06
225.277	5.94
225.511	-4.06
225.746	-5.06
225.98	9.94
226.215	4.94
226.449	15.94
226.683	22.94
226.918	20.94
227.152	34.94
227.387	35.94
227.621	47.94
227.856	55.94
228.09	31.94
228.324	55.94
228.559	65.94
228.793	67.94
229.027	67.94
229.262	83.94
229.496	54.94
229.73	76.94
229.964	66.94
230.199	81.94
230.433	80.94
230.667	83.94
230.901	77.94
231.136	73.94
231.37	86.94
231.604	87.94
231.838	94.94
232.072	111.94
232.306	105.94
232.541	104.94
232.775	95.94
233.009	77.94
233.243	81.94
233.477	87.94
233.711	109.94
233.945	115.94
234.179	93.94
234.413	89.94
234.647	82.94
234.881	94.94
235.115	84.94
235.349	102.94
235.583	106.94
235.817	123.94
236.051	115.94
236.285	104.94
236.519	88.94
236.753	86.94
236.987	85.94
237.221	91.94
237.455	76.94
237.689	85.94
237.922	74.94
238.156	84.94
238.39	86.94
238.624	88.94
238.858	84.94
239.091	93.94
239.325	73.94
239.559	82.94
239.793	92.94
240.027	87.94
240.26	77.94
240.494	89.94
240.728	84.94
240.961	70.94
241.195	90.94
241.429	99.94
241.662	86.94
241.896	78.94
242.13	107.94
242.363	119.94
242.597	152.94
242.83	131.94
243.064	122.94
243.298	166.94
243.531	146.94
243.765	108.94
243.998	103.94
244.232	86.94
244.465	87.94
244.699	85.94
244.932	75.94
245.166	89.94
245.399	94.94
245.633	76.94
245.866	88.94
246.099	90.94
246.333	80.94
246.566	85.94
246.8	83.94
247.033	88.94
247.266	77.94
247.5	79.94
247.733	65.94
247.966	89.94
248.2	89.94
248.433	115.94
248.666	122.94
248.899	137.94
249.133	103.94
249.366	104.94
249.599	102.94
249.832	113.94
250.066	115.94
250.299	97.94
250.532	84.94
250.765	84.94
250.998	85.94
251.231	87.94
251.465	83.94
251.698	79.94
251.931	84.94
252.164	85.94
252.397	90.94
252.63	101.94
252.863	96.94
253.096	93.94
253.329	95.94
253.562	91.94
253.795	78.94
254.028	98.94
254.261	107.94
254.494	99.94
254.727	101.94
254.96	134.94
255.193	126.94
255.426	99.94
255.659	75.94
255.892	86.94
256.124	96.94
256.357	106.94
256.59	94.94
256.823	98.94
257.056	93.94
257.289	135.94
257.521	160.94
257.754	126.94
257.987	95.94
258.22	98.94
258.452	86.94
258.685	96.94
258.918	89.94
259.151	91.94
259.383	98.94
259.616	127.94
259.849	143.94
260.081	112.94
260.314	87.94
260.547	87.94
260.779	90.94
261.012	90.94
261.244	83.94
261.477	91.94
261.71	89.94
261.942	92.94
262.175	87.94
262.407	87.94
262.64	92.94
262.872	85.94
263.105	76.94
263.337	89.94
263.57	84.94
263.802	90.94
264.035	87.94
264.267	89.94
264.499	86.94
264.732	64.94
264.964	89.94
265.197	69.94
265.429	104.94
265.661	86.94
265.894	104.94
266.126	113.94
266.358	164.94
266.591	147.94
266.823	93.94
267.055	92.94
267.287	91.94
267.52	76.94
267.752	99.94
267.984	92.94
268.216	91.94
268.448	94.94
268.681	91.94
268.913	86.94
269.145	97.94
269.377	86.94
269.609	90.94
269.841	94.94
270.073	107.94
270.306	127.94
270.538	194.94
270.77	315.94
271.002	351.94
271.234	192.94
271.466	115.94
271.698	98.94
271.93	96.94
272.162	93.94
272.394	84.94
272.626	87.94
272.858	93.94
273.09	89.94
273.322	89.94
273.553	85.94
273.785	90.94
274.017	84.94
274.249	89.94
274.481	88.94
274.713	96.94
274.945	94.94
275.176	86.94
275.408	91.94
275.64	85.94
275.872	81.94
276.104	95.94
276.335	114.94
276.567	102.94
276.799	105.94
277.031	107.94
277.262	105.94
277.494	101.94
277.726	120.94
277.957	173.94
278.189	241.94
278.421	217.94
278.652	181.94
278.884	181.94
279.115	143.94
279.347	118.94
279.579	103.94
279.81	101.94
280.042	94.94
280.273	97.94
280.505	94.94
280.736	110.94
280.968	109.94
281.199	178.94
281.431	264.94
281.662	257.94
281.894	159.94
282.125	120.94
282.356	99.94
282.588	113.94
282.819	114.94
283.051	129.94
283.282	138.94
283.513	181.94
283.745	285.94
283.976	495.94
284.207	704.94
284.439	561.94
284.67	252.94
284.901	223.94
285.132	339.94
285.364	338.94
285.595	210.94
285.826	169.94
286.057	231.94
286.288	394.94
286.52	575.94
286.751	442.94
286.982	179.94
287.213	119.94
287.444	115.94
287.675	109.94
287.906	108.94
288.138	109.94
288.369	106.94
288.6	98.94
288.831	100.94
289.062	112.94
289.293	103.94
289.524	108.94
289.755	93.94
289.986	100.94
290.217	99.94
290.448	105.94
290.679	115.94
290.91	120.94
291.141	159.94
291.371	220.94
291.602	267.94
291.833	206.94
292.064	115.94
292.295	101.94
292.526	97.94
292.757	89.94
292.987	104.94
293.218	98.94
293.449	89.94
293.68	99.94
293.91	92.94
294.141	97.94
294.372	87.94
294.603	98.94
294.833	91.94
295.064	89.94
295.295	93.94
295.525	94.94
295.756	98.94
295.987	91.94
296.217	95.94
296.448	91.94
296.679	92.94
296.909	97.94
297.14	103.94
297.37	99.94
297.601	103.94
297.831	106.94
298.062	108.94
298.292	101.94
298.523	87.94
298.753	104.94
298.984	102.94
299.214	111.94
299.445	118.94
299.675	127.94
299.905	109.94
300.136	138.94
300.366	167.94
300.597	258.94
300.827	421.94
301.057	641.94
301.288	579.94
301.518	248.94
301.748	166.94
301.979	123.94
302.209	135.94
302.439	126.94
302.669	165.94
302.9	244.94
303.13	463.94
303.36	825.94
303.59	1134.94
303.82	785.94
304.051	281.94
304.281	157.94
304.511	137.94
304.741	121.94
304.971	101.94
305.201	122.94
305.431	125.94
305.661	112.94
305.891	95.94
306.121	117.94
306.352	100.94
306.582	109.94
306.812	119.94
307.042	119.94
307.272	95.94
307.502	116.94
307.731	97.94
307.961	110.94
308.191	99.94
308.421	101.94
308.651	112.94
308.881	115.94
309.111	110.94
309.341	107.94
309.571	118.94
309.8	111.94
310.03	109.94
310.26	108.94
310.49	116.94
310.72	110.94
310.949	100.94
311.179	94.94
311.409	105.94
311.639	125.94
311.868	105.94
312.098	104.94
312.328	110.94
312.557	117.94
312.787	123.94
313.017	122.94
313.246	108.94
313.476	111.94
313.706	117.94
313.935	152.94
314.165	197.94
314.394	208.94
314.624	174.94
314.853	113.94
315.083	123.94
315.312	109.94
315.542	115.94
315.771	118.94
316.001	142.94
316.23	125.94
316.46	134.94
316.689	163.94
316.919	249.94
317.148	458.94
317.377	841.94
317.607	1347.94
317.836	1260.94
318.065	501.94
318.295	220.94
318.524	153.94
318.753	135.94
318.983	133.94
319.212	106.94
319.441	129.94
319.67	119.94
319.9	128.94
320.129	117.94
320.358	122.94
320.587	127.94
320.816	118.94
321.046	136.94
321.275	123.94
321.504	125.94
321.733	149.94
321.962	168.94
322.191	155.94
322.42	115.94
322.649	129.94
322.878	115.94
323.108	122.94
323.337	119.94
323.566	122.94
323.795	138.94
324.024	141.94
324.253	146.94
324.482	159.94
324.71	210.94
324.939	267.94
325.168	233.94
325.397	185.94
325.626	251.94
325.855	451.94
326.084	875.94
326.313	1465.94
326.542	1447.94
326.77	570.94
326.999	255.94
327.228	191.94
327.457	215.94
327.686	233.94
327.914	167.94
328.143	138.94
328.372	121.94
328.6	134.94
328.829	125.94
329.058	126.94
329.287	115.94
329.515	105.94
329.744	122.94
329.972	114.94
330.201	106.94
330.43	109.94
330.658	115.94
330.887	114.94
331.115	116.94
331.344	90.94
331.572	129.94
331.801	104.94
332.03	117.94
332.258	134.94
332.486	163.94
332.715	287.94
332.943	472.94
333.172	713.94
333.4	627.94
333.629	243.94
333.857	147.94
334.085	115.94
334.314	118.94
334.542	125.94
334.771	115.94
334.999	115.94
335.227	130.94
335.455	129.94
335.684	116.94
335.912	126.94
336.14	111.94
336.369	111.94
336.597	106.94
336.825	100.94
337.053	113.94
337.281	118.94
337.51	100.94
337.738	114.94
337.966	100.94
338.194	114.94
338.422	115.94
338.65	122.94
338.878	121.94
339.106	108.94
339.334	134.94
339.562	107.94
339.79	117.94
340.018	109.94
340.246	107.94
340.474	119.94
340.702	109.94
340.93	113.94
341.158	126.94
341.386	116.94
341.614	106.94
341.842	115.94
342.07	109.94
342.298	120.94
342.526	121.94
342.754	111.94
342.981	115.94
343.209	118.94
343.437	105.94
343.665	102.94
343.893	106.94
344.12	122.94
344.348	125.94
344.576	113.94
344.804	104.94
345.031	106.94
345.259	109.94
345.487	116.94
345.714	120.94
345.942	115.94
346.17	124.94
346.397	116.94
346.625	102.94
346.853	110.94
347.08	101.94
347.308	113.94
347.535	104.94
347.763	102.94
347.99	103.94
348.218	116.94
348.445	105.94
348.673	123.94
348.9	99.94
349.128	117.94
349.355	115.94
349.583	109.94
349.81	118.94
350.037	101.94
350.265	119.94
350.492	120.94
350.72	102.94
350.947	93.94
351.174	97.94
351.402	112.94
351.629	105.94
351.856	102.94
352.083	101.94
352.311	108.94
352.538	106.94
352.765	107.94
352.992	113.94
353.22	110.94
353.447	111.94
353.674	102.94
353.901	94.94
354.128	120.94
354.355	113.94
354.583	97.94
354.81	97.94
355.037	101.94
355.264	120.94
355.491	103.94
355.718	109.94
355.945	94.94
356.172	111.94
356.399	101.94
356.626	104.94
356.853	113.94
357.08	98.94
357.307	113.94
357.534	121.94
357.761	109.94
357.988	106.94
358.215	104.94
358.441	106.94
358.668	99.94
358.895	123.94
359.122	113.94
359.349	121.94
359.576	115.94
359.802	111.94
360.029	119.94
360.256	111.94
360.483	105.94
360.709	110.94
360.936	106.94
361.163	109.94
361.39	97.94
361.616	98.94
361.843	109.94
362.07	117.94
362.296	110.94
362.523	110.94
362.749	95.94
362.976	100.94
363.203	127.94
363.429	104.94
363.656	109.94
363.882	106.94
364.109	114.94
364.335	114.94
364.562	105.94
364.788	107.94
365.015	121.94
365.241	125.94
365.468	182.94
365.694	225.94
365.92	191.94
366.147	114.94
366.373	95.94
366.599	96.94
366.826	99.94
367.052	101.94
367.278	101.94
367.505	102.94
367.731	113.94
367.957	101.94
368.184	101.94
368.41	114.94
368.636	127.94
368.862	97.94
369.089	105.94
369.315	101.94
369.541	113.94
369.767	117.94
369.993	97.94
370.219	108.94
370.445	106.94
370.672	104.94
370.898	108.94
371.124	119.94
371.35	104.94
371.576	93.94
371.802	109.94
372.028	102.94
372.254	104.94
372.48	117.94
372.706	108.94
372.932	110.94
373.158	124.94
373.384	93.94
373.61	112.94
373.835	111.94
374.061	119.94
374.287	101.94
374.513	101.94
374.739	115.94
374.965	117.94
375.191	109.94
375.416	106.94
375.642	93.94
375.868	113.94
376.094	99.94
376.319	101.94
376.545	114.94
376.771	110.94
376.997	87.94
377.222	92.94
377.448	103.94
377.674	113.94
377.899	119.94
378.125	104.94
378.35	123.94
378.576	123.94
378.802	117.94
379.027	135.94
379.253	138.94
379.478	150.94
379.704	317.94
379.929	714.94
380.155	1493.94
380.38	1528.94
380.606	499.94
380.831	185.94
381.057	126.94
381.282	117.94
381.507	124.94
381.733	110.94
381.958	98.94
382.184	97.94
382.409	107.94
382.634	95.94
382.86	105.94
383.085	89.94
383.31	100.94
383.535	119.94
383.761	118.94
383.986	123.94
384.211	106.94
384.436	102.94
384.662	122.94
384.887	106.94
385.112	107.94
385.337	108.94
385.562	117.94
385.787	113.94
386.013	109.94
386.238	94.94
386.463	99.94
386.688	98.94
386.913	107.94
387.138	102.94
387.363	113.94
387.588	94.94
387.813	102.94
388.038	87.94
388.263	100.94
388.488	110.94
388.713	106.94
388.938	89.94
389.163	103.94
389.387	91.94
389.612	96.94
389.837	106.94
390.062	93.94
390.287	109.94
390.512	93.94
390.736	103.94
390.961	100.94
391.186	89.94
391.411	89.94
391.636	84.94
391.86	104.94
392.085	108.94
392.31	102.94
392.534	101.94
392.759	88.94
392.984	100.94
393.208	125.94
393.433	135.94
393.658	130.94
393.882	106.94
394.107	97.94
394.331	94.94
394.556	108.94
394.78	103.94
395.005	96.94
395.229	95.94
395.454	105.94
395.678	96.94
395.903	101.94
396.127	98.94
396.352	105.94
396.576	116.94
396.801	118.94
397.025	131.94
397.249	120.94
397.474	99.94
397.698	102.94
397.922	99.94
398.147	107.94
398.371	101.94
398.595	111.94
398.82	94.94
399.044	101.94
399.268	113.94
399.492	103.94
399.717	93.94
399.941	113.94
400.165	99.94
400.389	91.94
400.613	99.94
400.837	101.94
401.062	87.94
401.286	104.94
401.51	105.94
401.734	103.94
401.958	113.94
402.182	103.94
402.406	93.94
402.63	97.94
402.854	109.94
403.078	102.94
403.302	98.94
403.526	86.94
403.75	95.94
403.974	86.94
404.198	87.94
404.422	100.94
404.645	109.94
404.869	100.94
405.093	97.94
405.317	93.94
405.541	105.94
405.765	124.94
405.988	145.94
406.212	115.94
406.436	113.94
406.66	95.94
406.883	97.94
407.107	98.94
407.331	94.94
407.555	95.94
407.778	101.94
408.002	103.94
408.226	104.94
408.449	100.94
408.673	109.94
408.896	100.94
409.12	89.94
409.344	97.94
409.567	87.94
409.791	87.94
410.014	109.94
410.238	99.94
410.461	111.94
410.685	94.94
410.908	106.94
411.132	119.94
411.355	115.94
411.578	95.94
411.802	97.94
412.025	103.94
412.249	100.94
412.472	99.94
412.695	86.94
412.919	97.94
413.142	99.94
413.365	96.94
413.589	98.94
413.812	102.94
414.035	111.94
414.258	102.94
414.482	102.94
414.705	97.94
414.928	113.94
415.151	105.94
415.374	100.94
415.597	86.94
415.821	91.94
416.044	87.94
416.267	87.94
416.49	89.94
416.713	93.94
416.936	108.94
417.159	95.94
417.382	94.94
417.605	99.94
417.828	102.94
418.051	98.94
418.274	96.94
418.497	101.94
418.72	101.94
418.943	106.94
419.166	113.94
419.389	116.94
419.611	109.94
419.834	91.94
420.057	99.94
420.28	94.94
420.503	105.94
420.726	101.94
420.948	90.94
421.171	101.94
421.394	103.94
421.617	89.94
421.839	101.94
422.062	108.94
422.285	109.94
422.507	116.94
422.73	124.94
422.953	133.94
423.175	116.94
423.398	95.94
423.621	97.94
423.843	98.94
424.066	94.94
424.288	97.94
424.511	97.94
424.733	93.94
424.956	107.94
425.178	91.94
425.401	98.94
425.623	94.94
425.846	98.94
426.068	92.94
426.291	82.94
426.513	90.94
426.735	115.94
426.958	96.94
427.18	100.94
427.402	99.94
427.625	102.94
427.847	91.94
428.069	106.94
428.292	103.94
428.514	105.94
428.736	90.94
428.958	107.94
429.181	98.94
429.403	107.94
429.625	97.94
429.847	99.94
430.069	118.94
430.292	100.94
430.514	94.94
430.736	106.94
430.958	102.94
431.18	87.94
431.402	91.94
431.624	101.94
431.846	92.94
432.068	89.94
432.29	90.94
432.512	97.94
432.734	109.94
432.956	108.94
433.178	92.94
433.4	106.94
433.622	94.94
433.844	92.94
434.066	88.94
434.287	86.94
434.509	83.94
434.731	89.94
434.953	86.94
435.175	103.94
435.397	87.94
435.618	79.94
435.84	87.94
436.062	90.94
436.284	110.94
436.505	98.94
436.727	93.94
436.949	101.94
437.17	92.94
437.392	104.94
437.614	101.94
437.835	97.94
438.057	101.94
438.278	101.94
438.5	78.94
438.721	102.94
438.943	103.94
439.165	107.94
439.386	104.94
439.608	98.94
439.829	100.94
440.05	118.94
440.272	119.94
440.493	106.94
440.715	107.94
440.936	110.94
441.158	95.94
441.379	91.94
441.6	107.94
441.822	88.94
442.043	96.94
442.264	132.94
442.486	110.94
442.707	78.94
442.928	86.94
443.149	105.94
443.371	108.94
443.592	100.94
443.813	106.94
444.034	93.94
444.255	93.94
444.476	91.94
444.698	98.94
444.919	104.94
445.14	206.94
445.361	146.94
445.582	94.94
445.803	98.94
446.024	95.94
446.245	109.94
446.466	99.94
446.687	105.94
446.908	78.94
447.129	97.94
447.35	106.94
447.571	110.94
447.792	109.94
448.013	110.94
448.234	89.94
448.455	97.94
448.675	114.94
448.896	102.94
449.117	106.94
449.338	122.94
449.559	157.94
449.779	135.94
450	111.94
450.221	106.94
450.442	106.94
450.662	98.94
450.883	113.94
451.104	129.94
451.324	126.94
451.545	121.94
451.766	115.94
451.986	132.94
452.207	208.94
452.428	523.94
452.648	1274.94
452.869	718.94
453.089	196.94
453.31	124.94
453.53	127.94
453.751	138.94
453.971	145.94
454.192	153.94
454.412	113.94
454.633	91.94
454.853	97.94
455.073	89.94
455.294	98.94
455.514	98.94
455.734	83.94
455.955	100.94
456.175	87.94
456.395	100.94
456.616	100.94
456.836	97.94
457.056	100.94
457.276	106.94
457.497	120.94
457.717	123.94
457.937	104.94
458.157	102.94
458.377	101.94
458.598	92.94
458.818	92.94
459.038	86.94
459.258	95.94
459.478	97.94
459.698	76.94
459.918	102.94
460.138	91.94
460.358	92.94
460.578	101.94
460.798	86.94
461.018	92.94
461.238	85.94
461.458	85.94
461.678	92.94
461.898	92.94
462.118	95.94
462.338	93.94
462.558	110.94
462.777	108.94
462.997	102.94
463.217	118.94
463.437	123.94
463.657	183.94
463.876	184.94
464.096	117.94
464.316	105.94
464.536	89.94
464.755	99.94
464.975	97.94
465.195	102.94
465.414	86.94
465.634	89.94
465.854	99.94
466.073	97.94
466.293	93.94
466.512	86.94
466.732	102.94
466.951	118.94
467.171	122.94
467.391	132.94
467.61	102.94
467.829	105.94
468.049	103.94
468.268	110.94
468.488	86.94
468.707	103.94
468.927	98.94
469.146	99.94
469.365	94.94
469.585	111.94
469.804	95.94
470.023	94.94
470.243	106.94
470.462	107.94
470.681	130.94
470.901	129.94
471.12	183.94
471.339	209.94
471.558	130.94
471.777	99.94
471.997	112.94
472.216	115.94
472.435	107.94
472.654	93.94
472.873	108.94
473.092	87.94
473.311	105.94
473.53	102.94
473.749	100.94
473.968	103.94
474.187	120.94
474.406	99.94
474.625	88.94
474.844	89.94
475.063	105.94
475.282	100.94
475.501	93.94
475.72	91.94
475.939	105.94
476.158	99.94
476.377	124.94
476.596	106.94
476.814	99.94
477.033	103.94
477.252	97.94
477.471	96.94
477.69	97.94
477.908	102.94
478.127	97.94
478.346	99.94
478.564	85.94
478.783	106.94
479.002	103.94
479.22	110.94
479.439	103.94
479.658	100.94
479.876	113.94
480.095	91.94
480.313	98.94
480.532	99.94
480.751	88.94
480.969	96.94
481.188	88.94
481.406	89.94
481.624	94.94
481.843	117.94
482.061	98.94
482.28	109.94
482.498	106.94
482.717	100.94
482.935	79.94
483.153	96.94
483.372	114.94
483.59	108.94
483.808	93.94
484.027	110.94
484.245	134.94
484.463	177.94
484.681	227.94
484.9	132.94
485.118	106.94
485.336	108.94
485.554	119.94
485.772	125.94
485.99	164.94
486.209	238.94
486.427	141.94
486.645	102.94
486.863	104.94
487.081	114.94
487.299	108.94
487.517	109.94
487.735	78.94
487.953	103.94
488.171	99.94
488.389	97.94
488.607	100.94
488.825	96.94
489.043	103.94
489.261	97.94
489.479	104.94
489.696	87.94
489.914	98.94
490.132	101.94
490.35	115.94
490.568	106.94
490.786	108.94
491.003	102.94
491.221	110.94
491.439	110.94
491.657	110.94
491.874	111.94
492.092	124.94
492.31	113.94
492.527	111.94
492.745	106.94
492.963	93.94
493.18	93.94
493.398	113.94
493.615	93.94
493.833	100.94
494.05	108.94
494.268	106.94
494.485	117.94
494.703	97.94
494.92	106.94
495.138	101.94
495.355	108.94
495.573	98.94
495.79	100.94
496.008	91.94
496.225	103.94
496.442	100.94
496.66	113.94
496.877	149.94
497.094	145.94
497.312	110.94
497.529	119.94
497.746	102.94
497.963	115.94
498.181	107.94
498.398	107.94
498.615	98.94
498.832	103.94
499.049	92.94
499.267	138.94
499.484	161.94
499.701	108.94
499.918	110.94
500.135	107.94
500.352	93.94
500.569	100.94
500.786	94.94
501.003	103.94
501.22	112.94
501.437	107.94
501.654	97.94
501.871	98.94
502.088	111.94
502.305	104.94
502.522	85.94
502.739	99.94
502.956	92.94
503.172	106.94
503.389	99.94
503.606	100.94
503.823	107.94
504.04	92.94
504.256	89.94
504.473	95.94
504.69	95.94
504.907	121.94
505.123	123.94
505.34	111.94
505.557	102.94
505.773	103.94
505.99	110.94
506.207	103.94
506.423	97.94
506.64	103.94
506.856	103.94
507.073	100.94
507.289	85.94
507.506	96.94
507.722	102.94
507.939	106.94
