Data from SnStandardFlinnAPT0064_LampEnergy5.5_LIBS07252019.E.O._I.C._HRD10591_15-17-18-492.txt Node
Date: Thu Jul 25 15:17:18 EDT 2019
User: cochatt
Spectrometer: HR+D1059
Trigger mode: 1
Integration Time (sec): 1.000000E-1
Scans to average: 1
Electric dark correction enabled: true
Nonlinearity correction enabled: false
Boxcar width: 0
XAxis mode: Wavelengths
Number of Pixels in Spectrum: 2048
>>>>>Begin Spectral Data<<<<<
223.165	-32.38
223.4	-32.38
223.635	-32.38
223.869	-22.38
224.104	-24.38
224.338	-12.38
224.573	-21.38
224.808	-15.38
225.042	-10.38
225.277	1.62
225.511	10.62
225.746	5.62
225.98	4.62
226.215	18.62
226.449	19.62
226.683	25.62
226.918	27.62
227.152	24.62
227.387	29.62
227.621	37.62
227.856	47.62
228.09	46.62
228.324	62.62
228.559	78.62
228.793	92.62
229.027	169.62
229.262	170.62
229.496	150.62
229.73	149.62
229.964	162.62
230.199	181.62
230.433	167.62
230.667	166.62
230.901	173.62
231.136	158.62
231.37	186.62
231.604	190.62
231.838	225.62
232.072	252.62
232.306	265.62
232.541	225.62
232.775	211.62
233.009	205.62
233.243	211.62
233.477	231.62
233.711	247.62
233.945	269.62
234.179	259.62
234.413	236.62
234.647	221.62
234.881	235.62
235.115	268.62
235.349	300.62
235.583	363.62
235.817	474.62
236.051	466.62
236.285	319.62
236.519	261.62
236.753	263.62
236.987	249.62
237.221	254.62
237.455	247.62
237.689	242.62
237.922	227.62
238.156	233.62
238.39	239.62
238.624	236.62
238.858	246.62
239.091	255.62
239.325	242.62
239.559	249.62
239.793	247.62
240.027	263.62
240.26	271.62
240.494	271.62
240.728	294.62
240.961	313.62
241.195	311.62
241.429	318.62
241.662	321.62
241.896	360.62
242.13	426.62
242.363	539.62
242.597	695.62
242.83	691.62
243.064	677.62
243.298	793.62
243.531	660.62
243.765	421.62
243.998	370.62
244.232	332.62
244.465	309.62
244.699	310.62
244.932	302.62
245.166	319.62
245.399	316.62
245.633	330.62
245.866	311.62
246.099	321.62
246.333	303.62
246.566	310.62
246.8	296.62
247.033	316.62
247.266	315.62
247.5	308.62
247.733	307.62
247.966	346.62
248.2	360.62
248.433	379.62
248.666	439.62
248.899	429.62
249.133	404.62
249.366	393.62
249.599	421.62
249.832	460.62
250.066	492.62
250.299	386.62
250.532	359.62
250.765	351.62
250.998	349.62
251.231	322.62
251.465	345.62
251.698	346.62
251.931	355.62
252.164	363.62
252.397	356.62
252.63	358.62
252.863	377.62
253.096	369.62
253.329	371.62
253.562	356.62
253.795	375.62
254.028	388.62
254.261	397.62
254.494	406.62
254.727	463.62
254.96	569.62
255.193	533.62
255.426	429.62
255.659	393.62
255.892	405.62
256.124	410.62
256.357	401.62
256.59	417.62
256.823	425.62
257.056	482.62
257.289	577.62
257.521	637.62
257.754	541.62
257.987	430.62
258.22	416.62
258.452	418.62
258.685	430.62
258.918	424.62
259.151	459.62
259.383	483.62
259.616	550.62
259.849	553.62
260.081	505.62
260.314	462.62
260.547	435.62
260.779	426.62
261.012	442.62
261.244	444.62
261.477	451.62
261.71	460.62
261.942	473.62
262.175	467.62
262.407	471.62
262.64	488.62
262.872	519.62
263.105	520.62
263.337	561.62
263.57	603.62
263.802	586.62
264.035	594.62
264.267	598.62
264.499	639.62
264.732	662.62
264.964	660.62
265.197	653.62
265.429	639.62
265.661	696.62
265.894	710.62
266.126	780.62
266.358	852.62
266.591	825.62
266.823	737.62
267.055	648.62
267.287	619.62
267.52	614.62
267.752	593.62
267.984	574.62
268.216	591.62
268.448	587.62
268.681	577.62
268.913	563.62
269.145	562.62
269.377	577.62
269.609	578.62
269.841	593.62
270.073	625.62
270.306	710.62
270.538	951.62
270.77	1385.62
271.002	1673.62
271.234	1167.62
271.466	784.62
271.698	655.62
271.93	621.62
272.162	595.62
272.394	595.62
272.626	563.62
272.858	565.62
273.09	551.62
273.322	549.62
273.553	570.62
273.785	554.62
274.017	547.62
274.249	558.62
274.481	554.62
274.713	577.62
274.945	554.62
275.176	585.62
275.408	567.62
275.64	535.62
275.872	532.62
276.104	578.62
276.335	551.62
276.567	597.62
276.799	566.62
277.031	575.62
277.262	590.62
277.494	601.62
277.726	663.62
277.957	777.62
278.189	886.62
278.421	831.62
278.652	745.62
278.884	711.62
279.115	654.62
279.347	617.62
279.579	611.62
279.81	630.62
280.042	618.62
280.273	639.62
280.505	637.62
280.736	656.62
280.968	713.62
281.199	753.62
281.431	856.62
281.662	871.62
281.894	762.62
282.125	678.62
282.356	746.62
282.588	727.62
282.819	728.62
283.051	783.62
283.282	847.62
283.513	1028.62
283.745	1543.62
283.976	2442.62
284.207	3519.62
284.439	3159.62
284.67	1819.62
284.901	1451.62
285.132	1456.62
285.364	1357.62
285.595	1113.62
285.826	1061.62
286.057	1214.62
286.288	1660.62
286.52	2234.62
286.751	2040.62
286.982	1254.62
287.213	957.62
287.444	852.62
287.675	789.62
287.906	773.62
288.138	765.62
288.369	747.62
288.6	746.62
288.831	716.62
289.062	738.62
289.293	739.62
289.524	750.62
289.755	757.62
289.986	739.62
290.217	737.62
290.448	773.62
290.679	765.62
290.91	733.62
291.141	775.62
291.371	841.62
291.602	875.62
291.833	798.62
292.064	771.62
292.295	706.62
292.526	735.62
292.757	720.62
292.987	709.62
293.218	695.62
293.449	686.62
293.68	693.62
293.91	675.62
294.141	697.62
294.372	707.62
294.603	714.62
294.833	687.62
295.064	697.62
295.295	685.62
295.525	725.62
295.756	701.62
295.987	686.62
296.217	693.62
296.448	695.62
296.679	694.62
296.909	677.62
297.14	726.62
297.37	717.62
297.601	711.62
297.831	719.62
298.062	722.62
298.292	719.62
298.523	713.62
298.753	743.62
298.984	751.62
299.214	751.62
299.445	760.62
299.675	761.62
299.905	807.62
300.136	819.62
300.366	941.62
300.597	1172.62
300.827	1616.62
301.057	2202.62
301.288	2205.62
301.518	1374.62
301.748	1081.62
301.979	1004.62
302.209	964.62
302.439	985.62
302.669	1022.62
302.9	1243.62
303.13	1734.62
303.36	2555.62
303.59	3398.62
303.82	2973.62
304.051	1699.62
304.281	1211.62
304.511	1035.62
304.741	972.62
304.971	917.62
305.201	879.62
305.431	865.62
305.661	862.62
305.891	836.62
306.121	819.62
306.352	793.62
306.582	810.62
306.812	793.62
307.042	810.62
307.272	813.62
307.502	813.62
307.731	811.62
307.961	821.62
308.191	812.62
308.421	777.62
308.651	803.62
308.881	782.62
309.111	791.62
309.341	811.62
309.571	823.62
309.8	817.62
310.03	844.62
310.26	831.62
310.49	807.62
310.72	810.62
310.949	798.62
311.179	802.62
311.409	844.62
311.639	840.62
311.868	853.62
312.098	837.62
312.328	867.62
312.557	868.62
312.787	873.62
313.017	859.62
313.246	878.62
313.476	856.62
313.706	885.62
313.935	967.62
314.165	1002.62
314.394	1032.62
314.624	978.62
314.853	917.62
315.083	916.62
315.312	941.62
315.542	933.62
315.771	940.62
316.001	969.62
316.23	994.62
316.46	1051.62
316.689	1137.62
316.919	1388.62
317.148	1901.62
317.377	3022.62
317.607	4567.62
317.836	4673.62
318.065	2629.62
318.295	1697.62
318.524	1361.62
318.753	1187.62
318.983	1112.62
319.212	1078.62
319.441	1062.62
319.67	1033.62
319.9	1019.62
320.129	996.62
320.358	1000.62
320.587	973.62
320.816	997.62
321.046	1021.62
321.275	1027.62
321.504	1028.62
321.733	1059.62
321.962	1057.62
322.191	1073.62
322.42	1066.62
322.649	1037.62
322.878	1058.62
323.108	1104.62
323.337	1081.62
323.566	1109.62
323.795	1133.62
324.024	1130.62
324.253	1191.62
324.482	1217.62
324.71	1245.62
324.939	1307.62
325.168	1343.62
325.397	1387.62
325.626	1635.62
325.855	2311.62
326.084	3670.62
326.313	5482.62
326.542	5861.62
326.77	3603.62
326.999	2354.62
327.228	1950.62
327.457	1852.62
327.686	1888.62
327.914	1970.62
328.143	2317.62
328.372	2621.62
328.6	2845.62
328.829	2658.62
329.058	2348.62
329.287	2053.62
329.515	1867.62
329.744	1746.62
329.972	1644.62
330.201	1588.62
330.43	1541.62
330.658	1494.62
330.887	1457.62
331.115	1438.62
331.344	1446.62
331.572	1427.62
331.801	1462.62
332.03	1459.62
332.258	1506.62
332.486	1533.62
332.715	1738.62
332.943	2158.62
333.172	2627.62
333.4	2604.62
333.629	2007.62
333.857	1809.62
334.085	1837.62
334.314	1897.62
334.542	2084.62
334.771	2367.62
334.999	2781.62
335.227	3494.62
335.455	3873.62
335.684	3558.62
335.912	2981.62
336.14	2583.62
336.369	2330.62
336.597	2153.62
336.825	1979.62
337.053	1850.62
337.281	1784.62
337.51	1714.62
337.738	1619.62
337.966	1549.62
338.194	1531.62
338.422	1462.62
338.65	1457.62
338.878	1400.62
339.106	1372.62
339.334	1389.62
339.562	1362.62
339.79	1311.62
340.018	1297.62
340.246	1353.62
340.474	1316.62
340.702	1279.62
340.93	1308.62
341.158	1284.62
341.386	1274.62
341.614	1251.62
341.842	1240.62
342.07	1230.62
342.298	1217.62
342.526	1193.62
342.754	1182.62
342.981	1172.62
343.209	1198.62
343.437	1215.62
343.665	1216.62
343.893	1229.62
344.12	1247.62
344.348	1203.62
344.576	1168.62
344.804	1201.62
345.031	1157.62
345.259	1136.62
345.487	1111.62
345.714	1115.62
345.942	1120.62
346.17	1101.62
346.397	1126.62
346.625	1115.62
346.853	1097.62
347.08	1083.62
347.308	1057.62
347.535	1097.62
347.763	1105.62
347.99	1060.62
348.218	1060.62
348.445	1069.62
348.673	1092.62
348.9	1058.62
349.128	1081.62
349.355	1062.62
349.583	1068.62
349.81	1063.62
350.037	1067.62
350.265	1074.62
350.492	1064.62
350.72	1063.62
350.947	1069.62
351.174	1071.62
351.402	1044.62
351.629	1054.62
351.856	1058.62
352.083	1067.62
352.311	1065.62
352.538	1037.62
352.765	1028.62
352.992	1035.62
353.22	1054.62
353.447	1020.62
353.674	1052.62
353.901	1058.62
354.128	1055.62
354.355	1064.62
354.583	1053.62
354.81	1047.62
355.037	1094.62
355.264	1067.62
355.491	1059.62
355.718	1074.62
355.945	1037.62
356.172	1081.62
356.399	1067.62
356.626	1100.62
356.853	1085.62
357.08	1117.62
357.307	1104.62
357.534	1124.62
357.761	1109.62
357.988	1124.62
358.215	1096.62
358.441	1113.62
358.668	1118.62
358.895	1101.62
359.122	1086.62
359.349	1112.62
359.576	1113.62
359.802	1088.62
360.029	1118.62
360.256	1093.62
360.483	1098.62
360.709	1101.62
360.936	1130.62
361.163	1121.62
361.39	1127.62
361.616	1100.62
361.843	1116.62
362.07	1121.62
362.296	1147.62
362.523	1130.62
362.749	1121.62
362.976	1112.62
363.203	1098.62
363.429	1104.62
363.656	1119.62
363.882	1149.62
364.109	1080.62
364.335	1095.62
364.562	1115.62
364.788	1116.62
365.015	1135.62
365.241	1159.62
365.468	1219.62
365.694	1231.62
365.92	1212.62
366.147	1157.62
366.373	1148.62
366.599	1150.62
366.826	1161.62
367.052	1132.62
367.278	1147.62
367.505	1135.62
367.731	1142.62
367.957	1157.62
368.184	1163.62
368.41	1151.62
368.636	1172.62
368.862	1195.62
369.089	1175.62
369.315	1172.62
369.541	1167.62
369.767	1166.62
369.993	1143.62
370.219	1171.62
370.445	1179.62
370.672	1187.62
370.898	1171.62
371.124	1169.62
371.35	1195.62
371.576	1197.62
371.802	1183.62
372.028	1201.62
372.254	1191.62
372.48	1207.62
372.706	1208.62
372.932	1214.62
373.158	1203.62
373.384	1221.62
373.61	1215.62
373.835	1223.62
374.061	1227.62
374.287	1237.62
374.513	1261.62
374.739	1261.62
374.965	1271.62
375.191	1271.62
375.416	1258.62
375.642	1230.62
375.868	1250.62
376.094	1231.62
376.319	1196.62
376.545	1222.62
376.771	1214.62
376.997	1227.62
377.222	1211.62
377.448	1207.62
377.674	1217.62
377.899	1169.62
378.125	1197.62
378.35	1233.62
378.576	1192.62
378.802	1223.62
379.027	1211.62
379.253	1265.62
379.478	1303.62
379.704	1525.62
379.929	2164.62
380.155	3248.62
380.38	3543.62
380.606	2149.62
380.831	1541.62
381.057	1357.62
381.282	1307.62
381.507	1235.62
381.733	1206.62
381.958	1217.62
382.184	1183.62
382.409	1189.62
382.634	1183.62
382.86	1193.62
383.085	1196.62
383.31	1175.62
383.535	1192.62
383.761	1191.62
383.986	1190.62
384.211	1224.62
384.436	1177.62
384.662	1217.62
384.887	1227.62
385.112	1196.62
385.337	1239.62
385.562	1221.62
385.787	1196.62
386.013	1239.62
386.238	1249.62
386.463	1226.62
386.688	1260.62
386.913	1212.62
387.138	1210.62
387.363	1210.62
387.588	1231.62
387.813	1249.62
388.038	1193.62
388.263	1211.62
388.488	1237.62
388.713	1231.62
388.938	1248.62
389.163	1221.62
389.387	1217.62
389.612	1225.62
389.837	1239.62
390.062	1213.62
390.287	1237.62
390.512	1237.62
390.736	1241.62
390.961	1270.62
391.186	1283.62
391.411	1271.62
391.636	1286.62
391.86	1269.62
392.085	1288.62
392.31	1289.62
392.534	1263.62
392.759	1277.62
392.984	1212.62
393.208	1303.62
393.433	1308.62
393.658	1271.62
393.882	1217.62
394.107	1243.62
394.331	1215.62
394.556	1238.62
394.78	1241.62
395.005	1245.62
395.229	1258.62
395.454	1257.62
395.678	1281.62
395.903	1277.62
396.127	1279.62
396.352	1275.62
396.576	1309.62
396.801	1255.62
397.025	1291.62
397.249	1289.62
397.474	1340.62
397.698	1308.62
397.922	1351.62
398.147	1294.62
398.371	1318.62
398.595	1331.62
398.82	1377.62
399.044	1445.62
399.268	1485.62
399.492	1578.62
399.717	1624.62
399.941	1613.62
400.165	1551.62
400.389	1524.62
400.613	1495.62
400.837	1408.62
401.062	1398.62
401.286	1398.62
401.51	1374.62
401.734	1365.62
401.958	1397.62
402.182	1372.62
402.406	1340.62
402.63	1348.62
402.854	1341.62
403.078	1375.62
403.302	1370.62
403.526	1421.62
403.75	1384.62
403.974	1433.62
404.198	1402.62
404.422	1439.62
404.645	1415.62
404.869	1390.62
405.093	1418.62
405.317	1395.62
405.541	1423.62
405.765	1415.62
405.988	1417.62
406.212	1460.62
406.436	1400.62
406.66	1431.62
406.883	1441.62
407.107	1480.62
407.331	1488.62
407.555	1523.62
407.778	1527.62
408.002	1486.62
408.226	1479.62
408.449	1498.62
408.673	1481.62
408.896	1427.62
409.12	1466.62
409.344	1441.62
409.567	1417.62
409.791	1428.62
410.014	1398.62
410.238	1409.62
410.461	1399.62
410.685	1409.62
410.908	1397.62
411.132	1394.62
411.355	1365.62
411.578	1357.62
411.802	1353.62
412.025	1334.62
412.249	1372.62
412.472	1331.62
412.695	1360.62
412.919	1395.62
413.142	1333.62
413.365	1337.62
413.589	1320.62
413.812	1313.62
414.035	1336.62
414.258	1338.62
414.482	1329.62
414.705	1346.62
414.928	1332.62
415.151	1349.62
415.374	1324.62
415.597	1277.62
415.821	1296.62
416.044	1278.62
416.267	1292.62
416.49	1275.62
416.713	1287.62
416.936	1297.62
417.159	1279.62
417.382	1242.62
417.605	1289.62
417.828	1288.62
418.051	1256.62
418.274	1268.62
418.497	1307.62
418.72	1305.62
418.943	1320.62
419.166	1360.62
419.389	1448.62
419.611	1409.62
419.834	1353.62
420.057	1354.62
420.28	1301.62
420.503	1289.62
420.726	1261.62
420.948	1277.62
421.171	1251.62
421.394	1301.62
421.617	1319.62
421.839	1283.62
422.062	1340.62
422.285	1264.62
422.507	1321.62
422.73	1326.62
422.953	1326.62
423.175	1345.62
423.398	1317.62
423.621	1305.62
423.843	1317.62
424.066	1288.62
424.288	1315.62
424.511	1273.62
424.733	1311.62
424.956	1273.62
425.178	1286.62
425.401	1287.62
425.623	1299.62
425.846	1283.62
426.068	1258.62
426.291	1255.62
426.513	1248.62
426.735	1213.62
426.958	1231.62
427.18	1197.62
427.402	1229.62
427.625	1189.62
427.847	1213.62
428.069	1173.62
428.292	1212.62
428.514	1221.62
428.736	1176.62
428.958	1235.62
429.181	1176.62
429.403	1185.62
429.625	1168.62
429.847	1167.62
430.069	1192.62
430.292	1240.62
430.514	1308.62
430.736	1249.62
430.958	1197.62
431.18	1167.62
431.402	1203.62
431.624	1161.62
431.846	1192.62
432.068	1150.62
432.29	1181.62
432.512	1150.62
432.734	1186.62
432.956	1201.62
433.178	1218.62
433.4	1229.62
433.622	1203.62
433.844	1207.62
434.066	1179.62
434.287	1167.62
434.509	1193.62
434.731	1219.62
434.953	1235.62
435.175	1222.62
435.397	1214.62
435.618	1178.62
435.84	1186.62
436.062	1171.62
436.284	1169.62
436.505	1202.62
436.727	1185.62
436.949	1177.62
437.17	1180.62
437.392	1128.62
437.614	1139.62
437.835	1117.62
438.057	1131.62
438.278	1131.62
438.5	1156.62
438.721	1172.62
438.943	1203.62
439.165	1249.62
439.386	1203.62
439.608	1211.62
439.829	1225.62
440.05	1261.62
440.272	1269.62
440.493	1216.62
440.715	1212.62
440.936	1250.62
441.158	1247.62
441.379	1249.62
441.6	1287.62
441.822	1331.62
442.043	1365.62
442.264	1469.62
442.486	1341.62
442.707	1300.62
442.928	1290.62
443.149	1279.62
443.371	1256.62
443.592	1257.62
443.813	1278.62
444.034	1291.62
444.255	1298.62
444.476	1321.62
444.698	1342.62
444.919	1372.62
445.14	1463.62
445.361	1381.62
445.582	1316.62
445.803	1274.62
446.024	1265.62
446.245	1289.62
446.466	1288.62
446.687	1217.62
446.908	1250.62
447.129	1179.62
447.35	1219.62
447.571	1217.62
447.792	1147.62
448.013	1209.62
448.234	1200.62
448.455	1159.62
448.675	1187.62
448.896	1202.62
449.117	1265.62
449.338	1361.62
449.559	1375.62
449.779	1259.62
450	1161.62
450.221	1109.62
450.442	1157.62
450.662	1115.62
450.883	1126.62
451.104	1132.62
451.324	1139.62
451.545	1121.62
451.766	1137.62
451.986	1191.62
452.207	1209.62
452.428	1486.62
452.648	2139.62
452.869	1827.62
453.089	1347.62
453.31	1250.62
453.53	1256.62
453.751	1269.62
453.971	1375.62
454.192	1354.62
454.412	1197.62
454.633	1148.62
454.853	1118.62
455.073	1089.62
455.294	1106.62
455.514	1097.62
455.734	1088.62
455.955	1076.62
456.175	1075.62
456.395	1059.62
456.616	1065.62
456.836	1103.62
457.056	1123.62
457.276	1075.62
457.497	1135.62
457.717	1175.62
457.937	1130.62
458.157	1143.62
458.377	1179.62
458.598	1159.62
458.818	1159.62
459.038	1161.62
459.258	1138.62
459.478	1168.62
459.698	1186.62
459.918	1195.62
460.138	1217.62
460.358	1259.62
460.578	1213.62
460.798	1273.62
461.018	1243.62
461.238	1307.62
461.458	1311.62
461.678	1284.62
461.898	1329.62
462.118	1343.62
462.338	1343.62
462.558	1370.62
462.777	1420.62
462.997	1425.62
463.217	1471.62
463.437	1547.62
463.657	1564.62
463.876	1553.62
464.096	1488.62
464.316	1412.62
464.536	1419.62
464.755	1386.62
464.975	1330.62
465.195	1289.62
465.414	1255.62
465.634	1237.62
465.854	1206.62
466.073	1233.62
466.293	1193.62
466.512	1190.62
466.732	1198.62
466.951	1228.62
467.171	1306.62
467.391	1331.62
467.61	1229.62
467.829	1192.62
468.049	1195.62
468.268	1128.62
468.488	1175.62
468.707	1147.62
468.927	1187.62
469.146	1149.62
469.365	1153.62
469.585	1174.62
469.804	1191.62
470.023	1231.62
470.243	1236.62
470.462	1284.62
470.681	1325.62
470.901	1423.62
471.12	1685.62
471.339	1713.62
471.558	1439.62
471.777	1289.62
471.997	1237.62
472.216	1185.62
472.435	1183.62
472.654	1167.62
472.873	1123.62
473.092	1145.62
473.311	1167.62
473.53	1165.62
473.749	1177.62
473.968	1227.62
474.187	1179.62
474.406	1164.62
474.625	1181.62
474.844	1176.62
475.063	1171.62
475.282	1158.62
475.501	1197.62
475.72	1189.62
475.939	1211.62
476.158	1213.62
476.377	1213.62
476.596	1220.62
476.814	1205.62
477.033	1233.62
477.252	1231.62
477.471	1263.62
477.69	1292.62
477.908	1297.62
478.127	1313.62
478.346	1315.62
478.564	1353.62
478.783	1373.62
479.002	1386.62
479.22	1377.62
479.439	1397.62
479.658	1381.62
479.876	1369.62
480.095	1376.62
480.313	1410.62
480.532	1416.62
480.751	1368.62
480.969	1395.62
481.188	1374.62
481.406	1385.62
481.624	1345.62
481.843	1378.62
482.061	1390.62
482.28	1394.62
482.498	1346.62
482.717	1351.62
482.935	1396.62
483.153	1473.62
483.372	1466.62
483.59	1448.62
483.808	1472.62
484.027	1478.62
484.245	1557.62
484.463	1776.62
484.681	1978.62
484.9	1790.62
485.118	1631.62
485.336	1623.62
485.554	1655.62
485.772	1732.62
485.99	1977.62
486.209	2179.62
486.427	1778.62
486.645	1614.62
486.863	1575.62
487.081	1527.62
487.299	1498.62
487.517	1473.62
487.735	1503.62
487.953	1508.62
488.171	1507.62
488.389	1468.62
488.607	1454.62
488.825	1461.62
489.043	1471.62
489.261	1448.62
489.479	1432.62
489.696	1446.62
489.914	1449.62
490.132	1460.62
490.35	1478.62
490.568	1460.62
490.786	1508.62
