Data from SnStandardFlinnAPT0064_LampEnergy5.5_LIBS07252019.E.O._I.C._HRD10591_15-17-23-493.txt Node
Date: Thu Jul 25 15:17:23 EDT 2019
User: cochatt
Spectrometer: HR+D1059
Trigger mode: 1
Integration Time (sec): 1.000000E-1
Scans to average: 1
Electric dark correction enabled: true
Nonlinearity correction enabled: false
Boxcar width: 0
XAxis mode: Wavelengths
Number of Pixels in Spectrum: 2048
>>>>>Begin Spectral Data<<<<<
223.165	-20.5
223.4	-20.5
223.635	-20.5
223.869	-12.5
224.104	-18.5
224.338	-26.5
224.573	-19.5
224.808	-9.5
225.042	-2.5
225.277	9.5
225.511	1.5
225.746	-11.5
225.98	16.5
226.215	2.5
226.449	8.5
226.683	19.5
226.918	33.5
227.152	29.5
227.387	24.5
227.621	25.5
227.856	48.5
228.09	35.5
228.324	54.5
228.559	55.5
228.793	80.5
229.027	162.5
229.262	166.5
229.496	153.5
229.73	157.5
229.964	158.5
230.199	166.5
230.433	145.5
230.667	178.5
230.901	175.5
231.136	183.5
231.37	186.5
231.604	197.5
231.838	225.5
232.072	266.5
232.306	251.5
232.541	236.5
232.775	213.5
233.009	205.5
233.243	206.5
233.477	229.5
233.711	255.5
233.945	280.5
234.179	253.5
234.413	227.5
234.647	213.5
234.881	255.5
235.115	245.5
235.349	293.5
235.583	367.5
235.817	504.5
236.051	461.5
236.285	309.5
236.519	250.5
236.753	235.5
236.987	233.5
237.221	259.5
237.455	241.5
237.689	236.5
237.922	238.5
238.156	224.5
238.39	222.5
238.624	237.5
238.858	251.5
239.091	243.5
239.325	220.5
239.559	232.5
239.793	238.5
240.027	254.5
240.26	274.5
240.494	277.5
240.728	278.5
240.961	293.5
241.195	291.5
241.429	310.5
241.662	349.5
241.896	369.5
242.13	413.5
242.363	556.5
242.597	727.5
242.83	691.5
243.064	667.5
243.298	819.5
243.531	683.5
243.765	427.5
243.998	335.5
244.232	317.5
244.465	324.5
244.699	307.5
244.932	294.5
245.166	321.5
245.399	309.5
245.633	316.5
245.866	321.5
246.099	307.5
246.333	315.5
246.566	308.5
246.8	303.5
247.033	294.5
247.266	303.5
247.5	307.5
247.733	310.5
247.966	338.5
248.2	352.5
248.433	404.5
248.666	448.5
248.899	425.5
249.133	384.5
249.366	395.5
249.599	413.5
249.832	462.5
250.066	479.5
250.299	400.5
250.532	351.5
250.765	363.5
250.998	333.5
251.231	338.5
251.465	334.5
251.698	351.5
251.931	347.5
252.164	343.5
252.397	351.5
252.63	364.5
252.863	387.5
253.096	359.5
253.329	368.5
253.562	358.5
253.795	356.5
254.028	379.5
254.261	389.5
254.494	397.5
254.727	478.5
254.96	563.5
255.193	545.5
255.426	430.5
255.659	395.5
255.892	391.5
256.124	403.5
256.357	405.5
256.59	406.5
256.823	443.5
257.056	481.5
257.289	593.5
257.521	638.5
257.754	541.5
257.987	449.5
258.22	408.5
258.452	421.5
258.685	409.5
258.918	439.5
259.151	433.5
259.383	491.5
259.616	542.5
259.849	558.5
260.081	491.5
260.314	474.5
260.547	451.5
260.779	429.5
261.012	443.5
261.244	438.5
261.477	430.5
261.71	465.5
261.942	472.5
262.175	464.5
262.407	469.5
262.64	495.5
262.872	489.5
263.105	525.5
263.337	537.5
263.57	575.5
263.802	601.5
264.035	622.5
264.267	608.5
264.499	615.5
264.732	649.5
264.964	648.5
265.197	641.5
265.429	632.5
265.661	662.5
265.894	709.5
266.126	782.5
266.358	850.5
266.591	833.5
266.823	709.5
267.055	647.5
267.287	636.5
267.52	609.5
267.752	573.5
267.984	583.5
268.216	591.5
268.448	552.5
268.681	564.5
268.913	552.5
269.145	585.5
269.377	593.5
269.609	581.5
269.841	595.5
270.073	616.5
270.306	713.5
270.538	940.5
270.77	1414.5
271.002	1737.5
271.234	1205.5
271.466	802.5
271.698	657.5
271.93	607.5
272.162	580.5
272.394	566.5
272.626	555.5
272.858	558.5
273.09	549.5
273.322	544.5
273.553	527.5
273.785	547.5
274.017	548.5
274.249	533.5
274.481	552.5
274.713	537.5
274.945	545.5
275.176	577.5
275.408	571.5
275.64	567.5
275.872	563.5
276.104	568.5
276.335	578.5
276.567	566.5
276.799	576.5
277.031	575.5
277.262	593.5
277.494	627.5
277.726	664.5
277.957	760.5
278.189	835.5
278.421	835.5
278.652	738.5
278.884	716.5
279.115	658.5
279.347	635.5
279.579	612.5
279.81	607.5
280.042	606.5
280.273	611.5
280.505	625.5
280.736	651.5
280.968	675.5
281.199	745.5
281.431	845.5
281.662	870.5
281.894	767.5
282.125	724.5
282.356	718.5
282.588	711.5
282.819	729.5
283.051	764.5
283.282	843.5
283.513	1084.5
283.745	1576.5
283.976	2558.5
284.207	3647.5
284.439	3219.5
284.67	1864.5
284.901	1505.5
285.132	1480.5
285.364	1398.5
285.595	1132.5
285.826	1013.5
286.057	1217.5
286.288	1680.5
286.52	2298.5
286.751	2129.5
286.982	1261.5
287.213	965.5
287.444	850.5
287.675	800.5
287.906	788.5
288.138	759.5
288.369	735.5
288.6	743.5
288.831	721.5
289.062	733.5
289.293	722.5
289.524	735.5
289.755	731.5
289.986	766.5
290.217	781.5
290.448	753.5
290.679	736.5
290.91	749.5
291.141	785.5
291.371	849.5
291.602	875.5
291.833	793.5
292.064	752.5
292.295	734.5
292.526	720.5
292.757	710.5
292.987	720.5
293.218	689.5
293.449	696.5
293.68	690.5
293.91	688.5
294.141	660.5
294.372	668.5
294.603	689.5
294.833	686.5
295.064	692.5
295.295	665.5
295.525	678.5
295.756	717.5
295.987	689.5
296.217	700.5
296.448	705.5
296.679	706.5
296.909	719.5
297.14	683.5
297.37	715.5
297.601	728.5
297.831	696.5
298.062	705.5
298.292	736.5
298.523	741.5
298.753	762.5
298.984	766.5
299.214	776.5
299.445	761.5
299.675	786.5
299.905	784.5
300.136	838.5
300.366	927.5
300.597	1193.5
300.827	1678.5
301.057	2249.5
301.288	2235.5
301.518	1397.5
301.748	1069.5
301.979	978.5
302.209	947.5
302.439	948.5
302.669	1019.5
302.9	1240.5
303.13	1765.5
303.36	2675.5
303.59	3592.5
303.82	3105.5
304.051	1707.5
304.281	1219.5
304.511	1030.5
304.741	947.5
304.971	907.5
305.201	862.5
305.431	859.5
305.661	841.5
305.891	860.5
306.121	806.5
306.352	821.5
306.582	805.5
306.812	790.5
307.042	803.5
307.272	814.5
307.502	793.5
307.731	802.5
307.961	784.5
308.191	783.5
308.421	783.5
308.651	804.5
308.881	800.5
309.111	822.5
309.341	789.5
309.571	777.5
309.8	808.5
310.03	821.5
310.26	815.5
310.49	826.5
310.72	828.5
310.949	838.5
311.179	812.5
311.409	841.5
311.639	855.5
311.868	870.5
312.098	840.5
312.328	851.5
312.557	847.5
312.787	883.5
313.017	836.5
313.246	864.5
313.476	854.5
313.706	894.5
313.935	917.5
314.165	999.5
314.394	1029.5
314.624	1003.5
314.853	946.5
315.083	940.5
315.312	937.5
315.542	953.5
315.771	957.5
316.001	977.5
316.23	1025.5
316.46	1039.5
316.689	1097.5
316.919	1351.5
317.148	1989.5
317.377	3163.5
317.607	4728.5
317.836	4776.5
318.065	2738.5
318.295	1707.5
318.524	1398.5
318.753	1195.5
318.983	1129.5
319.212	1075.5
319.441	1039.5
319.67	1041.5
319.9	995.5
320.129	1027.5
320.358	1026.5
320.587	1012.5
320.816	1004.5
321.046	1042.5
321.275	1027.5
321.504	1019.5
321.733	1047.5
321.962	1060.5
322.191	1071.5
322.42	1064.5
322.649	1088.5
322.878	1049.5
323.108	1045.5
323.337	1060.5
323.566	1108.5
323.795	1130.5
324.024	1118.5
324.253	1163.5
324.482	1174.5
324.71	1244.5
324.939	1334.5
325.168	1348.5
325.397	1447.5
325.626	1673.5
325.855	2387.5
326.084	3814.5
326.313	5706.5
326.542	6109.5
326.77	3659.5
326.999	2350.5
327.228	1964.5
327.457	1913.5
327.686	1880.5
327.914	1975.5
328.143	2327.5
328.372	2675.5
328.6	2879.5
328.829	2683.5
329.058	2275.5
329.287	2109.5
329.515	1917.5
329.744	1761.5
329.972	1655.5
330.201	1634.5
330.43	1551.5
330.658	1484.5
330.887	1486.5
331.115	1462.5
331.344	1456.5
331.572	1438.5
331.801	1443.5
332.03	1488.5
332.258	1538.5
332.486	1587.5
332.715	1755.5
332.943	2200.5
333.172	2678.5
333.4	2662.5
333.629	2025.5
333.857	1807.5
334.085	1823.5
334.314	1922.5
334.542	2049.5
334.771	2370.5
334.999	2876.5
335.227	3423.5
335.455	3901.5
335.684	3639.5
335.912	2971.5
336.14	2559.5
336.369	2312.5
336.597	2159.5
336.825	1970.5
337.053	1864.5
337.281	1754.5
337.51	1717.5
337.738	1631.5
337.966	1566.5
338.194	1509.5
338.422	1420.5
338.65	1436.5
338.878	1409.5
339.106	1373.5
339.334	1360.5
339.562	1380.5
339.79	1318.5
340.018	1280.5
340.246	1287.5
340.474	1296.5
340.702	1292.5
340.93	1280.5
341.158	1327.5
341.386	1289.5
341.614	1266.5
341.842	1256.5
342.07	1259.5
342.298	1220.5
342.526	1212.5
342.754	1170.5
342.981	1153.5
343.209	1162.5
343.437	1190.5
343.665	1247.5
343.893	1233.5
344.12	1208.5
344.348	1207.5
344.576	1164.5
344.804	1200.5
345.031	1180.5
345.259	1111.5
345.487	1097.5
345.714	1097.5
345.942	1116.5
346.17	1100.5
346.397	1088.5
346.625	1143.5
346.853	1097.5
347.08	1089.5
347.308	1105.5
347.535	1131.5
347.763	1111.5
347.99	1069.5
348.218	1091.5
348.445	1080.5
348.673	1075.5
348.9	1067.5
349.128	1077.5
349.355	1054.5
349.583	1058.5
349.81	1089.5
350.037	1067.5
350.265	1061.5
350.492	1051.5
350.72	1050.5
350.947	1074.5
351.174	1076.5
351.402	1032.5
351.629	1041.5
351.856	1054.5
352.083	1062.5
352.311	1037.5
352.538	1038.5
352.765	1067.5
352.992	1033.5
353.22	1033.5
353.447	1035.5
353.674	1038.5
353.901	1080.5
354.128	1073.5
354.355	1045.5
354.583	1053.5
354.81	1072.5
355.037	1057.5
355.264	1063.5
355.491	1087.5
355.718	1083.5
355.945	1062.5
356.172	1079.5
356.399	1061.5
356.626	1079.5
356.853	1073.5
357.08	1103.5
357.307	1078.5
357.534	1095.5
357.761	1118.5
357.988	1108.5
358.215	1118.5
358.441	1104.5
358.668	1098.5
358.895	1097.5
359.122	1112.5
359.349	1104.5
359.576	1094.5
359.802	1088.5
360.029	1119.5
360.256	1080.5
360.483	1118.5
360.709	1110.5
360.936	1131.5
361.163	1137.5
361.39	1112.5
361.616	1096.5
361.843	1119.5
362.07	1115.5
362.296	1127.5
362.523	1112.5
362.749	1113.5
362.976	1125.5
363.203	1090.5
363.429	1087.5
363.656	1157.5
363.882	1096.5
364.109	1118.5
364.335	1093.5
364.562	1105.5
364.788	1121.5
365.015	1121.5
365.241	1136.5
365.468	1210.5
365.694	1248.5
365.92	1211.5
366.147	1159.5
366.373	1144.5
366.599	1147.5
366.826	1140.5
367.052	1137.5
367.278	1141.5
367.505	1127.5
367.731	1119.5
367.957	1117.5
368.184	1137.5
368.41	1163.5
368.636	1186.5
368.862	1140.5
369.089	1145.5
369.315	1164.5
369.541	1162.5
369.767	1179.5
369.993	1169.5
370.219	1145.5
370.445	1149.5
370.672	1148.5
370.898	1192.5
371.124	1153.5
371.35	1166.5
371.576	1175.5
371.802	1187.5
372.028	1180.5
372.254	1195.5
372.48	1182.5
372.706	1199.5
372.932	1242.5
373.158	1219.5
373.384	1263.5
373.61	1224.5
373.835	1221.5
374.061	1195.5
374.287	1223.5
374.513	1230.5
374.739	1273.5
374.965	1235.5
375.191	1259.5
375.416	1243.5
375.642	1248.5
375.868	1250.5
376.094	1230.5
376.319	1226.5
376.545	1217.5
376.771	1235.5
376.997	1221.5
377.222	1199.5
377.448	1208.5
377.674	1220.5
377.899	1201.5
378.125	1194.5
378.35	1203.5
378.576	1230.5
378.802	1209.5
379.027	1251.5
379.253	1275.5
379.478	1310.5
379.704	1545.5
379.929	2215.5
380.155	3400.5
380.38	3660.5
380.606	2221.5
380.831	1546.5
381.057	1376.5
381.282	1267.5
381.507	1237.5
381.733	1203.5
381.958	1216.5
382.184	1223.5
382.409	1195.5
382.634	1189.5
382.86	1149.5
383.085	1188.5
383.31	1158.5
383.535	1158.5
383.761	1212.5
383.986	1176.5
384.211	1203.5
384.436	1234.5
384.662	1224.5
384.887	1233.5
385.112	1245.5
385.337	1231.5
385.562	1233.5
385.787	1207.5
386.013	1244.5
386.238	1233.5
386.463	1236.5
386.688	1245.5
386.913	1194.5
387.138	1218.5
387.363	1228.5
387.588	1217.5
387.813	1221.5
388.038	1242.5
388.263	1212.5
388.488	1252.5
388.713	1216.5
388.938	1230.5
389.163	1218.5
389.387	1216.5
389.612	1188.5
389.837	1246.5
390.062	1263.5
390.287	1250.5
390.512	1240.5
390.736	1266.5
390.961	1276.5
391.186	1278.5
391.411	1272.5
391.636	1291.5
391.86	1320.5
392.085	1290.5
392.31	1293.5
392.534	1270.5
392.759	1299.5
392.984	1254.5
393.208	1261.5
393.433	1279.5
393.658	1277.5
393.882	1264.5
394.107	1251.5
394.331	1236.5
394.556	1222.5
394.78	1237.5
395.005	1271.5
395.229	1268.5
395.454	1288.5
395.678	1278.5
395.903	1293.5
396.127	1284.5
396.352	1265.5
396.576	1260.5
396.801	1262.5
397.025	1276.5
397.249	1299.5
397.474	1310.5
397.698	1285.5
397.922	1303.5
398.147	1295.5
398.371	1319.5
398.595	1369.5
398.82	1345.5
399.044	1425.5
399.268	1498.5
399.492	1583.5
399.717	1627.5
399.941	1610.5
400.165	1572.5
400.389	1505.5
400.613	1460.5
400.837	1399.5
401.062	1395.5
401.286	1366.5
401.51	1358.5
401.734	1359.5
401.958	1388.5
402.182	1355.5
402.406	1365.5
402.63	1371.5
402.854	1359.5
403.078	1347.5
403.302	1356.5
403.526	1373.5
403.75	1390.5
403.974	1372.5
404.198	1442.5
404.422	1416.5
404.645	1427.5
404.869	1409.5
405.093	1426.5
405.317	1468.5
405.541	1442.5
405.765	1438.5
405.988	1416.5
406.212	1451.5
406.436	1421.5
406.66	1431.5
406.883	1457.5
407.107	1494.5
407.331	1488.5
407.555	1532.5
407.778	1510.5
408.002	1499.5
408.226	1525.5
408.449	1500.5
408.673	1459.5
408.896	1416.5
409.12	1432.5
409.344	1440.5
409.567	1402.5
409.791	1416.5
410.014	1409.5
410.238	1378.5
410.461	1408.5
410.685	1395.5
410.908	1362.5
411.132	1352.5
411.355	1366.5
411.578	1365.5
411.802	1359.5
412.025	1318.5
412.249	1387.5
412.472	1349.5
412.695	1347.5
412.919	1333.5
413.142	1321.5
413.365	1356.5
413.589	1355.5
413.812	1328.5
414.035	1319.5
414.258	1331.5
414.482	1333.5
414.705	1336.5
414.928	1324.5
415.151	1314.5
415.374	1297.5
415.597	1328.5
415.821	1319.5
416.044	1265.5
416.267	1279.5
416.49	1269.5
416.713	1271.5
416.936	1292.5
417.159	1294.5
417.382	1256.5
417.605	1266.5
417.828	1269.5
418.051	1303.5
418.274	1297.5
418.497	1293.5
418.72	1336.5
418.943	1336.5
419.166	1377.5
419.389	1403.5
419.611	1388.5
419.834	1356.5
420.057	1355.5
420.28	1342.5
420.503	1302.5
420.726	1286.5
420.948	1282.5
421.171	1255.5
421.394	1291.5
421.617	1260.5
421.839	1301.5
422.062	1304.5
422.285	1281.5
422.507	1284.5
422.73	1290.5
422.953	1343.5
423.175	1354.5
423.398	1304.5
423.621	1290.5
423.843	1342.5
424.066	1309.5
424.288	1299.5
424.511	1296.5
424.733	1309.5
424.956	1275.5
425.178	1241.5
425.401	1261.5
425.623	1316.5
425.846	1230.5
426.068	1241.5
426.291	1243.5
426.513	1223.5
426.735	1223.5
426.958	1204.5
427.18	1200.5
427.402	1224.5
427.625	1240.5
427.847	1159.5
428.069	1177.5
428.292	1259.5
428.514	1201.5
428.736	1169.5
428.958	1211.5
429.181	1197.5
429.403	1176.5
429.625	1200.5
429.847	1203.5
430.069	1218.5
430.292	1263.5
430.514	1262.5
430.736	1278.5
430.958	1235.5
431.18	1187.5
431.402	1198.5
431.624	1188.5
431.846	1181.5
432.068	1154.5
432.29	1144.5
432.512	1139.5
432.734	1191.5
432.956	1201.5
433.178	1188.5
433.4	1199.5
433.622	1201.5
433.844	1203.5
434.066	1213.5
434.287	1176.5
434.509	1184.5
434.731	1193.5
434.953	1233.5
435.175	1205.5
435.397	1237.5
435.618	1219.5
435.84	1182.5
436.062	1149.5
436.284	1181.5
436.505	1185.5
436.727	1170.5
436.949	1176.5
437.17	1189.5
437.392	1145.5
437.614	1152.5
437.835	1109.5
438.057	1155.5
438.278	1121.5
438.5	1149.5
438.721	1152.5
438.943	1198.5
439.165	1227.5
439.386	1238.5
439.608	1239.5
439.829	1212.5
440.05	1252.5
440.272	1314.5
440.493	1227.5
440.715	1246.5
440.936	1257.5
441.158	1213.5
441.379	1244.5
441.6	1299.5
441.822	1343.5
442.043	1414.5
442.264	1454.5
442.486	1360.5
442.707	1324.5
442.928	1255.5
443.149	1268.5
443.371	1240.5
443.592	1277.5
443.813	1280.5
444.034	1272.5
444.255	1302.5
444.476	1336.5
444.698	1348.5
444.919	1367.5
445.14	1458.5
445.361	1397.5
445.582	1320.5
445.803	1303.5
446.024	1236.5
446.245	1261.5
446.466	1275.5
446.687	1236.5
446.908	1273.5
447.129	1224.5
447.35	1193.5
447.571	1218.5
447.792	1176.5
448.013	1159.5
448.234	1157.5
448.455	1168.5
448.675	1173.5
448.896	1202.5
449.117	1243.5
449.338	1368.5
449.559	1455.5
449.779	1299.5
450	1155.5
450.221	1159.5
450.442	1155.5
450.662	1144.5
450.883	1137.5
451.104	1119.5
451.324	1177.5
451.545	1159.5
451.766	1169.5
451.986	1200.5
452.207	1222.5
452.428	1540.5
452.648	2210.5
452.869	1886.5
453.089	1361.5
453.31	1275.5
453.53	1269.5
453.751	1308.5
453.971	1411.5
454.192	1382.5
454.412	1185.5
454.633	1137.5
454.853	1109.5
455.073	1110.5
455.294	1093.5
455.514	1104.5
455.734	1078.5
455.955	1095.5
456.175	1060.5
456.395	1081.5
456.616	1088.5
456.836	1073.5
457.056	1085.5
457.276	1114.5
457.497	1147.5
457.717	1160.5
457.937	1127.5
458.157	1136.5
458.377	1131.5
458.598	1129.5
458.818	1161.5
459.038	1137.5
459.258	1146.5
459.478	1188.5
459.698	1176.5
459.918	1217.5
460.138	1230.5
460.358	1251.5
460.578	1267.5
460.798	1273.5
461.018	1284.5
461.238	1283.5
461.458	1286.5
461.678	1283.5
461.898	1336.5
462.118	1328.5
462.338	1327.5
462.558	1388.5
462.777	1404.5
462.997	1448.5
463.217	1484.5
463.437	1564.5
463.657	1553.5
463.876	1549.5
464.096	1468.5
464.316	1397.5
464.536	1366.5
464.755	1382.5
464.975	1316.5
465.195	1322.5
465.414	1283.5
465.634	1220.5
465.854	1255.5
466.073	1192.5
466.293	1200.5
466.512	1187.5
466.732	1181.5
466.951	1243.5
467.171	1345.5
467.391	1297.5
467.61	1201.5
467.829	1190.5
468.049	1167.5
468.268	1142.5
468.488	1153.5
468.707	1141.5
468.927	1176.5
469.146	1153.5
469.365	1161.5
469.585	1184.5
469.804	1191.5
470.023	1227.5
470.243	1245.5
470.462	1308.5
470.681	1363.5
470.901	1457.5
471.12	1707.5
471.339	1737.5
471.558	1406.5
471.777	1257.5
471.997	1222.5
472.216	1200.5
472.435	1185.5
472.654	1163.5
472.873	1148.5
473.092	1155.5
473.311	1184.5
473.53	1171.5
473.749	1216.5
473.968	1199.5
474.187	1205.5
474.406	1167.5
474.625	1146.5
474.844	1168.5
475.063	1177.5
475.282	1197.5
475.501	1190.5
475.72	1188.5
475.939	1197.5
476.158	1232.5
476.377	1245.5
476.596	1259.5
476.814	1233.5
477.033	1231.5
477.252	1266.5
477.471	1257.5
477.69	1297.5
477.908	1297.5
478.127	1337.5
478.346	1321.5
478.564	1345.5
478.783	1365.5
479.002	1346.5
479.22	1400.5
479.439	1372.5
479.658	1372.5
479.876	1399.5
480.095	1387.5
480.313	1432.5
480.532	1409.5
480.751	1426.5
480.969	1397.5
481.188	1404.5
481.406	1356.5
481.624	1377.5
481.843	1407.5
482.061	1395.5
482.28	1385.5
482.498	1409.5
482.717	1375.5
482.935	1393.5
483.153	1450.5
483.372	1429.5
483.59	1468.5
483.808	1482.5
484.027	1504.5
484.245	1574.5
484.463	1813.5
484.681	1988.5
484.9	1771.5
485.118	1655.5
485.336	1606.5
485.554	1652.5
485.772	1710.5
485.99	2022.5
486.209	2183.5
486.427	1799.5
486.645	1592.5
486.863	1574.5
487.081	1527.5
487.299	1480.5
487.517	1457.5
487.735	1518.5
487.953	1552.5
488.171	1539.5
488.389	1501.5
488.607	1464.5
488.825	1447.5
489.043	1433.5
489.261	1410.5
489.479	1396.5
489.696	1436.5
489.914	1443.5
490.132	1477.5
490.35	1436.5
490.568	1477.5
490.786	1497.5
491.003	1521.5
491.221	1511.5
491.439	1564.5
491.657	1540.5
491.874	1544.5
492.092	1537.5
492.31	1600.5
492.527	1598.5
492.745	1561.5
492.963	1525.5
493.18	1540.5
493.398	1530.5
493.615	1560.5
493.833	1558.5
494.05	1529.5
494.268	1506.5
494.485	1531.5
494.703	1574.5
494.92	1551.5
495.138	1546.5
495.355	1535.5
495.573	1527.5
495.79	1552.5
496.008	1597.5
496.225	1574.5
496.442	1595.5
496.66	1631.5
496.877	1731.5
497.094	1724.5
497.312	1660.5
497.529	1636.5
497.746	1635.5
497.963	1689.5
498.181	1715.5
498.398	1766.5
498.615	1776.5
498.832	1870.5
499.049	1981.5
499.267	2147.5
499.484	2240.5
499.701	2223.5
499.918	2322.5
500.135	2489.5
500.352	2544.5
500.569	2607.5
500.786	2581.5
501.003	2516.5
501.22	2396.5
501.437	2257.5
501.654	2113.5
501.871	2031.5
502.088	1905.5
502.305	1850.5
502.522	1784.5
502.739	1762.5
502.956	1728.5
503.172	1705.5
503.389	1632.5
503.606	1581.5
503.823	1574.5
504.04	1606.5
504.256	1555.5
504.473	1600.5
504.69	1597.5
504.907	1549.5
505.123	1507.5
505.34	1496.5
505.557	1455.5
505.773	1431.5
505.99	1463.5
506.207	1410.5
506.423	1417.5
506.64	1388.5
506.856	1363.5
