Data from SnStandardFlinnAPT0064_LampEnergy5.5_LIBS07252019.E.O._I.C._HRD10591_15-16-00-492.txt Node
Date: Thu Jul 25 15:16:00 EDT 2019
User: cochatt
Spectrometer: HR+D1059
Trigger mode: 1
Integration Time (sec): 1.000000E-1
Scans to average: 1
Electric dark correction enabled: true
Nonlinearity correction enabled: false
Boxcar width: 0
XAxis mode: Wavelengths
Number of Pixels in Spectrum: 2048
>>>>>Begin Spectral Data<<<<<
223.165	-7.88
223.4	-7.88
223.635	-7.88
223.869	-5.88
224.104	-15.88
224.338	-14.88
224.573	-24.88
224.808	-13.88
225.042	-7.88
225.277	-11.88
225.511	2.12
225.746	8.12
225.98	6.12
226.215	-7.88
226.449	19.12
226.683	25.12
226.918	22.12
227.152	28.12
227.387	32.12
227.621	34.12
227.856	55.12
228.09	41.12
228.324	44.12
228.559	52.12
228.793	73.12
229.027	154.12
229.262	158.12
229.496	150.12
229.73	167.12
229.964	159.12
230.199	163.12
230.433	167.12
230.667	163.12
230.901	173.12
231.136	168.12
231.37	173.12
231.604	183.12
231.838	194.12
232.072	215.12
232.306	232.12
232.541	209.12
232.775	209.12
233.009	218.12
233.243	204.12
233.477	219.12
233.711	235.12
233.945	289.12
234.179	240.12
234.413	208.12
234.647	206.12
234.881	235.12
235.115	245.12
235.349	266.12
235.583	342.12
235.817	405.12
236.051	402.12
236.285	288.12
236.519	239.12
236.753	246.12
236.987	234.12
237.221	253.12
237.455	228.12
237.689	210.12
237.922	211.12
238.156	216.12
238.39	228.12
238.624	226.12
238.858	213.12
239.091	231.12
239.325	240.12
239.559	234.12
239.793	225.12
240.027	228.12
240.26	230.12
240.494	245.12
240.728	268.12
240.961	262.12
241.195	274.12
241.429	283.12
241.662	307.12
241.896	326.12
242.13	389.12
242.363	492.12
242.597	604.12
242.83	587.12
243.064	597.12
243.298	699.12
243.531	590.12
243.765	394.12
243.998	326.12
244.232	315.12
244.465	275.12
244.699	276.12
244.932	292.12
245.166	298.12
245.399	290.12
245.633	284.12
245.866	304.12
246.099	305.12
246.333	304.12
246.566	308.12
246.8	307.12
247.033	283.12
247.266	300.12
247.5	285.12
247.733	300.12
247.966	302.12
248.2	355.12
248.433	366.12
248.666	402.12
248.899	391.12
249.133	349.12
249.366	347.12
249.599	384.12
249.832	430.12
250.066	434.12
250.299	377.12
250.532	352.12
250.765	322.12
250.998	332.12
251.231	337.12
251.465	342.12
251.698	313.12
251.931	343.12
252.164	334.12
252.397	322.12
252.63	341.12
252.863	350.12
253.096	353.12
253.329	332.12
253.562	352.12
253.795	322.12
254.028	353.12
254.261	344.12
254.494	368.12
254.727	411.12
254.96	472.12
255.193	486.12
255.426	415.12
255.659	380.12
255.892	367.12
256.124	381.12
256.357	383.12
256.59	397.12
256.823	396.12
257.056	457.12
257.289	508.12
257.521	551.12
257.754	470.12
257.987	407.12
258.22	399.12
258.452	413.12
258.685	408.12
258.918	416.12
259.151	417.12
259.383	433.12
259.616	483.12
259.849	510.12
260.081	455.12
260.314	436.12
260.547	414.12
260.779	416.12
261.012	427.12
261.244	421.12
261.477	441.12
261.71	435.12
261.942	448.12
262.175	453.12
262.407	482.12
262.64	460.12
262.872	479.12
263.105	503.12
263.337	526.12
263.57	551.12
263.802	568.12
264.035	575.12
264.267	594.12
264.499	617.12
264.732	631.12
264.964	635.12
265.197	633.12
265.429	622.12
265.661	644.12
265.894	659.12
266.126	710.12
266.358	803.12
266.591	759.12
266.823	665.12
267.055	619.12
267.287	595.12
267.52	571.12
267.752	592.12
267.984	572.12
268.216	570.12
268.448	533.12
268.681	552.12
268.913	572.12
269.145	541.12
269.377	559.12
269.609	539.12
269.841	564.12
270.073	596.12
270.306	652.12
270.538	844.12
270.77	1201.12
271.002	1419.12
271.234	1040.12
271.466	736.12
271.698	628.12
271.93	580.12
272.162	582.12
272.394	573.12
272.626	536.12
272.858	527.12
273.09	515.12
273.322	528.12
273.553	523.12
273.785	522.12
274.017	516.12
274.249	527.12
274.481	542.12
274.713	535.12
274.945	520.12
275.176	521.12
275.408	527.12
275.64	567.12
275.872	528.12
276.104	555.12
276.335	540.12
276.567	550.12
276.799	549.12
277.031	539.12
277.262	562.12
277.494	570.12
277.726	627.12
277.957	712.12
278.189	777.12
278.421	725.12
278.652	683.12
278.884	633.12
279.115	588.12
279.347	586.12
279.579	601.12
279.81	583.12
280.042	595.12
280.273	614.12
280.505	613.12
280.736	623.12
280.968	630.12
281.199	707.12
281.431	780.12
281.662	791.12
281.894	708.12
282.125	667.12
282.356	664.12
282.588	661.12
282.819	710.12
283.051	734.12
283.282	783.12
283.513	972.12
283.745	1351.12
283.976	2141.12
284.207	2943.12
284.439	2667.12
284.67	1660.12
284.901	1342.12
285.132	1338.12
285.364	1264.12
285.595	999.12
285.826	924.12
286.057	1105.12
286.288	1448.12
286.52	1895.12
286.751	1813.12
286.982	1126.12
287.213	886.12
287.444	755.12
287.675	746.12
287.906	725.12
288.138	718.12
288.369	704.12
288.6	688.12
288.831	710.12
289.062	679.12
289.293	697.12
289.524	702.12
289.755	711.12
289.986	693.12
290.217	709.12
290.448	696.12
290.679	714.12
290.91	710.12
291.141	748.12
291.371	782.12
291.602	791.12
291.833	732.12
292.064	703.12
292.295	699.12
292.526	703.12
292.757	661.12
292.987	650.12
293.218	654.12
293.449	650.12
293.68	670.12
293.91	667.12
294.141	666.12
294.372	629.12
294.603	663.12
294.833	661.12
295.064	636.12
295.295	660.12
295.525	657.12
295.756	671.12
295.987	668.12
296.217	663.12
296.448	679.12
296.679	683.12
296.909	658.12
297.14	672.12
297.37	682.12
297.601	675.12
297.831	699.12
298.062	679.12
298.292	691.12
298.523	677.12
298.753	686.12
298.984	707.12
299.214	717.12
299.445	720.12
299.675	708.12
299.905	736.12
300.136	786.12
300.366	832.12
300.597	1074.12
300.827	1449.12
301.057	1888.12
301.288	1887.12
301.518	1256.12
301.748	984.12
301.979	925.12
302.209	892.12
302.439	887.12
302.669	942.12
302.9	1109.12
303.13	1492.12
303.36	2137.12
303.59	2831.12
303.82	2502.12
304.051	1512.12
304.281	1146.12
304.511	962.12
304.741	911.12
304.971	836.12
305.201	814.12
305.431	800.12
305.661	826.12
305.891	806.12
306.121	769.12
306.352	742.12
306.582	747.12
306.812	742.12
307.042	777.12
307.272	749.12
307.502	742.12
307.731	766.12
307.961	732.12
308.191	750.12
308.421	716.12
308.651	766.12
308.881	751.12
309.111	762.12
309.341	756.12
309.571	774.12
309.8	772.12
310.03	750.12
310.26	764.12
310.49	787.12
310.72	782.12
310.949	812.12
311.179	809.12
311.409	775.12
311.639	804.12
311.868	792.12
312.098	816.12
312.328	818.12
312.557	835.12
312.787	798.12
313.017	820.12
313.246	808.12
313.476	828.12
313.706	863.12
313.935	863.12
314.165	921.12
314.394	935.12
314.624	907.12
314.853	914.12
315.083	886.12
315.312	884.12
315.542	892.12
315.771	909.12
316.001	926.12
316.23	924.12
316.46	972.12
316.689	1059.12
316.919	1244.12
317.148	1725.12
317.377	2638.12
317.607	3775.12
317.836	3904.12
318.065	2351.12
318.295	1562.12
318.524	1255.12
318.753	1131.12
318.983	1066.12
319.212	1012.12
319.441	991.12
319.67	978.12
319.9	966.12
320.129	944.12
320.358	964.12
320.587	940.12
320.816	948.12
321.046	956.12
321.275	968.12
321.504	958.12
321.733	986.12
321.962	1009.12
322.191	1000.12
322.42	997.12
322.649	1024.12
322.878	1015.12
323.108	992.12
323.337	1035.12
323.566	1040.12
323.795	1074.12
324.024	1046.12
324.253	1094.12
324.482	1138.12
324.71	1165.12
324.939	1224.12
325.168	1253.12
325.397	1310.12
325.626	1502.12
325.855	2078.12
326.084	3173.12
326.313	4618.12
326.542	4976.12
326.77	3171.12
326.999	2120.12
327.228	1838.12
327.457	1711.12
327.686	1769.12
327.914	1878.12
328.143	2092.12
328.372	2418.12
328.6	2596.12
328.829	2419.12
329.058	2130.12
329.287	1981.12
329.515	1777.12
329.744	1637.12
329.972	1590.12
330.201	1522.12
330.43	1473.12
330.658	1429.12
330.887	1433.12
331.115	1387.12
331.344	1374.12
331.572	1382.12
331.801	1363.12
332.03	1416.12
332.258	1395.12
332.486	1495.12
332.715	1683.12
332.943	1972.12
333.172	2375.12
333.4	2332.12
333.629	1894.12
333.857	1728.12
334.085	1731.12
334.314	1828.12
334.542	1938.12
334.771	2226.12
334.999	2592.12
335.227	3094.12
335.455	3434.12
335.684	3254.12
335.912	2782.12
336.14	2399.12
336.369	2201.12
336.597	2008.12
336.825	1859.12
337.053	1779.12
337.281	1676.12
337.51	1573.12
337.738	1558.12
337.966	1469.12
338.194	1423.12
338.422	1379.12
338.65	1361.12
338.878	1342.12
339.106	1340.12
339.334	1290.12
339.562	1294.12
339.79	1235.12
340.018	1264.12
340.246	1244.12
340.474	1226.12
340.702	1230.12
340.93	1236.12
341.158	1223.12
341.386	1204.12
341.614	1195.12
341.842	1196.12
342.07	1173.12
342.298	1179.12
342.526	1126.12
342.754	1116.12
342.981	1128.12
343.209	1148.12
343.437	1160.12
343.665	1144.12
343.893	1168.12
344.12	1157.12
344.348	1136.12
344.576	1111.12
344.804	1120.12
345.031	1092.12
345.259	1107.12
345.487	1076.12
345.714	1064.12
345.942	1076.12
346.17	1064.12
346.397	1035.12
346.625	1076.12
346.853	1025.12
347.08	1040.12
347.308	1033.12
347.535	1044.12
347.763	1051.12
347.99	1044.12
348.218	1046.12
348.445	1003.12
348.673	1022.12
348.9	1011.12
349.128	1003.12
349.355	1037.12
349.583	1014.12
349.81	1010.12
350.037	1028.12
350.265	1011.12
350.492	982.12
350.72	1036.12
350.947	1014.12
351.174	1017.12
351.402	1023.12
351.629	1003.12
351.856	1006.12
352.083	995.12
352.311	1009.12
352.538	984.12
352.765	983.12
352.992	977.12
353.22	998.12
353.447	966.12
353.674	998.12
353.901	1003.12
354.128	967.12
354.355	1028.12
354.583	979.12
354.81	1009.12
355.037	1024.12
355.264	998.12
355.491	1023.12
355.718	1023.12
355.945	1011.12
356.172	1040.12
356.399	1005.12
356.626	1030.12
356.853	1051.12
357.08	1054.12
357.307	1047.12
357.534	1036.12
357.761	1074.12
357.988	1065.12
358.215	1059.12
358.441	1067.12
358.668	1037.12
358.895	1053.12
359.122	1022.12
359.349	1034.12
359.576	1044.12
359.802	1049.12
360.029	1073.12
360.256	1054.12
360.483	1036.12
360.709	1060.12
360.936	1062.12
361.163	1070.12
361.39	1070.12
361.616	1060.12
361.843	1068.12
362.07	1079.12
362.296	1081.12
362.523	1077.12
362.749	1072.12
362.976	1014.12
363.203	1067.12
363.429	1050.12
363.656	1065.12
363.882	1048.12
364.109	1078.12
364.335	1067.12
364.562	1054.12
364.788	1110.12
365.015	1085.12
365.241	1080.12
365.468	1134.12
365.694	1156.12
365.92	1132.12
366.147	1113.12
366.373	1086.12
366.599	1102.12
366.826	1092.12
367.052	1087.12
367.278	1068.12
367.505	1093.12
367.731	1124.12
367.957	1083.12
368.184	1099.12
368.41	1130.12
368.636	1124.12
368.862	1090.12
369.089	1142.12
369.315	1120.12
369.541	1150.12
369.767	1082.12
369.993	1112.12
370.219	1118.12
370.445	1132.12
370.672	1114.12
370.898	1120.12
371.124	1136.12
371.35	1162.12
371.576	1110.12
371.802	1138.12
372.028	1170.12
372.254	1155.12
372.48	1144.12
372.706	1182.12
372.932	1163.12
373.158	1164.12
373.384	1148.12
373.61	1161.12
373.835	1173.12
374.061	1200.12
374.287	1165.12
374.513	1206.12
374.739	1204.12
374.965	1215.12
375.191	1225.12
375.416	1220.12
375.642	1209.12
375.868	1182.12
376.094	1176.12
376.319	1142.12
376.545	1154.12
376.771	1180.12
376.997	1138.12
377.222	1154.12
377.448	1150.12
377.674	1133.12
377.899	1175.12
378.125	1173.12
378.35	1131.12
378.576	1160.12
378.802	1136.12
379.027	1187.12
379.253	1232.12
379.478	1263.12
379.704	1422.12
379.929	1918.12
380.155	2809.12
380.38	2973.12
380.606	1916.12
380.831	1442.12
381.057	1300.12
381.282	1206.12
381.507	1178.12
381.733	1142.12
381.958	1155.12
382.184	1165.12
382.409	1171.12
382.634	1147.12
382.86	1112.12
383.085	1136.12
383.31	1141.12
383.535	1144.12
383.761	1143.12
383.986	1150.12
384.211	1145.12
384.436	1158.12
384.662	1163.12
384.887	1166.12
385.112	1172.12
385.337	1194.12
385.562	1163.12
385.787	1192.12
386.013	1191.12
386.238	1189.12
386.463	1156.12
386.688	1176.12
386.913	1192.12
387.138	1175.12
387.363	1140.12
387.588	1139.12
387.813	1156.12
388.038	1147.12
388.263	1148.12
388.488	1169.12
388.713	1159.12
388.938	1160.12
389.163	1183.12
389.387	1202.12
389.612	1138.12
389.837	1171.12
390.062	1178.12
390.287	1226.12
390.512	1192.12
390.736	1212.12
390.961	1248.12
391.186	1193.12
391.411	1243.12
391.636	1253.12
391.86	1280.12
392.085	1248.12
392.31	1235.12
392.534	1225.12
392.759	1172.12
392.984	1193.12
393.208	1218.12
393.433	1198.12
393.658	1228.12
393.882	1186.12
394.107	1195.12
394.331	1170.12
394.556	1179.12
394.78	1196.12
395.005	1215.12
395.229	1183.12
395.454	1216.12
395.678	1266.12
395.903	1239.12
396.127	1227.12
396.352	1225.12
396.576	1259.12
396.801	1226.12
397.025	1224.12
397.249	1254.12
397.474	1229.12
397.698	1254.12
397.922	1241.12
398.147	1268.12
398.371	1272.12
398.595	1308.12
398.82	1327.12
399.044	1344.12
399.268	1436.12
399.492	1527.12
399.717	1567.12
399.941	1566.12
400.165	1480.12
400.389	1448.12
400.613	1396.12
400.837	1338.12
401.062	1314.12
401.286	1331.12
401.51	1308.12
401.734	1273.12
401.958	1303.12
402.182	1291.12
402.406	1341.12
402.63	1302.12
402.854	1343.12
403.078	1298.12
403.302	1310.12
403.526	1340.12
403.75	1347.12
403.974	1365.12
404.198	1350.12
404.422	1384.12
404.645	1369.12
404.869	1340.12
405.093	1361.12
405.317	1376.12
405.541	1358.12
405.765	1408.12
405.988	1396.12
406.212	1374.12
406.436	1391.12
406.66	1385.12
406.883	1366.12
407.107	1438.12
407.331	1452.12
407.555	1488.12
407.778	1479.12
408.002	1456.12
408.226	1441.12
408.449	1462.12
408.673	1377.12
408.896	1412.12
409.12	1383.12
409.344	1354.12
409.567	1355.12
409.791	1359.12
410.014	1350.12
410.238	1336.12
410.461	1344.12
410.685	1311.12
410.908	1335.12
411.132	1337.12
411.355	1309.12
411.578	1285.12
411.802	1317.12
412.025	1300.12
412.249	1293.12
412.472	1314.12
412.695	1271.12
412.919	1226.12
413.142	1241.12
413.365	1302.12
413.589	1268.12
413.812	1262.12
414.035	1257.12
414.258	1278.12
414.482	1283.12
414.705	1285.12
414.928	1286.12
415.151	1274.12
415.374	1279.12
415.597	1255.12
415.821	1225.12
416.044	1211.12
416.267	1227.12
416.49	1227.12
416.713	1227.12
416.936	1243.12
417.159	1243.12
417.382	1218.12
417.605	1214.12
417.828	1203.12
418.051	1220.12
418.274	1264.12
418.497	1214.12
418.72	1299.12
418.943	1255.12
419.166	1320.12
419.389	1369.12
419.611	1344.12
419.834	1283.12
420.057	1278.12
420.28	1273.12
420.503	1231.12
420.726	1232.12
420.948	1214.12
421.171	1215.12
421.394	1224.12
421.617	1193.12
421.839	1234.12
422.062	1274.12
422.285	1242.12
422.507	1281.12
422.73	1277.12
422.953	1259.12
423.175	1288.12
423.398	1241.12
423.621	1242.12
423.843	1272.12
424.066	1231.12
424.288	1244.12
424.511	1262.12
424.733	1244.12
424.956	1241.12
425.178	1231.12
425.401	1236.12
425.623	1256.12
425.846	1218.12
426.068	1230.12
426.291	1186.12
426.513	1154.12
426.735	1208.12
426.958	1170.12
427.18	1170.12
427.402	1169.12
427.625	1160.12
427.847	1146.12
428.069	1144.12
428.292	1167.12
428.514	1169.12
428.736	1161.12
428.958	1160.12
429.181	1151.12
429.403	1116.12
429.625	1118.12
429.847	1110.12
430.069	1157.12
430.292	1216.12
430.514	1231.12
430.736	1221.12
430.958	1140.12
431.18	1147.12
431.402	1141.12
431.624	1128.12
431.846	1129.12
432.068	1111.12
432.29	1106.12
432.512	1121.12
432.734	1171.12
432.956	1157.12
433.178	1160.12
433.4	1143.12
433.622	1151.12
433.844	1161.12
434.066	1146.12
434.287	1133.12
434.509	1122.12
434.731	1160.12
434.953	1182.12
435.175	1152.12
435.397	1203.12
435.618	1176.12
435.84	1150.12
436.062	1138.12
436.284	1135.12
436.505	1152.12
436.727	1131.12
436.949	1139.12
437.17	1136.12
437.392	1140.12
437.614	1128.12
437.835	1084.12
438.057	1120.12
438.278	1088.12
438.5	1109.12
438.721	1122.12
438.943	1168.12
439.165	1158.12
439.386	1191.12
439.608	1174.12
439.829	1176.12
440.05	1193.12
440.272	1210.12
440.493	1187.12
440.715	1178.12
440.936	1169.12
441.158	1186.12
441.379	1189.12
441.6	1222.12
441.822	1270.12
442.043	1305.12
442.264	1335.12
442.486	1276.12
442.707	1217.12
442.928	1206.12
443.149	1198.12
443.371	1213.12
443.592	1220.12
443.813	1222.12
444.034	1251.12
444.255	1260.12
444.476	1308.12
444.698	1312.12
444.919	1333.12
445.14	1360.12
445.361	1334.12
445.582	1244.12
445.803	1236.12
446.024	1200.12
446.245	1246.12
446.466	1206.12
446.687	1191.12
446.908	1191.12
447.129	1180.12
447.35	1159.12
447.571	1136.12
447.792	1160.12
448.013	1154.12
448.234	1125.12
448.455	1124.12
448.675	1127.12
448.896	1144.12
449.117	1151.12
449.338	1234.12
449.559	1304.12
449.779	1176.12
450	1138.12
450.221	1091.12
450.442	1105.12
450.662	1099.12
450.883	1104.12
451.104	1108.12
451.324	1077.12
451.545	1087.12
451.766	1098.12
451.986	1106.12
452.207	1182.12
452.428	1391.12
452.648	1887.12
452.869	1608.12
453.089	1237.12
453.31	1235.12
453.53	1174.12
453.751	1202.12
453.971	1252.12
454.192	1242.12
454.412	1113.12
454.633	1064.12
454.853	1064.12
455.073	1057.12
455.294	1052.12
455.514	1056.12
455.734	1036.12
455.955	1040.12
456.175	1060.12
456.395	1026.12
456.616	1023.12
456.836	1058.12
457.056	1056.12
457.276	1031.12
457.497	1096.12
457.717	1110.12
457.937	1089.12
458.157	1070.12
458.377	1102.12
458.598	1091.12
458.818	1112.12
459.038	1130.12
459.258	1114.12
459.478	1145.12
459.698	1118.12
459.918	1143.12
460.138	1164.12
460.358	1222.12
460.578	1233.12
460.798	1220.12
461.018	1202.12
461.238	1226.12
461.458	1244.12
461.678	1249.12
461.898	1259.12
462.118	1282.12
462.338	1306.12
462.558	1328.12
462.777	1332.12
462.997	1394.12
463.217	1456.12
463.437	1468.12
463.657	1454.12
463.876	1455.12
464.096	1383.12
464.316	1353.12
464.536	1369.12
464.755	1293.12
464.975	1267.12
465.195	1256.12
465.414	1231.12
465.634	1195.12
465.854	1192.12
466.073	1158.12
466.293	1129.12
466.512	1138.12
466.732	1176.12
466.951	1204.12
467.171	1296.12
467.391	1252.12
467.61	1138.12
467.829	1118.12
468.049	1116.12
468.268	1096.12
468.488	1114.12
468.707	1118.12
468.927	1128.12
469.146	1101.12
469.365	1137.12
469.585	1148.12
469.804	1131.12
470.023	1163.12
470.243	1202.12
470.462	1194.12
470.681	1262.12
470.901	1426.12
471.12	1517.12
471.339	1550.12
471.558	1300.12
471.777	1224.12
471.997	1189.12
472.216	1161.12
472.435	1115.12
472.654	1131.12
472.873	1084.12
473.092	1096.12
473.311	1119.12
473.53	1140.12
473.749	1134.12
473.968	1168.12
474.187	1137.12
474.406	1086.12
474.625	1108.12
474.844	1130.12
475.063	1129.12
475.282	1115.12
475.501	1122.12
475.72	1110.12
475.939	1174.12
476.158	1150.12
476.377	1163.12
476.596	1175.12
476.814	1182.12
477.033	1192.12
477.252	1192.12
477.471	1186.12
477.69	1251.12
477.908	1271.12
478.127	1269.12
478.346	1267.12
478.564	1291.12
478.783	1286.12
479.002	1310.12
479.22	1351.12
479.439	1354.12
479.658	1318.12
479.876	1348.12
480.095	1360.12
480.313	1379.12
480.532	1360.12
480.751	1386.12
480.969	1299.12
481.188	1302.12
481.406	1322.12
481.624	1298.12
481.843	1335.12
482.061	1339.12
482.28	1326.12
482.498	1292.12
482.717	1302.12
482.935	1357.12
483.153	1348.12
483.372	1346.12
483.59	1378.12
483.808	1397.12
484.027	1424.12
484.245	1489.12
484.463	1665.12
484.681	1780.12
484.9	1646.12
485.118	1587.12
485.336	1552.12
485.554	1547.12
485.772	1642.12
485.99	1827.12
486.209	1979.12
486.427	1656.12
486.645	1524.12
486.863	1493.12
487.081	1454.12
487.299	1398.12
487.517	1406.12
487.735	1394.12
487.953	1450.12
488.171	1442.12
488.389	1445.12
488.607	1441.12
488.825	1398.12
489.043	1377.12
489.261	1323.12
489.479	1374.12
489.696	1399.12
489.914	1379.12
490.132	1394.12
490.35	1438.12
490.568	1435.12
490.786	1436.12
491.003	1435.12
491.221	1462.12
