Data from SnStandardFlinnAPT0064_QswitchEnergy10_LIBS07252019.E.O._I.C._HRD10591_15-26-44-973.txt Node
Date: Thu Jul 25 15:26:44 EDT 2019
User: cochatt
Spectrometer: HR+D1059
Trigger mode: 1
Integration Time (sec): 1.000000E-1
Scans to average: 1
Electric dark correction enabled: true
Nonlinearity correction enabled: false
Boxcar width: 0
XAxis mode: Wavelengths
Number of Pixels in Spectrum: 2048
>>>>>Begin Spectral Data<<<<<
223.165	-24.44
223.4	-24.44
223.635	-24.44
223.869	-28.44
224.104	-9.44
224.338	-13.44
224.573	-30.44
224.808	-16.44
225.042	-7.44
225.277	0.56
225.511	16.56
225.746	-1.44
225.98	13.56
226.215	11.56
226.449	14.56
226.683	23.56
226.918	28.56
227.152	22.56
227.387	30.56
227.621	31.56
227.856	31.56
228.09	55.56
228.324	43.56
228.559	70.56
228.793	57.56
229.027	65.56
229.262	72.56
229.496	77.56
229.73	81.56
229.964	74.56
230.199	78.56
230.433	98.56
230.667	76.56
230.901	78.56
231.136	71.56
231.37	107.56
231.604	100.56
231.838	90.56
232.072	111.56
232.306	119.56
232.541	100.56
232.775	89.56
233.009	103.56
233.243	91.56
233.477	75.56
233.711	87.56
233.945	98.56
234.179	92.56
234.413	78.56
234.647	89.56
234.881	94.56
235.115	85.56
235.349	89.56
235.583	87.56
235.817	129.56
236.051	128.56
236.285	89.56
236.519	87.56
236.753	88.56
236.987	81.56
237.221	86.56
237.455	99.56
237.689	71.56
237.922	80.56
238.156	73.56
238.39	82.56
238.624	93.56
238.858	94.56
239.091	78.56
239.325	80.56
239.559	86.56
239.793	80.56
240.027	83.56
240.26	83.56
240.494	87.56
240.728	81.56
240.961	92.56
241.195	84.56
241.429	100.56
241.662	92.56
241.896	84.56
242.13	88.56
242.363	117.56
242.597	137.56
242.83	135.56
243.064	121.56
243.298	161.56
243.531	146.56
243.765	87.56
243.998	87.56
244.232	83.56
244.465	86.56
244.699	74.56
244.932	81.56
245.166	90.56
245.399	86.56
245.633	72.56
245.866	87.56
246.099	92.56
246.333	77.56
246.566	78.56
246.8	87.56
247.033	82.56
247.266	92.56
247.5	82.56
247.733	84.56
247.966	69.56
248.2	102.56
248.433	113.56
248.666	129.56
248.899	119.56
249.133	100.56
249.366	113.56
249.599	104.56
249.832	113.56
250.066	123.56
250.299	93.56
250.532	84.56
250.765	78.56
250.998	77.56
251.231	90.56
251.465	72.56
251.698	88.56
251.931	72.56
252.164	101.56
252.397	96.56
252.63	104.56
252.863	103.56
253.096	89.56
253.329	100.56
253.562	93.56
253.795	84.56
254.028	95.56
254.261	92.56
254.494	90.56
254.727	125.56
254.96	149.56
255.193	126.56
255.426	100.56
255.659	85.56
255.892	103.56
256.124	103.56
256.357	91.56
256.59	92.56
256.823	96.56
257.056	112.56
257.289	143.56
257.521	139.56
257.754	121.56
257.987	89.56
258.22	90.56
258.452	87.56
258.685	84.56
258.918	80.56
259.151	104.56
259.383	118.56
259.616	139.56
259.849	149.56
260.081	103.56
260.314	75.56
260.547	108.56
260.779	89.56
261.012	81.56
261.244	78.56
261.477	94.56
261.71	80.56
261.942	96.56
262.175	79.56
262.407	84.56
262.64	81.56
262.872	89.56
263.105	85.56
263.337	91.56
263.57	68.56
263.802	86.56
264.035	100.56
264.267	94.56
264.499	78.56
264.732	80.56
264.964	96.56
265.197	88.56
265.429	100.56
265.661	92.56
265.894	91.56
266.126	121.56
266.358	141.56
266.591	128.56
266.823	97.56
267.055	97.56
267.287	95.56
267.52	85.56
267.752	83.56
267.984	83.56
268.216	84.56
268.448	108.56
268.681	105.56
268.913	78.56
269.145	87.56
269.377	97.56
269.609	88.56
269.841	109.56
270.073	107.56
270.306	129.56
270.538	195.56
270.77	302.56
271.002	327.56
271.234	193.56
271.466	94.56
271.698	105.56
271.93	93.56
272.162	81.56
272.394	95.56
272.626	95.56
272.858	89.56
273.09	101.56
273.322	99.56
273.553	79.56
273.785	100.56
274.017	90.56
274.249	86.56
274.481	84.56
274.713	99.56
274.945	99.56
275.176	91.56
275.408	91.56
275.64	92.56
275.872	100.56
276.104	106.56
276.335	106.56
276.567	112.56
276.799	101.56
277.031	92.56
277.262	88.56
277.494	110.56
277.726	122.56
277.957	164.56
278.189	245.56
278.421	219.56
278.652	160.56
278.884	174.56
279.115	129.56
279.347	121.56
279.579	98.56
279.81	101.56
280.042	87.56
280.273	100.56
280.505	88.56
280.736	118.56
280.968	135.56
281.199	158.56
281.431	242.56
281.662	228.56
281.894	149.56
282.125	113.56
282.356	110.56
282.588	116.56
282.819	115.56
283.051	115.56
283.282	138.56
283.513	173.56
283.745	307.56
283.976	475.56
284.207	691.56
284.439	544.56
284.67	239.56
284.901	227.56
285.132	312.56
285.364	334.56
285.595	208.56
285.826	166.56
286.057	220.56
286.288	357.56
286.52	553.56
286.751	444.56
286.982	186.56
287.213	128.56
287.444	123.56
287.675	100.56
287.906	93.56
288.138	98.56
288.369	99.56
288.6	89.56
288.831	92.56
289.062	96.56
289.293	101.56
289.524	108.56
289.755	104.56
289.986	111.56
290.217	112.56
290.448	115.56
290.679	108.56
290.91	121.56
291.141	157.56
291.371	220.56
291.602	253.56
291.833	175.56
292.064	129.56
292.295	104.56
292.526	88.56
292.757	91.56
292.987	100.56
293.218	97.56
293.449	103.56
293.68	105.56
293.91	94.56
294.141	89.56
294.372	99.56
294.603	94.56
294.833	87.56
295.064	100.56
295.295	94.56
295.525	104.56
295.756	95.56
295.987	91.56
296.217	100.56
296.448	107.56
296.679	112.56
296.909	101.56
297.14	102.56
297.37	99.56
297.601	93.56
297.831	105.56
298.062	100.56
298.292	106.56
298.523	112.56
298.753	99.56
298.984	100.56
299.214	97.56
299.445	115.56
299.675	119.56
299.905	106.56
300.136	137.56
300.366	150.56
300.597	248.56
300.827	410.56
301.057	614.56
301.288	558.56
301.518	248.56
301.748	151.56
301.979	119.56
302.209	134.56
302.439	147.56
302.669	171.56
302.9	249.56
303.13	467.56
303.36	777.56
303.59	1072.56
303.82	755.56
304.051	276.56
304.281	158.56
304.511	139.56
304.741	123.56
304.971	112.56
305.201	110.56
305.431	119.56
305.661	115.56
305.891	110.56
306.121	110.56
306.352	100.56
306.582	123.56
306.812	119.56
307.042	118.56
307.272	112.56
307.502	96.56
307.731	104.56
307.961	104.56
308.191	111.56
308.421	107.56
308.651	108.56
308.881	100.56
309.111	124.56
309.341	96.56
309.571	119.56
309.8	125.56
310.03	100.56
310.26	102.56
310.49	113.56
310.72	110.56
310.949	119.56
311.179	121.56
311.409	99.56
311.639	120.56
311.868	110.56
312.098	103.56
312.328	104.56
312.557	122.56
312.787	112.56
313.017	111.56
313.246	110.56
313.476	118.56
313.706	132.56
313.935	141.56
314.165	183.56
314.394	207.56
314.624	180.56
314.853	125.56
315.083	120.56
315.312	126.56
315.542	133.56
315.771	131.56
316.001	138.56
316.23	129.56
316.46	145.56
316.689	184.56
316.919	234.56
317.148	468.56
317.377	819.56
317.607	1361.56
317.836	1262.56
318.065	491.56
318.295	191.56
318.524	165.56
318.753	136.56
318.983	118.56
319.212	119.56
319.441	116.56
319.67	113.56
319.9	121.56
320.129	101.56
320.358	118.56
320.587	130.56
320.816	128.56
321.046	127.56
321.275	131.56
321.504	128.56
321.733	147.56
321.962	179.56
322.191	156.56
322.42	151.56
322.649	135.56
322.878	125.56
323.108	110.56
323.337	121.56
323.566	105.56
323.795	125.56
324.024	145.56
324.253	155.56
324.482	166.56
324.71	216.56
324.939	261.56
325.168	217.56
325.397	197.56
325.626	241.56
325.855	446.56
326.084	868.56
326.313	1398.56
326.542	1379.56
326.77	542.56
326.999	249.56
327.228	192.56
327.457	217.56
327.686	212.56
327.914	145.56
328.143	135.56
328.372	126.56
328.6	111.56
328.829	120.56
329.058	103.56
329.287	111.56
329.515	121.56
329.744	133.56
329.972	118.56
330.201	115.56
330.43	96.56
330.658	115.56
330.887	118.56
331.115	116.56
331.344	116.56
331.572	125.56
331.801	111.56
332.03	112.56
332.258	136.56
332.486	167.56
332.715	277.56
332.943	463.56
333.172	684.56
333.4	586.56
333.629	231.56
333.857	143.56
334.085	121.56
334.314	126.56
334.542	120.56
334.771	120.56
334.999	127.56
335.227	128.56
335.455	127.56
335.684	118.56
335.912	132.56
336.14	109.56
336.369	108.56
336.597	107.56
336.825	112.56
337.053	118.56
337.281	119.56
337.51	127.56
337.738	122.56
337.966	122.56
338.194	119.56
338.422	111.56
338.65	104.56
338.878	126.56
339.106	111.56
339.334	115.56
339.562	112.56
339.79	107.56
340.018	117.56
340.246	119.56
340.474	120.56
340.702	118.56
340.93	111.56
341.158	124.56
341.386	119.56
341.614	118.56
341.842	124.56
342.07	125.56
342.298	135.56
342.526	115.56
342.754	115.56
342.981	116.56
343.209	123.56
343.437	127.56
343.665	124.56
343.893	111.56
344.12	115.56
344.348	120.56
344.576	117.56
344.804	115.56
345.031	104.56
345.259	117.56
345.487	105.56
345.714	116.56
345.942	123.56
346.17	121.56
346.397	116.56
346.625	105.56
346.853	111.56
347.08	102.56
347.308	105.56
347.535	118.56
347.763	107.56
347.99	113.56
348.218	103.56
348.445	111.56
348.673	117.56
348.9	137.56
349.128	132.56
349.355	126.56
349.583	117.56
349.81	115.56
350.037	124.56
350.265	118.56
350.492	109.56
350.72	117.56
350.947	120.56
351.174	122.56
351.402	111.56
351.629	115.56
351.856	129.56
352.083	110.56
352.311	116.56
352.538	99.56
352.765	112.56
352.992	103.56
353.22	99.56
353.447	100.56
353.674	100.56
353.901	91.56
354.128	103.56
354.355	116.56
354.583	107.56
354.81	111.56
355.037	115.56
355.264	107.56
355.491	102.56
355.718	112.56
355.945	117.56
356.172	96.56
356.399	106.56
356.626	99.56
356.853	105.56
357.08	100.56
357.307	92.56
357.534	93.56
357.761	122.56
357.988	103.56
358.215	97.56
358.441	127.56
358.668	115.56
358.895	129.56
359.122	107.56
359.349	119.56
359.576	116.56
359.802	104.56
360.029	101.56
360.256	117.56
360.483	120.56
360.709	124.56
360.936	99.56
361.163	119.56
361.39	117.56
361.616	108.56
361.843	139.56
362.07	111.56
362.296	105.56
362.523	108.56
362.749	117.56
362.976	117.56
363.203	108.56
363.429	106.56
363.656	123.56
363.882	124.56
364.109	131.56
364.335	106.56
364.562	102.56
364.788	107.56
365.015	109.56
365.241	128.56
365.468	181.56
365.694	232.56
365.92	207.56
366.147	122.56
366.373	93.56
366.599	105.56
366.826	103.56
367.052	110.56
367.278	86.56
367.505	119.56
367.731	103.56
367.957	90.56
368.184	115.56
368.41	117.56
368.636	113.56
368.862	97.56
369.089	102.56
369.315	125.56
369.541	105.56
369.767	112.56
369.993	97.56
370.219	115.56
370.445	108.56
370.672	114.56
370.898	117.56
371.124	116.56
371.35	101.56
371.576	112.56
371.802	101.56
372.028	119.56
372.254	121.56
372.48	104.56
372.706	124.56
372.932	101.56
373.158	115.56
373.384	125.56
373.61	124.56
373.835	117.56
374.061	129.56
374.287	122.56
374.513	111.56
374.739	95.56
374.965	120.56
375.191	115.56
375.416	108.56
375.642	119.56
375.868	106.56
376.094	105.56
376.319	114.56
376.545	113.56
376.771	107.56
376.997	103.56
377.222	95.56
377.448	115.56
377.674	107.56
377.899	108.56
378.125	103.56
378.35	116.56
378.576	122.56
378.802	113.56
379.027	126.56
379.253	128.56
379.478	168.56
379.704	300.56
379.929	684.56
380.155	1402.56
380.38	1453.56
380.606	480.56
380.831	187.56
381.057	121.56
381.282	109.56
381.507	108.56
381.733	108.56
381.958	110.56
382.184	107.56
382.409	115.56
382.634	109.56
382.86	107.56
383.085	109.56
383.31	98.56
383.535	104.56
383.761	112.56
383.986	117.56
384.211	113.56
384.436	113.56
384.662	106.56
384.887	104.56
385.112	118.56
385.337	116.56
385.562	102.56
385.787	115.56
386.013	118.56
386.238	112.56
386.463	106.56
386.688	109.56
386.913	112.56
387.138	103.56
387.363	119.56
387.588	105.56
387.813	111.56
388.038	91.56
388.263	109.56
388.488	109.56
388.713	121.56
388.938	108.56
389.163	99.56
389.387	105.56
389.612	102.56
389.837	94.56
390.062	105.56
390.287	101.56
390.512	103.56
390.736	107.56
390.961	101.56
391.186	101.56
391.411	81.56
391.636	98.56
391.86	96.56
392.085	99.56
392.31	97.56
392.534	92.56
392.759	109.56
392.984	97.56
393.208	109.56
393.433	141.56
393.658	140.56
393.882	104.56
394.107	115.56
394.331	97.56
394.556	107.56
394.78	100.56
395.005	99.56
395.229	95.56
395.454	105.56
395.678	97.56
395.903	126.56
396.127	111.56
396.352	102.56
396.576	103.56
396.801	111.56
397.025	129.56
397.249	118.56
397.474	108.56
397.698	101.56
397.922	103.56
398.147	104.56
398.371	100.56
398.595	92.56
398.82	104.56
399.044	106.56
399.268	105.56
399.492	95.56
399.717	88.56
399.941	94.56
400.165	116.56
400.389	101.56
400.613	104.56
400.837	98.56
401.062	106.56
401.286	95.56
401.51	95.56
401.734	99.56
401.958	93.56
402.182	96.56
402.406	94.56
402.63	97.56
402.854	97.56
403.078	92.56
403.302	92.56
403.526	99.56
403.75	99.56
403.974	88.56
404.198	91.56
404.422	95.56
404.645	101.56
404.869	97.56
405.093	105.56
405.317	88.56
405.541	106.56
405.765	129.56
405.988	139.56
406.212	129.56
406.436	104.56
406.66	104.56
406.883	112.56
407.107	97.56
407.331	100.56
407.555	92.56
407.778	91.56
408.002	89.56
408.226	99.56
408.449	116.56
408.673	105.56
408.896	107.56
409.12	104.56
409.344	92.56
409.567	78.56
409.791	106.56
410.014	105.56
410.238	107.56
410.461	109.56
410.685	99.56
410.908	112.56
411.132	109.56
411.355	96.56
411.578	107.56
411.802	93.56
412.025	95.56
412.249	86.56
412.472	102.56
412.695	105.56
412.919	104.56
413.142	107.56
413.365	103.56
413.589	115.56
413.812	110.56
414.035	109.56
414.258	110.56
414.482	100.56
414.705	100.56
414.928	111.56
415.151	106.56
415.374	115.56
415.597	100.56
415.821	88.56
416.044	102.56
416.267	106.56
416.49	85.56
416.713	109.56
416.936	98.56
417.159	109.56
417.382	98.56
417.605	100.56
417.828	105.56
418.051	93.56
418.274	112.56
418.497	123.56
418.72	103.56
418.943	103.56
419.166	99.56
419.389	115.56
419.611	95.56
419.834	107.56
420.057	104.56
420.28	89.56
420.503	116.56
420.726	111.56
420.948	100.56
421.171	89.56
421.394	91.56
421.617	112.56
421.839	101.56
422.062	102.56
422.285	105.56
422.507	109.56
422.73	124.56
422.953	139.56
423.175	121.56
423.398	111.56
423.621	101.56
423.843	104.56
424.066	112.56
424.288	101.56
424.511	100.56
424.733	95.56
424.956	119.56
425.178	107.56
425.401	112.56
425.623	103.56
425.846	92.56
426.068	104.56
426.291	96.56
426.513	107.56
426.735	97.56
426.958	105.56
427.18	91.56
427.402	94.56
427.625	102.56
427.847	121.56
428.069	94.56
428.292	107.56
428.514	104.56
428.736	103.56
428.958	103.56
429.181	104.56
429.403	86.56
429.625	91.56
429.847	104.56
430.069	109.56
430.292	109.56
430.514	112.56
430.736	94.56
430.958	98.56
431.18	103.56
431.402	94.56
431.624	100.56
431.846	108.56
432.068	110.56
432.29	92.56
432.512	102.56
432.734	91.56
432.956	106.56
433.178	105.56
433.4	104.56
433.622	118.56
433.844	100.56
434.066	102.56
434.287	95.56
434.509	94.56
434.731	95.56
434.953	88.56
435.175	100.56
435.397	93.56
435.618	91.56
435.84	90.56
436.062	96.56
436.284	107.56
436.505	95.56
436.727	94.56
436.949	93.56
437.17	101.56
437.392	85.56
437.614	88.56
437.835	93.56
438.057	85.56
438.278	88.56
438.5	94.56
438.721	118.56
438.943	105.56
439.165	121.56
439.386	111.56
439.608	109.56
439.829	104.56
440.05	134.56
440.272	121.56
440.493	117.56
440.715	95.56
440.936	90.56
441.158	100.56
441.379	100.56
441.6	92.56
441.822	121.56
442.043	125.56
442.264	143.56
442.486	128.56
442.707	93.56
442.928	95.56
443.149	88.56
443.371	95.56
443.592	115.56
443.813	100.56
444.034	83.56
444.255	94.56
444.476	94.56
444.698	102.56
444.919	94.56
445.14	213.56
445.361	158.56
445.582	121.56
445.803	88.56
446.024	96.56
446.245	94.56
446.466	103.56
446.687	112.56
446.908	102.56
447.129	80.56
447.35	88.56
447.571	103.56
447.792	88.56
448.013	95.56
448.234	101.56
448.455	105.56
448.675	100.56
448.896	92.56
449.117	98.56
449.338	143.56
449.559	138.56
449.779	125.56
450	99.56
450.221	101.56
450.442	128.56
450.662	119.56
450.883	111.56
451.104	105.56
451.324	113.56
451.545	112.56
451.766	119.56
451.986	131.56
452.207	189.56
452.428	483.56
452.648	1168.56
452.869	679.56
453.089	190.56
453.31	135.56
453.53	123.56
453.751	126.56
453.971	139.56
454.192	135.56
454.412	126.56
454.633	114.56
454.853	87.56
455.073	91.56
455.294	85.56
455.514	111.56
455.734	108.56
455.955	95.56
456.175	97.56
456.395	81.56
456.616	105.56
456.836	108.56
457.056	88.56
457.276	115.56
457.497	105.56
457.717	128.56
457.937	107.56
458.157	89.56
458.377	100.56
458.598	88.56
458.818	86.56
459.038	87.56
459.258	98.56
459.478	94.56
459.698	81.56
459.918	106.56
460.138	95.56
460.358	86.56
460.578	83.56
460.798	98.56
461.018	100.56
461.238	88.56
461.458	92.56
461.678	95.56
461.898	93.56
462.118	94.56
462.338	87.56
462.558	96.56
462.777	98.56
462.997	98.56
463.217	122.56
463.437	125.56
463.657	173.56
463.876	173.56
464.096	127.56
464.316	102.56
464.536	89.56
464.755	83.56
464.975	89.56
465.195	115.56
465.414	94.56
465.634	94.56
465.854	95.56
466.073	102.56
466.293	101.56
466.512	91.56
466.732	107.56
466.951	103.56
467.171	147.56
467.391	138.56
467.61	111.56
467.829	96.56
468.049	97.56
468.268	89.56
468.488	96.56
468.707	102.56
468.927	104.56
469.146	104.56
469.365	112.56
469.585	110.56
469.804	104.56
470.023	103.56
470.243	88.56
470.462	105.56
470.681	110.56
470.901	128.56
471.12	184.56
471.339	191.56
471.558	156.56
471.777	109.56
471.997	115.56
472.216	84.56
472.435	106.56
472.654	92.56
472.873	91.56
473.092	108.56
473.311	100.56
473.53	95.56
473.749	111.56
473.968	102.56
474.187	94.56
474.406	85.56
474.625	97.56
474.844	83.56
475.063	102.56
475.282	89.56
475.501	85.56
475.72	106.56
475.939	105.56
476.158	104.56
476.377	110.56
476.596	99.56
476.814	107.56
477.033	106.56
477.252	110.56
477.471	95.56
477.69	100.56
477.908	85.56
478.127	90.56
478.346	92.56
478.564	113.56
478.783	96.56
479.002	93.56
479.22	97.56
479.439	99.56
479.658	93.56
479.876	103.56
480.095	105.56
480.313	105.56
480.532	101.56
480.751	100.56
480.969	94.56
481.188	98.56
481.406	108.56
481.624	120.56
481.843	118.56
482.061	112.56
482.28	106.56
482.498	109.56
482.717	95.56
482.935	105.56
483.153	108.56
483.372	114.56
483.59	109.56
483.808	104.56
484.027	109.56
484.245	119.56
484.463	172.56
484.681	209.56
484.9	140.56
485.118	107.56
485.336	99.56
485.554	121.56
485.772	125.56
485.99	180.56
486.209	222.56
486.427	144.56
486.645	116.56
486.863	99.56
487.081	109.56
487.299	102.56
487.517	99.56
487.735	101.56
487.953	104.56
488.171	108.56
488.389	105.56
488.607	111.56
488.825	123.56
489.043	111.56
489.261	104.56
489.479	93.56
489.696	103.56
489.914	85.56
490.132	101.56
490.35	99.56
490.568	96.56
490.786	96.56
491.003	102.56
491.221	114.56
491.439	115.56
491.657	112.56
491.874	119.56
492.092	103.56
492.31	114.56
492.527	111.56
492.745	119.56
492.963	101.56
493.18	102.56
493.398	97.56
493.615	94.56
493.833	117.56
494.05	109.56
494.268	106.56
494.485	107.56
494.703	102.56
494.92	101.56
495.138	105.56
495.355	112.56
495.573	100.56
495.79	91.56
496.008	93.56
496.225	111.56
496.442	108.56
496.66	138.56
496.877	146.56
497.094	157.56
497.312	131.56
497.529	108.56
497.746	111.56
497.963	102.56
498.181	102.56
498.398	102.56
498.615	112.56
498.832	125.56
499.049	111.56
499.267	127.56
499.484	145.56
499.701	121.56
499.918	103.56
500.135	103.56
500.352	108.56
500.569	106.56
500.786	100.56
501.003	113.56
501.22	91.56
501.437	119.56
501.654	96.56
501.871	107.56
502.088	113.56
502.305	95.56
502.522	88.56
502.739	104.56
502.956	102.56
503.172	106.56
503.389	110.56
503.606	89.56
503.823	105.56
504.04	84.56
504.256	97.56
504.473	92.56
504.69	99.56
504.907	115.56
505.123	96.56
505.34	106.56
505.557	99.56
505.773	104.56
505.99	93.56
506.207	104.56
506.423	104.56
506.64	128.56
506.856	101.56
507.073	115.56
