Data from SnStandardFlinnAPT0064_LampEnergy10_LIBS07252019.E.O._I.C._HRD10591_15-21-24-494.txt Node
Date: Thu Jul 25 15:21:24 EDT 2019
User: cochatt
Spectrometer: HR+D1059
Trigger mode: 1
Integration Time (sec): 1.000000E-1
Scans to average: 1
Electric dark correction enabled: true
Nonlinearity correction enabled: false
Boxcar width: 0
XAxis mode: Wavelengths
Number of Pixels in Spectrum: 2048
>>>>>Begin Spectral Data<<<<<
223.165	-18.44
223.4	-18.44
223.635	-18.44
223.869	-20.44
224.104	-21.44
224.338	-4.44
224.573	3.56
224.808	-25.44
225.042	6.56
225.277	-3.44
225.511	-10.44
225.746	5.56
225.98	13.56
226.215	-4.44
226.449	15.56
226.683	30.56
226.918	5.56
227.152	27.56
227.387	35.56
227.621	35.56
227.856	42.56
228.09	49.56
228.324	47.56
228.559	53.56
228.793	113.56
229.027	319.56
229.262	326.56
229.496	311.56
229.73	303.56
229.964	285.56
230.199	312.56
230.433	291.56
230.667	315.56
230.901	321.56
231.136	325.56
231.37	357.56
231.604	374.56
231.838	441.56
232.072	499.56
232.306	568.56
232.541	470.56
232.775	416.56
233.009	421.56
233.243	416.56
233.477	462.56
233.711	499.56
233.945	565.56
234.179	508.56
234.413	454.56
234.647	439.56
234.881	474.56
235.115	511.56
235.349	613.56
235.583	764.56
235.817	943.56
236.051	927.56
236.285	642.56
236.519	509.56
236.753	470.56
236.987	486.56
237.221	509.56
237.455	507.56
237.689	473.56
237.922	456.56
238.156	469.56
238.39	467.56
238.624	484.56
238.858	482.56
239.091	489.56
239.325	489.56
239.559	494.56
239.793	488.56
240.027	531.56
240.26	533.56
240.494	535.56
240.728	548.56
240.961	593.56
241.195	634.56
241.429	667.56
241.662	724.56
241.896	778.56
242.13	952.56
242.363	1223.56
242.597	1598.56
242.83	1495.56
243.064	1514.56
243.298	1735.56
243.531	1445.56
243.765	950.56
243.998	797.56
244.232	675.56
244.465	674.56
244.699	656.56
244.932	636.56
245.166	657.56
245.399	691.56
245.633	688.56
245.866	670.56
246.099	673.56
246.333	657.56
246.566	647.56
246.8	647.56
247.033	635.56
247.266	643.56
247.5	634.56
247.733	671.56
247.966	709.56
248.2	758.56
248.433	849.56
248.666	988.56
248.899	939.56
249.133	853.56
249.366	863.56
249.599	928.56
249.832	1075.56
250.066	1083.56
250.299	846.56
250.532	774.56
250.765	750.56
250.998	753.56
251.231	727.56
251.465	723.56
251.698	735.56
251.931	727.56
252.164	736.56
252.397	775.56
252.63	793.56
252.863	805.56
253.096	791.56
253.329	785.56
253.562	766.56
253.795	786.56
254.028	805.56
254.261	820.56
254.494	859.56
254.727	1024.56
254.96	1213.56
255.193	1177.56
255.426	986.56
255.659	924.56
255.892	869.56
256.124	901.56
256.357	891.56
256.59	903.56
256.823	974.56
257.056	1085.56
257.289	1319.56
257.521	1458.56
257.754	1179.56
257.987	983.56
258.22	933.56
258.452	917.56
258.685	886.56
258.918	962.56
259.151	983.56
259.383	1098.56
259.616	1198.56
259.849	1235.56
260.081	1054.56
260.314	1005.56
260.547	963.56
260.779	941.56
261.012	926.56
261.244	977.56
261.477	977.56
261.71	997.56
261.942	1008.56
262.175	1033.56
262.407	1050.56
262.64	1072.56
262.872	1098.56
263.105	1164.56
263.337	1204.56
263.57	1293.56
263.802	1298.56
264.035	1295.56
264.267	1345.56
264.499	1375.56
264.732	1424.56
264.964	1435.56
265.197	1455.56
265.429	1462.56
265.661	1503.56
265.894	1598.56
266.126	1778.56
266.358	1951.56
266.591	1881.56
266.823	1618.56
267.055	1441.56
267.287	1413.56
267.52	1326.56
267.752	1295.56
267.984	1282.56
268.216	1269.56
268.448	1252.56
268.681	1263.56
268.913	1201.56
269.145	1222.56
269.377	1227.56
269.609	1239.56
269.841	1277.56
270.073	1373.56
270.306	1585.56
270.538	2095.56
270.77	3125.56
271.002	3825.56
271.234	2765.56
271.466	1851.56
271.698	1525.56
271.93	1402.56
272.162	1322.56
272.394	1284.56
272.626	1250.56
272.858	1221.56
273.09	1221.56
273.322	1250.56
273.553	1225.56
273.785	1190.56
274.017	1208.56
274.249	1206.56
274.481	1209.56
274.713	1197.56
274.945	1229.56
275.176	1262.56
275.408	1184.56
275.64	1241.56
275.872	1236.56
276.104	1262.56
276.335	1247.56
276.567	1284.56
276.799	1286.56
277.031	1306.56
277.262	1313.56
277.494	1383.56
277.726	1541.56
277.957	1837.56
278.189	2081.56
278.421	1995.56
278.652	1748.56
278.884	1672.56
279.115	1479.56
279.347	1382.56
279.579	1368.56
279.81	1388.56
280.042	1418.56
280.273	1382.56
280.505	1445.56
280.736	1483.56
280.968	1607.56
281.199	1797.56
281.431	2042.56
281.662	2083.56
281.894	1802.56
282.125	1653.56
282.356	1607.56
282.588	1655.56
282.819	1710.56
283.051	1839.56
283.282	2013.56
283.513	2447.56
283.745	3462.56
283.976	5459.56
284.207	7803.56
284.439	7138.56
284.67	4465.56
284.901	3682.56
285.132	3707.56
285.364	3547.56
285.595	2718.56
285.826	2369.56
286.057	2802.56
286.288	3800.56
286.52	5133.56
286.751	4763.56
286.982	2999.56
287.213	2295.56
287.444	2013.56
287.675	1875.56
287.906	1766.56
288.138	1733.56
288.369	1698.56
288.6	1679.56
288.831	1676.56
289.062	1696.56
289.293	1681.56
289.524	1709.56
289.755	1693.56
289.986	1707.56
290.217	1711.56
290.448	1728.56
290.679	1744.56
290.91	1816.56
291.141	1864.56
291.371	2030.56
291.602	2112.56
291.833	1901.56
292.064	1713.56
292.295	1686.56
292.526	1662.56
292.757	1595.56
292.987	1600.56
293.218	1582.56
293.449	1618.56
293.68	1586.56
293.91	1613.56
294.141	1555.56
294.372	1574.56
294.603	1562.56
294.833	1578.56
295.064	1569.56
295.295	1582.56
295.525	1554.56
295.756	1571.56
295.987	1585.56
296.217	1561.56
296.448	1577.56
296.679	1572.56
296.909	1623.56
297.14	1590.56
297.37	1626.56
297.601	1613.56
297.831	1602.56
298.062	1632.56
298.292	1699.56
298.523	1699.56
298.753	1697.56
298.984	1699.56
299.214	1751.56
299.445	1783.56
299.675	1754.56
299.905	1827.56
300.136	1870.56
300.366	2110.56
300.597	2661.56
300.827	3808.56
301.057	5118.56
301.288	5095.56
301.518	3367.56
301.748	2570.56
301.979	2394.56
302.209	2235.56
302.439	2313.56
302.669	2413.56
302.9	2956.56
303.13	4063.56
303.36	5998.56
303.59	7935.56
303.82	6982.56
304.051	4203.56
304.281	3027.56
304.511	2563.56
304.741	2331.56
304.971	2196.56
305.201	2078.56
305.431	2046.56
305.661	1942.56
305.891	1935.56
306.121	1889.56
306.352	1906.56
306.582	1851.56
306.812	1876.56
307.042	1851.56
307.272	1820.56
307.502	1800.56
307.731	1847.56
307.961	1849.56
308.191	1820.56
308.421	1831.56
308.651	1833.56
308.881	1801.56
309.111	1810.56
309.341	1826.56
309.571	1874.56
309.8	1865.56
310.03	1860.56
310.26	1860.56
310.49	1852.56
310.72	1876.56
310.949	1878.56
311.179	1888.56
311.409	1923.56
311.639	1932.56
311.868	1929.56
312.098	1937.56
312.328	1967.56
312.557	1992.56
312.787	1959.56
313.017	1943.56
313.246	2018.56
313.476	1995.56
313.706	2087.56
313.935	2202.56
314.165	2363.56
314.394	2500.56
314.624	2353.56
314.853	2206.56
315.083	2163.56
315.312	2201.56
315.542	2194.56
315.771	2221.56
316.001	2211.56
316.23	2319.56
316.46	2405.56
316.689	2665.56
316.919	3191.56
317.148	4551.56
317.377	6955.56
317.607	10151.56
317.836	10534.56
318.065	6535.56
318.295	4249.56
318.524	3438.56
318.753	3001.56
318.983	2750.56
319.212	2545.56
319.441	2527.56
319.67	2443.56
319.9	2409.56
320.129	2370.56
320.358	2364.56
320.587	2347.56
320.816	2350.56
321.046	2330.56
321.275	2397.56
321.504	2421.56
321.733	2447.56
321.962	2498.56
322.191	2460.56
322.42	2494.56
322.649	2493.56
322.878	2499.56
323.108	2487.56
323.337	2541.56
323.566	2572.56
323.795	2602.56
324.024	2665.56
324.253	2716.56
324.482	2835.56
324.71	2962.56
324.939	3155.56
325.168	3217.56
325.397	3372.56
325.626	4030.56
325.855	5506.56
326.084	8466.56
326.313	12346.56
326.542	13096.56
326.77	8937.56
326.999	5863.56
327.228	5013.56
327.457	4701.56
327.686	4710.56
327.914	5116.56
328.143	6002.56
328.372	7029.56
328.6	7756.56
328.829	6897.56
329.058	5789.56
329.287	5074.56
329.515	4690.56
329.744	4302.56
329.972	4099.56
330.201	3839.56
330.43	3700.56
330.658	3626.56
330.887	3583.56
331.115	3484.56
331.344	3481.56
331.572	3483.56
331.801	3542.56
332.03	3551.56
332.258	3524.56
332.486	3764.56
332.715	4268.56
332.943	5297.56
333.172	6476.56
333.4	6458.56
333.629	4902.56
333.857	4537.56
334.085	4512.56
334.314	4684.56
334.542	5128.56
334.771	6008.56
334.999	7307.56
335.227	9245.56
335.455	10429.56
335.684	9240.56
335.912	7548.56
336.14	6423.56
336.369	5623.56
336.597	5263.56
336.825	4824.56
337.053	4506.56
337.281	4234.56
337.51	4067.56
337.738	3916.56
337.966	3732.56
338.194	3605.56
338.422	3477.56
338.65	3410.56
338.878	3339.56
339.106	3261.56
339.334	3237.56
339.562	3150.56
339.79	3076.56
340.018	3107.56
340.246	3069.56
340.474	3041.56
340.702	3039.56
340.93	3070.56
341.158	3036.56
341.386	3049.56
341.614	2993.56
341.842	2912.56
342.07	2873.56
342.298	2838.56
342.526	2805.56
342.754	2735.56
342.981	2722.56
343.209	2747.56
343.437	2765.56
343.665	2805.56
343.893	2803.56
344.12	2828.56
344.348	2793.56
344.576	2799.56
344.804	2681.56
345.031	2650.56
345.259	2640.56
345.487	2579.56
345.714	2655.56
345.942	2579.56
346.17	2545.56
346.397	2518.56
346.625	2540.56
346.853	2535.56
347.08	2500.56
347.308	2531.56
347.535	2566.56
347.763	2544.56
347.99	2508.56
348.218	2467.56
348.445	2484.56
348.673	2467.56
348.9	2470.56
349.128	2417.56
349.355	2429.56
349.583	2430.56
349.81	2451.56
350.037	2404.56
350.265	2429.56
350.492	2426.56
350.72	2427.56
350.947	2395.56
351.174	2435.56
351.402	2387.56
351.629	2404.56
351.856	2391.56
352.083	2413.56
352.311	2369.56
352.538	2374.56
352.765	2398.56
352.992	2401.56
353.22	2340.56
353.447	2341.56
353.674	2363.56
353.901	2396.56
354.128	2431.56
354.355	2416.56
354.583	2417.56
354.81	2425.56
355.037	2468.56
355.264	2454.56
355.491	2396.56
355.718	2450.56
355.945	2441.56
356.172	2495.56
356.399	2427.56
356.626	2467.56
356.853	2532.56
357.08	2519.56
357.307	2537.56
357.534	2555.56
357.761	2588.56
357.988	2637.56
358.215	2592.56
358.441	2539.56
358.668	2525.56
358.895	2526.56
359.122	2535.56
359.349	2518.56
359.576	2526.56
359.802	2577.56
360.029	2526.56
360.256	2534.56
360.483	2531.56
360.709	2579.56
360.936	2590.56
361.163	2546.56
361.39	2550.56
361.616	2573.56
361.843	2563.56
362.07	2606.56
362.296	2598.56
362.523	2542.56
362.749	2579.56
362.976	2546.56
363.203	2533.56
363.429	2526.56
363.656	2551.56
363.882	2553.56
364.109	2501.56
364.335	2560.56
364.562	2537.56
364.788	2579.56
365.015	2612.56
365.241	2673.56
365.468	2754.56
365.694	2932.56
365.92	2799.56
366.147	2670.56
366.373	2641.56
366.599	2579.56
366.826	2597.56
367.052	2607.56
367.278	2644.56
367.505	2652.56
367.731	2620.56
367.957	2623.56
368.184	2597.56
368.41	2698.56
368.636	2654.56
368.862	2691.56
369.089	2688.56
369.315	2681.56
369.541	2633.56
369.767	2661.56
369.993	2654.56
370.219	2614.56
370.445	2660.56
370.672	2679.56
370.898	2650.56
371.124	2757.56
371.35	2696.56
371.576	2700.56
371.802	2768.56
372.028	2791.56
372.254	2807.56
372.48	2771.56
372.706	2781.56
372.932	2864.56
373.158	2805.56
373.384	2817.56
373.61	2850.56
373.835	2811.56
374.061	2801.56
374.287	2852.56
374.513	2835.56
374.739	2918.56
374.965	2893.56
375.191	2929.56
375.416	2922.56
375.642	2894.56
375.868	2892.56
376.094	2829.56
376.319	2805.56
376.545	2765.56
376.771	2746.56
376.997	2745.56
377.222	2733.56
377.448	2726.56
377.674	2760.56
377.899	2770.56
378.125	2761.56
378.35	2745.56
378.576	2758.56
378.802	2737.56
379.027	2834.56
379.253	2890.56
379.478	3033.56
379.704	3548.56
379.929	5087.56
380.155	7764.56
380.38	8463.56
380.606	5226.56
380.831	3700.56
381.057	3239.56
381.282	3016.56
381.507	2877.56
381.733	2846.56
381.958	2794.56
382.184	2767.56
382.409	2764.56
382.634	2725.56
382.86	2723.56
383.085	2739.56
383.31	2724.56
383.535	2707.56
383.761	2749.56
383.986	2720.56
384.211	2741.56
384.436	2761.56
384.662	2802.56
384.887	2821.56
385.112	2787.56
385.337	2802.56
385.562	2835.56
385.787	2788.56
386.013	2835.56
386.238	2816.56
386.463	2782.56
386.688	2831.56
386.913	2802.56
387.138	2753.56
387.363	2787.56
387.588	2727.56
387.813	2786.56
388.038	2831.56
388.263	2837.56
388.488	2788.56
388.713	2763.56
388.938	2772.56
389.163	2756.56
389.387	2811.56
389.612	2775.56
389.837	2821.56
390.062	2816.56
390.287	2800.56
390.512	2848.56
390.736	2850.56
390.961	2926.56
391.186	2865.56
391.411	2937.56
391.636	2929.56
391.86	2928.56
392.085	2915.56
392.31	2925.56
392.534	2881.56
392.759	2856.56
392.984	2786.56
393.208	2862.56
393.433	2813.56
393.658	2829.56
393.882	2813.56
394.107	2775.56
394.331	2838.56
394.556	2798.56
394.78	2849.56
395.005	2875.56
395.229	2869.56
395.454	2916.56
395.678	2901.56
395.903	2913.56
396.127	2906.56
396.352	2873.56
396.576	2845.56
396.801	2887.56
397.025	2923.56
397.249	2924.56
397.474	2958.56
397.698	2900.56
397.922	2964.56
398.147	2922.56
398.371	2981.56
398.595	3083.56
398.82	3101.56
399.044	3212.56
399.268	3374.56
399.492	3518.56
399.717	3614.56
399.941	3686.56
400.165	3569.56
400.389	3424.56
400.613	3241.56
400.837	3197.56
401.062	3123.56
401.286	3098.56
401.51	3123.56
401.734	3053.56
401.958	3075.56
402.182	3041.56
402.406	3070.56
402.63	3094.56
402.854	3144.56
403.078	3120.56
403.302	3182.56
403.526	3142.56
403.75	3174.56
403.974	3257.56
404.198	3179.56
404.422	3181.56
404.645	3174.56
404.869	3164.56
405.093	3208.56
405.317	3182.56
405.541	3285.56
405.765	3329.56
405.988	3275.56
406.212	3321.56
406.436	3252.56
406.66	3327.56
406.883	3245.56
407.107	3406.56
407.331	3442.56
407.555	3467.56
407.778	3422.56
408.002	3400.56
408.226	3439.56
408.449	3413.56
408.673	3358.56
408.896	3315.56
409.12	3238.56
409.344	3252.56
409.567	3183.56
409.791	3210.56
410.014	3229.56
410.238	3183.56
410.461	3155.56
410.685	3144.56
410.908	3114.56
411.132	3110.56
411.355	3096.56
411.578	3071.56
411.802	3091.56
412.025	3086.56
412.249	3114.56
412.472	3054.56
412.695	3012.56
412.919	2982.56
413.142	3026.56
413.365	3023.56
413.589	3076.56
413.812	3010.56
414.035	3036.56
414.258	3037.56
414.482	3013.56
414.705	3000.56
414.928	3051.56
415.151	2935.56
415.374	2968.56
415.597	2911.56
415.821	2869.56
416.044	2867.56
416.267	2869.56
416.49	2901.56
416.713	2893.56
416.936	2904.56
417.159	2848.56
417.382	2814.56
417.605	2860.56
417.828	2836.56
418.051	2945.56
418.274	2923.56
418.497	2914.56
418.72	2945.56
418.943	2963.56
419.166	3068.56
419.389	3205.56
419.611	3184.56
419.834	3050.56
420.057	2970.56
420.28	2947.56
420.503	2893.56
420.726	2866.56
420.948	2886.56
421.171	2902.56
421.394	2930.56
421.617	2859.56
421.839	2912.56
422.062	2915.56
422.285	2861.56
422.507	2939.56
422.73	2945.56
422.953	2953.56
423.175	2997.56
423.398	2991.56
423.621	2894.56
423.843	2854.56
424.066	2874.56
424.288	2870.56
424.511	2907.56
424.733	2866.56
424.956	2900.56
425.178	2901.56
425.401	2830.56
425.623	2874.56
425.846	2795.56
426.068	2789.56
426.291	2787.56
426.513	2775.56
426.735	2764.56
426.958	2734.56
427.18	2704.56
427.402	2748.56
427.625	2745.56
427.847	2669.56
428.069	2710.56
428.292	2714.56
428.514	2641.56
428.736	2635.56
428.958	2716.56
429.181	2653.56
429.403	2660.56
429.625	2625.56
429.847	2645.56
430.069	2734.56
430.292	2787.56
430.514	2842.56
430.736	2843.56
430.958	2698.56
431.18	2646.56
431.402	2652.56
431.624	2653.56
431.846	2638.56
432.068	2647.56
432.29	2671.56
432.512	2618.56
432.734	2653.56
432.956	2675.56
433.178	2611.56
433.4	2667.56
433.622	2682.56
433.844	2710.56
434.066	2656.56
434.287	2642.56
434.509	2674.56
434.731	2713.56
434.953	2727.56
435.175	2751.56
435.397	2785.56
435.618	2675.56
435.84	2678.56
436.062	2639.56
436.284	2646.56
436.505	2599.56
436.727	2631.56
436.949	2670.56
437.17	2611.56
437.392	2555.56
437.614	2564.56
437.835	2498.56
438.057	2553.56
438.278	2502.56
438.5	2585.56
438.721	2620.56
438.943	2642.56
439.165	2727.56
439.386	2750.56
439.608	2738.56
439.829	2788.56
440.05	2820.56
440.272	2891.56
440.493	2758.56
440.715	2715.56
440.936	2722.56
441.158	2754.56
441.379	2784.56
441.6	2896.56
441.822	2937.56
442.043	3065.56
442.264	3158.56
442.486	2961.56
442.707	2864.56
442.928	2833.56
443.149	2812.56
443.371	2805.56
443.592	2789.56
443.813	2871.56
444.034	2863.56
444.255	2896.56
444.476	2931.56
444.698	3007.56
444.919	3069.56
445.14	3115.56
445.361	2982.56
445.582	2873.56
445.803	2848.56
446.024	2828.56
446.245	2833.56
446.466	2789.56
446.687	2750.56
446.908	2817.56
447.129	2678.56
447.35	2669.56
447.571	2653.56
447.792	2604.56
448.013	2593.56
448.234	2640.56
448.455	2590.56
448.675	2611.56
448.896	2687.56
449.117	2795.56
449.338	2989.56
449.559	3130.56
449.779	2819.56
450	2629.56
450.221	2537.56
450.442	2612.56
450.662	2530.56
450.883	2506.56
451.104	2581.56
451.324	2513.56
451.545	2497.56
451.766	2607.56
451.986	2657.56
452.207	2863.56
452.428	3584.56
452.648	5417.56
452.869	4536.56
453.089	3200.56
453.31	2961.56
453.53	2899.56
453.751	3045.56
453.971	3164.56
454.192	3102.56
454.412	2711.56
454.633	2548.56
454.853	2481.56
455.073	2467.56
455.294	2480.56
455.514	2452.56
455.734	2409.56
455.955	2415.56
456.175	2426.56
456.395	2449.56
456.616	2441.56
456.836	2482.56
457.056	2505.56
457.276	2499.56
457.497	2629.56
457.717	2639.56
457.937	2541.56
458.157	2576.56
458.377	2565.56
458.598	2633.56
458.818	2583.56
459.038	2615.56
459.258	2649.56
459.478	2643.56
459.698	2715.56
459.918	2726.56
460.138	2692.56
460.358	2764.56
460.578	2845.56
460.798	2909.56
461.018	2914.56
461.238	2877.56
461.458	2892.56
461.678	2947.56
461.898	3046.56
462.118	2982.56
462.338	3114.56
462.558	3104.56
462.777	3188.56
462.997	3282.56
463.217	3404.56
463.437	3525.56
463.657	3633.56
463.876	3546.56
464.096	3365.56
464.316	3254.56
464.536	3135.56
464.755	3072.56
464.975	3042.56
465.195	2872.56
465.414	2834.56
465.634	2785.56
465.854	2722.56
466.073	2695.56
466.293	2648.56
466.512	2681.56
466.732	2694.56
466.951	2813.56
467.171	2978.56
467.391	2956.56
467.61	2709.56
467.829	2585.56
468.049	2593.56
468.268	2555.56
468.488	2565.56
468.707	2538.56
468.927	2564.56
469.146	2569.56
469.365	2649.56
469.585	2650.56
469.804	2712.56
470.023	2766.56
470.243	2813.56
470.462	2883.56
470.681	2991.56
470.901	3273.56
471.12	3726.56
471.339	3731.56
471.558	3153.56
471.777	2930.56
471.997	2789.56
472.216	2712.56
472.435	2635.56
472.654	2616.56
472.873	2574.56
473.092	2626.56
473.311	2607.56
473.53	2673.56
473.749	2759.56
473.968	2812.56
474.187	2643.56
474.406	2653.56
474.625	2602.56
474.844	2642.56
475.063	2646.56
475.282	2626.56
475.501	2640.56
475.72	2705.56
475.939	2673.56
476.158	2773.56
476.377	2760.56
476.596	2756.56
476.814	2789.56
477.033	2720.56
477.252	2815.56
477.471	2816.56
477.69	2915.56
477.908	2927.56
478.127	3018.56
478.346	2963.56
478.564	3030.56
478.783	3016.56
479.002	3113.56
479.22	3093.56
479.439	3140.56
479.658	3179.56
479.876	3141.56
480.095	3151.56
480.313	3273.56
480.532	3270.56
480.751	3185.56
480.969	3202.56
481.188	3167.56
481.406	3089.56
481.624	3135.56
481.843	3225.56
482.061	3182.56
482.28	3246.56
482.498	3174.56
482.717	3179.56
482.935	3182.56
483.153	3201.56
483.372	3265.56
483.59	3314.56
483.808	3379.56
484.027	3429.56
484.245	3554.56
484.463	4019.56
484.681	4523.56
484.9	4119.56
485.118	3889.56
485.336	3793.56
485.554	3833.56
485.772	4000.56
485.99	4510.56
486.209	4816.56
486.427	4118.56
486.645	3723.56
486.863	3528.56
487.081	3481.56
487.299	3396.56
487.517	3374.56
487.735	3363.56
