Data from SnStandardFlinnAPT0064_LampEnergy10_LIBS07252019.E.O._I.C._HRD10591_15-25-32-972.txt Node
Date: Thu Jul 25 15:25:32 EDT 2019
User: cochatt
Spectrometer: HR+D1059
Trigger mode: 1
Integration Time (sec): 1.000000E-1
Scans to average: 1
Electric dark correction enabled: true
Nonlinearity correction enabled: false
Boxcar width: 0
XAxis mode: Wavelengths
Number of Pixels in Spectrum: 2048
>>>>>Begin Spectral Data<<<<<
223.165	-18.94
223.4	-18.94
223.635	-18.94
223.869	-10.94
224.104	-14.94
224.338	-7.94
224.573	-24.94
224.808	-26.94
225.042	10.06
225.277	-7.94
225.511	-2.94
225.746	4.06
225.98	16.06
226.215	8.06
226.449	5.06
226.683	28.06
226.918	28.06
227.152	16.06
227.387	42.06
227.621	32.06
227.856	39.06
228.09	46.06
228.324	57.06
228.559	56.06
228.793	62.06
229.027	71.06
229.262	100.06
229.496	83.06
229.73	66.06
229.964	78.06
230.199	86.06
230.433	73.06
230.667	76.06
230.901	91.06
231.136	81.06
231.37	86.06
231.604	90.06
231.838	101.06
232.072	91.06
232.306	125.06
232.541	87.06
232.775	93.06
233.009	88.06
233.243	74.06
233.477	97.06
233.711	90.06
233.945	99.06
234.179	100.06
234.413	86.06
234.647	86.06
234.881	75.06
235.115	83.06
235.349	87.06
235.583	95.06
235.817	116.06
236.051	121.06
236.285	86.06
236.519	85.06
236.753	84.06
236.987	88.06
237.221	83.06
237.455	94.06
237.689	85.06
237.922	79.06
238.156	73.06
238.39	86.06
238.624	96.06
238.858	82.06
239.091	77.06
239.325	76.06
239.559	78.06
239.793	92.06
240.027	89.06
240.26	78.06
240.494	98.06
240.728	73.06
240.961	93.06
241.195	85.06
241.429	87.06
241.662	93.06
241.896	99.06
242.13	91.06
242.363	108.06
242.597	137.06
242.83	116.06
243.064	122.06
243.298	142.06
243.531	150.06
243.765	105.06
243.998	82.06
244.232	83.06
244.465	98.06
244.699	79.06
244.932	100.06
245.166	86.06
245.399	88.06
245.633	70.06
245.866	93.06
246.099	63.06
246.333	79.06
246.566	100.06
246.8	98.06
247.033	94.06
247.266	92.06
247.5	86.06
247.733	86.06
247.966	94.06
248.2	95.06
248.433	106.06
248.666	114.06
248.899	115.06
249.133	97.06
249.366	93.06
249.599	100.06
249.832	121.06
250.066	117.06
250.299	98.06
250.532	91.06
250.765	76.06
250.998	86.06
251.231	92.06
251.465	85.06
251.698	89.06
251.931	82.06
252.164	79.06
252.397	83.06
252.63	94.06
252.863	102.06
253.096	91.06
253.329	94.06
253.562	97.06
253.795	82.06
254.028	95.06
254.261	90.06
254.494	92.06
254.727	107.06
254.96	138.06
255.193	134.06
255.426	87.06
255.659	94.06
255.892	88.06
256.124	93.06
256.357	90.06
256.59	94.06
256.823	94.06
257.056	108.06
257.289	124.06
257.521	159.06
257.754	111.06
257.987	101.06
258.22	86.06
258.452	83.06
258.685	87.06
258.918	87.06
259.151	92.06
259.383	103.06
259.616	107.06
259.849	154.06
260.081	101.06
260.314	95.06
260.547	82.06
260.779	87.06
261.012	106.06
261.244	85.06
261.477	109.06
261.71	87.06
261.942	88.06
262.175	88.06
262.407	84.06
262.64	87.06
262.872	86.06
263.105	92.06
263.337	93.06
263.57	84.06
263.802	95.06
264.035	103.06
264.267	81.06
264.499	89.06
264.732	95.06
264.964	94.06
265.197	95.06
265.429	94.06
265.661	86.06
265.894	97.06
266.126	113.06
266.358	137.06
266.591	116.06
266.823	99.06
267.055	86.06
267.287	102.06
267.52	87.06
267.752	84.06
267.984	97.06
268.216	85.06
268.448	98.06
268.681	98.06
268.913	90.06
269.145	81.06
269.377	89.06
269.609	90.06
269.841	108.06
270.073	107.06
270.306	122.06
270.538	158.06
270.77	230.06
271.002	281.06
271.234	158.06
271.466	103.06
271.698	97.06
271.93	101.06
272.162	86.06
272.394	90.06
272.626	85.06
272.858	83.06
273.09	89.06
273.322	97.06
273.553	86.06
273.785	88.06
274.017	77.06
274.249	87.06
274.481	83.06
274.713	83.06
274.945	96.06
275.176	91.06
275.408	83.06
275.64	91.06
275.872	110.06
276.104	100.06
276.335	101.06
276.567	103.06
276.799	83.06
277.031	99.06
277.262	95.06
277.494	100.06
277.726	124.06
277.957	145.06
278.189	193.06
278.421	189.06
278.652	158.06
278.884	151.06
279.115	122.06
279.347	97.06
279.579	106.06
279.81	93.06
280.042	102.06
280.273	109.06
280.505	94.06
280.736	118.06
280.968	123.06
281.199	134.06
281.431	198.06
281.662	211.06
281.894	149.06
282.125	108.06
282.356	113.06
282.588	99.06
282.819	113.06
283.051	104.06
283.282	121.06
283.513	167.06
283.745	249.06
283.976	407.06
284.207	559.06
284.439	428.06
284.67	212.06
284.901	195.06
285.132	278.06
285.364	289.06
285.595	181.06
285.826	152.06
286.057	197.06
286.288	318.06
286.52	447.06
286.751	366.06
286.982	151.06
287.213	102.06
287.444	91.06
287.675	104.06
287.906	101.06
288.138	110.06
288.369	94.06
288.6	113.06
288.831	97.06
289.062	102.06
289.293	94.06
289.524	92.06
289.755	89.06
289.986	97.06
290.217	85.06
290.448	96.06
290.679	87.06
290.91	105.06
291.141	126.06
291.371	197.06
291.602	228.06
291.833	150.06
292.064	113.06
292.295	98.06
292.526	93.06
292.757	89.06
292.987	94.06
293.218	91.06
293.449	86.06
293.68	90.06
293.91	91.06
294.141	91.06
294.372	93.06
294.603	94.06
294.833	89.06
295.064	70.06
295.295	99.06
295.525	100.06
295.756	104.06
295.987	95.06
296.217	88.06
296.448	99.06
296.679	95.06
296.909	103.06
297.14	96.06
297.37	95.06
297.601	95.06
297.831	106.06
298.062	89.06
298.292	90.06
298.523	106.06
298.753	95.06
298.984	100.06
299.214	108.06
299.445	99.06
299.675	105.06
299.905	115.06
300.136	123.06
300.366	139.06
300.597	204.06
300.827	337.06
301.057	488.06
301.288	455.06
301.518	212.06
301.748	135.06
301.979	115.06
302.209	117.06
302.439	121.06
302.669	146.06
302.9	213.06
303.13	379.06
303.36	630.06
303.59	891.06
303.82	612.06
304.051	221.06
304.281	137.06
304.511	129.06
304.741	110.06
304.971	106.06
305.201	115.06
305.431	92.06
305.661	99.06
305.891	100.06
306.121	116.06
306.352	108.06
306.582	102.06
306.812	102.06
307.042	111.06
307.272	106.06
307.502	107.06
307.731	97.06
307.961	106.06
308.191	102.06
308.421	100.06
308.651	87.06
308.881	106.06
309.111	88.06
309.341	99.06
309.571	108.06
309.8	100.06
310.03	95.06
310.26	107.06
310.49	107.06
310.72	98.06
310.949	98.06
311.179	114.06
311.409	100.06
311.639	100.06
311.868	98.06
312.098	100.06
312.328	101.06
312.557	86.06
312.787	107.06
313.017	117.06
313.246	112.06
313.476	117.06
313.706	123.06
313.935	135.06
314.165	172.06
314.394	193.06
314.624	143.06
314.853	110.06
315.083	125.06
315.312	125.06
315.542	111.06
315.771	112.06
316.001	111.06
316.23	130.06
316.46	129.06
316.689	161.06
316.919	213.06
317.148	392.06
317.377	646.06
317.607	1023.06
317.836	958.06
318.065	391.06
318.295	185.06
318.524	129.06
318.753	131.06
318.983	129.06
319.212	118.06
319.441	119.06
319.67	104.06
319.9	110.06
320.129	109.06
320.358	121.06
320.587	110.06
320.816	121.06
321.046	119.06
321.275	118.06
321.504	125.06
321.733	144.06
321.962	151.06
322.191	145.06
322.42	139.06
322.649	124.06
322.878	117.06
323.108	109.06
323.337	121.06
323.566	117.06
323.795	122.06
324.024	114.06
324.253	134.06
324.482	150.06
324.71	179.06
324.939	236.06
325.168	201.06
325.397	174.06
325.626	198.06
325.855	362.06
326.084	661.06
326.313	1134.06
326.542	1073.06
326.77	436.06
326.999	218.06
327.228	175.06
327.457	200.06
327.686	188.06
327.914	137.06
328.143	135.06
328.372	126.06
328.6	117.06
328.829	103.06
329.058	104.06
329.287	112.06
329.515	111.06
329.744	113.06
329.972	121.06
330.201	103.06
330.43	121.06
330.658	103.06
330.887	113.06
331.115	120.06
331.344	111.06
331.572	101.06
331.801	100.06
332.03	114.06
332.258	115.06
332.486	142.06
332.715	222.06
332.943	369.06
333.172	558.06
333.4	475.06
333.629	192.06
333.857	143.06
334.085	113.06
334.314	106.06
334.542	121.06
334.771	117.06
334.999	117.06
335.227	114.06
335.455	108.06
335.684	121.06
335.912	105.06
336.14	108.06
336.369	113.06
336.597	120.06
336.825	109.06
337.053	101.06
337.281	113.06
337.51	90.06
337.738	108.06
337.966	88.06
338.194	83.06
338.422	108.06
338.65	108.06
338.878	105.06
339.106	118.06
339.334	115.06
339.562	103.06
339.79	111.06
340.018	108.06
340.246	104.06
340.474	121.06
340.702	103.06
340.93	97.06
341.158	102.06
341.386	105.06
341.614	106.06
341.842	103.06
342.07	115.06
342.298	96.06
342.526	101.06
342.754	118.06
342.981	117.06
343.209	114.06
343.437	90.06
343.665	98.06
343.893	109.06
344.12	111.06
344.348	92.06
344.576	95.06
344.804	110.06
345.031	109.06
345.259	104.06
345.487	99.06
345.714	100.06
345.942	118.06
346.17	116.06
346.397	106.06
346.625	92.06
346.853	106.06
347.08	104.06
347.308	96.06
347.535	108.06
347.763	102.06
347.99	87.06
348.218	104.06
348.445	87.06
348.673	115.06
348.9	127.06
349.128	124.06
349.355	120.06
349.583	109.06
349.81	114.06
350.037	107.06
350.265	117.06
350.492	119.06
350.72	112.06
350.947	110.06
351.174	112.06
351.402	97.06
351.629	113.06
351.856	109.06
352.083	103.06
352.311	125.06
352.538	101.06
352.765	102.06
352.992	101.06
353.22	115.06
353.447	101.06
353.674	115.06
353.901	105.06
354.128	104.06
354.355	99.06
354.583	99.06
354.81	101.06
355.037	93.06
355.264	94.06
355.491	108.06
355.718	95.06
355.945	98.06
356.172	88.06
356.399	101.06
356.626	97.06
356.853	106.06
357.08	107.06
357.307	108.06
357.534	116.06
357.761	102.06
357.988	109.06
358.215	109.06
358.441	99.06
358.668	97.06
358.895	100.06
359.122	103.06
359.349	127.06
359.576	111.06
359.802	106.06
360.029	101.06
360.256	93.06
360.483	104.06
360.709	98.06
360.936	110.06
361.163	92.06
361.39	116.06
361.616	93.06
361.843	96.06
362.07	111.06
362.296	112.06
362.523	98.06
362.749	92.06
362.976	86.06
363.203	109.06
363.429	101.06
363.656	103.06
363.882	94.06
364.109	114.06
364.335	101.06
364.562	98.06
364.788	99.06
365.015	100.06
365.241	111.06
365.468	171.06
365.694	212.06
365.92	175.06
366.147	116.06
366.373	105.06
366.599	98.06
366.826	87.06
367.052	83.06
367.278	116.06
367.505	103.06
367.731	109.06
367.957	107.06
368.184	93.06
368.41	105.06
368.636	101.06
368.862	99.06
369.089	104.06
369.315	108.06
369.541	106.06
369.767	100.06
369.993	110.06
370.219	110.06
370.445	114.06
370.672	90.06
370.898	90.06
371.124	110.06
371.35	106.06
371.576	98.06
371.802	97.06
372.028	111.06
372.254	101.06
372.48	113.06
372.706	104.06
372.932	108.06
373.158	112.06
373.384	104.06
373.61	122.06
373.835	101.06
374.061	105.06
374.287	95.06
374.513	102.06
374.739	102.06
374.965	115.06
375.191	99.06
375.416	102.06
375.642	101.06
375.868	101.06
376.094	108.06
376.319	104.06
376.545	104.06
376.771	96.06
376.997	98.06
377.222	114.06
377.448	92.06
377.674	101.06
377.899	105.06
378.125	93.06
378.35	117.06
378.576	106.06
378.802	97.06
379.027	114.06
379.253	117.06
379.478	145.06
379.704	229.06
379.929	569.06
380.155	1097.06
380.38	1148.06
380.606	387.06
380.831	165.06
381.057	120.06
381.282	103.06
381.507	107.06
381.733	110.06
381.958	115.06
382.184	116.06
382.409	109.06
382.634	95.06
382.86	98.06
383.085	103.06
383.31	106.06
383.535	115.06
383.761	106.06
383.986	97.06
384.211	97.06
384.436	108.06
384.662	97.06
384.887	101.06
385.112	91.06
385.337	98.06
385.562	103.06
385.787	105.06
386.013	101.06
386.238	107.06
386.463	120.06
386.688	98.06
386.913	101.06
387.138	91.06
387.363	105.06
387.588	115.06
387.813	103.06
388.038	115.06
388.263	97.06
388.488	106.06
388.713	109.06
388.938	115.06
389.163	103.06
389.387	102.06
389.612	108.06
389.837	103.06
390.062	106.06
390.287	102.06
390.512	98.06
390.736	98.06
390.961	101.06
391.186	91.06
391.411	106.06
391.636	87.06
391.86	102.06
392.085	95.06
392.31	91.06
392.534	100.06
392.759	89.06
392.984	105.06
393.208	110.06
393.433	127.06
393.658	122.06
393.882	95.06
394.107	92.06
394.331	89.06
394.556	104.06
394.78	101.06
395.005	94.06
395.229	96.06
395.454	117.06
395.678	110.06
395.903	110.06
396.127	98.06
396.352	98.06
396.576	102.06
396.801	111.06
397.025	108.06
397.249	108.06
397.474	106.06
397.698	97.06
397.922	92.06
398.147	100.06
398.371	78.06
398.595	82.06
398.82	93.06
399.044	85.06
399.268	101.06
399.492	79.06
399.717	103.06
399.941	95.06
400.165	83.06
400.389	102.06
400.613	102.06
400.837	104.06
401.062	87.06
401.286	81.06
401.51	98.06
401.734	97.06
401.958	81.06
402.182	111.06
402.406	96.06
402.63	84.06
402.854	92.06
403.078	97.06
403.302	87.06
403.526	99.06
403.75	85.06
403.974	105.06
404.198	93.06
404.422	103.06
404.645	93.06
404.869	97.06
405.093	95.06
405.317	107.06
405.541	91.06
405.765	105.06
405.988	123.06
406.212	105.06
406.436	93.06
406.66	99.06
406.883	98.06
407.107	98.06
407.331	93.06
407.555	95.06
407.778	107.06
408.002	97.06
408.226	101.06
408.449	95.06
408.673	95.06
408.896	105.06
409.12	98.06
409.344	97.06
409.567	77.06
409.791	89.06
410.014	105.06
410.238	107.06
410.461	110.06
410.685	107.06
410.908	109.06
411.132	106.06
411.355	92.06
411.578	89.06
411.802	101.06
412.025	88.06
412.249	88.06
412.472	94.06
412.695	99.06
412.919	100.06
413.142	107.06
413.365	81.06
413.589	102.06
413.812	102.06
414.035	94.06
414.258	103.06
414.482	89.06
414.705	87.06
414.928	110.06
415.151	105.06
415.374	95.06
415.597	110.06
415.821	88.06
416.044	100.06
416.267	97.06
416.49	98.06
416.713	88.06
416.936	94.06
417.159	98.06
417.382	92.06
417.605	100.06
417.828	99.06
418.051	100.06
418.274	91.06
418.497	82.06
418.72	109.06
418.943	97.06
419.166	107.06
419.389	104.06
419.611	114.06
419.834	101.06
420.057	88.06
420.28	92.06
420.503	100.06
420.726	95.06
420.948	101.06
421.171	79.06
421.394	95.06
421.617	107.06
421.839	103.06
422.062	94.06
422.285	73.06
422.507	97.06
422.73	108.06
422.953	128.06
423.175	91.06
423.398	93.06
423.621	94.06
423.843	82.06
424.066	98.06
424.288	101.06
424.511	106.06
424.733	101.06
424.956	96.06
425.178	111.06
425.401	84.06
425.623	89.06
425.846	99.06
426.068	91.06
426.291	88.06
426.513	96.06
426.735	87.06
426.958	81.06
427.18	104.06
427.402	93.06
427.625	103.06
427.847	87.06
428.069	93.06
428.292	93.06
428.514	106.06
428.736	107.06
428.958	113.06
429.181	88.06
429.403	101.06
429.625	87.06
429.847	107.06
430.069	97.06
430.292	123.06
430.514	113.06
430.736	99.06
430.958	98.06
431.18	106.06
431.402	105.06
431.624	83.06
431.846	79.06
432.068	83.06
432.29	111.06
432.512	95.06
432.734	101.06
432.956	98.06
433.178	89.06
433.4	85.06
433.622	97.06
433.844	100.06
434.066	84.06
434.287	91.06
434.509	101.06
434.731	100.06
434.953	108.06
435.175	89.06
435.397	105.06
435.618	94.06
435.84	84.06
436.062	83.06
436.284	70.06
436.505	88.06
436.727	89.06
436.949	85.06
437.17	97.06
437.392	89.06
437.614	83.06
437.835	75.06
438.057	74.06
438.278	76.06
438.5	88.06
438.721	89.06
438.943	104.06
439.165	106.06
439.386	105.06
439.608	97.06
439.829	113.06
440.05	113.06
440.272	100.06
440.493	94.06
440.715	98.06
440.936	95.06
441.158	104.06
441.379	107.06
441.6	91.06
441.822	105.06
442.043	94.06
442.264	142.06
442.486	119.06
442.707	99.06
442.928	100.06
443.149	95.06
443.371	93.06
443.592	94.06
443.813	98.06
444.034	87.06
444.255	94.06
444.476	79.06
444.698	95.06
444.919	86.06
445.14	221.06
445.361	164.06
445.582	99.06
445.803	87.06
446.024	96.06
446.245	112.06
446.466	110.06
446.687	107.06
446.908	86.06
447.129	101.06
447.35	98.06
447.571	102.06
447.792	100.06
448.013	87.06
448.234	89.06
448.455	100.06
448.675	102.06
448.896	93.06
449.117	97.06
449.338	133.06
449.559	129.06
449.779	105.06
450	103.06
450.221	99.06
450.442	98.06
450.662	100.06
450.883	90.06
451.104	109.06
451.324	119.06
451.545	111.06
451.766	100.06
451.986	113.06
452.207	179.06
452.428	422.06
452.648	990.06
452.869	572.06
453.089	172.06
453.31	120.06
453.53	98.06
453.751	118.06
453.971	144.06
454.192	137.06
454.412	128.06
454.633	96.06
454.853	95.06
455.073	95.06
455.294	101.06
455.514	103.06
455.734	92.06
455.955	94.06
456.175	102.06
456.395	94.06
456.616	84.06
456.836	89.06
457.056	82.06
457.276	93.06
457.497	98.06
457.717	121.06
457.937	114.06
458.157	88.06
458.377	105.06
458.598	88.06
458.818	84.06
459.038	93.06
459.258	85.06
459.478	79.06
459.698	87.06
459.918	91.06
460.138	91.06
460.358	106.06
460.578	97.06
460.798	103.06
461.018	102.06
461.238	95.06
461.458	86.06
461.678	85.06
461.898	93.06
462.118	93.06
462.338	89.06
462.558	87.06
462.777	97.06
462.997	94.06
463.217	105.06
463.437	113.06
463.657	155.06
463.876	169.06
464.096	119.06
464.316	101.06
464.536	94.06
464.755	101.06
464.975	98.06
465.195	86.06
465.414	96.06
465.634	85.06
465.854	89.06
466.073	93.06
466.293	105.06
466.512	99.06
466.732	89.06
466.951	113.06
467.171	125.06
467.391	126.06
467.61	121.06
467.829	83.06
468.049	103.06
468.268	100.06
468.488	101.06
468.707	87.06
468.927	92.06
469.146	116.06
469.365	86.06
469.585	85.06
469.804	86.06
470.023	102.06
470.243	99.06
470.462	109.06
470.681	117.06
470.901	125.06
471.12	159.06
471.339	177.06
471.558	110.06
471.777	121.06
471.997	105.06
472.216	97.06
472.435	92.06
472.654	97.06
472.873	83.06
473.092	100.06
473.311	85.06
473.53	102.06
473.749	91.06
473.968	81.06
474.187	94.06
474.406	88.06
474.625	101.06
474.844	102.06
475.063	94.06
475.282	104.06
475.501	99.06
475.72	120.06
475.939	101.06
476.158	86.06
476.377	113.06
476.596	104.06
476.814	87.06
477.033	105.06
477.252	99.06
477.471	93.06
477.69	102.06
477.908	97.06
478.127	99.06
478.346	107.06
478.564	88.06
478.783	99.06
479.002	97.06
479.22	100.06
479.439	98.06
479.658	108.06
479.876	92.06
480.095	102.06
480.313	98.06
480.532	104.06
480.751	97.06
480.969	109.06
481.188	102.06
481.406	87.06
481.624	109.06
481.843	116.06
482.061	107.06
482.28	107.06
482.498	115.06
482.717	99.06
482.935	98.06
483.153	92.06
483.372	106.06
483.59	107.06
483.808	95.06
484.027	119.06
484.245	114.06
484.463	156.06
484.681	173.06
484.9	127.06
485.118	93.06
485.336	110.06
485.554	100.06
485.772	101.06
485.99	158.06
486.209	203.06
486.427	127.06
486.645	107.06
486.863	106.06
487.081	106.06
487.299	101.06
487.517	98.06
487.735	97.06
487.953	110.06
488.171	106.06
488.389	108.06
488.607	102.06
488.825	93.06
489.043	102.06
489.261	96.06
489.479	80.06
489.696	102.06
489.914	105.06
490.132	89.06
490.35	101.06
490.568	97.06
490.786	120.06
491.003	100.06
491.221	109.06
491.439	105.06
491.657	106.06
491.874	101.06
492.092	90.06
492.31	92.06
492.527	116.06
492.745	101.06
492.963	106.06
493.18	108.06
493.398	98.06
493.615	102.06
493.833	106.06
494.05	104.06
494.268	103.06
494.485	102.06
494.703	100.06
494.92	99.06
495.138	100.06
495.355	106.06
495.573	107.06
495.79	101.06
496.008	100.06
496.225	101.06
496.442	111.06
496.66	122.06
496.877	153.06
497.094	145.06
497.312	105.06
497.529	90.06
497.746	85.06
497.963	109.06
498.181	104.06
498.398	97.06
498.615	94.06
498.832	95.06
499.049	103.06
499.267	114.06
499.484	147.06
499.701	115.06
499.918	95.06
500.135	105.06
500.352	94.06
500.569	103.06
500.786	115.06
501.003	104.06
501.22	93.06
501.437	92.06
501.654	93.06
501.871	96.06
502.088	97.06
502.305	94.06
502.522	87.06
502.739	86.06
502.956	102.06
503.172	99.06
503.389	102.06
503.606	101.06
503.823	97.06
504.04	94.06
504.256	97.06
504.473	90.06
504.69	114.06
504.907	106.06
505.123	111.06
505.34	102.06
505.557	91.06
505.773	106.06
505.99	94.06
506.207	107.06
506.423	96.06
506.64	100.06
506.856	108.06
507.073	99.06
507.289	102.06
507.506	89.06
507.722	79.06
507.939	95.06
508.155	99.06
508.372	109.06
508.588	100.06
508.805	107.06
509.021	83.06
509.238	96.06
