Data from SnStandardFlinnAPT0064_LampEnergy10_LIBS07252019.E.O._I.C._HRD10591_15-20-27-493.txt Node
Date: Thu Jul 25 15:20:27 EDT 2019
User: cochatt
Spectrometer: HR+D1059
Trigger mode: 1
Integration Time (sec): 1.000000E-1
Scans to average: 1
Electric dark correction enabled: true
Nonlinearity correction enabled: false
Boxcar width: 0
XAxis mode: Wavelengths
Number of Pixels in Spectrum: 2048
>>>>>Begin Spectral Data<<<<<
223.165	-14.56
223.4	-14.56
223.635	-14.56
223.869	-14.56
224.104	-23.56
224.338	-19.56
224.573	-19.56
224.808	-13.56
225.042	-28.56
225.277	6.44
225.511	-2.56
225.746	6.44
225.98	14.44
226.215	17.44
226.449	15.44
226.683	18.44
226.918	20.44
227.152	37.44
227.387	26.44
227.621	51.44
227.856	42.44
228.09	41.44
228.324	35.44
228.559	53.44
228.793	119.44
229.027	312.44
229.262	350.44
229.496	308.44
229.73	305.44
229.964	304.44
230.199	307.44
230.433	309.44
230.667	323.44
230.901	317.44
231.136	329.44
231.37	355.44
231.604	385.44
231.838	437.44
232.072	525.44
232.306	568.44
232.541	477.44
232.775	411.44
233.009	410.44
233.243	414.44
233.477	455.44
233.711	529.44
233.945	597.44
234.179	507.44
234.413	449.44
234.647	465.44
234.881	480.44
235.115	527.44
235.349	617.44
235.583	770.44
235.817	1007.44
236.051	975.44
236.285	648.44
236.519	544.44
236.753	517.44
236.987	515.44
237.221	546.44
237.455	537.44
237.689	479.44
237.922	465.44
238.156	467.44
238.39	481.44
238.624	504.44
238.858	490.44
239.091	487.44
239.325	511.44
239.559	497.44
239.793	502.44
240.027	521.44
240.26	537.44
240.494	566.44
240.728	579.44
240.961	615.44
241.195	657.44
241.429	703.44
241.662	679.44
241.896	783.44
242.13	964.44
242.363	1225.44
242.597	1646.44
242.83	1578.44
243.064	1569.44
243.298	1877.44
243.531	1498.44
243.765	1004.44
243.998	785.44
244.232	725.44
244.465	668.44
244.699	639.44
244.932	644.44
245.166	655.44
245.399	681.44
245.633	700.44
245.866	687.44
246.099	660.44
246.333	649.44
246.566	642.44
246.8	632.44
247.033	650.44
247.266	646.44
247.5	644.44
247.733	678.44
247.966	713.44
248.2	781.44
248.433	895.44
248.666	980.44
248.899	951.44
249.133	862.44
249.366	889.44
249.599	954.44
249.832	1113.44
250.066	1095.44
250.299	858.44
250.532	753.44
250.765	750.44
250.998	764.44
251.231	733.44
251.465	727.44
251.698	735.44
251.931	770.44
252.164	749.44
252.397	752.44
252.63	772.44
252.863	797.44
253.096	763.44
253.329	778.44
253.562	785.44
253.795	777.44
254.028	832.44
254.261	825.44
254.494	862.44
254.727	1017.44
254.96	1247.44
255.193	1201.44
255.426	955.44
255.659	856.44
255.892	885.44
256.124	860.44
256.357	888.44
256.59	923.44
256.823	969.44
257.056	1131.44
257.289	1366.44
257.521	1522.44
257.754	1218.44
257.987	971.44
258.22	925.44
258.452	927.44
258.685	900.44
258.918	938.44
259.151	987.44
259.383	1086.44
259.616	1200.44
259.849	1319.44
260.081	1083.44
260.314	985.44
260.547	934.44
260.779	949.44
261.012	947.44
261.244	937.44
261.477	1003.44
261.71	969.44
261.942	982.44
262.175	986.44
262.407	1026.44
262.64	1056.44
262.872	1084.44
263.105	1135.44
263.337	1224.44
263.57	1245.44
263.802	1290.44
264.035	1321.44
264.267	1325.44
264.499	1368.44
264.732	1407.44
264.964	1397.44
265.197	1384.44
265.429	1420.44
265.661	1437.44
265.894	1535.44
266.126	1738.44
266.358	1945.44
266.591	1915.44
266.823	1623.44
267.055	1427.44
267.287	1360.44
267.52	1329.44
267.752	1289.44
267.984	1281.44
268.216	1252.44
268.448	1242.44
268.681	1239.44
268.913	1205.44
269.145	1206.44
269.377	1242.44
269.609	1257.44
269.841	1308.44
270.073	1384.44
270.306	1624.44
270.538	2147.44
270.77	3234.44
271.002	4002.44
271.234	2826.44
271.466	1894.44
271.698	1553.44
271.93	1399.44
272.162	1282.44
272.394	1287.44
272.626	1258.44
272.858	1222.44
273.09	1240.44
273.322	1227.44
273.553	1213.44
273.785	1197.44
274.017	1218.44
274.249	1191.44
274.481	1170.44
274.713	1171.44
274.945	1205.44
275.176	1215.44
275.408	1220.44
275.64	1228.44
275.872	1234.44
276.104	1257.44
276.335	1269.44
276.567	1259.44
276.799	1286.44
277.031	1297.44
277.262	1301.44
277.494	1420.44
277.726	1589.44
277.957	1830.44
278.189	2082.44
278.421	1991.44
278.652	1743.44
278.884	1698.44
279.115	1508.44
279.347	1427.44
279.579	1435.44
279.81	1386.44
280.042	1421.44
280.273	1405.44
280.505	1438.44
280.736	1470.44
280.968	1592.44
281.199	1796.44
281.431	2086.44
281.662	2120.44
281.894	1811.44
282.125	1624.44
282.356	1627.44
282.588	1698.44
282.819	1710.44
283.051	1806.44
283.282	1988.44
283.513	2534.44
283.745	3626.44
283.976	5709.44
284.207	8147.44
284.439	7416.44
284.67	4619.44
284.901	3811.44
285.132	3812.44
285.364	3579.44
285.595	2783.44
285.826	2489.44
286.057	2891.44
286.288	3970.44
286.52	5330.44
286.751	5003.44
286.982	3087.44
287.213	2309.44
287.444	2035.44
287.675	1883.44
287.906	1759.44
288.138	1731.44
288.369	1702.44
288.6	1683.44
288.831	1682.44
289.062	1663.44
289.293	1665.44
289.524	1668.44
289.755	1685.44
289.986	1686.44
290.217	1670.44
290.448	1703.44
290.679	1724.44
290.91	1782.44
291.141	1853.44
291.371	2023.44
291.602	2162.44
291.833	1961.44
292.064	1787.44
292.295	1693.44
292.526	1635.44
292.757	1615.44
292.987	1632.44
293.218	1598.44
293.449	1595.44
293.68	1591.44
293.91	1569.44
294.141	1582.44
294.372	1543.44
294.603	1580.44
294.833	1548.44
295.064	1567.44
295.295	1564.44
295.525	1578.44
295.756	1551.44
295.987	1544.44
296.217	1577.44
296.448	1571.44
296.679	1583.44
296.909	1592.44
297.14	1616.44
297.37	1624.44
297.601	1637.44
297.831	1596.44
298.062	1594.44
298.292	1670.44
298.523	1667.44
298.753	1703.44
298.984	1689.44
299.214	1748.44
299.445	1725.44
299.675	1774.44
299.905	1845.44
300.136	1919.44
300.366	2161.44
300.597	2763.44
300.827	3832.44
301.057	5361.44
301.288	5333.44
301.518	3482.44
301.748	2598.44
301.979	2376.44
302.209	2316.44
302.439	2347.44
302.669	2482.44
302.9	3009.44
303.13	4224.44
303.36	6251.44
303.59	8403.44
303.82	7292.44
304.051	4329.44
304.281	3149.44
304.511	2534.44
304.741	2314.44
304.971	2149.44
305.201	2088.44
305.431	1997.44
305.661	1937.44
305.891	1868.44
306.121	1845.44
306.352	1868.44
306.582	1806.44
306.812	1825.44
307.042	1870.44
307.272	1821.44
307.502	1815.44
307.731	1822.44
307.961	1781.44
308.191	1809.44
308.421	1787.44
308.651	1817.44
308.881	1801.44
309.111	1793.44
309.341	1780.44
309.571	1821.44
309.8	1861.44
310.03	1800.44
310.26	1874.44
310.49	1849.44
310.72	1845.44
310.949	1853.44
311.179	1861.44
311.409	1893.44
311.639	1901.44
311.868	1911.44
312.098	1937.44
312.328	1936.44
312.557	1975.44
312.787	1935.44
313.017	1938.44
313.246	2019.44
313.476	1991.44
313.706	2103.44
313.935	2231.44
314.165	2335.44
314.394	2459.44
314.624	2339.44
314.853	2201.44
315.083	2153.44
315.312	2204.44
315.542	2146.44
315.771	2175.44
316.001	2231.44
316.23	2269.44
316.46	2408.44
316.689	2672.44
316.919	3175.44
317.148	4645.44
317.377	7227.44
317.607	10529.44
317.836	11034.44
318.065	6772.44
318.295	4261.44
318.524	3416.44
318.753	3010.44
318.983	2784.44
319.212	2633.44
319.441	2570.44
319.67	2465.44
319.9	2399.44
320.129	2354.44
320.358	2355.44
320.587	2343.44
320.816	2309.44
321.046	2354.44
321.275	2323.44
321.504	2378.44
321.733	2455.44
321.962	2519.44
322.191	2480.44
322.42	2520.44
322.649	2442.44
322.878	2489.44
323.108	2477.44
323.337	2507.44
323.566	2574.44
323.795	2607.44
324.024	2652.44
324.253	2683.44
324.482	2793.44
324.71	2976.44
324.939	3207.44
325.168	3286.44
325.397	3441.44
325.626	3993.44
325.855	5697.44
326.084	8823.44
326.313	12758.44
326.542	13577.44
326.77	9289.44
326.999	6054.44
327.228	5065.44
327.457	4827.44
327.686	4872.44
327.914	5209.44
328.143	6101.44
328.372	7277.44
328.6	7960.44
328.829	7107.44
329.058	5985.44
329.287	5172.44
329.515	4664.44
329.744	4319.44
329.972	4121.44
330.201	3945.44
330.43	3739.44
330.658	3613.44
330.887	3576.44
331.115	3594.44
331.344	3490.44
331.572	3416.44
331.801	3472.44
332.03	3517.44
332.258	3567.44
332.486	3783.44
332.715	4293.44
332.943	5330.44
333.172	6588.44
333.4	6637.44
333.629	5018.44
333.857	4609.44
334.085	4505.44
334.314	4773.44
334.542	5151.44
334.771	6061.44
334.999	7506.44
335.227	9673.44
335.455	10724.44
335.684	9727.44
335.912	7839.44
336.14	6596.44
336.369	5809.44
336.597	5263.44
336.825	4853.44
337.053	4498.44
337.281	4250.44
337.51	4044.44
337.738	3844.44
337.966	3685.44
338.194	3524.44
338.422	3495.44
338.65	3326.44
338.878	3298.44
339.106	3231.44
339.334	3152.44
339.562	3142.44
339.79	3077.44
340.018	3072.44
340.246	2992.44
340.474	2989.44
340.702	3014.44
340.93	3002.44
341.158	3010.44
341.386	3018.44
341.614	2956.44
341.842	2912.44
342.07	2831.44
342.298	2781.44
342.526	2765.44
342.754	2705.44
342.981	2704.44
343.209	2769.44
343.437	2733.44
343.665	2736.44
343.893	2760.44
344.12	2806.44
344.348	2743.44
344.576	2706.44
344.804	2727.44
345.031	2631.44
345.259	2581.44
345.487	2608.44
345.714	2523.44
345.942	2557.44
346.17	2594.44
346.397	2594.44
346.625	2522.44
346.853	2526.44
347.08	2519.44
347.308	2564.44
347.535	2480.44
347.763	2468.44
347.99	2479.44
348.218	2482.44
348.445	2443.44
348.673	2424.44
348.9	2427.44
349.128	2466.44
349.355	2501.44
349.583	2428.44
349.81	2414.44
350.037	2429.44
350.265	2378.44
350.492	2431.44
350.72	2385.44
350.947	2386.44
351.174	2357.44
351.402	2374.44
351.629	2405.44
351.856	2382.44
352.083	2321.44
352.311	2370.44
352.538	2351.44
352.765	2385.44
352.992	2353.44
353.22	2340.44
353.447	2367.44
353.674	2386.44
353.901	2350.44
354.128	2379.44
354.355	2380.44
354.583	2410.44
354.81	2407.44
355.037	2419.44
355.264	2389.44
355.491	2415.44
355.718	2453.44
355.945	2455.44
356.172	2435.44
356.399	2480.44
356.626	2460.44
356.853	2520.44
357.08	2517.44
357.307	2471.44
357.534	2562.44
357.761	2546.44
357.988	2559.44
358.215	2557.44
358.441	2556.44
358.668	2515.44
358.895	2545.44
359.122	2532.44
359.349	2556.44
359.576	2526.44
359.802	2511.44
360.029	2557.44
360.256	2559.44
360.483	2548.44
360.709	2525.44
360.936	2534.44
361.163	2515.44
361.39	2553.44
361.616	2583.44
361.843	2534.44
362.07	2521.44
362.296	2577.44
362.523	2510.44
362.749	2605.44
362.976	2522.44
363.203	2530.44
363.429	2526.44
363.656	2513.44
363.882	2551.44
364.109	2511.44
364.335	2511.44
364.562	2557.44
364.788	2528.44
365.015	2567.44
365.241	2593.44
365.468	2802.44
365.694	2900.44
365.92	2884.44
366.147	2576.44
366.373	2575.44
366.599	2585.44
366.826	2639.44
367.052	2565.44
367.278	2535.44
367.505	2599.44
367.731	2625.44
367.957	2601.44
368.184	2622.44
368.41	2671.44
368.636	2634.44
368.862	2619.44
369.089	2622.44
369.315	2635.44
369.541	2634.44
369.767	2641.44
369.993	2613.44
370.219	2612.44
370.445	2642.44
370.672	2625.44
370.898	2593.44
371.124	2705.44
371.35	2708.44
371.576	2723.44
371.802	2726.44
372.028	2709.44
372.254	2738.44
372.48	2711.44
372.706	2741.44
372.932	2754.44
373.158	2746.44
373.384	2782.44
373.61	2731.44
373.835	2762.44
374.061	2793.44
374.287	2792.44
374.513	2813.44
374.739	2878.44
374.965	2888.44
375.191	2865.44
375.416	2864.44
375.642	2765.44
375.868	2805.44
376.094	2794.44
376.319	2817.44
376.545	2774.44
376.771	2724.44
376.997	2657.44
377.222	2751.44
377.448	2686.44
377.674	2703.44
377.899	2700.44
378.125	2686.44
378.35	2686.44
378.576	2722.44
378.802	2784.44
379.027	2811.44
379.253	2895.44
379.478	3029.44
379.704	3614.44
379.929	5265.44
380.155	7926.44
380.38	8790.44
380.606	5309.44
380.831	3721.44
381.057	3230.44
381.282	2948.44
381.507	2853.44
381.733	2781.44
381.958	2756.44
382.184	2713.44
382.409	2719.44
382.634	2694.44
382.86	2682.44
383.085	2657.44
383.31	2665.44
383.535	2712.44
383.761	2648.44
383.986	2669.44
384.211	2701.44
384.436	2731.44
384.662	2743.44
384.887	2786.44
385.112	2738.44
385.337	2757.44
385.562	2753.44
385.787	2760.44
386.013	2746.44
386.238	2750.44
386.463	2773.44
386.688	2741.44
386.913	2769.44
387.138	2764.44
387.363	2754.44
387.588	2728.44
387.813	2765.44
388.038	2730.44
388.263	2723.44
388.488	2801.44
388.713	2760.44
388.938	2721.44
389.163	2713.44
389.387	2730.44
389.612	2699.44
389.837	2739.44
390.062	2695.44
390.287	2754.44
390.512	2763.44
390.736	2828.44
390.961	2911.44
391.186	2836.44
391.411	2885.44
391.636	2879.44
391.86	2937.44
392.085	2937.44
392.31	2899.44
392.534	2855.44
392.759	2806.44
392.984	2787.44
393.208	2780.44
393.433	2815.44
393.658	2801.44
393.882	2823.44
394.107	2759.44
394.331	2831.44
394.556	2824.44
394.78	2833.44
395.005	2820.44
395.229	2781.44
395.454	2858.44
395.678	2891.44
395.903	2858.44
396.127	2857.44
396.352	2819.44
396.576	2845.44
396.801	2795.44
397.025	2918.44
397.249	2884.44
397.474	2914.44
397.698	2871.44
397.922	2966.44
398.147	2943.44
398.371	2935.44
398.595	3018.44
398.82	3081.44
399.044	3141.44
399.268	3334.44
399.492	3515.44
399.717	3662.44
399.941	3636.44
400.165	3498.44
400.389	3416.44
400.613	3221.44
400.837	3172.44
401.062	3101.44
401.286	3101.44
401.51	3070.44
401.734	2993.44
401.958	3000.44
402.182	3001.44
402.406	3039.44
402.63	3077.44
402.854	3105.44
403.078	3091.44
403.302	3138.44
403.526	3095.44
403.75	3160.44
403.974	3168.44
404.198	3155.44
404.422	3178.44
404.645	3131.44
404.869	3103.44
405.093	3149.44
405.317	3151.44
405.541	3203.44
405.765	3269.44
405.988	3270.44
406.212	3263.44
406.436	3233.44
406.66	3290.44
406.883	3256.44
407.107	3370.44
407.331	3391.44
407.555	3413.44
407.778	3410.44
408.002	3379.44
408.226	3344.44
408.449	3320.44
408.673	3242.44
408.896	3226.44
409.12	3239.44
409.344	3225.44
409.567	3135.44
409.791	3219.44
410.014	3103.44
410.238	3165.44
410.461	3118.44
410.685	3091.44
410.908	3064.44
411.132	3105.44
411.355	3013.44
411.578	3012.44
411.802	3048.44
412.025	3020.44
412.249	3035.44
412.472	3058.44
412.695	3003.44
412.919	2982.44
413.142	2942.44
413.365	2939.44
413.589	3023.44
413.812	2967.44
414.035	2973.44
414.258	2985.44
414.482	3021.44
414.705	2999.44
414.928	2933.44
415.151	2974.44
415.374	2878.44
415.597	2899.44
415.821	2875.44
416.044	2859.44
416.267	2869.44
416.49	2855.44
416.713	2808.44
416.936	2854.44
417.159	2807.44
417.382	2826.44
417.605	2850.44
417.828	2788.44
418.051	2927.44
418.274	2871.44
418.497	2901.44
418.72	2941.44
418.943	2885.44
419.166	3014.44
419.389	3210.44
419.611	3142.44
419.834	3025.44
420.057	3044.44
420.28	2901.44
420.503	2835.44
420.726	2841.44
420.948	2842.44
421.171	2872.44
421.394	2876.44
421.617	2826.44
421.839	2870.44
422.062	2915.44
422.285	2805.44
422.507	2894.44
422.73	2905.44
422.953	2944.44
423.175	3004.44
423.398	2932.44
423.621	2852.44
423.843	2878.44
424.066	2823.44
424.288	2880.44
424.511	2863.44
424.733	2854.44
424.956	2827.44
425.178	2831.44
425.401	2805.44
425.623	2815.44
425.846	2779.44
426.068	2793.44
426.291	2772.44
426.513	2685.44
426.735	2718.44
426.958	2738.44
427.18	2744.44
427.402	2730.44
427.625	2672.44
427.847	2675.44
428.069	2646.44
428.292	2641.44
428.514	2663.44
428.736	2615.44
428.958	2626.44
429.181	2580.44
429.403	2591.44
429.625	2613.44
429.847	2635.44
430.069	2734.44
430.292	2797.44
430.514	2807.44
430.736	2842.44
430.958	2669.44
431.18	2661.44
431.402	2598.44
431.624	2577.44
431.846	2561.44
432.068	2594.44
432.29	2657.44
432.512	2569.44
432.734	2635.44
432.956	2615.44
433.178	2669.44
433.4	2607.44
433.622	2630.44
433.844	2665.44
434.066	2645.44
434.287	2613.44
434.509	2671.44
434.731	2674.44
434.953	2728.44
435.175	2731.44
435.397	2703.44
435.618	2694.44
435.84	2705.44
436.062	2618.44
436.284	2633.44
436.505	2597.44
436.727	2610.44
436.949	2627.44
437.17	2605.44
437.392	2627.44
437.614	2560.44
437.835	2536.44
438.057	2550.44
438.278	2559.44
438.5	2532.44
438.721	2550.44
438.943	2634.44
439.165	2752.44
439.386	2747.44
439.608	2741.44
439.829	2707.44
440.05	2857.44
440.272	2879.44
440.493	2692.44
440.715	2676.44
440.936	2713.44
441.158	2738.44
441.379	2761.44
441.6	2834.44
441.822	2910.44
442.043	3029.44
442.264	3173.44
442.486	2905.44
442.707	2867.44
442.928	2825.44
443.149	2778.44
443.371	2789.44
443.592	2848.44
443.813	2790.44
444.034	2865.44
444.255	2897.44
444.476	2926.44
444.698	2940.44
444.919	2994.44
445.14	3029.44
445.361	2946.44
445.582	2852.44
445.803	2802.44
446.024	2714.44
446.245	2756.44
446.466	2778.44
446.687	2737.44
446.908	2750.44
447.129	2657.44
447.35	2627.44
447.571	2609.44
447.792	2593.44
448.013	2575.44
448.234	2509.44
448.455	2609.44
448.675	2620.44
448.896	2676.44
449.117	2807.44
449.338	2980.44
449.559	3098.44
449.779	2791.44
450	2631.44
450.221	2580.44
450.442	2573.44
450.662	2549.44
450.883	2531.44
451.104	2481.44
451.324	2507.44
451.545	2506.44
451.766	2544.44
451.986	2647.44
452.207	2778.44
452.428	3589.44
452.648	5509.44
452.869	4611.44
453.089	3193.44
453.31	2975.44
453.53	2970.44
453.751	3026.44
453.971	3171.44
454.192	3091.44
454.412	2694.44
454.633	2569.44
454.853	2511.44
455.073	2447.44
455.294	2444.44
455.514	2372.44
455.734	2390.44
455.955	2387.44
456.175	2408.44
456.395	2392.44
456.616	2419.44
456.836	2485.44
457.056	2470.44
457.276	2432.44
457.497	2623.44
457.717	2653.44
457.937	2544.44
458.157	2585.44
458.377	2514.44
458.598	2608.44
458.818	2593.44
459.038	2581.44
459.258	2645.44
459.478	2639.44
459.698	2655.44
459.918	2677.44
460.138	2769.44
460.358	2810.44
460.578	2785.44
460.798	2847.44
461.018	2858.44
461.238	2812.44
461.458	2891.44
461.678	2890.44
461.898	2988.44
462.118	3015.44
462.338	3057.44
462.558	3054.44
462.777	3094.44
462.997	3258.44
463.217	3394.44
463.437	3462.44
463.657	3590.44
463.876	3546.44
464.096	3319.44
464.316	3156.44
464.536	3097.44
464.755	3063.44
464.975	3019.44
465.195	2927.44
465.414	2808.44
465.634	2710.44
465.854	2676.44
466.073	2719.44
466.293	2676.44
466.512	2657.44
466.732	2735.44
466.951	2858.44
467.171	2992.44
467.391	2933.44
467.61	2686.44
467.829	2621.44
468.049	2586.44
468.268	2553.44
468.488	2600.44
468.707	2521.44
468.927	2592.44
469.146	2550.44
469.365	2622.44
469.585	2638.44
469.804	2695.44
470.023	2722.44
470.243	2767.44
470.462	2893.44
470.681	3003.44
470.901	3310.44
471.12	3741.44
471.339	3759.44
471.558	3229.44
471.777	2886.44
471.997	2760.44
472.216	2723.44
472.435	2650.44
472.654	2638.44
472.873	2613.44
473.092	2604.44
473.311	2583.44
473.53	2628.44
473.749	2653.44
473.968	2737.44
474.187	2632.44
474.406	2614.44
474.625	2640.44
474.844	2579.44
475.063	2555.44
475.282	2615.44
475.501	2617.44
475.72	2620.44
475.939	2659.44
476.158	2745.44
476.377	2767.44
476.596	2733.44
476.814	2773.44
477.033	2706.44
477.252	2763.44
477.471	2819.44
477.69	2895.44
477.908	2899.44
478.127	2953.44
478.346	3007.44
478.564	2965.44
478.783	2974.44
479.002	3069.44
479.22	3017.44
479.439	3035.44
479.658	3079.44
479.876	3083.44
480.095	3134.44
480.313	3174.44
480.532	3218.44
480.751	3167.44
480.969	3173.44
481.188	3104.44
481.406	3162.44
481.624	3109.44
481.843	3187.44
482.061	3122.44
482.28	3152.44
482.498	3109.44
482.717	3089.44
482.935	3090.44
483.153	3177.44
483.372	3253.44
483.59	3354.44
483.808	3290.44
484.027	3447.44
484.245	3605.44
484.463	4035.44
484.681	4552.44
484.9	4062.44
485.118	3859.44
485.336	3690.44
485.554	3834.44
485.772	4067.44
485.99	4578.44
486.209	4934.44
486.427	4146.44
486.645	3623.44
486.863	3568.44
487.081	3427.44
487.299	3388.44
487.517	3396.44
487.735	3374.44
