Data from SnStandardFlinnAPT0064_LampEnergy5.5_LIBS07252019.E.O._I.C._HRD10591_15-14-51-490.txt Node
Date: Thu Jul 25 15:14:51 EDT 2019
User: cochatt
Spectrometer: HR+D1059
Trigger mode: 1
Integration Time (sec): 1.000000E-1
Scans to average: 1
Electric dark correction enabled: true
Nonlinearity correction enabled: false
Boxcar width: 0
XAxis mode: Wavelengths
Number of Pixels in Spectrum: 2048
>>>>>Begin Spectral Data<<<<<
223.165	-14.81
223.4	-14.81
223.635	-14.81
223.869	-23.81
224.104	-7.81
224.338	-10.81
224.573	-20.81
224.808	-18.81
225.042	-7.81
225.277	0.19
225.511	-11.81
225.746	7.19
225.98	11.19
226.215	11.19
226.449	26.19
226.683	7.19
226.918	23.19
227.152	30.19
227.387	32.19
227.621	28.19
227.856	30.19
228.09	54.19
228.324	47.19
228.559	46.19
228.793	68.19
229.027	127.19
229.262	141.19
229.496	149.19
229.73	151.19
229.964	145.19
230.199	147.19
230.433	138.19
230.667	150.19
230.901	140.19
231.136	160.19
231.37	155.19
231.604	176.19
231.838	188.19
232.072	192.19
232.306	214.19
232.541	192.19
232.775	200.19
233.009	167.19
233.243	180.19
233.477	201.19
233.711	199.19
233.945	233.19
234.179	215.19
234.413	198.19
234.647	198.19
234.881	199.19
235.115	215.19
235.349	256.19
235.583	285.19
235.817	354.19
236.051	348.19
236.285	263.19
236.519	243.19
236.753	213.19
236.987	211.19
237.221	221.19
237.455	202.19
237.689	206.19
237.922	218.19
238.156	209.19
238.39	211.19
238.624	202.19
238.858	209.19
239.091	223.19
239.325	225.19
239.559	203.19
239.793	233.19
240.027	224.19
240.26	225.19
240.494	215.19
240.728	225.19
240.961	242.19
241.195	264.19
241.429	256.19
241.662	290.19
241.896	298.19
242.13	374.19
242.363	414.19
242.597	528.19
242.83	516.19
243.064	490.19
243.298	621.19
243.531	488.19
243.765	356.19
243.998	295.19
244.232	289.19
244.465	272.19
244.699	279.19
244.932	265.19
245.166	285.19
245.399	282.19
245.633	302.19
245.866	294.19
246.099	274.19
246.333	270.19
246.566	287.19
246.8	280.19
247.033	276.19
247.266	273.19
247.5	271.19
247.733	280.19
247.966	293.19
248.2	320.19
248.433	343.19
248.666	364.19
248.899	341.19
249.133	320.19
249.366	324.19
249.599	359.19
249.832	383.19
250.066	375.19
250.299	341.19
250.532	316.19
250.765	302.19
250.998	307.19
251.231	319.19
251.465	304.19
251.698	311.19
251.931	311.19
252.164	303.19
252.397	308.19
252.63	325.19
252.863	322.19
253.096	343.19
253.329	324.19
253.562	317.19
253.795	316.19
254.028	351.19
254.261	342.19
254.494	346.19
254.727	370.19
254.96	444.19
255.193	437.19
255.426	376.19
255.659	355.19
255.892	346.19
256.124	364.19
256.357	356.19
256.59	370.19
256.823	378.19
257.056	407.19
257.289	457.19
257.521	495.19
257.754	425.19
257.987	393.19
258.22	372.19
258.452	387.19
258.685	383.19
258.918	387.19
259.151	399.19
259.383	434.19
259.616	435.19
259.849	468.19
260.081	402.19
260.314	383.19
260.547	382.19
260.779	389.19
261.012	400.19
261.244	401.19
261.477	404.19
261.71	410.19
261.942	408.19
262.175	438.19
262.407	437.19
262.64	432.19
262.872	426.19
263.105	468.19
263.337	498.19
263.57	509.19
263.802	541.19
264.035	532.19
264.267	554.19
264.499	567.19
264.732	582.19
264.964	586.19
265.197	590.19
265.429	582.19
265.661	591.19
265.894	638.19
266.126	695.19
266.358	723.19
266.591	725.19
266.823	637.19
267.055	590.19
267.287	581.19
267.52	535.19
267.752	534.19
267.984	550.19
268.216	537.19
268.448	506.19
268.681	498.19
268.913	509.19
269.145	493.19
269.377	512.19
269.609	522.19
269.841	506.19
270.073	512.19
270.306	590.19
270.538	740.19
270.77	1063.19
271.002	1246.19
271.234	928.19
271.466	654.19
271.698	581.19
271.93	550.19
272.162	540.19
272.394	532.19
272.626	513.19
272.858	496.19
273.09	506.19
273.322	500.19
273.553	491.19
273.785	503.19
274.017	470.19
274.249	486.19
274.481	505.19
274.713	487.19
274.945	484.19
275.176	488.19
275.408	499.19
275.64	521.19
275.872	476.19
276.104	487.19
276.335	510.19
276.567	510.19
276.799	523.19
277.031	502.19
277.262	513.19
277.494	533.19
277.726	590.19
277.957	644.19
278.189	683.19
278.421	677.19
278.652	603.19
278.884	597.19
279.115	551.19
279.347	562.19
279.579	554.19
279.81	542.19
280.042	520.19
280.273	570.19
280.505	541.19
280.736	557.19
280.968	577.19
281.199	627.19
281.431	681.19
281.662	700.19
281.894	654.19
282.125	602.19
282.356	618.19
282.588	611.19
282.819	646.19
283.051	644.19
283.282	719.19
283.513	855.19
283.745	1173.19
283.976	1823.19
284.207	2474.19
284.439	2257.19
284.67	1416.19
284.901	1189.19
285.132	1156.19
285.364	1089.19
285.595	896.19
285.826	844.19
286.057	980.19
286.288	1248.19
286.52	1620.19
286.751	1513.19
286.982	1014.19
287.213	795.19
287.444	723.19
287.675	708.19
287.906	659.19
288.138	666.19
288.369	651.19
288.6	659.19
288.831	662.19
289.062	662.19
289.293	638.19
289.524	673.19
289.755	663.19
289.986	661.19
290.217	649.19
290.448	664.19
290.679	672.19
290.91	673.19
291.141	689.19
291.371	701.19
291.602	716.19
291.833	680.19
292.064	640.19
292.295	637.19
292.526	648.19
292.757	628.19
292.987	615.19
293.218	590.19
293.449	640.19
293.68	608.19
293.91	616.19
294.141	618.19
294.372	609.19
294.603	609.19
294.833	615.19
295.064	640.19
295.295	617.19
295.525	624.19
295.756	617.19
295.987	607.19
296.217	611.19
296.448	618.19
296.679	630.19
296.909	596.19
297.14	612.19
297.37	656.19
297.601	617.19
297.831	624.19
298.062	613.19
298.292	625.19
298.523	656.19
298.753	653.19
298.984	641.19
299.214	673.19
299.445	671.19
299.675	682.19
299.905	688.19
300.136	701.19
300.366	787.19
300.597	956.19
300.827	1236.19
301.057	1617.19
301.288	1644.19
301.518	1109.19
301.748	903.19
301.979	845.19
302.209	822.19
302.439	822.19
302.669	862.19
302.9	995.19
303.13	1310.19
303.36	1812.19
303.59	2339.19
303.82	2134.19
304.051	1368.19
304.281	1033.19
304.511	883.19
304.741	866.19
304.971	806.19
305.201	764.19
305.431	741.19
305.661	729.19
305.891	735.19
306.121	742.19
306.352	741.19
306.582	724.19
306.812	720.19
307.042	719.19
307.272	700.19
307.502	678.19
307.731	688.19
307.961	702.19
308.191	736.19
308.421	711.19
308.651	712.19
308.881	717.19
309.111	702.19
309.341	704.19
309.571	698.19
309.8	707.19
310.03	702.19
310.26	706.19
310.49	713.19
310.72	709.19
310.949	727.19
311.179	714.19
311.409	736.19
311.639	756.19
311.868	717.19
312.098	778.19
312.328	759.19
312.557	753.19
312.787	756.19
313.017	765.19
313.246	776.19
313.476	756.19
313.706	796.19
313.935	815.19
314.165	850.19
314.394	884.19
314.624	898.19
314.853	812.19
315.083	841.19
315.312	805.19
315.542	836.19
315.771	834.19
316.001	832.19
316.23	860.19
316.46	900.19
316.689	970.19
316.919	1093.19
317.148	1513.19
317.377	2200.19
317.607	3166.19
317.836	3230.19
318.065	2022.19
318.295	1379.19
318.524	1169.19
318.753	1062.19
318.983	980.19
319.212	944.19
319.441	928.19
319.67	915.19
319.9	904.19
320.129	899.19
320.358	904.19
320.587	885.19
320.816	903.19
321.046	902.19
321.275	886.19
321.504	888.19
321.733	910.19
321.962	908.19
322.191	960.19
322.42	948.19
322.649	928.19
322.878	922.19
323.108	917.19
323.337	954.19
323.566	966.19
323.795	998.19
324.024	978.19
324.253	1007.19
324.482	1052.19
324.71	1081.19
324.939	1151.19
325.168	1140.19
325.397	1197.19
325.626	1348.19
325.855	1817.19
326.084	2691.19
326.313	3914.19
326.542	4181.19
326.77	2776.19
326.999	1920.19
327.228	1654.19
327.457	1645.19
327.686	1628.19
327.914	1742.19
328.143	1928.19
328.372	2241.19
328.6	2413.19
328.829	2246.19
329.058	2012.19
329.287	1825.19
329.515	1705.19
329.744	1551.19
329.972	1472.19
330.201	1423.19
330.43	1380.19
330.658	1314.19
330.887	1321.19
331.115	1291.19
331.344	1295.19
331.572	1290.19
331.801	1286.19
332.03	1264.19
332.258	1302.19
332.486	1364.19
332.715	1470.19
332.943	1728.19
333.172	2058.19
333.4	2089.19
333.629	1708.19
333.857	1596.19
334.085	1607.19
334.314	1705.19
334.542	1837.19
334.771	2046.19
334.999	2394.19
335.227	2900.19
335.455	3208.19
335.684	3006.19
335.912	2632.19
336.14	2289.19
336.369	2054.19
336.597	1945.19
336.825	1773.19
337.053	1682.19
337.281	1612.19
337.51	1457.19
337.738	1410.19
337.966	1407.19
338.194	1369.19
338.422	1314.19
338.65	1272.19
338.878	1245.19
339.106	1224.19
339.334	1204.19
339.562	1192.19
339.79	1151.19
340.018	1182.19
340.246	1166.19
340.474	1185.19
340.702	1152.19
340.93	1156.19
341.158	1146.19
341.386	1167.19
341.614	1102.19
341.842	1141.19
342.07	1072.19
342.298	1080.19
342.526	1084.19
342.754	1058.19
342.981	1059.19
343.209	1046.19
343.437	1079.19
343.665	1063.19
343.893	1098.19
344.12	1100.19
344.348	1114.19
344.576	1065.19
344.804	1021.19
345.031	994.19
345.259	1015.19
345.487	1008.19
345.714	965.19
345.942	996.19
346.17	988.19
346.397	997.19
346.625	992.19
346.853	1009.19
347.08	981.19
347.308	978.19
347.535	942.19
347.763	967.19
347.99	982.19
348.218	955.19
348.445	950.19
348.673	933.19
348.9	980.19
349.128	939.19
349.355	948.19
349.583	990.19
349.81	932.19
350.037	954.19
350.265	952.19
350.492	922.19
350.72	962.19
350.947	930.19
351.174	935.19
351.402	928.19
351.629	925.19
351.856	929.19
352.083	945.19
352.311	912.19
352.538	944.19
352.765	964.19
352.992	893.19
353.22	914.19
353.447	930.19
353.674	928.19
353.901	918.19
354.128	941.19
354.355	961.19
354.583	959.19
354.81	932.19
355.037	942.19
355.264	942.19
355.491	938.19
355.718	948.19
355.945	944.19
356.172	964.19
356.399	952.19
356.626	969.19
356.853	960.19
357.08	953.19
357.307	990.19
357.534	996.19
357.761	993.19
357.988	990.19
358.215	997.19
358.441	981.19
358.668	974.19
358.895	1002.19
359.122	980.19
359.349	983.19
359.576	1001.19
359.802	982.19
360.029	1002.19
360.256	984.19
360.483	1005.19
360.709	1006.19
360.936	1012.19
361.163	996.19
361.39	970.19
361.616	998.19
361.843	1007.19
362.07	1004.19
362.296	997.19
362.523	992.19
362.749	990.19
362.976	995.19
363.203	1018.19
363.429	960.19
363.656	1001.19
363.882	1002.19
364.109	978.19
364.335	994.19
364.562	988.19
364.788	1004.19
365.015	979.19
365.241	1025.19
365.468	1040.19
365.694	1054.19
365.92	1040.19
366.147	1030.19
366.373	996.19
366.599	964.19
366.826	1011.19
367.052	1024.19
367.278	1028.19
367.505	1020.19
367.731	1007.19
367.957	1020.19
368.184	1020.19
368.41	1035.19
368.636	1055.19
368.862	1006.19
369.089	1036.19
369.315	1053.19
369.541	1036.19
369.767	1018.19
369.993	1023.19
370.219	1021.19
370.445	1029.19
370.672	1054.19
370.898	1053.19
371.124	1033.19
371.35	1062.19
371.576	1025.19
371.802	1082.19
372.028	1074.19
372.254	1096.19
372.48	1093.19
372.706	1089.19
372.932	1092.19
373.158	1077.19
373.384	1080.19
373.61	1101.19
373.835	1092.19
374.061	1087.19
374.287	1102.19
374.513	1139.19
374.739	1148.19
374.965	1141.19
375.191	1117.19
375.416	1154.19
375.642	1090.19
375.868	1133.19
376.094	1094.19
376.319	1104.19
376.545	1097.19
376.771	1076.19
376.997	1086.19
377.222	1100.19
377.448	1085.19
377.674	1071.19
377.899	1071.19
378.125	1069.19
378.35	1074.19
378.576	1076.19
378.802	1058.19
379.027	1080.19
379.253	1090.19
379.478	1141.19
379.704	1254.19
379.929	1698.19
380.155	2358.19
380.38	2541.19
380.606	1706.19
380.831	1329.19
381.057	1202.19
381.282	1141.19
381.507	1078.19
381.733	1069.19
381.958	1063.19
382.184	1076.19
382.409	1061.19
382.634	1074.19
382.86	1055.19
383.085	1080.19
383.31	1062.19
383.535	1055.19
383.761	1040.19
383.986	1080.19
384.211	1070.19
384.436	1083.19
384.662	1111.19
384.887	1093.19
385.112	1095.19
385.337	1088.19
385.562	1098.19
385.787	1107.19
386.013	1116.19
386.238	1138.19
386.463	1118.19
386.688	1114.19
386.913	1054.19
387.138	1090.19
387.363	1101.19
387.588	1090.19
387.813	1113.19
388.038	1088.19
388.263	1113.19
388.488	1104.19
388.713	1091.19
388.938	1113.19
389.163	1097.19
389.387	1092.19
389.612	1117.19
389.837	1101.19
390.062	1124.19
390.287	1117.19
390.512	1120.19
390.736	1109.19
390.961	1134.19
391.186	1142.19
391.411	1124.19
391.636	1163.19
391.86	1145.19
392.085	1134.19
392.31	1131.19
392.534	1122.19
392.759	1132.19
392.984	1116.19
393.208	1116.19
393.433	1122.19
393.658	1103.19
393.882	1101.19
394.107	1114.19
394.331	1116.19
394.556	1107.19
394.78	1138.19
395.005	1142.19
395.229	1137.19
395.454	1139.19
395.678	1138.19
395.903	1163.19
396.127	1190.19
396.352	1182.19
396.576	1116.19
396.801	1124.19
397.025	1135.19
397.249	1152.19
397.474	1175.19
397.698	1164.19
397.922	1175.19
398.147	1176.19
398.371	1205.19
398.595	1220.19
398.82	1230.19
399.044	1290.19
399.268	1328.19
399.492	1394.19
399.717	1488.19
399.941	1454.19
400.165	1405.19
400.389	1353.19
400.613	1303.19
400.837	1280.19
401.062	1263.19
401.286	1229.19
401.51	1232.19
401.734	1198.19
401.958	1221.19
402.182	1232.19
402.406	1209.19
402.63	1246.19
402.854	1261.19
403.078	1237.19
403.302	1232.19
403.526	1241.19
403.75	1267.19
403.974	1286.19
404.198	1253.19
404.422	1278.19
404.645	1287.19
404.869	1256.19
405.093	1276.19
405.317	1271.19
405.541	1274.19
405.765	1304.19
405.988	1296.19
406.212	1302.19
406.436	1293.19
406.66	1321.19
406.883	1312.19
407.107	1348.19
407.331	1340.19
407.555	1362.19
407.778	1356.19
408.002	1353.19
408.226	1362.19
408.449	1375.19
408.673	1264.19
408.896	1272.19
409.12	1278.19
409.344	1300.19
409.567	1278.19
409.791	1277.19
410.014	1253.19
410.238	1274.19
410.461	1251.19
410.685	1251.19
410.908	1254.19
411.132	1262.19
411.355	1216.19
411.578	1215.19
411.802	1204.19
412.025	1209.19
412.249	1222.19
412.472	1231.19
412.695	1226.19
412.919	1194.19
413.142	1217.19
413.365	1207.19
413.589	1206.19
413.812	1183.19
414.035	1216.19
414.258	1175.19
414.482	1207.19
414.705	1190.19
414.928	1185.19
415.151	1217.19
415.374	1193.19
415.597	1169.19
415.821	1162.19
416.044	1141.19
416.267	1179.19
416.49	1125.19
416.713	1168.19
416.936	1162.19
417.159	1139.19
417.382	1172.19
417.605	1130.19
417.828	1159.19
418.051	1180.19
418.274	1148.19
418.497	1175.19
418.72	1177.19
418.943	1181.19
419.166	1236.19
419.389	1253.19
419.611	1265.19
419.834	1223.19
420.057	1209.19
420.28	1185.19
420.503	1141.19
420.726	1147.19
420.948	1122.19
421.171	1179.19
421.394	1165.19
421.617	1171.19
421.839	1185.19
422.062	1166.19
422.285	1130.19
422.507	1182.19
422.73	1186.19
422.953	1161.19
423.175	1197.19
423.398	1187.19
423.621	1154.19
423.843	1172.19
424.066	1155.19
424.288	1189.19
424.511	1152.19
424.733	1145.19
424.956	1144.19
425.178	1153.19
425.401	1148.19
425.623	1147.19
425.846	1141.19
426.068	1152.19
426.291	1133.19
426.513	1110.19
426.735	1104.19
426.958	1087.19
427.18	1120.19
427.402	1127.19
427.625	1078.19
427.847	1070.19
428.069	1043.19
428.292	1082.19
428.514	1092.19
428.736	1082.19
428.958	1082.19
429.181	1061.19
429.403	1062.19
429.625	1084.19
429.847	1062.19
430.069	1072.19
430.292	1094.19
430.514	1153.19
430.736	1166.19
430.958	1107.19
431.18	1032.19
431.402	1093.19
431.624	1049.19
431.846	1057.19
432.068	1055.19
432.29	1045.19
432.512	1043.19
432.734	1054.19
432.956	1080.19
433.178	1078.19
433.4	1061.19
433.622	1082.19
433.844	1057.19
434.066	1059.19
434.287	1050.19
434.509	1079.19
434.731	1071.19
434.953	1087.19
435.175	1137.19
435.397	1104.19
435.618	1110.19
435.84	1068.19
436.062	1068.19
436.284	1052.19
436.505	1065.19
436.727	1068.19
436.949	1071.19
437.17	1043.19
437.392	1042.19
437.614	1027.19
437.835	1004.19
438.057	1032.19
438.278	1031.19
438.5	1058.19
438.721	1055.19
438.943	1084.19
439.165	1076.19
439.386	1075.19
439.608	1127.19
439.829	1097.19
440.05	1114.19
440.272	1142.19
440.493	1125.19
440.715	1110.19
440.936	1115.19
441.158	1118.19
441.379	1137.19
441.6	1154.19
441.822	1191.19
442.043	1237.19
442.264	1218.19
442.486	1186.19
442.707	1150.19
442.928	1148.19
443.149	1143.19
443.371	1121.19
443.592	1146.19
443.813	1142.19
444.034	1140.19
444.255	1185.19
444.476	1237.19
444.698	1249.19
444.919	1245.19
445.14	1292.19
445.361	1208.19
445.582	1194.19
445.803	1139.19
446.024	1148.19
446.245	1178.19
446.466	1132.19
446.687	1129.19
446.908	1136.19
447.129	1119.19
447.35	1097.19
447.571	1089.19
447.792	1088.19
448.013	1076.19
448.234	1042.19
448.455	1061.19
448.675	1060.19
448.896	1061.19
449.117	1089.19
449.338	1174.19
449.559	1196.19
449.779	1062.19
450	1050.19
450.221	1018.19
450.442	1033.19
450.662	1010.19
450.883	1009.19
451.104	997.19
451.324	993.19
451.545	1009.19
451.766	1025.19
451.986	1038.19
452.207	1052.19
452.428	1248.19
452.648	1628.19
452.869	1431.19
453.089	1138.19
453.31	1087.19
453.53	1108.19
453.751	1114.19
453.971	1140.19
454.192	1152.19
454.412	1055.19
454.633	1002.19
454.853	992.19
455.073	992.19
455.294	1008.19
455.514	977.19
455.734	972.19
455.955	959.19
456.175	977.19
456.395	979.19
456.616	963.19
456.836	978.19
457.056	984.19
457.276	981.19
457.497	1036.19
457.717	1020.19
457.937	1033.19
458.157	1024.19
458.377	1045.19
458.598	1034.19
458.818	1030.19
459.038	1072.19
459.258	1009.19
459.478	1052.19
459.698	1085.19
459.918	1079.19
460.138	1086.19
460.358	1146.19
460.578	1138.19
460.798	1148.19
461.018	1154.19
461.238	1136.19
461.458	1181.19
461.678	1151.19
461.898	1200.19
462.118	1146.19
462.338	1234.19
462.558	1237.19
462.777	1266.19
462.997	1291.19
463.217	1321.19
463.437	1384.19
463.657	1365.19
463.876	1355.19
464.096	1301.19
464.316	1247.19
464.536	1247.19
464.755	1256.19
464.975	1232.19
465.195	1187.19
465.414	1122.19
465.634	1115.19
465.854	1111.19
466.073	1110.19
466.293	1111.19
466.512	1073.19
466.732	1098.19
466.951	1127.19
467.171	1166.19
467.391	1142.19
467.61	1058.19
467.829	1045.19
468.049	1044.19
468.268	1021.19
468.488	1016.19
468.707	1040.19
468.927	1047.19
469.146	1065.19
469.365	1053.19
469.585	1049.19
469.804	1085.19
470.023	1106.19
470.243	1124.19
470.462	1164.19
470.681	1168.19
470.901	1260.19
471.12	1392.19
471.339	1429.19
471.558	1207.19
471.777	1132.19
471.997	1100.19
472.216	1072.19
472.435	1049.19
472.654	1036.19
472.873	1062.19
473.092	1057.19
473.311	1066.19
473.53	1064.19
473.749	1092.19
473.968	1119.19
474.187	1027.19
474.406	1045.19
474.625	1053.19
474.844	1048.19
475.063	1047.19
475.282	1052.19
475.501	1057.19
475.72	1082.19
475.939	1080.19
476.158	1080.19
476.377	1119.19
476.596	1122.19
476.814	1107.19
477.033	1092.19
477.252	1099.19
477.471	1141.19
477.69	1152.19
477.908	1185.19
478.127	1212.19
478.346	1187.19
478.564	1239.19
478.783	1200.19
479.002	1289.19
479.22	1264.19
479.439	1276.19
479.658	1244.19
479.876	1244.19
480.095	1246.19
480.313	1278.19
480.532	1311.19
480.751	1276.19
480.969	1224.19
481.188	1248.19
481.406	1224.19
481.624	1228.19
481.843	1232.19
482.061	1238.19
482.28	1270.19
482.498	1264.19
482.717	1257.19
482.935	1286.19
483.153	1271.19
483.372	1322.19
483.59	1321.19
483.808	1304.19
484.027	1365.19
484.245	1342.19
484.463	1477.19
484.681	1661.19
484.9	1505.19
485.118	1468.19
485.336	1428.19
485.554	1450.19
485.772	1495.19
485.99	1664.19
486.209	1746.19
486.427	1521.19
486.645	1400.19
486.863	1353.19
487.081	1367.19
487.299	1328.19
487.517	1359.19
487.735	1368.19
487.953	1389.19
488.171	1351.19
488.389	1368.19
488.607	1318.19
488.825	1308.19
489.043	1294.19
489.261	1296.19
489.479	1329.19
489.696	1292.19
489.914	1317.19
490.132	1333.19
490.35	1326.19
490.568	1338.19
490.786	1377.19
491.003	1380.19
491.221	1424.19
491.439	1400.19
491.657	1347.19
491.874	1403.19
492.092	1442.19
492.31	1426.19
