Data from SnStandardFlinnAPT0064_LampEnergy5.5_LIBS07252019.E.O._I.C._HRD10591_15-15-45-492.txt Node
Date: Thu Jul 25 15:15:45 EDT 2019
User: cochatt
Spectrometer: HR+D1059
Trigger mode: 1
Integration Time (sec): 1.000000E-1
Scans to average: 1
Electric dark correction enabled: true
Nonlinearity correction enabled: false
Boxcar width: 0
XAxis mode: Wavelengths
Number of Pixels in Spectrum: 2048
>>>>>Begin Spectral Data<<<<<
223.165	-7.69
223.4	-7.69
223.635	-7.69
223.869	-26.69
224.104	-18.69
224.338	-9.69
224.573	-9.69
224.808	-6.69
225.042	-23.69
225.277	-14.69
225.511	4.31
225.746	0.31
225.98	10.31
226.215	18.31
226.449	14.31
226.683	26.31
226.918	10.31
227.152	33.31
227.387	39.31
227.621	36.31
227.856	47.31
228.09	29.31
228.324	57.31
228.559	56.31
228.793	85.31
229.027	142.31
229.262	163.31
229.496	138.31
229.73	134.31
229.964	158.31
230.199	148.31
230.433	164.31
230.667	171.31
230.901	163.31
231.136	180.31
231.37	171.31
231.604	173.31
231.838	206.31
232.072	227.31
232.306	214.31
232.541	217.31
232.775	195.31
233.009	198.31
233.243	186.31
233.477	229.31
233.711	235.31
233.945	237.31
234.179	220.31
234.413	218.31
234.647	220.31
234.881	210.31
235.115	244.31
235.349	262.31
235.583	319.31
235.817	405.31
236.051	379.31
236.285	295.31
236.519	242.31
236.753	212.31
236.987	238.31
237.221	231.31
237.455	215.31
237.689	223.31
237.922	214.31
238.156	218.31
238.39	220.31
238.624	220.31
238.858	215.31
239.091	212.31
239.325	218.31
239.559	214.31
239.793	224.31
240.027	254.31
240.26	239.31
240.494	240.31
240.728	253.31
240.961	260.31
241.195	279.31
241.429	275.31
241.662	307.31
241.896	315.31
242.13	364.31
242.363	474.31
242.597	576.31
242.83	577.31
243.064	581.31
243.298	665.31
243.531	554.31
243.765	387.31
243.998	323.31
244.232	299.31
244.465	291.31
244.699	287.31
244.932	302.31
245.166	294.31
245.399	316.31
245.633	298.31
245.866	298.31
246.099	299.31
246.333	287.31
246.566	317.31
246.8	299.31
247.033	279.31
247.266	283.31
247.5	283.31
247.733	288.31
247.966	299.31
248.2	327.31
248.433	352.31
248.666	373.31
248.899	359.31
249.133	352.31
249.366	377.31
249.599	390.31
249.832	426.31
250.066	414.31
250.299	346.31
250.532	341.31
250.765	308.31
250.998	331.31
251.231	319.31
251.465	355.31
251.698	332.31
251.931	334.31
252.164	330.31
252.397	331.31
252.63	332.31
252.863	342.31
253.096	331.31
253.329	339.31
253.562	336.31
253.795	340.31
254.028	349.31
254.261	354.31
254.494	366.31
254.727	426.31
254.96	483.31
255.193	471.31
255.426	380.31
255.659	372.31
255.892	374.31
256.124	376.31
256.357	361.31
256.59	384.31
256.823	412.31
257.056	443.31
257.289	511.31
257.521	530.31
257.754	470.31
257.987	383.31
258.22	386.31
258.452	382.31
258.685	394.31
258.918	401.31
259.151	406.31
259.383	438.31
259.616	484.31
259.849	505.31
260.081	448.31
260.314	440.31
260.547	406.31
260.779	411.31
261.012	419.31
261.244	417.31
261.477	430.31
261.71	423.31
261.942	427.31
262.175	435.31
262.407	456.31
262.64	437.31
262.872	475.31
263.105	499.31
263.337	518.31
263.57	538.31
263.802	560.31
264.035	560.31
264.267	593.31
264.499	593.31
264.732	587.31
264.964	638.31
265.197	617.31
265.429	584.31
265.661	630.31
265.894	648.31
266.126	702.31
266.358	776.31
266.591	743.31
266.823	687.31
267.055	614.31
267.287	595.31
267.52	556.31
267.752	556.31
267.984	552.31
268.216	541.31
268.448	539.31
268.681	520.31
268.913	512.31
269.145	535.31
269.377	555.31
269.609	516.31
269.841	544.31
270.073	564.31
270.306	639.31
270.538	824.31
270.77	1145.31
271.002	1375.31
271.234	1035.31
271.466	712.31
271.698	624.31
271.93	578.31
272.162	555.31
272.394	527.31
272.626	538.31
272.858	531.31
273.09	518.31
273.322	507.31
273.553	514.31
273.785	540.31
274.017	526.31
274.249	501.31
274.481	505.31
274.713	521.31
274.945	526.31
275.176	518.31
275.408	527.31
275.64	523.31
275.872	541.31
276.104	528.31
276.335	540.31
276.567	563.31
276.799	534.31
277.031	550.31
277.262	533.31
277.494	563.31
277.726	605.31
277.957	663.31
278.189	723.31
278.421	714.31
278.652	663.31
278.884	633.31
279.115	602.31
279.347	589.31
279.579	604.31
279.81	586.31
280.042	567.31
280.273	574.31
280.505	583.31
280.736	594.31
280.968	623.31
281.199	686.31
281.431	740.31
281.662	736.31
281.894	674.31
282.125	660.31
282.356	664.31
282.588	647.31
282.819	703.31
283.051	703.31
283.282	776.31
283.513	927.31
283.745	1286.31
283.976	1979.31
284.207	2801.31
284.439	2511.31
284.67	1579.31
284.901	1259.31
285.132	1237.31
285.364	1190.31
285.595	957.31
285.826	908.31
286.057	1065.31
286.288	1353.31
286.52	1821.31
286.751	1662.31
286.982	1066.31
287.213	858.31
287.444	755.31
287.675	733.31
287.906	700.31
288.138	692.31
288.369	675.31
288.6	690.31
288.831	692.31
289.062	680.31
289.293	692.31
289.524	676.31
289.755	687.31
289.986	676.31
290.217	707.31
290.448	698.31
290.679	687.31
290.91	730.31
291.141	717.31
291.371	760.31
291.602	763.31
291.833	693.31
292.064	703.31
292.295	666.31
292.526	667.31
292.757	664.31
292.987	664.31
293.218	661.31
293.449	661.31
293.68	651.31
293.91	637.31
294.141	646.31
294.372	630.31
294.603	638.31
294.833	639.31
295.064	663.31
295.295	669.31
295.525	636.31
295.756	685.31
295.987	651.31
296.217	652.31
296.448	647.31
296.679	655.31
296.909	653.31
297.14	651.31
297.37	661.31
297.601	664.31
297.831	653.31
298.062	660.31
298.292	656.31
298.523	700.31
298.753	711.31
298.984	683.31
299.214	720.31
299.445	690.31
299.675	688.31
299.905	724.31
300.136	758.31
300.366	826.31
300.597	1028.31
300.827	1331.31
301.057	1786.31
301.288	1727.31
301.518	1170.31
301.748	954.31
301.979	917.31
302.209	862.31
302.439	894.31
302.669	892.31
302.9	1094.31
303.13	1439.31
303.36	2061.31
303.59	2674.31
303.82	2398.31
304.051	1458.31
304.281	1099.31
304.511	944.31
304.741	893.31
304.971	842.31
305.201	800.31
305.431	772.31
305.661	788.31
305.891	754.31
306.121	750.31
306.352	768.31
306.582	762.31
306.812	744.31
307.042	747.31
307.272	734.31
307.502	732.31
307.731	712.31
307.961	715.31
308.191	747.31
308.421	741.31
308.651	761.31
308.881	749.31
309.111	741.31
309.341	726.31
309.571	758.31
309.8	773.31
310.03	714.31
310.26	772.31
310.49	760.31
310.72	750.31
310.949	747.31
311.179	781.31
311.409	775.31
311.639	768.31
311.868	792.31
312.098	812.31
312.328	786.31
312.557	806.31
312.787	813.31
313.017	801.31
313.246	809.31
313.476	819.31
313.706	850.31
313.935	869.31
314.165	916.31
314.394	930.31
314.624	906.31
314.853	848.31
315.083	835.31
315.312	877.31
315.542	891.31
315.771	871.31
316.001	885.31
316.23	898.31
316.46	959.31
316.689	996.31
316.919	1170.31
317.148	1656.31
317.377	2462.31
317.607	3564.31
317.836	3656.31
318.065	2184.31
318.295	1482.31
318.524	1234.31
318.753	1132.31
318.983	1005.31
319.212	1004.31
319.441	964.31
319.67	963.31
319.9	951.31
320.129	964.31
320.358	936.31
320.587	932.31
320.816	952.31
321.046	912.31
321.275	931.31
321.504	955.31
321.733	973.31
321.962	942.31
322.191	989.31
322.42	971.31
322.649	953.31
322.878	987.31
323.108	964.31
323.337	978.31
323.566	1023.31
323.795	1023.31
324.024	1072.31
324.253	1078.31
324.482	1110.31
324.71	1147.31
324.939	1208.31
325.168	1205.31
325.397	1258.31
325.626	1447.31
325.855	1929.31
326.084	2988.31
326.313	4407.31
326.542	4697.31
326.77	3019.31
326.999	2070.31
327.228	1758.31
327.457	1682.31
327.686	1726.31
327.914	1799.31
328.143	2006.31
328.372	2324.31
328.6	2521.31
328.829	2370.31
329.058	2116.31
329.287	1886.31
329.515	1738.31
329.744	1602.31
329.972	1552.31
330.201	1473.31
330.43	1420.31
330.658	1383.31
330.887	1366.31
331.115	1360.31
331.344	1368.31
331.572	1343.31
331.801	1376.31
332.03	1359.31
332.258	1374.31
332.486	1412.31
332.715	1570.31
332.943	1901.31
333.172	2242.31
333.4	2230.31
333.629	1829.31
333.857	1671.31
334.085	1681.31
334.314	1770.31
334.542	1891.31
334.771	2155.31
334.999	2553.31
335.227	3062.31
335.455	3405.31
335.684	3204.31
335.912	2756.31
336.14	2433.31
336.369	2109.31
336.597	1972.31
336.825	1850.31
337.053	1750.31
337.281	1620.31
337.51	1549.31
337.738	1462.31
337.966	1454.31
338.194	1385.31
338.422	1368.31
338.65	1365.31
338.878	1323.31
339.106	1327.31
339.334	1268.31
339.562	1262.31
339.79	1226.31
340.018	1214.31
340.246	1223.31
340.474	1178.31
340.702	1224.31
340.93	1190.31
341.158	1213.31
341.386	1214.31
341.614	1194.31
341.842	1138.31
342.07	1136.31
342.298	1109.31
342.526	1108.31
342.754	1116.31
342.981	1110.31
343.209	1111.31
343.437	1102.31
343.665	1124.31
343.893	1125.31
344.12	1140.31
344.348	1146.31
344.576	1097.31
344.804	1095.31
345.031	1070.31
345.259	1080.31
345.487	1041.31
345.714	1018.31
345.942	1023.31
346.17	1015.31
346.397	1027.31
346.625	998.31
346.853	1006.31
347.08	1011.31
347.308	1017.31
347.535	1042.31
347.763	1036.31
347.99	996.31
348.218	1005.31
348.445	1022.31
348.673	999.31
348.9	1008.31
349.128	1010.31
349.355	1014.31
349.583	1000.31
349.81	1003.31
350.037	999.31
350.265	991.31
350.492	984.31
350.72	956.31
350.947	1005.31
351.174	990.31
351.402	989.31
351.629	999.31
351.856	948.31
352.083	986.31
352.311	1005.31
352.538	966.31
352.765	977.31
352.992	985.31
353.22	1000.31
353.447	980.31
353.674	985.31
353.901	988.31
354.128	1000.31
354.355	982.31
354.583	994.31
354.81	976.31
355.037	984.31
355.264	984.31
355.491	1003.31
355.718	999.31
355.945	1025.31
356.172	1008.31
356.399	1026.31
356.626	1007.31
356.853	1002.31
357.08	1036.31
357.307	1017.31
357.534	1043.31
357.761	1030.31
357.988	1050.31
358.215	1029.31
358.441	1042.31
358.668	1034.31
358.895	1035.31
359.122	1039.31
359.349	1031.31
359.576	999.31
359.802	1047.31
360.029	1047.31
360.256	1052.31
360.483	1024.31
360.709	1043.31
360.936	1061.31
361.163	1032.31
361.39	1042.31
361.616	1024.31
361.843	1035.31
362.07	1052.31
362.296	1031.31
362.523	1036.31
362.749	1019.31
362.976	1039.31
363.203	1017.31
363.429	1017.31
363.656	1024.31
363.882	1041.31
364.109	1060.31
364.335	1033.31
364.562	1053.31
364.788	1039.31
365.015	1049.31
365.241	1067.31
365.468	1084.31
365.694	1108.31
365.92	1108.31
366.147	1075.31
366.373	1033.31
366.599	1042.31
366.826	1047.31
367.052	1061.31
367.278	1056.31
367.505	1063.31
367.731	1080.31
367.957	1082.31
368.184	1085.31
368.41	1084.31
368.636	1087.31
368.862	1095.31
369.089	1064.31
369.315	1104.31
369.541	1100.31
369.767	1099.31
369.993	1075.31
370.219	1101.31
370.445	1082.31
370.672	1079.31
370.898	1066.31
371.124	1076.31
371.35	1109.31
371.576	1139.31
371.802	1131.31
372.028	1131.31
372.254	1130.31
372.48	1126.31
372.706	1160.31
372.932	1142.31
373.158	1144.31
373.384	1147.31
373.61	1129.31
373.835	1153.31
374.061	1134.31
374.287	1147.31
374.513	1148.31
374.739	1198.31
374.965	1182.31
375.191	1212.31
375.416	1148.31
375.642	1145.31
375.868	1164.31
376.094	1165.31
376.319	1156.31
376.545	1130.31
376.771	1129.31
376.997	1128.31
377.222	1134.31
377.448	1135.31
377.674	1110.31
377.899	1097.31
378.125	1133.31
378.35	1108.31
378.576	1131.31
378.802	1104.31
379.027	1148.31
379.253	1165.31
379.478	1193.31
379.704	1381.31
379.929	1838.31
380.155	2655.31
380.38	2792.31
380.606	1842.31
380.831	1407.31
381.057	1267.31
381.282	1184.31
381.507	1139.31
381.733	1120.31
381.958	1116.31
382.184	1122.31
382.409	1090.31
382.634	1110.31
382.86	1098.31
383.085	1117.31
383.31	1116.31
383.535	1133.31
383.761	1096.31
383.986	1154.31
384.211	1136.31
384.436	1148.31
384.662	1166.31
384.887	1146.31
385.112	1165.31
385.337	1145.31
385.562	1173.31
385.787	1154.31
386.013	1145.31
386.238	1161.31
386.463	1173.31
386.688	1144.31
386.913	1169.31
387.138	1168.31
387.363	1149.31
387.588	1134.31
387.813	1164.31
388.038	1167.31
388.263	1149.31
388.488	1136.31
388.713	1158.31
388.938	1133.31
389.163	1131.31
389.387	1195.31
389.612	1154.31
389.837	1156.31
390.062	1152.31
390.287	1146.31
390.512	1149.31
390.736	1193.31
390.961	1166.31
391.186	1185.31
391.411	1207.31
391.636	1212.31
391.86	1218.31
392.085	1211.31
392.31	1178.31
392.534	1187.31
392.759	1172.31
392.984	1218.31
393.208	1190.31
393.433	1164.31
393.658	1135.31
393.882	1169.31
394.107	1182.31
394.331	1179.31
394.556	1152.31
394.78	1158.31
395.005	1162.31
395.229	1164.31
395.454	1179.31
395.678	1200.31
395.903	1184.31
396.127	1206.31
396.352	1176.31
396.576	1186.31
396.801	1196.31
397.025	1196.31
397.249	1192.31
397.474	1231.31
397.698	1202.31
397.922	1231.31
398.147	1273.31
398.371	1239.31
398.595	1246.31
398.82	1324.31
399.044	1330.31
399.268	1386.31
399.492	1469.31
399.717	1546.31
399.941	1560.31
400.165	1457.31
400.389	1396.31
400.613	1339.31
400.837	1328.31
401.062	1298.31
401.286	1298.31
401.51	1285.31
401.734	1260.31
401.958	1290.31
402.182	1276.31
402.406	1301.31
402.63	1316.31
402.854	1288.31
403.078	1313.31
403.302	1316.31
403.526	1341.31
403.75	1337.31
403.974	1351.31
404.198	1287.31
404.422	1387.31
404.645	1332.31
404.869	1319.31
405.093	1318.31
405.317	1304.31
405.541	1340.31
405.765	1359.31
405.988	1341.31
406.212	1380.31
406.436	1371.31
406.66	1395.31
406.883	1346.31
407.107	1410.31
407.331	1465.31
407.555	1468.31
407.778	1437.31
408.002	1414.31
408.226	1405.31
408.449	1413.31
408.673	1377.31
408.896	1340.31
409.12	1324.31
409.344	1337.31
409.567	1317.31
409.791	1344.31
410.014	1334.31
410.238	1330.31
410.461	1305.31
410.685	1311.31
410.908	1287.31
411.132	1292.31
411.355	1248.31
411.578	1288.31
411.802	1229.31
412.025	1264.31
412.249	1296.31
412.472	1268.31
412.695	1254.31
412.919	1242.31
413.142	1285.31
413.365	1274.31
413.589	1239.31
413.812	1259.31
414.035	1260.31
414.258	1232.31
414.482	1292.31
414.705	1270.31
414.928	1231.31
415.151	1232.31
415.374	1254.31
415.597	1240.31
415.821	1215.31
416.044	1239.31
416.267	1211.31
416.49	1211.31
416.713	1197.31
416.936	1208.31
417.159	1191.31
417.382	1194.31
417.605	1206.31
417.828	1200.31
418.051	1204.31
418.274	1222.31
418.497	1260.31
418.72	1220.31
418.943	1218.31
419.166	1281.31
419.389	1357.31
419.611	1311.31
419.834	1314.31
420.057	1225.31
420.28	1228.31
420.503	1216.31
420.726	1181.31
420.948	1206.31
421.171	1191.31
421.394	1190.31
421.617	1214.31
421.839	1216.31
422.062	1244.31
422.285	1204.31
422.507	1236.31
422.73	1238.31
422.953	1228.31
423.175	1238.31
423.398	1279.31
423.621	1214.31
423.843	1258.31
424.066	1240.31
424.288	1205.31
424.511	1256.31
424.733	1204.31
424.956	1226.31
425.178	1191.31
425.401	1208.31
425.623	1229.31
425.846	1206.31
426.068	1175.31
426.291	1180.31
426.513	1155.31
426.735	1152.31
426.958	1167.31
427.18	1164.31
427.402	1148.31
427.625	1181.31
427.847	1137.31
428.069	1110.31
428.292	1136.31
428.514	1125.31
428.736	1174.31
428.958	1146.31
429.181	1101.31
429.403	1110.31
429.625	1118.31
429.847	1137.31
430.069	1148.31
430.292	1155.31
430.514	1171.31
430.736	1175.31
430.958	1124.31
431.18	1126.31
431.402	1108.31
431.624	1113.31
431.846	1108.31
432.068	1108.31
432.29	1093.31
432.512	1070.31
432.734	1134.31
432.956	1129.31
433.178	1152.31
433.4	1131.31
433.622	1108.31
433.844	1145.31
434.066	1104.31
434.287	1129.31
434.509	1116.31
434.731	1175.31
434.953	1160.31
435.175	1154.31
435.397	1178.31
435.618	1160.31
435.84	1150.31
436.062	1112.31
436.284	1108.31
436.505	1099.31
436.727	1118.31
436.949	1116.31
437.17	1101.31
437.392	1131.31
437.614	1096.31
437.835	1059.31
438.057	1074.31
438.278	1070.31
438.5	1103.31
438.721	1112.31
438.943	1140.31
439.165	1147.31
439.386	1160.31
439.608	1165.31
439.829	1127.31
440.05	1174.31
440.272	1199.31
440.493	1172.31
440.715	1147.31
440.936	1198.31
441.158	1175.31
441.379	1186.31
441.6	1224.31
441.822	1260.31
442.043	1255.31
442.264	1296.31
442.486	1224.31
442.707	1218.31
442.928	1228.31
443.149	1197.31
443.371	1192.31
443.592	1213.31
443.813	1198.31
444.034	1206.31
444.255	1204.31
444.476	1255.31
444.698	1272.31
444.919	1297.31
445.14	1355.31
445.361	1270.31
445.582	1224.31
445.803	1199.31
446.024	1188.31
446.245	1177.31
446.466	1211.31
446.687	1160.31
446.908	1179.31
447.129	1140.31
447.35	1180.31
447.571	1125.31
447.792	1123.31
448.013	1127.31
448.234	1092.31
448.455	1106.31
448.675	1126.31
448.896	1131.31
449.117	1142.31
449.338	1236.31
449.559	1282.31
449.779	1158.31
450	1101.31
450.221	1097.31
450.442	1095.31
450.662	1064.31
450.883	1078.31
451.104	1092.31
451.324	1106.31
451.545	1070.31
451.766	1065.31
451.986	1071.31
452.207	1110.31
452.428	1309.31
452.648	1718.31
452.869	1549.31
453.089	1219.31
453.31	1146.31
453.53	1169.31
453.751	1218.31
453.971	1260.31
454.192	1240.31
454.412	1104.31
454.633	1049.31
454.853	1074.31
455.073	1012.31
455.294	1040.31
455.514	1059.31
455.734	1005.31
455.955	1013.31
456.175	1005.31
456.395	989.31
456.616	1012.31
456.836	1042.31
457.056	1054.31
457.276	1008.31
457.497	1067.31
457.717	1052.31
457.937	1070.31
458.157	1052.31
458.377	1070.31
458.598	1082.31
458.818	1069.31
459.038	1101.31
459.258	1106.31
459.478	1121.31
459.698	1115.31
459.918	1145.31
460.138	1165.31
460.358	1204.31
460.578	1182.31
460.798	1218.31
461.018	1229.31
461.238	1234.31
461.458	1223.31
461.678	1223.31
461.898	1261.31
462.118	1236.31
462.338	1275.31
462.558	1292.31
462.777	1318.31
462.997	1361.31
463.217	1407.31
463.437	1401.31
463.657	1439.31
463.876	1437.31
464.096	1378.31
464.316	1330.31
464.536	1314.31
464.755	1310.31
464.975	1275.31
465.195	1228.31
465.414	1194.31
465.634	1127.31
465.854	1146.31
466.073	1144.31
466.293	1117.31
466.512	1131.31
466.732	1134.31
466.951	1187.31
467.171	1231.31
467.391	1207.31
467.61	1142.31
467.829	1114.31
468.049	1113.31
468.268	1091.31
468.488	1080.31
468.707	1097.31
468.927	1126.31
469.146	1080.31
469.365	1130.31
469.585	1098.31
469.804	1136.31
470.023	1156.31
470.243	1146.31
470.462	1212.31
470.681	1248.31
470.901	1304.31
471.12	1468.31
471.339	1458.31
471.558	1284.31
471.777	1220.31
471.997	1172.31
472.216	1138.31
472.435	1080.31
472.654	1064.31
472.873	1080.31
473.092	1066.31
473.311	1114.31
473.53	1107.31
473.749	1114.31
473.968	1146.31
474.187	1118.31
474.406	1103.31
474.625	1114.31
474.844	1131.31
475.063	1121.31
475.282	1079.31
475.501	1088.31
475.72	1129.31
475.939	1108.31
476.158	1158.31
476.377	1170.31
476.596	1140.31
476.814	1162.31
477.033	1129.31
477.252	1159.31
477.471	1178.31
477.69	1182.31
477.908	1247.31
478.127	1216.31
478.346	1250.31
478.564	1295.31
478.783	1298.31
479.002	1333.31
479.22	1321.31
479.439	1312.31
479.658	1286.31
479.876	1322.31
480.095	1296.31
480.313	1370.31
480.532	1362.31
480.751	1325.31
480.969	1319.31
481.188	1327.31
481.406	1290.31
481.624	1284.31
481.843	1289.31
482.061	1282.31
482.28	1304.31
482.498	1298.31
482.717	1338.31
482.935	1349.31
483.153	1358.31
483.372	1352.31
483.59	1363.31
483.808	1361.31
484.027	1431.31
484.245	1478.31
484.463	1616.31
484.681	1750.31
484.9	1627.31
485.118	1534.31
485.336	1511.31
485.554	1532.31
485.772	1620.31
485.99	1808.31
486.209	1896.31
486.427	1613.31
486.645	1499.31
486.863	1449.31
487.081	1435.31
487.299	1415.31
487.517	1383.31
487.735	1430.31
487.953	1461.31
488.171	1478.31
488.389	1386.31
488.607	1349.31
488.825	1354.31
489.043	1369.31
489.261	1354.31
489.479	1383.31
489.696	1345.31
489.914	1368.31
490.132	1407.31
490.35	1378.31
490.568	1370.31
490.786	1437.31
491.003	1445.31
491.221	1412.31
491.439	1439.31
