Data from SnStandardFlinnAPT0064_LampEnergy5.5_LIBS07252019.E.O._I.C._HRD10591_15-16-58-492.txt Node
Date: Thu Jul 25 15:16:58 EDT 2019
User: cochatt
Spectrometer: HR+D1059
Trigger mode: 1
Integration Time (sec): 1.000000E-1
Scans to average: 1
Electric dark correction enabled: true
Nonlinearity correction enabled: false
Boxcar width: 0
XAxis mode: Wavelengths
Number of Pixels in Spectrum: 2048
>>>>>Begin Spectral Data<<<<<
223.165	-12.81
223.4	-12.81
223.635	-12.81
223.869	-14.81
224.104	-8.81
224.338	-19.81
224.573	-16.81
224.808	-28.81
225.042	1.19
225.277	-12.81
225.511	9.19
225.746	2.19
225.98	13.19
226.215	10.19
226.449	10.19
226.683	26.19
226.918	23.19
227.152	19.19
227.387	27.19
227.621	40.19
227.856	51.19
228.09	38.19
228.324	44.19
228.559	43.19
228.793	83.19
229.027	140.19
229.262	157.19
229.496	158.19
229.73	135.19
229.964	141.19
230.199	148.19
230.433	166.19
230.667	165.19
230.901	170.19
231.136	166.19
231.37	162.19
231.604	196.19
231.838	221.19
232.072	235.19
232.306	242.19
232.541	213.19
232.775	207.19
233.009	201.19
233.243	197.19
233.477	223.19
233.711	263.19
233.945	273.19
234.179	230.19
234.413	217.19
234.647	222.19
234.881	225.19
235.115	242.19
235.349	287.19
235.583	345.19
235.817	441.19
236.051	412.19
236.285	311.19
236.519	247.19
236.753	206.19
236.987	230.19
237.221	251.19
237.455	241.19
237.689	217.19
237.922	216.19
238.156	224.19
238.39	216.19
238.624	230.19
238.858	235.19
239.091	225.19
239.325	240.19
239.559	245.19
239.793	242.19
240.027	265.19
240.26	249.19
240.494	252.19
240.728	258.19
240.961	281.19
241.195	296.19
241.429	314.19
241.662	310.19
241.896	334.19
242.13	406.19
242.363	537.19
242.597	663.19
242.83	637.19
243.064	671.19
243.298	741.19
243.531	630.19
243.765	406.19
243.998	347.19
244.232	314.19
244.465	291.19
244.699	306.19
244.932	301.19
245.166	306.19
245.399	295.19
245.633	314.19
245.866	325.19
246.099	289.19
246.333	292.19
246.566	309.19
246.8	290.19
247.033	295.19
247.266	297.19
247.5	291.19
247.733	312.19
247.966	332.19
248.2	349.19
248.433	387.19
248.666	395.19
248.899	410.19
249.133	376.19
249.366	381.19
249.599	433.19
249.832	471.19
250.066	448.19
250.299	378.19
250.532	330.19
250.765	349.19
250.998	325.19
251.231	319.19
251.465	312.19
251.698	313.19
251.931	332.19
252.164	354.19
252.397	330.19
252.63	352.19
252.863	357.19
253.096	362.19
253.329	346.19
253.562	342.19
253.795	336.19
254.028	358.19
254.261	374.19
254.494	384.19
254.727	469.19
254.96	517.19
255.193	523.19
255.426	417.19
255.659	396.19
255.892	394.19
256.124	394.19
256.357	409.19
256.59	391.19
256.823	430.19
257.056	453.19
257.289	545.19
257.521	591.19
257.754	494.19
257.987	405.19
258.22	398.19
258.452	401.19
258.685	405.19
258.918	433.19
259.151	431.19
259.383	488.19
259.616	497.19
259.849	515.19
260.081	458.19
260.314	408.19
260.547	422.19
260.779	408.19
261.012	442.19
261.244	433.19
261.477	429.19
261.71	442.19
261.942	438.19
262.175	457.19
262.407	463.19
262.64	480.19
262.872	501.19
263.105	503.19
263.337	516.19
263.57	563.19
263.802	577.19
264.035	590.19
264.267	579.19
264.499	570.19
264.732	612.19
264.964	648.19
265.197	635.19
265.429	610.19
265.661	656.19
265.894	701.19
266.126	764.19
266.358	818.19
266.591	807.19
266.823	694.19
267.055	627.19
267.287	602.19
267.52	576.19
267.752	577.19
267.984	574.19
268.216	568.19
268.448	566.19
268.681	572.19
268.913	563.19
269.145	527.19
269.377	552.19
269.609	553.19
269.841	574.19
270.073	619.19
270.306	688.19
270.538	902.19
270.77	1344.19
271.002	1618.19
271.234	1097.19
271.466	742.19
271.698	622.19
271.93	600.19
272.162	575.19
272.394	536.19
272.626	527.19
272.858	521.19
273.09	533.19
273.322	532.19
273.553	551.19
273.785	533.19
274.017	522.19
274.249	521.19
274.481	565.19
274.713	519.19
274.945	534.19
275.176	552.19
275.408	543.19
275.64	541.19
275.872	546.19
276.104	547.19
276.335	538.19
276.567	568.19
276.799	551.19
277.031	543.19
277.262	584.19
277.494	574.19
277.726	674.19
277.957	746.19
278.189	840.19
278.421	788.19
278.652	705.19
278.884	673.19
279.115	612.19
279.347	586.19
279.579	595.19
279.81	592.19
280.042	589.19
280.273	599.19
280.505	622.19
280.736	652.19
280.968	679.19
281.199	752.19
281.431	789.19
281.662	840.19
281.894	727.19
282.125	673.19
282.356	693.19
282.588	682.19
282.819	711.19
283.051	765.19
283.282	824.19
283.513	1027.19
283.745	1488.19
283.976	2342.19
284.207	3388.19
284.439	3044.19
284.67	1777.19
284.901	1415.19
285.132	1392.19
285.364	1365.19
285.595	1051.19
285.826	968.19
286.057	1155.19
286.288	1565.19
286.52	2161.19
286.751	1951.19
286.982	1169.19
287.213	915.19
287.444	816.19
287.675	797.19
287.906	773.19
288.138	737.19
288.369	707.19
288.6	729.19
288.831	693.19
289.062	722.19
289.293	711.19
289.524	717.19
289.755	731.19
289.986	702.19
290.217	725.19
290.448	719.19
290.679	706.19
290.91	747.19
291.141	752.19
291.371	848.19
291.602	836.19
291.833	781.19
292.064	728.19
292.295	715.19
292.526	723.19
292.757	696.19
292.987	671.19
293.218	675.19
293.449	687.19
293.68	699.19
293.91	686.19
294.141	677.19
294.372	675.19
294.603	662.19
294.833	679.19
295.064	694.19
295.295	660.19
295.525	668.19
295.756	685.19
295.987	677.19
296.217	685.19
296.448	678.19
296.679	669.19
296.909	673.19
297.14	673.19
297.37	691.19
297.601	703.19
297.831	704.19
298.062	703.19
298.292	711.19
298.523	727.19
298.753	712.19
298.984	725.19
299.214	738.19
299.445	731.19
299.675	762.19
299.905	771.19
300.136	824.19
300.366	882.19
300.597	1152.19
300.827	1556.19
301.057	2086.19
301.288	2070.19
301.518	1361.19
301.748	1001.19
301.979	937.19
302.209	915.19
302.439	927.19
302.669	971.19
302.9	1185.19
303.13	1682.19
303.36	2415.19
303.59	3282.19
303.82	2797.19
304.051	1638.19
304.281	1175.19
304.511	992.19
304.741	913.19
304.971	902.19
305.201	851.19
305.431	849.19
305.661	845.19
305.891	771.19
306.121	780.19
306.352	776.19
306.582	789.19
306.812	807.19
307.042	787.19
307.272	773.19
307.502	792.19
307.731	765.19
307.961	778.19
308.191	762.19
308.421	772.19
308.651	790.19
308.881	777.19
309.111	773.19
309.341	772.19
309.571	788.19
309.8	792.19
310.03	774.19
310.26	803.19
310.49	803.19
310.72	797.19
310.949	794.19
311.179	805.19
311.409	801.19
311.639	821.19
311.868	801.19
312.098	803.19
312.328	841.19
312.557	832.19
312.787	807.19
313.017	845.19
313.246	848.19
313.476	842.19
313.706	877.19
313.935	906.19
314.165	960.19
314.394	986.19
314.624	967.19
314.853	917.19
315.083	897.19
315.312	899.19
315.542	908.19
315.771	915.19
316.001	944.19
316.23	937.19
316.46	1015.19
316.689	1098.19
316.919	1306.19
317.148	1915.19
317.377	2933.19
317.607	4398.19
317.836	4441.19
318.065	2546.19
318.295	1640.19
318.524	1350.19
318.753	1181.19
318.983	1123.19
319.212	1033.19
319.441	1009.19
319.67	998.19
319.9	973.19
320.129	982.19
320.358	974.19
320.587	985.19
320.816	978.19
321.046	967.19
321.275	964.19
321.504	957.19
321.733	993.19
321.962	1041.19
322.191	1071.19
322.42	1038.19
322.649	1019.19
322.878	1015.19
323.108	1029.19
323.337	1043.19
323.566	1065.19
323.795	1079.19
324.024	1083.19
324.253	1131.19
324.482	1172.19
324.71	1177.19
324.939	1245.19
325.168	1323.19
325.397	1348.19
325.626	1563.19
325.855	2237.19
326.084	3541.19
326.313	5334.19
326.542	5542.19
326.77	3461.19
326.999	2237.19
327.228	1866.19
327.457	1813.19
327.686	1799.19
327.914	1902.19
328.143	2173.19
328.372	2490.19
328.6	2705.19
328.829	2536.19
329.058	2222.19
329.287	1959.19
329.515	1846.19
329.744	1706.19
329.972	1593.19
330.201	1558.19
330.43	1480.19
330.658	1475.19
330.887	1410.19
331.115	1422.19
331.344	1397.19
331.572	1405.19
331.801	1418.19
332.03	1454.19
332.258	1466.19
332.486	1492.19
332.715	1722.19
332.943	2099.19
333.172	2568.19
333.4	2514.19
333.629	1969.19
333.857	1789.19
334.085	1739.19
334.314	1828.19
334.542	2007.19
334.771	2256.19
334.999	2712.19
335.227	3304.19
335.455	3634.19
335.684	3386.19
335.912	2888.19
336.14	2474.19
336.369	2259.19
336.597	2059.19
336.825	1919.19
337.053	1784.19
337.281	1688.19
337.51	1649.19
337.738	1617.19
337.966	1485.19
338.194	1473.19
338.422	1372.19
338.65	1380.19
338.878	1342.19
339.106	1339.19
339.334	1347.19
339.562	1278.19
339.79	1314.19
340.018	1278.19
340.246	1234.19
340.474	1222.19
340.702	1262.19
340.93	1243.19
341.158	1250.19
341.386	1238.19
341.614	1234.19
341.842	1217.19
342.07	1188.19
342.298	1208.19
342.526	1143.19
342.754	1140.19
342.981	1140.19
343.209	1146.19
343.437	1170.19
343.665	1180.19
343.893	1193.19
344.12	1190.19
344.348	1160.19
344.576	1114.19
344.804	1146.19
345.031	1103.19
345.259	1103.19
345.487	1099.19
345.714	1058.19
345.942	1042.19
346.17	1081.19
346.397	1061.19
346.625	1061.19
346.853	1058.19
347.08	1091.19
347.308	1062.19
347.535	1046.19
347.763	1059.19
347.99	1070.19
348.218	1064.19
348.445	1023.19
348.673	1026.19
348.9	1037.19
349.128	1030.19
349.355	1016.19
349.583	1042.19
349.81	1017.19
350.037	1016.19
350.265	1030.19
350.492	1027.19
350.72	997.19
350.947	1012.19
351.174	1031.19
351.402	1021.19
351.629	1011.19
351.856	995.19
352.083	1025.19
352.311	1023.19
352.538	1000.19
352.765	1005.19
352.992	1002.19
353.22	1010.19
353.447	1002.19
353.674	1020.19
353.901	1037.19
354.128	1019.19
354.355	1007.19
354.583	1032.19
354.81	1039.19
355.037	1034.19
355.264	1045.19
355.491	1049.19
355.718	1040.19
355.945	1028.19
356.172	1045.19
356.399	1021.19
356.626	1060.19
356.853	1063.19
357.08	1065.19
357.307	1074.19
357.534	1105.19
357.761	1077.19
357.988	1099.19
358.215	1058.19
358.441	1074.19
358.668	1059.19
358.895	1082.19
359.122	1066.19
359.349	1115.19
359.576	1088.19
359.802	1086.19
360.029	1089.19
360.256	1053.19
360.483	1076.19
360.709	1060.19
360.936	1097.19
361.163	1079.19
361.39	1066.19
361.616	1078.19
361.843	1098.19
362.07	1083.19
362.296	1087.19
362.523	1078.19
362.749	1092.19
362.976	1074.19
363.203	1082.19
363.429	1070.19
363.656	1104.19
363.882	1039.19
364.109	1048.19
364.335	1062.19
364.562	1066.19
364.788	1088.19
365.015	1075.19
365.241	1091.19
365.468	1166.19
365.694	1180.19
365.92	1173.19
366.147	1118.19
366.373	1118.19
366.599	1122.19
366.826	1125.19
367.052	1096.19
367.278	1127.19
367.505	1134.19
367.731	1098.19
367.957	1097.19
368.184	1121.19
368.41	1137.19
368.636	1115.19
368.862	1115.19
369.089	1113.19
369.315	1104.19
369.541	1109.19
369.767	1104.19
369.993	1116.19
370.219	1130.19
370.445	1128.19
370.672	1127.19
370.898	1140.19
371.124	1124.19
371.35	1187.19
371.576	1185.19
371.802	1146.19
372.028	1152.19
372.254	1178.19
372.48	1171.19
372.706	1180.19
372.932	1183.19
373.158	1172.19
373.384	1170.19
373.61	1184.19
373.835	1218.19
374.061	1182.19
374.287	1184.19
374.513	1194.19
374.739	1199.19
374.965	1199.19
375.191	1221.19
375.416	1227.19
375.642	1215.19
375.868	1246.19
376.094	1213.19
376.319	1193.19
376.545	1177.19
376.771	1160.19
376.997	1170.19
377.222	1151.19
377.448	1149.19
377.674	1145.19
377.899	1152.19
378.125	1179.19
378.35	1146.19
378.576	1189.19
378.802	1160.19
379.027	1200.19
379.253	1225.19
379.478	1316.19
379.704	1452.19
379.929	2100.19
380.155	3179.19
380.38	3402.19
380.606	2071.19
380.831	1513.19
381.057	1344.19
381.282	1243.19
381.507	1190.19
381.733	1202.19
381.958	1167.19
382.184	1170.19
382.409	1168.19
382.634	1141.19
382.86	1154.19
383.085	1140.19
383.31	1146.19
383.535	1153.19
383.761	1155.19
383.986	1199.19
384.211	1165.19
384.436	1187.19
384.662	1168.19
384.887	1192.19
385.112	1200.19
385.337	1189.19
385.562	1171.19
385.787	1222.19
386.013	1206.19
386.238	1177.19
386.463	1175.19
386.688	1189.19
386.913	1175.19
387.138	1202.19
387.363	1213.19
387.588	1207.19
387.813	1178.19
388.038	1195.19
388.263	1173.19
388.488	1176.19
388.713	1230.19
388.938	1213.19
389.163	1176.19
389.387	1202.19
389.612	1186.19
389.837	1187.19
390.062	1184.19
390.287	1216.19
390.512	1212.19
390.736	1214.19
390.961	1249.19
391.186	1253.19
391.411	1247.19
391.636	1275.19
391.86	1244.19
392.085	1250.19
392.31	1227.19
392.534	1209.19
392.759	1222.19
392.984	1227.19
393.208	1261.19
393.433	1245.19
393.658	1224.19
393.882	1223.19
394.107	1227.19
394.331	1225.19
394.556	1190.19
394.78	1208.19
395.005	1221.19
395.229	1213.19
395.454	1224.19
395.678	1238.19
395.903	1257.19
396.127	1204.19
396.352	1223.19
396.576	1251.19
396.801	1231.19
397.025	1252.19
397.249	1274.19
397.474	1223.19
397.698	1265.19
397.922	1287.19
398.147	1266.19
398.371	1287.19
398.595	1300.19
398.82	1335.19
399.044	1385.19
399.268	1463.19
399.492	1498.19
399.717	1574.19
399.941	1588.19
400.165	1540.19
400.389	1466.19
400.613	1391.19
400.837	1378.19
401.062	1349.19
401.286	1338.19
401.51	1327.19
401.734	1317.19
401.958	1328.19
402.182	1308.19
402.406	1308.19
402.63	1330.19
402.854	1359.19
403.078	1341.19
403.302	1373.19
403.526	1391.19
403.75	1364.19
403.974	1357.19
404.198	1350.19
404.422	1350.19
404.645	1351.19
404.869	1395.19
405.093	1399.19
405.317	1373.19
405.541	1370.19
405.765	1405.19
405.988	1411.19
406.212	1392.19
406.436	1382.19
406.66	1448.19
406.883	1411.19
407.107	1475.19
407.331	1483.19
407.555	1505.19
407.778	1469.19
408.002	1482.19
408.226	1427.19
408.449	1435.19
408.673	1404.19
408.896	1402.19
409.12	1363.19
409.344	1387.19
409.567	1367.19
409.791	1379.19
410.014	1371.19
410.238	1335.19
410.461	1357.19
410.685	1357.19
410.908	1347.19
411.132	1316.19
411.355	1339.19
411.578	1337.19
411.802	1320.19
412.025	1323.19
412.249	1344.19
412.472	1311.19
412.695	1308.19
412.919	1271.19
413.142	1258.19
413.365	1319.19
413.589	1287.19
413.812	1268.19
414.035	1287.19
414.258	1327.19
414.482	1300.19
414.705	1321.19
414.928	1299.19
415.151	1310.19
415.374	1284.19
415.597	1275.19
415.821	1264.19
416.044	1245.19
416.267	1274.19
416.49	1254.19
416.713	1273.19
416.936	1247.19
417.159	1236.19
417.382	1229.19
417.605	1243.19
417.828	1236.19
418.051	1243.19
418.274	1255.19
418.497	1249.19
418.72	1322.19
418.943	1256.19
419.166	1303.19
419.389	1382.19
419.611	1361.19
419.834	1349.19
420.057	1336.19
420.28	1293.19
420.503	1212.19
420.726	1222.19
420.948	1232.19
421.171	1232.19
421.394	1246.19
421.617	1273.19
421.839	1264.19
422.062	1245.19
422.285	1247.19
422.507	1285.19
422.73	1298.19
422.953	1310.19
423.175	1278.19
423.398	1313.19
423.621	1235.19
423.843	1297.19
424.066	1274.19
424.288	1254.19
424.511	1225.19
424.733	1261.19
424.956	1241.19
425.178	1256.19
425.401	1241.19
425.623	1236.19
425.846	1210.19
426.068	1231.19
426.291	1205.19
426.513	1197.19
426.735	1218.19
426.958	1191.19
427.18	1178.19
427.402	1200.19
427.625	1207.19
427.847	1173.19
428.069	1181.19
428.292	1188.19
428.514	1182.19
428.736	1159.19
428.958	1179.19
429.181	1170.19
429.403	1174.19
429.625	1171.19
429.847	1147.19
430.069	1175.19
430.292	1176.19
430.514	1219.19
430.736	1215.19
430.958	1185.19
431.18	1156.19
431.402	1146.19
431.624	1145.19
431.846	1130.19
432.068	1117.19
432.29	1149.19
432.512	1149.19
432.734	1150.19
432.956	1150.19
433.178	1167.19
433.4	1151.19
433.622	1183.19
433.844	1187.19
434.066	1172.19
434.287	1120.19
434.509	1169.19
434.731	1169.19
434.953	1178.19
435.175	1179.19
435.397	1214.19
435.618	1149.19
435.84	1155.19
436.062	1110.19
436.284	1133.19
436.505	1151.19
436.727	1170.19
436.949	1146.19
437.17	1155.19
437.392	1103.19
437.614	1111.19
437.835	1104.19
438.057	1126.19
438.278	1088.19
438.5	1113.19
438.721	1125.19
438.943	1150.19
439.165	1199.19
439.386	1209.19
439.608	1189.19
439.829	1166.19
440.05	1281.19
440.272	1251.19
440.493	1206.19
440.715	1178.19
440.936	1178.19
441.158	1190.19
441.379	1198.19
441.6	1266.19
441.822	1287.19
442.043	1337.19
442.264	1375.19
442.486	1290.19
442.707	1215.19
442.928	1237.19
443.149	1255.19
443.371	1237.19
443.592	1214.19
443.813	1241.19
444.034	1224.19
444.255	1275.19
444.476	1267.19
444.698	1332.19
444.919	1322.19
445.14	1416.19
445.361	1338.19
445.582	1271.19
445.803	1227.19
446.024	1230.19
446.245	1248.19
446.466	1255.19
446.687	1251.19
446.908	1204.19
447.129	1171.19
447.35	1169.19
447.571	1140.19
447.792	1155.19
448.013	1174.19
448.234	1156.19
448.455	1142.19
448.675	1164.19
448.896	1210.19
449.117	1187.19
449.338	1288.19
449.559	1380.19
449.779	1228.19
450	1138.19
450.221	1121.19
450.442	1114.19
450.662	1089.19
450.883	1082.19
451.104	1108.19
451.324	1101.19
451.545	1101.19
451.766	1138.19
451.986	1162.19
452.207	1198.19
452.428	1489.19
452.648	2071.19
452.869	1745.19
453.089	1304.19
453.31	1208.19
453.53	1242.19
453.751	1238.19
453.971	1302.19
454.192	1322.19
454.412	1128.19
454.633	1099.19
454.853	1102.19
455.073	1067.19
455.294	1030.19
455.514	1072.19
455.734	1052.19
455.955	1045.19
456.175	1039.19
456.395	1071.19
456.616	1087.19
456.836	1084.19
457.056	1063.19
457.276	1045.19
457.497	1117.19
457.717	1146.19
457.937	1126.19
458.157	1102.19
458.377	1108.19
458.598	1118.19
458.818	1108.19
459.038	1125.19
459.258	1135.19
459.478	1145.19
459.698	1162.19
459.918	1166.19
460.138	1191.19
460.358	1205.19
460.578	1226.19
460.798	1224.19
461.018	1281.19
461.238	1246.19
461.458	1245.19
461.678	1251.19
461.898	1290.19
462.118	1254.19
462.338	1349.19
462.558	1328.19
462.777	1361.19
462.997	1390.19
463.217	1441.19
463.437	1490.19
463.657	1520.19
463.876	1537.19
464.096	1445.19
464.316	1362.19
464.536	1346.19
464.755	1346.19
464.975	1306.19
465.195	1244.19
465.414	1234.19
465.634	1205.19
465.854	1192.19
466.073	1162.19
466.293	1165.19
466.512	1127.19
466.732	1177.19
466.951	1206.19
467.171	1321.19
467.391	1298.19
467.61	1177.19
467.829	1150.19
468.049	1143.19
468.268	1156.19
468.488	1151.19
468.707	1130.19
468.927	1109.19
469.146	1149.19
469.365	1151.19
469.585	1175.19
469.804	1165.19
470.023	1225.19
470.243	1185.19
470.462	1279.19
470.681	1294.19
470.901	1395.19
471.12	1611.19
471.339	1644.19
471.558	1326.19
471.777	1222.19
471.997	1235.19
472.216	1158.19
472.435	1134.19
472.654	1143.19
472.873	1101.19
473.092	1109.19
473.311	1143.19
473.53	1150.19
473.749	1167.19
473.968	1163.19
474.187	1129.19
474.406	1142.19
474.625	1146.19
474.844	1137.19
475.063	1149.19
475.282	1159.19
475.501	1142.19
475.72	1157.19
475.939	1143.19
476.158	1177.19
476.377	1187.19
476.596	1189.19
476.814	1181.19
477.033	1222.19
477.252	1201.19
477.471	1225.19
477.69	1246.19
477.908	1258.19
478.127	1279.19
478.346	1299.19
478.564	1328.19
478.783	1325.19
479.002	1339.19
479.22	1313.19
479.439	1336.19
479.658	1298.19
479.876	1341.19
480.095	1351.19
480.313	1370.19
480.532	1430.19
480.751	1409.19
480.969	1372.19
481.188	1327.19
481.406	1341.19
481.624	1353.19
481.843	1375.19
482.061	1402.19
482.28	1322.19
482.498	1354.19
482.717	1353.19
482.935	1372.19
483.153	1390.19
483.372	1418.19
483.59	1436.19
483.808	1417.19
484.027	1447.19
484.245	1555.19
484.463	1703.19
484.681	1910.19
484.9	1714.19
485.118	1593.19
485.336	1581.19
485.554	1617.19
485.772	1698.19
485.99	1911.19
486.209	2105.19
486.427	1736.19
486.645	1567.19
486.863	1505.19
487.081	1467.19
487.299	1453.19
487.517	1447.19
487.735	1448.19
487.953	1470.19
488.171	1454.19
488.389	1470.19
488.607	1418.19
488.825	1391.19
489.043	1397.19
489.261	1378.19
489.479	1378.19
489.696	1410.19
489.914	1429.19
490.132	1454.19
490.35	1419.19
490.568	1415.19
490.786	1477.19
491.003	1427.19
