Data from SnStandardFlinnAPT0064_LampEnergy10_LIBS07252019.E.O._I.C._HRD10591_15-19-54-498.txt Node
Date: Thu Jul 25 15:19:54 EDT 2019
User: cochatt
Spectrometer: HR+D1059
Trigger mode: 1
Integration Time (sec): 1.000000E-1
Scans to average: 1
Electric dark correction enabled: true
Nonlinearity correction enabled: false
Boxcar width: 0
XAxis mode: Wavelengths
Number of Pixels in Spectrum: 2048
>>>>>Begin Spectral Data<<<<<
223.165	-11.12
223.4	-11.12
223.635	-11.12
223.869	-18.12
224.104	-22.12
224.338	-22.12
224.573	-23.12
224.808	-8.12
225.042	-13.12
225.277	-9.12
225.511	2.88
225.746	9.88
225.98	3.88
226.215	19.88
226.449	18.88
226.683	21.88
226.918	19.88
227.152	29.88
227.387	29.88
227.621	32.88
227.856	51.88
228.09	45.88
228.324	47.88
228.559	61.88
228.793	121.88
229.027	303.88
229.262	342.88
229.496	307.88
229.73	297.88
229.964	303.88
230.199	338.88
230.433	312.88
230.667	319.88
230.901	335.88
231.136	334.88
231.37	347.88
231.604	401.88
231.838	449.88
232.072	531.88
232.306	600.88
232.541	494.88
232.775	425.88
233.009	433.88
233.243	437.88
233.477	468.88
233.711	554.88
233.945	607.88
234.179	513.88
234.413	458.88
234.647	458.88
234.881	493.88
235.115	532.88
235.349	638.88
235.583	804.88
235.817	1005.88
236.051	1027.88
236.285	681.88
236.519	549.88
236.753	529.88
236.987	529.88
237.221	537.88
237.455	511.88
237.689	470.88
237.922	457.88
238.156	493.88
238.39	483.88
238.624	491.88
238.858	486.88
239.091	505.88
239.325	497.88
239.559	505.88
239.793	528.88
240.027	529.88
240.26	567.88
240.494	586.88
240.728	606.88
240.961	630.88
241.195	688.88
241.429	698.88
241.662	707.88
241.896	831.88
242.13	998.88
242.363	1289.88
242.597	1676.88
242.83	1623.88
243.064	1630.88
243.298	1874.88
243.531	1562.88
243.765	990.88
243.998	789.88
244.232	720.88
244.465	699.88
244.699	659.88
244.932	668.88
245.166	680.88
245.399	673.88
245.633	707.88
245.866	721.88
246.099	663.88
246.333	670.88
246.566	648.88
246.8	648.88
247.033	648.88
247.266	645.88
247.5	666.88
247.733	686.88
247.966	729.88
248.2	801.88
248.433	909.88
248.666	1026.88
248.899	975.88
249.133	885.88
249.366	889.88
249.599	975.88
249.832	1115.88
250.066	1127.88
250.299	888.88
250.532	797.88
250.765	757.88
250.998	742.88
251.231	763.88
251.465	742.88
251.698	742.88
251.931	753.88
252.164	739.88
252.397	763.88
252.63	771.88
252.863	818.88
253.096	800.88
253.329	791.88
253.562	803.88
253.795	796.88
254.028	823.88
254.261	846.88
254.494	874.88
254.727	1065.88
254.96	1256.88
255.193	1261.88
255.426	985.88
255.659	899.88
255.892	866.88
256.124	856.88
256.357	903.88
256.59	929.88
256.823	974.88
257.056	1151.88
257.289	1384.88
257.521	1563.88
257.754	1213.88
257.987	973.88
258.22	933.88
258.452	908.88
258.685	927.88
258.918	984.88
259.151	1000.88
259.383	1107.88
259.616	1249.88
259.849	1304.88
260.081	1102.88
260.314	990.88
260.547	942.88
260.779	969.88
261.012	965.88
261.244	961.88
261.477	970.88
261.71	997.88
261.942	1033.88
262.175	1027.88
262.407	1030.88
262.64	1076.88
262.872	1100.88
263.105	1123.88
263.337	1170.88
263.57	1243.88
263.802	1267.88
264.035	1302.88
264.267	1335.88
264.499	1373.88
264.732	1409.88
264.964	1437.88
265.197	1429.88
265.429	1391.88
265.661	1428.88
265.894	1571.88
266.126	1748.88
266.358	1961.88
266.591	1928.88
266.823	1604.88
267.055	1445.88
267.287	1391.88
267.52	1340.88
267.752	1291.88
267.984	1255.88
268.216	1254.88
268.448	1246.88
268.681	1244.88
268.913	1242.88
269.145	1220.88
269.377	1237.88
269.609	1257.88
269.841	1277.88
270.073	1418.88
270.306	1636.88
270.538	2229.88
270.77	3360.88
271.002	4140.88
271.234	2893.88
271.466	1924.88
271.698	1597.88
271.93	1435.88
272.162	1377.88
272.394	1313.88
272.626	1274.88
272.858	1191.88
273.09	1216.88
273.322	1232.88
273.553	1233.88
273.785	1206.88
274.017	1197.88
274.249	1217.88
274.481	1225.88
274.713	1217.88
274.945	1230.88
275.176	1194.88
275.408	1205.88
275.64	1219.88
275.872	1253.88
276.104	1237.88
276.335	1304.88
276.567	1287.88
276.799	1309.88
277.031	1345.88
277.262	1352.88
277.494	1439.88
277.726	1593.88
277.957	1875.88
278.189	2185.88
278.421	2021.88
278.652	1793.88
278.884	1689.88
279.115	1531.88
279.347	1440.88
279.579	1425.88
279.81	1419.88
280.042	1400.88
280.273	1418.88
280.505	1430.88
280.736	1511.88
280.968	1585.88
281.199	1858.88
281.431	2131.88
281.662	2138.88
281.894	1848.88
282.125	1680.88
282.356	1650.88
282.588	1702.88
282.819	1739.88
283.051	1873.88
283.282	2047.88
283.513	2514.88
283.745	3683.88
283.976	5883.88
284.207	8275.88
284.439	7648.88
284.67	4797.88
284.901	3885.88
285.132	3920.88
285.364	3787.88
285.595	2843.88
285.826	2530.88
286.057	2942.88
286.288	4049.88
286.52	5425.88
286.751	5078.88
286.982	3155.88
287.213	2347.88
287.444	2083.88
287.675	1880.88
287.906	1815.88
288.138	1766.88
288.369	1683.88
288.6	1719.88
288.831	1682.88
289.062	1688.88
289.293	1700.88
289.524	1724.88
289.755	1688.88
289.986	1721.88
290.217	1732.88
290.448	1753.88
290.679	1776.88
290.91	1800.88
291.141	1877.88
291.371	2013.88
291.602	2178.88
291.833	1967.88
292.064	1770.88
292.295	1693.88
292.526	1672.88
292.757	1646.88
292.987	1641.88
293.218	1577.88
293.449	1625.88
293.68	1616.88
293.91	1589.88
294.141	1601.88
294.372	1595.88
294.603	1611.88
294.833	1597.88
295.064	1571.88
295.295	1552.88
295.525	1567.88
295.756	1557.88
295.987	1553.88
296.217	1577.88
296.448	1571.88
296.679	1611.88
296.909	1581.88
297.14	1608.88
297.37	1633.88
297.601	1618.88
297.831	1612.88
298.062	1616.88
298.292	1673.88
298.523	1687.88
298.753	1724.88
298.984	1734.88
299.214	1742.88
299.445	1784.88
299.675	1780.88
299.905	1822.88
300.136	1907.88
300.366	2186.88
300.597	2800.88
300.827	3966.88
301.057	5425.88
301.288	5415.88
301.518	3476.88
301.748	2647.88
301.979	2407.88
302.209	2345.88
302.439	2352.88
302.669	2535.88
302.9	3064.88
303.13	4267.88
303.36	6377.88
303.59	8479.88
303.82	7459.88
304.051	4397.88
304.281	3211.88
304.511	2644.88
304.741	2385.88
304.971	2267.88
305.201	2114.88
305.431	2050.88
305.661	2006.88
305.891	1962.88
306.121	1901.88
306.352	1911.88
306.582	1805.88
306.812	1836.88
307.042	1896.88
307.272	1853.88
307.502	1819.88
307.731	1857.88
307.961	1818.88
308.191	1809.88
308.421	1777.88
308.651	1834.88
308.881	1832.88
309.111	1803.88
309.341	1810.88
309.571	1844.88
309.8	1860.88
310.03	1855.88
310.26	1909.88
310.49	1851.88
310.72	1886.88
310.949	1892.88
311.179	1855.88
311.409	1917.88
311.639	1915.88
311.868	1949.88
312.098	1962.88
312.328	1991.88
312.557	1969.88
312.787	1931.88
313.017	2017.88
313.246	1998.88
313.476	2027.88
313.706	2115.88
313.935	2219.88
314.165	2399.88
314.394	2526.88
314.624	2417.88
314.853	2182.88
315.083	2188.88
315.312	2174.88
315.542	2212.88
315.771	2229.88
316.001	2259.88
316.23	2325.88
316.46	2497.88
316.689	2717.88
316.919	3296.88
317.148	4756.88
317.377	7335.88
317.607	10753.88
317.836	11383.88
318.065	6927.88
318.295	4485.88
318.524	3599.88
318.753	3046.88
318.983	2841.88
319.212	2654.88
319.441	2583.88
319.67	2514.88
319.9	2428.88
320.129	2429.88
320.358	2377.88
320.587	2403.88
320.816	2353.88
321.046	2417.88
321.275	2392.88
321.504	2424.88
321.733	2511.88
321.962	2515.88
322.191	2555.88
322.42	2515.88
322.649	2501.88
322.878	2521.88
323.108	2464.88
323.337	2590.88
323.566	2621.88
323.795	2628.88
324.024	2674.88
324.253	2767.88
324.482	2922.88
324.71	3042.88
324.939	3302.88
325.168	3370.88
325.397	3560.88
325.626	4118.88
325.855	5809.88
326.084	9077.88
326.313	12967.88
326.542	13767.88
326.77	9536.88
326.999	6259.88
327.228	5188.88
327.457	4930.88
327.686	4897.88
327.914	5323.88
328.143	6233.88
328.372	7408.88
328.6	8143.88
328.829	7243.88
329.058	6026.88
329.287	5217.88
329.515	4764.88
329.744	4403.88
329.972	4128.88
330.201	3984.88
330.43	3728.88
330.658	3687.88
330.887	3601.88
331.115	3513.88
331.344	3501.88
331.572	3490.88
331.801	3525.88
332.03	3549.88
332.258	3602.88
332.486	3809.88
332.715	4294.88
332.943	5430.88
333.172	6809.88
333.4	6733.88
333.629	5163.88
333.857	4601.88
334.085	4571.88
334.314	4859.88
334.542	5231.88
334.771	6175.88
334.999	7690.88
335.227	9728.88
335.455	10884.88
335.684	9696.88
335.912	8010.88
336.14	6651.88
336.369	5833.88
336.597	5407.88
336.825	4893.88
337.053	4582.88
337.281	4285.88
337.51	4131.88
337.738	3843.88
337.966	3724.88
338.194	3593.88
338.422	3490.88
338.65	3412.88
338.878	3370.88
339.106	3284.88
339.334	3178.88
339.562	3133.88
339.79	3039.88
340.018	3089.88
340.246	3027.88
340.474	3085.88
340.702	3024.88
340.93	3018.88
341.158	3000.88
341.386	3012.88
341.614	2994.88
341.842	2916.88
342.07	2824.88
342.298	2831.88
342.526	2723.88
342.754	2729.88
342.981	2711.88
343.209	2719.88
343.437	2743.88
343.665	2758.88
343.893	2808.88
344.12	2851.88
344.348	2759.88
344.576	2707.88
344.804	2725.88
345.031	2579.88
345.259	2607.88
345.487	2617.88
345.714	2557.88
345.942	2558.88
346.17	2547.88
346.397	2485.88
346.625	2554.88
346.853	2553.88
347.08	2554.88
347.308	2538.88
347.535	2507.88
347.763	2535.88
347.99	2482.88
348.218	2499.88
348.445	2470.88
348.673	2475.88
348.9	2459.88
349.128	2444.88
349.355	2451.88
349.583	2463.88
349.81	2460.88
350.037	2413.88
350.265	2399.88
350.492	2451.88
350.72	2398.88
350.947	2401.88
351.174	2424.88
351.402	2405.88
351.629	2387.88
351.856	2375.88
352.083	2386.88
352.311	2372.88
352.538	2365.88
352.765	2399.88
352.992	2357.88
353.22	2315.88
353.447	2414.88
353.674	2387.88
353.901	2393.88
354.128	2392.88
354.355	2419.88
354.583	2412.88
354.81	2399.88
355.037	2415.88
355.264	2403.88
355.491	2414.88
355.718	2446.88
355.945	2469.88
356.172	2465.88
356.399	2443.88
356.626	2551.88
356.853	2485.88
357.08	2495.88
357.307	2526.88
357.534	2609.88
357.761	2602.88
357.988	2580.88
358.215	2561.88
358.441	2573.88
358.668	2546.88
358.895	2523.88
359.122	2519.88
359.349	2563.88
359.576	2551.88
359.802	2557.88
360.029	2498.88
360.256	2513.88
360.483	2561.88
360.709	2559.88
360.936	2543.88
361.163	2582.88
361.39	2534.88
361.616	2569.88
361.843	2612.88
362.07	2546.88
362.296	2583.88
362.523	2552.88
362.749	2554.88
362.976	2544.88
363.203	2544.88
363.429	2497.88
363.656	2487.88
363.882	2528.88
364.109	2517.88
364.335	2503.88
364.562	2541.88
364.788	2545.88
365.015	2512.88
365.241	2676.88
365.468	2828.88
365.694	2918.88
365.92	2865.88
366.147	2644.88
366.373	2597.88
366.599	2647.88
366.826	2611.88
367.052	2619.88
367.278	2622.88
367.505	2613.88
367.731	2641.88
367.957	2612.88
368.184	2615.88
368.41	2723.88
368.636	2681.88
368.862	2649.88
369.089	2635.88
369.315	2676.88
369.541	2617.88
369.767	2628.88
369.993	2627.88
370.219	2598.88
370.445	2609.88
370.672	2679.88
370.898	2671.88
371.124	2639.88
371.35	2717.88
371.576	2726.88
371.802	2730.88
372.028	2709.88
372.254	2761.88
372.48	2759.88
372.706	2772.88
372.932	2770.88
373.158	2757.88
373.384	2745.88
373.61	2764.88
373.835	2778.88
374.061	2739.88
374.287	2813.88
374.513	2822.88
374.739	2850.88
374.965	2875.88
375.191	2815.88
375.416	2914.88
375.642	2856.88
375.868	2799.88
376.094	2761.88
376.319	2762.88
376.545	2769.88
376.771	2708.88
376.997	2716.88
377.222	2715.88
377.448	2671.88
377.674	2713.88
377.899	2678.88
378.125	2750.88
378.35	2689.88
378.576	2688.88
378.802	2731.88
379.027	2847.88
379.253	2927.88
379.478	3085.88
379.704	3603.88
379.929	5217.88
380.155	8073.88
380.38	8805.88
380.606	5380.88
380.831	3762.88
381.057	3282.88
381.282	3019.88
381.507	2888.88
381.733	2756.88
381.958	2728.88
382.184	2747.88
382.409	2696.88
382.634	2696.88
382.86	2670.88
383.085	2633.88
383.31	2721.88
383.535	2696.88
383.761	2641.88
383.986	2694.88
384.211	2751.88
384.436	2793.88
384.662	2728.88
384.887	2792.88
385.112	2763.88
385.337	2768.88
385.562	2754.88
385.787	2748.88
386.013	2777.88
386.238	2731.88
386.463	2720.88
386.688	2801.88
386.913	2747.88
387.138	2755.88
387.363	2764.88
387.588	2703.88
387.813	2759.88
388.038	2722.88
388.263	2746.88
388.488	2751.88
388.713	2803.88
388.938	2757.88
389.163	2760.88
389.387	2763.88
389.612	2707.88
389.837	2742.88
390.062	2737.88
390.287	2797.88
390.512	2714.88
390.736	2801.88
390.961	2903.88
391.186	2801.88
391.411	2887.88
391.636	2875.88
391.86	2896.88
392.085	2883.88
392.31	2838.88
392.534	2834.88
392.759	2799.88
392.984	2808.88
393.208	2849.88
393.433	2874.88
393.658	2822.88
393.882	2760.88
394.107	2799.88
394.331	2770.88
394.556	2795.88
394.78	2769.88
395.005	2833.88
395.229	2803.88
395.454	2906.88
395.678	2896.88
395.903	2951.88
396.127	2847.88
396.352	2834.88
396.576	2854.88
396.801	2831.88
397.025	2931.88
397.249	2850.88
397.474	2877.88
397.698	2897.88
397.922	2917.88
398.147	2899.88
398.371	2979.88
398.595	3013.88
398.82	3083.88
399.044	3191.88
399.268	3341.88
399.492	3508.88
399.717	3687.88
399.941	3609.88
400.165	3515.88
400.389	3378.88
400.613	3219.88
400.837	3111.88
401.062	3143.88
401.286	3050.88
401.51	3085.88
401.734	3010.88
401.958	3037.88
402.182	3044.88
402.406	3062.88
402.63	3057.88
402.854	3084.88
403.078	3081.88
403.302	3131.88
403.526	3132.88
403.75	3136.88
403.974	3131.88
404.198	3141.88
404.422	3113.88
404.645	3129.88
404.869	3143.88
405.093	3147.88
405.317	3114.88
405.541	3187.88
405.765	3250.88
405.988	3286.88
406.212	3234.88
406.436	3186.88
406.66	3301.88
406.883	3239.88
407.107	3348.88
407.331	3419.88
407.555	3461.88
407.778	3453.88
408.002	3421.88
408.226	3334.88
408.449	3349.88
408.673	3326.88
408.896	3232.88
409.12	3190.88
409.344	3191.88
409.567	3127.88
409.791	3181.88
410.014	3124.88
410.238	3131.88
410.461	3146.88
410.685	3107.88
410.908	3077.88
411.132	3096.88
411.355	2999.88
411.578	3049.88
411.802	2976.88
412.025	3076.88
412.249	3047.88
412.472	3058.88
412.695	2982.88
412.919	3003.88
413.142	3010.88
413.365	2959.88
413.589	2985.88
413.812	2922.88
414.035	2967.88
414.258	2979.88
414.482	2985.88
414.705	2926.88
414.928	2976.88
415.151	2976.88
415.374	2899.88
415.597	2956.88
415.821	2911.88
416.044	2882.88
416.267	2843.88
416.49	2881.88
416.713	2823.88
416.936	2898.88
417.159	2791.88
417.382	2811.88
417.605	2803.88
417.828	2817.88
418.051	2883.88
418.274	2878.88
418.497	2907.88
418.72	2931.88
418.943	2874.88
419.166	3031.88
419.389	3233.88
419.611	3130.88
419.834	3081.88
420.057	2946.88
420.28	2935.88
420.503	2858.88
420.726	2861.88
420.948	2839.88
421.171	2836.88
421.394	2921.88
421.617	2834.88
421.839	2915.88
422.062	2913.88
422.285	2830.88
422.507	2909.88
422.73	2916.88
422.953	2906.88
423.175	3003.88
423.398	2933.88
423.621	2870.88
423.843	2919.88
424.066	2859.88
424.288	2868.88
424.511	2850.88
424.733	2853.88
424.956	2825.88
425.178	2842.88
425.401	2771.88
425.623	2780.88
425.846	2753.88
426.068	2784.88
426.291	2779.88
426.513	2746.88
426.735	2696.88
426.958	2719.88
427.18	2735.88
427.402	2671.88
427.625	2700.88
427.847	2643.88
428.069	2687.88
428.292	2682.88
428.514	2641.88
428.736	2677.88
428.958	2657.88
429.181	2628.88
429.403	2639.88
429.625	2611.88
429.847	2629.88
430.069	2681.88
430.292	2821.88
430.514	2874.88
430.736	2867.88
430.958	2681.88
431.18	2644.88
431.402	2599.88
431.624	2652.88
431.846	2632.88
432.068	2610.88
432.29	2650.88
432.512	2607.88
432.734	2614.88
432.956	2635.88
433.178	2641.88
433.4	2630.88
433.622	2659.88
433.844	2657.88
434.066	2655.88
434.287	2637.88
434.509	2699.88
434.731	2663.88
434.953	2743.88
435.175	2729.88
435.397	2740.88
435.618	2677.88
435.84	2670.88
436.062	2590.88
436.284	2626.88
436.505	2593.88
436.727	2597.88
436.949	2665.88
437.17	2596.88
437.392	2553.88
437.614	2515.88
437.835	2467.88
438.057	2530.88
438.278	2512.88
438.5	2558.88
438.721	2623.88
438.943	2721.88
439.165	2705.88
439.386	2741.88
439.608	2723.88
439.829	2697.88
440.05	2825.88
440.272	2915.88
440.493	2718.88
440.715	2715.88
440.936	2765.88
441.158	2721.88
441.379	2744.88
441.6	2852.88
441.822	2890.88
442.043	3047.88
442.264	3207.88
442.486	2968.88
442.707	2856.88
442.928	2822.88
443.149	2802.88
443.371	2811.88
443.592	2851.88
443.813	2833.88
444.034	2845.88
444.255	2864.88
444.476	2916.88
444.698	2976.88
444.919	2982.88
445.14	3055.88
445.361	2914.88
445.582	2880.88
445.803	2816.88
446.024	2823.88
446.245	2813.88
446.466	2804.88
446.687	2770.88
446.908	2757.88
447.129	2680.88
447.35	2640.88
447.571	2645.88
447.792	2553.88
448.013	2585.88
448.234	2619.88
448.455	2573.88
448.675	2622.88
448.896	2681.88
449.117	2844.88
449.338	3049.88
449.559	3113.88
449.779	2827.88
450	2635.88
450.221	2557.88
450.442	2598.88
450.662	2566.88
450.883	2531.88
451.104	2513.88
451.324	2517.88
451.545	2531.88
451.766	2559.88
451.986	2570.88
452.207	2845.88
452.428	3671.88
452.648	5695.88
452.869	4706.88
453.089	3229.88
453.31	3028.88
453.53	2993.88
453.751	3073.88
453.971	3231.88
454.192	3142.88
454.412	2728.88
454.633	2553.88
454.853	2499.88
455.073	2480.88
455.294	2433.88
455.514	2433.88
455.734	2442.88
455.955	2410.88
456.175	2379.88
456.395	2395.88
456.616	2451.88
456.836	2463.88
457.056	2506.88
457.276	2465.88
457.497	2616.88
457.717	2617.88
457.937	2626.88
458.157	2583.88
458.377	2551.88
458.598	2582.88
458.818	2623.88
459.038	2582.88
459.258	2576.88
459.478	2615.88
459.698	2691.88
459.918	2712.88
460.138	2715.88
460.358	2765.88
460.578	2837.88
460.798	2852.88
461.018	2911.88
461.238	2902.88
461.458	2855.88
461.678	2881.88
461.898	2980.88
462.118	3015.88
462.338	3033.88
462.558	3067.88
462.777	3121.88
462.997	3237.88
463.217	3366.88
463.437	3526.88
463.657	3589.88
463.876	3596.88
464.096	3323.88
464.316	3204.88
464.536	3170.88
464.755	3101.88
464.975	3034.88
465.195	2921.88
465.414	2833.88
465.634	2736.88
465.854	2773.88
466.073	2677.88
466.293	2700.88
466.512	2669.88
466.732	2696.88
466.951	2885.88
467.171	3027.88
467.391	2963.88
467.61	2725.88
467.829	2627.88
468.049	2578.88
468.268	2604.88
468.488	2551.88
468.707	2539.88
468.927	2613.88
469.146	2564.88
469.365	2627.88
469.585	2611.88
469.804	2686.88
470.023	2743.88
470.243	2798.88
470.462	2848.88
470.681	3037.88
470.901	3320.88
471.12	3785.88
471.339	3839.88
471.558	3199.88
471.777	2882.88
471.997	2764.88
472.216	2680.88
472.435	2673.88
472.654	2603.88
472.873	2615.88
473.092	2583.88
473.311	2615.88
473.53	2655.88
473.749	2650.88
473.968	2777.88
474.187	2627.88
474.406	2569.88
474.625	2626.88
474.844	2588.88
475.063	2614.88
475.282	2612.88
475.501	2634.88
475.72	2660.88
475.939	2655.88
476.158	2727.88
476.377	2798.88
476.596	2772.88
476.814	2751.88
477.033	2715.88
477.252	2782.88
477.471	2792.88
477.69	2877.88
477.908	2947.88
478.127	2935.88
478.346	2929.88
478.564	3022.88
478.783	2980.88
479.002	3048.88
479.22	3101.88
479.439	3138.88
479.658	3073.88
479.876	3116.88
480.095	3129.88
480.313	3206.88
480.532	3228.88
480.751	3255.88
480.969	3221.88
481.188	3101.88
481.406	3099.88
481.624	3089.88
481.843	3185.88
482.061	3195.88
482.28	3127.88
482.498	3172.88
482.717	3167.88
482.935	3197.88
483.153	3221.88
483.372	3236.88
483.59	3337.88
483.808	3393.88
484.027	3404.88
484.245	3618.88
484.463	4038.88
484.681	4580.88
484.9	4197.88
485.118	3858.88
485.336	3757.88
485.554	3795.88
485.772	4009.88
485.99	4601.88
486.209	4882.88
486.427	4145.88
486.645	3651.88
486.863	3534.88
487.081	3473.88
487.299	3443.88
487.517	3426.88
487.735	3311.88
