Data from SnStandardFlinnAPT0064_LampEnergy5.5_LIBS07252019.E.O._I.C._HRD10591_15-16-11-491.txt Node
Date: Thu Jul 25 15:16:11 EDT 2019
User: cochatt
Spectrometer: HR+D1059
Trigger mode: 1
Integration Time (sec): 1.000000E-1
Scans to average: 1
Electric dark correction enabled: true
Nonlinearity correction enabled: false
Boxcar width: 0
XAxis mode: Wavelengths
Number of Pixels in Spectrum: 2048
>>>>>Begin Spectral Data<<<<<
223.165	-16.5
223.4	-16.5
223.635	-16.5
223.869	-18.5
224.104	-7.5
224.338	-4.5
224.573	-11.5
224.808	-23.5
225.042	-15.5
225.277	-4.5
225.511	-15.5
225.746	-6.5
225.98	11.5
226.215	9.5
226.449	13.5
226.683	34.5
226.918	21.5
227.152	33.5
227.387	33.5
227.621	33.5
227.856	46.5
228.09	39.5
228.324	51.5
228.559	63.5
228.793	90.5
229.027	141.5
229.262	158.5
229.496	135.5
229.73	161.5
229.964	149.5
230.199	151.5
230.433	159.5
230.667	161.5
230.901	163.5
231.136	177.5
231.37	165.5
231.604	193.5
231.838	197.5
232.072	231.5
232.306	230.5
232.541	209.5
232.775	205.5
233.009	193.5
233.243	216.5
233.477	232.5
233.711	234.5
233.945	272.5
234.179	234.5
234.413	220.5
234.647	207.5
234.881	211.5
235.115	233.5
235.349	269.5
235.583	325.5
235.817	408.5
236.051	435.5
236.285	302.5
236.519	246.5
236.753	232.5
236.987	241.5
237.221	260.5
237.455	240.5
237.689	228.5
237.922	215.5
238.156	227.5
238.39	235.5
238.624	239.5
238.858	227.5
239.091	224.5
239.325	259.5
239.559	241.5
239.793	226.5
240.027	226.5
240.26	247.5
240.494	244.5
240.728	254.5
240.961	280.5
241.195	262.5
241.429	315.5
241.662	331.5
241.896	353.5
242.13	395.5
242.363	512.5
242.597	633.5
242.83	593.5
243.064	633.5
243.298	735.5
243.531	598.5
243.765	407.5
243.998	337.5
244.232	309.5
244.465	297.5
244.699	302.5
244.932	297.5
245.166	296.5
245.399	298.5
245.633	289.5
245.866	300.5
246.099	300.5
246.333	293.5
246.566	321.5
246.8	292.5
247.033	298.5
247.266	319.5
247.5	301.5
247.733	319.5
247.966	312.5
248.2	330.5
248.433	377.5
248.666	409.5
248.899	407.5
249.133	345.5
249.366	391.5
249.599	389.5
249.832	434.5
250.066	471.5
250.299	375.5
250.532	343.5
250.765	318.5
250.998	306.5
251.231	354.5
251.465	326.5
251.698	318.5
251.931	350.5
252.164	311.5
252.397	360.5
252.63	337.5
252.863	341.5
253.096	358.5
253.329	365.5
253.562	357.5
253.795	360.5
254.028	354.5
254.261	377.5
254.494	399.5
254.727	447.5
254.96	498.5
255.193	495.5
255.426	437.5
255.659	369.5
255.892	372.5
256.124	364.5
256.357	391.5
256.59	401.5
256.823	434.5
257.056	471.5
257.289	509.5
257.521	582.5
257.754	501.5
257.987	418.5
258.22	391.5
258.452	421.5
258.685	405.5
258.918	425.5
259.151	434.5
259.383	449.5
259.616	485.5
259.849	501.5
260.081	453.5
260.314	437.5
260.547	442.5
260.779	425.5
261.012	412.5
261.244	433.5
261.477	453.5
261.71	455.5
261.942	449.5
262.175	450.5
262.407	467.5
262.64	464.5
262.872	503.5
263.105	517.5
263.337	531.5
263.57	560.5
263.802	580.5
264.035	593.5
264.267	596.5
264.499	612.5
264.732	631.5
264.964	615.5
265.197	611.5
265.429	623.5
265.661	643.5
265.894	670.5
266.126	750.5
266.358	829.5
266.591	781.5
266.823	689.5
267.055	625.5
267.287	605.5
267.52	597.5
267.752	574.5
267.984	559.5
268.216	553.5
268.448	545.5
268.681	562.5
268.913	537.5
269.145	539.5
269.377	542.5
269.609	563.5
269.841	551.5
270.073	573.5
270.306	667.5
270.538	885.5
270.77	1257.5
271.002	1484.5
271.234	1056.5
271.466	744.5
271.698	649.5
271.93	584.5
272.162	576.5
272.394	559.5
272.626	547.5
272.858	543.5
273.09	548.5
273.322	540.5
273.553	536.5
273.785	529.5
274.017	528.5
274.249	551.5
274.481	504.5
274.713	528.5
274.945	569.5
275.176	514.5
275.408	533.5
275.64	545.5
275.872	549.5
276.104	545.5
276.335	538.5
276.567	549.5
276.799	529.5
277.031	569.5
277.262	563.5
277.494	587.5
277.726	643.5
277.957	728.5
278.189	805.5
278.421	758.5
278.652	699.5
278.884	677.5
279.115	622.5
279.347	617.5
279.579	584.5
279.81	616.5
280.042	597.5
280.273	631.5
280.505	627.5
280.736	649.5
280.968	674.5
281.199	725.5
281.431	780.5
281.662	789.5
281.894	709.5
282.125	687.5
282.356	701.5
282.588	665.5
282.819	702.5
283.051	763.5
283.282	818.5
283.513	1011.5
283.745	1417.5
283.976	2214.5
284.207	3123.5
284.439	2739.5
284.67	1685.5
284.901	1396.5
285.132	1341.5
285.364	1303.5
285.595	1055.5
285.826	986.5
286.057	1098.5
286.288	1476.5
286.52	1980.5
286.751	1807.5
286.982	1164.5
287.213	899.5
287.444	820.5
287.675	759.5
287.906	754.5
288.138	730.5
288.369	726.5
288.6	714.5
288.831	685.5
289.062	693.5
289.293	678.5
289.524	717.5
289.755	708.5
289.986	722.5
290.217	715.5
290.448	694.5
290.679	727.5
290.91	737.5
291.141	741.5
291.371	814.5
291.602	806.5
291.833	755.5
292.064	706.5
292.295	702.5
292.526	705.5
292.757	705.5
292.987	692.5
293.218	647.5
293.449	680.5
293.68	689.5
293.91	669.5
294.141	661.5
294.372	674.5
294.603	661.5
294.833	679.5
295.064	695.5
295.295	675.5
295.525	664.5
295.756	677.5
295.987	668.5
296.217	671.5
296.448	652.5
296.679	665.5
296.909	668.5
297.14	691.5
297.37	685.5
297.601	689.5
297.831	687.5
298.062	677.5
298.292	687.5
298.523	718.5
298.753	724.5
298.984	712.5
299.214	729.5
299.445	739.5
299.675	737.5
299.905	758.5
300.136	788.5
300.366	847.5
300.597	1102.5
300.827	1469.5
301.057	1955.5
301.288	1910.5
301.518	1320.5
301.748	1012.5
301.979	928.5
302.209	909.5
302.439	923.5
302.669	957.5
302.9	1137.5
303.13	1563.5
303.36	2281.5
303.59	3010.5
303.82	2619.5
304.051	1581.5
304.281	1126.5
304.511	969.5
304.741	929.5
304.971	879.5
305.201	860.5
305.431	826.5
305.661	790.5
305.891	792.5
306.121	807.5
306.352	772.5
306.582	775.5
306.812	769.5
307.042	753.5
307.272	776.5
307.502	758.5
307.731	777.5
307.961	786.5
308.191	742.5
308.421	791.5
308.651	796.5
308.881	737.5
309.111	769.5
309.341	768.5
309.571	782.5
309.8	802.5
310.03	790.5
310.26	824.5
310.49	795.5
310.72	794.5
310.949	787.5
311.179	809.5
311.409	798.5
311.639	804.5
311.868	797.5
312.098	849.5
312.328	815.5
312.557	838.5
312.787	795.5
313.017	854.5
313.246	854.5
313.476	852.5
313.706	858.5
313.935	913.5
314.165	953.5
314.394	979.5
314.624	948.5
314.853	890.5
315.083	911.5
315.312	902.5
315.542	923.5
315.771	925.5
316.001	904.5
316.23	941.5
316.46	986.5
316.689	1074.5
316.919	1285.5
317.148	1814.5
317.377	2722.5
317.607	3982.5
317.836	4036.5
318.065	2432.5
318.295	1586.5
318.524	1299.5
318.753	1184.5
318.983	1094.5
319.212	1043.5
319.441	994.5
319.67	1002.5
319.9	1009.5
320.129	947.5
320.358	993.5
320.587	956.5
320.816	965.5
321.046	992.5
321.275	983.5
321.504	986.5
321.733	982.5
321.962	1022.5
322.191	1026.5
322.42	1024.5
322.649	1025.5
322.878	1022.5
323.108	1034.5
323.337	1013.5
323.566	1077.5
323.795	1062.5
324.024	1063.5
324.253	1099.5
324.482	1135.5
324.71	1185.5
324.939	1224.5
325.168	1291.5
325.397	1335.5
325.626	1557.5
325.855	2139.5
326.084	3298.5
326.313	4832.5
326.542	5124.5
326.77	3301.5
326.999	2222.5
327.228	1857.5
327.457	1764.5
327.686	1777.5
327.914	1905.5
328.143	2197.5
328.372	2482.5
328.6	2717.5
328.829	2467.5
329.058	2224.5
329.287	1949.5
329.515	1829.5
329.744	1719.5
329.972	1610.5
330.201	1538.5
330.43	1491.5
330.658	1476.5
330.887	1455.5
331.115	1438.5
331.344	1414.5
331.572	1399.5
331.801	1413.5
332.03	1413.5
332.258	1473.5
332.486	1495.5
332.715	1638.5
332.943	1984.5
333.172	2404.5
333.4	2389.5
333.629	1890.5
333.857	1737.5
334.085	1748.5
334.314	1827.5
334.542	1975.5
334.771	2262.5
334.999	2704.5
335.227	3258.5
335.455	3569.5
335.684	3354.5
335.912	2875.5
336.14	2442.5
336.369	2221.5
336.597	2059.5
336.825	1909.5
337.053	1782.5
337.281	1755.5
337.51	1626.5
337.738	1545.5
337.966	1480.5
338.194	1451.5
338.422	1398.5
338.65	1385.5
338.878	1333.5
339.106	1349.5
339.334	1287.5
339.562	1307.5
339.79	1295.5
340.018	1257.5
340.246	1247.5
340.474	1263.5
340.702	1271.5
340.93	1239.5
341.158	1236.5
341.386	1221.5
341.614	1218.5
341.842	1197.5
342.07	1201.5
342.298	1172.5
342.526	1157.5
342.754	1135.5
342.981	1157.5
343.209	1124.5
343.437	1159.5
343.665	1179.5
343.893	1175.5
344.12	1197.5
344.348	1139.5
344.576	1151.5
344.804	1131.5
345.031	1124.5
345.259	1107.5
345.487	1073.5
345.714	1076.5
345.942	1058.5
346.17	1075.5
346.397	1041.5
346.625	1053.5
346.853	1043.5
347.08	1039.5
347.308	1072.5
347.535	1032.5
347.763	1076.5
347.99	1033.5
348.218	1059.5
348.445	1045.5
348.673	1023.5
348.9	1075.5
349.128	1049.5
349.355	1045.5
349.583	1020.5
349.81	1019.5
350.037	1043.5
350.265	991.5
350.492	1021.5
350.72	1021.5
350.947	1014.5
351.174	1012.5
351.402	1033.5
351.629	1027.5
351.856	1036.5
352.083	1006.5
352.311	1011.5
352.538	1009.5
352.765	1001.5
352.992	1044.5
353.22	1022.5
353.447	1008.5
353.674	984.5
353.901	1003.5
354.128	1020.5
354.355	1023.5
354.583	1039.5
354.81	1029.5
355.037	1034.5
355.264	1054.5
355.491	1025.5
355.718	1025.5
355.945	1061.5
356.172	1032.5
356.399	1041.5
356.626	1056.5
356.853	1046.5
357.08	1054.5
357.307	1087.5
357.534	1048.5
357.761	1079.5
357.988	1075.5
358.215	1057.5
358.441	1045.5
358.668	1070.5
358.895	1066.5
359.122	1072.5
359.349	1066.5
359.576	1077.5
359.802	1027.5
360.029	1079.5
360.256	1081.5
360.483	1088.5
360.709	1065.5
360.936	1103.5
361.163	1063.5
361.39	1095.5
361.616	1075.5
361.843	1087.5
362.07	1076.5
362.296	1069.5
362.523	1061.5
362.749	1082.5
362.976	1066.5
363.203	1088.5
363.429	1069.5
363.656	1080.5
363.882	1045.5
364.109	1066.5
364.335	1053.5
364.562	1088.5
364.788	1071.5
365.015	1096.5
365.241	1097.5
365.468	1146.5
365.694	1188.5
365.92	1159.5
366.147	1105.5
366.373	1084.5
366.599	1111.5
366.826	1082.5
367.052	1097.5
367.278	1105.5
367.505	1139.5
367.731	1104.5
367.957	1095.5
368.184	1126.5
368.41	1136.5
368.636	1149.5
368.862	1127.5
369.089	1158.5
369.315	1086.5
369.541	1094.5
369.767	1128.5
369.993	1122.5
370.219	1103.5
370.445	1136.5
370.672	1135.5
370.898	1128.5
371.124	1141.5
371.35	1145.5
371.576	1162.5
371.802	1176.5
372.028	1163.5
372.254	1178.5
372.48	1191.5
372.706	1186.5
372.932	1171.5
373.158	1176.5
373.384	1182.5
373.61	1183.5
373.835	1172.5
374.061	1194.5
374.287	1183.5
374.513	1189.5
374.739	1246.5
374.965	1210.5
375.191	1217.5
375.416	1239.5
375.642	1201.5
375.868	1208.5
376.094	1184.5
376.319	1187.5
376.545	1176.5
376.771	1167.5
376.997	1149.5
377.222	1170.5
377.448	1181.5
377.674	1141.5
377.899	1144.5
378.125	1177.5
378.35	1176.5
378.576	1167.5
378.802	1169.5
379.027	1171.5
379.253	1222.5
379.478	1256.5
379.704	1413.5
379.929	1994.5
380.155	2910.5
380.38	3057.5
380.606	2000.5
380.831	1465.5
381.057	1310.5
381.282	1225.5
381.507	1181.5
381.733	1174.5
381.958	1141.5
382.184	1157.5
382.409	1152.5
382.634	1157.5
382.86	1172.5
383.085	1182.5
383.31	1153.5
383.535	1131.5
383.761	1144.5
383.986	1146.5
384.211	1178.5
384.436	1173.5
384.662	1176.5
384.887	1198.5
385.112	1165.5
385.337	1190.5
385.562	1182.5
385.787	1211.5
386.013	1225.5
386.238	1169.5
386.463	1198.5
386.688	1193.5
386.913	1173.5
387.138	1184.5
387.363	1176.5
387.588	1162.5
387.813	1200.5
388.038	1171.5
388.263	1190.5
388.488	1184.5
388.713	1203.5
388.938	1199.5
389.163	1208.5
389.387	1213.5
389.612	1187.5
389.837	1176.5
390.062	1180.5
390.287	1223.5
390.512	1209.5
390.736	1227.5
390.961	1246.5
391.186	1255.5
391.411	1227.5
391.636	1224.5
391.86	1219.5
392.085	1249.5
392.31	1255.5
392.534	1236.5
392.759	1248.5
392.984	1237.5
393.208	1253.5
393.433	1282.5
393.658	1285.5
393.882	1207.5
394.107	1213.5
394.331	1231.5
394.556	1206.5
394.78	1231.5
395.005	1225.5
395.229	1206.5
395.454	1249.5
395.678	1275.5
395.903	1242.5
396.127	1240.5
396.352	1265.5
396.576	1255.5
396.801	1231.5
397.025	1265.5
397.249	1285.5
397.474	1277.5
397.698	1252.5
397.922	1273.5
398.147	1211.5
398.371	1286.5
398.595	1286.5
398.82	1336.5
399.044	1370.5
399.268	1447.5
399.492	1527.5
399.717	1578.5
399.941	1594.5
400.165	1518.5
400.389	1454.5
400.613	1407.5
400.837	1366.5
401.062	1362.5
401.286	1341.5
401.51	1311.5
401.734	1318.5
401.958	1330.5
402.182	1339.5
402.406	1349.5
402.63	1336.5
402.854	1359.5
403.078	1373.5
403.302	1348.5
403.526	1346.5
403.75	1368.5
403.974	1389.5
404.198	1337.5
404.422	1370.5
404.645	1374.5
404.869	1357.5
405.093	1398.5
405.317	1362.5
405.541	1362.5
405.765	1357.5
405.988	1375.5
406.212	1439.5
406.436	1372.5
406.66	1392.5
406.883	1434.5
407.107	1440.5
407.331	1517.5
407.555	1473.5
407.778	1494.5
408.002	1478.5
408.226	1445.5
408.449	1471.5
408.673	1409.5
408.896	1408.5
409.12	1386.5
409.344	1391.5
409.567	1333.5
409.791	1371.5
410.014	1365.5
410.238	1336.5
410.461	1339.5
410.685	1347.5
410.908	1364.5
411.132	1339.5
411.355	1297.5
411.578	1298.5
411.802	1313.5
412.025	1329.5
412.249	1317.5
412.472	1334.5
412.695	1282.5
412.919	1271.5
413.142	1265.5
413.365	1315.5
413.589	1298.5
413.812	1278.5
414.035	1282.5
414.258	1265.5
414.482	1308.5
414.705	1303.5
414.928	1287.5
415.151	1289.5
415.374	1294.5
415.597	1277.5
415.821	1259.5
416.044	1243.5
416.267	1264.5
416.49	1220.5
416.713	1235.5
416.936	1265.5
417.159	1240.5
417.382	1241.5
417.605	1207.5
417.828	1239.5
418.051	1233.5
418.274	1271.5
418.497	1257.5
418.72	1270.5
418.943	1272.5
419.166	1323.5
419.389	1378.5
419.611	1374.5
419.834	1315.5
420.057	1319.5
420.28	1221.5
420.503	1265.5
420.726	1233.5
420.948	1225.5
421.171	1206.5
421.394	1238.5
421.617	1237.5
421.839	1270.5
422.062	1288.5
422.285	1252.5
422.507	1277.5
422.73	1255.5
422.953	1301.5
423.175	1267.5
423.398	1299.5
423.621	1286.5
423.843	1288.5
424.066	1253.5
424.288	1265.5
424.511	1235.5
424.733	1246.5
424.956	1222.5
425.178	1256.5
425.401	1249.5
425.623	1241.5
425.846	1234.5
426.068	1247.5
426.291	1226.5
426.513	1213.5
426.735	1195.5
426.958	1214.5
427.18	1181.5
427.402	1185.5
427.625	1176.5
427.847	1153.5
428.069	1161.5
428.292	1154.5
428.514	1157.5
428.736	1150.5
428.958	1177.5
429.181	1167.5
429.403	1150.5
429.625	1163.5
429.847	1147.5
430.069	1160.5
430.292	1193.5
430.514	1186.5
430.736	1217.5
430.958	1197.5
431.18	1153.5
431.402	1167.5
431.624	1135.5
431.846	1150.5
432.068	1122.5
432.29	1140.5
432.512	1121.5
432.734	1126.5
432.956	1172.5
433.178	1189.5
433.4	1163.5
433.622	1157.5
433.844	1182.5
434.066	1157.5
434.287	1128.5
434.509	1140.5
434.731	1163.5
434.953	1178.5
435.175	1201.5
435.397	1181.5
435.618	1184.5
435.84	1139.5
436.062	1143.5
436.284	1147.5
436.505	1153.5
436.727	1128.5
436.949	1149.5
437.17	1151.5
437.392	1154.5
437.614	1118.5
437.835	1093.5
438.057	1112.5
438.278	1079.5
438.5	1114.5
438.721	1116.5
438.943	1125.5
439.165	1174.5
439.386	1189.5
439.608	1183.5
439.829	1206.5
440.05	1217.5
440.272	1237.5
440.493	1177.5
440.715	1198.5
440.936	1178.5
441.158	1242.5
441.379	1215.5
441.6	1238.5
441.822	1282.5
442.043	1351.5
442.264	1354.5
442.486	1287.5
442.707	1262.5
442.928	1239.5
443.149	1232.5
443.371	1191.5
443.592	1249.5
443.813	1247.5
444.034	1234.5
444.255	1265.5
444.476	1297.5
444.698	1287.5
444.919	1334.5
445.14	1393.5
445.361	1322.5
445.582	1291.5
445.803	1264.5
446.024	1223.5
446.245	1261.5
446.466	1256.5
446.687	1197.5
446.908	1219.5
447.129	1189.5
447.35	1152.5
447.571	1175.5
447.792	1149.5
448.013	1109.5
448.234	1143.5
448.455	1147.5
448.675	1175.5
448.896	1179.5
449.117	1178.5
449.338	1246.5
449.559	1295.5
449.779	1227.5
450	1141.5
450.221	1136.5
450.442	1111.5
450.662	1102.5
450.883	1098.5
451.104	1109.5
451.324	1103.5
451.545	1097.5
451.766	1117.5
451.986	1115.5
452.207	1186.5
452.428	1429.5
452.648	1910.5
452.869	1650.5
453.089	1269.5
453.31	1207.5
453.53	1189.5
453.751	1208.5
453.971	1297.5
454.192	1285.5
454.412	1142.5
454.633	1088.5
454.853	1057.5
455.073	1062.5
455.294	1045.5
455.514	1051.5
455.734	1068.5
455.955	1049.5
456.175	1043.5
456.395	1031.5
456.616	1054.5
456.836	1077.5
457.056	1075.5
457.276	1049.5
457.497	1138.5
457.717	1128.5
457.937	1095.5
458.157	1105.5
458.377	1108.5
458.598	1097.5
458.818	1127.5
459.038	1157.5
459.258	1110.5
459.478	1120.5
459.698	1124.5
459.918	1164.5
460.138	1183.5
460.358	1220.5
460.578	1222.5
460.798	1234.5
461.018	1256.5
461.238	1279.5
461.458	1255.5
461.678	1247.5
461.898	1270.5
462.118	1297.5
462.338	1293.5
462.558	1303.5
462.777	1361.5
462.997	1396.5
463.217	1455.5
463.437	1498.5
463.657	1459.5
463.876	1481.5
464.096	1437.5
464.316	1379.5
464.536	1383.5
464.755	1327.5
464.975	1303.5
465.195	1266.5
465.414	1218.5
465.634	1191.5
465.854	1179.5
466.073	1180.5
466.293	1181.5
466.512	1155.5
466.732	1170.5
466.951	1203.5
467.171	1305.5
467.391	1270.5
467.61	1158.5
467.829	1134.5
468.049	1156.5
468.268	1138.5
468.488	1124.5
468.707	1105.5
468.927	1139.5
469.146	1136.5
469.365	1148.5
469.585	1134.5
469.804	1150.5
470.023	1170.5
470.243	1201.5
470.462	1238.5
470.681	1306.5
470.901	1395.5
471.12	1521.5
471.339	1607.5
471.558	1333.5
471.777	1227.5
471.997	1191.5
472.216	1170.5
472.435	1143.5
472.654	1127.5
472.873	1118.5
473.092	1154.5
473.311	1123.5
473.53	1113.5
473.749	1158.5
473.968	1177.5
474.187	1141.5
474.406	1089.5
474.625	1137.5
474.844	1143.5
475.063	1114.5
475.282	1156.5
475.501	1194.5
475.72	1165.5
475.939	1183.5
476.158	1203.5
476.377	1210.5
476.596	1150.5
476.814	1198.5
477.033	1197.5
477.252	1216.5
477.471	1241.5
477.69	1243.5
477.908	1251.5
478.127	1297.5
478.346	1305.5
478.564	1289.5
478.783	1295.5
479.002	1327.5
479.22	1340.5
479.439	1357.5
479.658	1352.5
479.876	1314.5
480.095	1337.5
480.313	1377.5
480.532	1362.5
480.751	1344.5
480.969	1363.5
481.188	1359.5
481.406	1327.5
481.624	1323.5
481.843	1309.5
482.061	1376.5
482.28	1369.5
482.498	1315.5
482.717	1336.5
482.935	1351.5
483.153	1397.5
483.372	1379.5
483.59	1421.5
483.808	1432.5
484.027	1432.5
484.245	1523.5
484.463	1656.5
484.681	1851.5
484.9	1665.5
485.118	1562.5
485.336	1614.5
485.554	1601.5
485.772	1632.5
485.99	1866.5
486.209	2000.5
486.427	1723.5
486.645	1515.5
486.863	1473.5
487.081	1455.5
487.299	1443.5
487.517	1444.5
487.735	1467.5
487.953	1487.5
488.171	1513.5
488.389	1437.5
488.607	1406.5
488.825	1424.5
489.043	1370.5
489.261	1389.5
489.479	1378.5
489.696	1387.5
489.914	1383.5
490.132	1413.5
490.35	1405.5
490.568	1442.5
490.786	1458.5
491.003	1449.5
491.221	1496.5
491.439	1487.5
491.657	1496.5
491.874	1523.5
492.092	1559.5
492.31	1540.5
492.527	1546.5
492.745	1521.5
492.963	1511.5
493.18	1500.5
493.398	1498.5
493.615	1473.5
493.833	1514.5
494.05	1544.5
494.268	1496.5
494.485	1482.5
494.703	1464.5
494.92	1472.5
495.138	1474.5
495.355	1518.5
495.573	1489.5
495.79	1506.5
496.008	1505.5
496.225	1509.5
496.442	1522.5
496.66	1547.5
496.877	1649.5
497.094	1646.5
497.312	1605.5
497.529	1561.5
497.746	1614.5
497.963	1620.5
498.181	1651.5
498.398	1679.5
498.615	1736.5
498.832	1787.5
499.049	1891.5
499.267	2031.5
499.484	2118.5
499.701	2126.5
499.918	2267.5
500.135	2379.5
500.352	2503.5
500.569	2512.5
500.786	2513.5
501.003	2485.5
501.22	2303.5
501.437	2199.5
501.654	2073.5
501.871	1963.5
502.088	1887.5
502.305	1817.5
502.522	1767.5
502.739	1764.5
502.956	1688.5
503.172	1642.5
503.389	1594.5
503.606	1590.5
503.823	1609.5
504.04	1563.5
504.256	1515.5
504.473	1575.5
504.69	1521.5
504.907	1513.5
505.123	1493.5
505.34	1466.5
505.557	1412.5
505.773	1389.5
505.99	1397.5
506.207	1358.5
506.423	1361.5
506.64	1341.5
506.856	1331.5
507.073	1342.5
