Data from SnStandardFlinnAPT0064_LampEnergy10_LIBS07252019.E.O._I.C._HRD10591_15-22-23-494.txt Node
Date: Thu Jul 25 15:22:23 EDT 2019
User: cochatt
Spectrometer: HR+D1059
Trigger mode: 1
Integration Time (sec): 1.000000E-1
Scans to average: 1
Electric dark correction enabled: true
Nonlinearity correction enabled: false
Boxcar width: 0
XAxis mode: Wavelengths
Number of Pixels in Spectrum: 2048
>>>>>Begin Spectral Data<<<<<
223.165	-17.06
223.4	-17.06
223.635	-17.06
223.869	-25.06
224.104	-6.06
224.338	-26.06
224.573	-25.06
224.808	12.94
225.042	-12.06
225.277	8.94
225.511	4.94
225.746	-1.06
225.98	10.94
226.215	9.94
226.449	7.94
226.683	9.94
226.918	19.94
227.152	26.94
227.387	32.94
227.621	31.94
227.856	41.94
228.09	32.94
228.324	59.94
228.559	56.94
228.793	120.94
229.027	335.94
229.262	332.94
229.496	301.94
229.73	294.94
229.964	288.94
230.199	308.94
230.433	316.94
230.667	306.94
230.901	305.94
231.136	314.94
231.37	355.94
231.604	382.94
231.838	443.94
232.072	512.94
232.306	566.94
232.541	449.94
232.775	418.94
233.009	418.94
233.243	432.94
233.477	457.94
233.711	496.94
233.945	574.94
234.179	488.94
234.413	425.94
234.647	450.94
234.881	452.94
235.115	515.94
235.349	612.94
235.583	769.94
235.817	1002.94
236.051	984.94
236.285	660.94
236.519	505.94
236.753	499.94
236.987	515.94
237.221	551.94
237.455	510.94
237.689	479.94
237.922	450.94
238.156	474.94
238.39	483.94
238.624	499.94
238.858	487.94
239.091	458.94
239.325	479.94
239.559	505.94
239.793	509.94
240.027	522.94
240.26	506.94
240.494	547.94
240.728	564.94
240.961	588.94
241.195	640.94
241.429	667.94
241.662	672.94
241.896	744.94
242.13	936.94
242.363	1258.94
242.597	1640.94
242.83	1549.94
243.064	1541.94
243.298	1807.94
243.531	1512.94
243.765	920.94
243.998	779.94
244.232	669.94
244.465	652.94
244.699	634.94
244.932	653.94
245.166	662.94
245.399	670.94
245.633	669.94
245.866	684.94
246.099	668.94
246.333	670.94
246.566	644.94
246.8	649.94
247.033	635.94
247.266	609.94
247.5	626.94
247.733	661.94
247.966	672.94
248.2	738.94
248.433	853.94
248.666	986.94
248.899	935.94
249.133	834.94
249.366	864.94
249.599	964.94
249.832	1097.94
250.066	1050.94
250.299	867.94
250.532	757.94
250.765	720.94
250.998	752.94
251.231	729.94
251.465	729.94
251.698	737.94
251.931	737.94
252.164	711.94
252.397	755.94
252.63	786.94
252.863	788.94
253.096	785.94
253.329	770.94
253.562	768.94
253.795	767.94
254.028	802.94
254.261	828.94
254.494	878.94
254.727	1036.94
254.96	1251.94
255.193	1235.94
255.426	952.94
255.659	865.94
255.892	844.94
256.124	834.94
256.357	855.94
256.59	894.94
256.823	956.94
257.056	1112.94
257.289	1341.94
257.521	1493.94
257.754	1205.94
257.987	962.94
258.22	910.94
258.452	870.94
258.685	913.94
258.918	924.94
259.151	960.94
259.383	1086.94
259.616	1208.94
259.849	1264.94
260.081	1084.94
260.314	966.94
260.547	931.94
260.779	976.94
261.012	950.94
261.244	955.94
261.477	952.94
261.71	982.94
261.942	989.94
262.175	996.94
262.407	1028.94
262.64	1043.94
262.872	1095.94
263.105	1131.94
263.337	1220.94
263.57	1262.94
263.802	1303.94
264.035	1285.94
264.267	1363.94
264.499	1377.94
264.732	1402.94
264.964	1466.94
265.197	1435.94
265.429	1417.94
265.661	1484.94
265.894	1580.94
266.126	1730.94
266.358	1967.94
266.591	1927.94
266.823	1578.94
267.055	1428.94
267.287	1389.94
267.52	1323.94
267.752	1322.94
267.984	1279.94
268.216	1234.94
268.448	1253.94
268.681	1219.94
268.913	1185.94
269.145	1227.94
269.377	1243.94
269.609	1238.94
269.841	1281.94
270.073	1391.94
270.306	1595.94
270.538	2118.94
270.77	3226.94
271.002	3931.94
271.234	2774.94
271.466	1844.94
271.698	1502.94
271.93	1354.94
272.162	1323.94
272.394	1291.94
272.626	1252.94
272.858	1226.94
273.09	1212.94
273.322	1198.94
273.553	1204.94
273.785	1197.94
274.017	1158.94
274.249	1192.94
274.481	1183.94
274.713	1186.94
274.945	1196.94
275.176	1203.94
275.408	1187.94
275.64	1216.94
275.872	1231.94
276.104	1250.94
276.335	1238.94
276.567	1271.94
276.799	1262.94
277.031	1298.94
277.262	1330.94
277.494	1367.94
277.726	1549.94
277.957	1840.94
278.189	2074.94
278.421	1926.94
278.652	1758.94
278.884	1615.94
279.115	1506.94
279.347	1416.94
279.579	1394.94
279.81	1369.94
280.042	1363.94
280.273	1403.94
280.505	1460.94
280.736	1458.94
280.968	1547.94
281.199	1754.94
281.431	2008.94
281.662	2063.94
281.894	1706.94
282.125	1608.94
282.356	1597.94
282.588	1640.94
282.819	1662.94
283.051	1795.94
283.282	1950.94
283.513	2422.94
283.745	3547.94
283.976	5705.94
284.207	8273.94
284.439	7397.94
284.67	4424.94
284.901	3618.94
285.132	3700.94
285.364	3566.94
285.595	2672.94
285.826	2393.94
286.057	2813.94
286.288	3884.94
286.52	5236.94
286.751	4919.94
286.982	2969.94
287.213	2192.94
287.444	1942.94
287.675	1826.94
287.906	1765.94
288.138	1702.94
288.369	1629.94
288.6	1631.94
288.831	1667.94
289.062	1641.94
289.293	1667.94
289.524	1662.94
289.755	1682.94
289.986	1690.94
290.217	1712.94
290.448	1711.94
290.679	1683.94
290.91	1761.94
291.141	1860.94
291.371	2023.94
291.602	2106.94
291.833	1886.94
292.064	1695.94
292.295	1650.94
292.526	1601.94
292.757	1591.94
292.987	1593.94
293.218	1564.94
293.449	1554.94
293.68	1547.94
293.91	1563.94
294.141	1552.94
294.372	1560.94
294.603	1557.94
294.833	1556.94
295.064	1549.94
295.295	1570.94
295.525	1540.94
295.756	1561.94
295.987	1542.94
296.217	1546.94
296.448	1539.94
296.679	1569.94
296.909	1559.94
297.14	1568.94
297.37	1601.94
297.601	1631.94
297.831	1612.94
298.062	1572.94
298.292	1629.94
298.523	1642.94
298.753	1710.94
298.984	1680.94
299.214	1685.94
299.445	1791.94
299.675	1771.94
299.905	1826.94
300.136	1857.94
300.366	2158.94
300.597	2775.94
300.827	3842.94
301.057	5320.94
301.288	5231.94
301.518	3343.94
301.748	2547.94
301.979	2311.94
302.209	2232.94
302.439	2261.94
302.669	2378.94
302.9	2965.94
303.13	4164.94
303.36	6282.94
303.59	8402.94
303.82	7223.94
304.051	4099.94
304.281	2954.94
304.511	2474.94
304.741	2271.94
304.971	2183.94
305.201	2051.94
305.431	1976.94
305.661	1948.94
305.891	1929.94
306.121	1846.94
306.352	1868.94
306.582	1796.94
306.812	1834.94
307.042	1779.94
307.272	1809.94
307.502	1788.94
307.731	1785.94
307.961	1824.94
308.191	1802.94
308.421	1763.94
308.651	1808.94
308.881	1769.94
309.111	1826.94
309.341	1795.94
309.571	1837.94
309.8	1847.94
310.03	1850.94
310.26	1830.94
310.49	1822.94
310.72	1858.94
310.949	1852.94
311.179	1887.94
311.409	1850.94
311.639	1921.94
311.868	1961.94
312.098	1916.94
312.328	1960.94
312.557	1953.94
312.787	1936.94
313.017	1961.94
313.246	1978.94
313.476	1977.94
313.706	2067.94
313.935	2175.94
314.165	2331.94
314.394	2460.94
314.624	2336.94
314.853	2158.94
315.083	2165.94
315.312	2127.94
315.542	2129.94
315.771	2210.94
316.001	2228.94
316.23	2291.94
316.46	2382.94
316.689	2628.94
316.919	3163.94
317.148	4650.94
317.377	7209.94
317.607	10719.94
317.836	11092.94
318.065	6510.94
318.295	4192.94
318.524	3329.94
318.753	2882.94
318.983	2683.94
319.212	2504.94
319.441	2448.94
319.67	2400.94
319.9	2389.94
320.129	2336.94
320.358	2314.94
320.587	2331.94
320.816	2343.94
321.046	2366.94
321.275	2334.94
321.504	2394.94
321.733	2395.94
321.962	2459.94
322.191	2526.94
322.42	2480.94
322.649	2474.94
322.878	2466.94
323.108	2462.94
323.337	2515.94
323.566	2549.94
323.795	2574.94
324.024	2641.94
324.253	2684.94
324.482	2794.94
324.71	2985.94
324.939	3138.94
325.168	3244.94
325.397	3314.94
325.626	3919.94
325.855	5654.94
326.084	8833.94
326.313	12868.94
326.542	13516.94
326.77	8835.94
326.999	5751.94
327.228	4736.94
327.457	4568.94
327.686	4715.94
327.914	4982.94
328.143	5840.94
328.372	7017.94
328.6	7647.94
328.829	6817.94
329.058	5672.94
329.287	4886.94
329.515	4500.94
329.744	4168.94
329.972	4065.94
330.201	3762.94
330.43	3569.94
330.658	3567.94
330.887	3533.94
331.115	3484.94
331.344	3415.94
331.572	3459.94
331.801	3446.94
332.03	3497.94
332.258	3524.94
332.486	3699.94
332.715	4291.94
332.943	5349.94
333.172	6632.94
333.4	6495.94
333.629	4911.94
333.857	4444.94
334.085	4388.94
334.314	4603.94
334.542	5093.94
334.771	5877.94
334.999	7314.94
335.227	9176.94
335.455	10257.94
335.684	9147.94
335.912	7463.94
336.14	6326.94
336.369	5512.94
336.597	5064.94
336.825	4699.94
337.053	4436.94
337.281	4174.94
337.51	3983.94
337.738	3864.94
337.966	3683.94
338.194	3561.94
338.422	3470.94
338.65	3360.94
338.878	3286.94
339.106	3200.94
339.334	3172.94
339.562	3108.94
339.79	3082.94
340.018	3075.94
340.246	3017.94
340.474	3011.94
340.702	2979.94
340.93	3016.94
341.158	3011.94
341.386	2967.94
341.614	2974.94
341.842	2898.94
342.07	2811.94
342.298	2753.94
342.526	2785.94
342.754	2736.94
342.981	2738.94
343.209	2686.94
343.437	2708.94
343.665	2789.94
343.893	2741.94
344.12	2851.94
344.348	2777.94
344.576	2734.94
344.804	2682.94
345.031	2618.94
345.259	2614.94
345.487	2591.94
345.714	2563.94
345.942	2549.94
346.17	2547.94
346.397	2526.94
346.625	2555.94
346.853	2508.94
347.08	2501.94
347.308	2504.94
347.535	2533.94
347.763	2507.94
347.99	2474.94
348.218	2516.94
348.445	2465.94
348.673	2468.94
348.9	2451.94
349.128	2392.94
349.355	2419.94
349.583	2431.94
349.81	2428.94
350.037	2453.94
350.265	2408.94
350.492	2394.94
350.72	2364.94
350.947	2368.94
351.174	2367.94
351.402	2381.94
351.629	2396.94
351.856	2361.94
352.083	2379.94
352.311	2345.94
352.538	2336.94
352.765	2360.94
352.992	2364.94
353.22	2389.94
353.447	2393.94
353.674	2405.94
353.901	2358.94
354.128	2419.94
354.355	2411.94
354.583	2386.94
354.81	2386.94
355.037	2406.94
355.264	2422.94
355.491	2411.94
355.718	2435.94
355.945	2443.94
356.172	2443.94
356.399	2442.94
356.626	2436.94
356.853	2451.94
357.08	2517.94
357.307	2522.94
357.534	2572.94
357.761	2586.94
357.988	2566.94
358.215	2564.94
358.441	2543.94
358.668	2512.94
358.895	2540.94
359.122	2511.94
359.349	2503.94
359.576	2516.94
359.802	2512.94
360.029	2481.94
360.256	2505.94
360.483	2532.94
360.709	2560.94
360.936	2528.94
361.163	2538.94
361.39	2538.94
361.616	2571.94
361.843	2527.94
362.07	2578.94
362.296	2533.94
362.523	2560.94
362.749	2593.94
362.976	2501.94
363.203	2502.94
363.429	2524.94
363.656	2520.94
363.882	2566.94
364.109	2509.94
364.335	2470.94
364.562	2486.94
364.788	2542.94
365.015	2615.94
365.241	2606.94
365.468	2804.94
365.694	2933.94
365.92	2834.94
366.147	2630.94
366.373	2619.94
366.599	2626.94
366.826	2544.94
367.052	2560.94
367.278	2620.94
367.505	2591.94
367.731	2579.94
367.957	2559.94
368.184	2627.94
368.41	2684.94
368.636	2634.94
368.862	2651.94
369.089	2650.94
369.315	2644.94
369.541	2626.94
369.767	2633.94
369.993	2635.94
370.219	2641.94
370.445	2617.94
370.672	2676.94
370.898	2662.94
371.124	2679.94
371.35	2750.94
371.576	2708.94
371.802	2745.94
372.028	2685.94
372.254	2781.94
372.48	2793.94
372.706	2752.94
372.932	2770.94
373.158	2762.94
373.384	2821.94
373.61	2764.94
373.835	2806.94
374.061	2846.94
374.287	2815.94
374.513	2829.94
374.739	2877.94
374.965	2907.94
375.191	2896.94
375.416	2888.94
375.642	2840.94
375.868	2859.94
376.094	2806.94
376.319	2798.94
376.545	2794.94
376.771	2790.94
376.997	2703.94
377.222	2712.94
377.448	2717.94
377.674	2712.94
377.899	2722.94
378.125	2741.94
378.35	2730.94
378.576	2732.94
378.802	2782.94
379.027	2766.94
379.253	2850.94
379.478	3048.94
379.704	3637.94
379.929	5274.94
380.155	8024.94
380.38	8708.94
380.606	5237.94
380.831	3619.94
381.057	3193.94
381.282	2946.94
381.507	2846.94
381.733	2794.94
381.958	2770.94
382.184	2723.94
382.409	2710.94
382.634	2704.94
382.86	2687.94
383.085	2640.94
383.31	2646.94
383.535	2667.94
383.761	2710.94
383.986	2742.94
384.211	2745.94
384.436	2744.94
384.662	2733.94
384.887	2762.94
385.112	2760.94
385.337	2745.94
385.562	2740.94
385.787	2767.94
386.013	2826.94
386.238	2750.94
386.463	2766.94
386.688	2793.94
386.913	2738.94
387.138	2765.94
387.363	2769.94
387.588	2736.94
387.813	2723.94
388.038	2743.94
388.263	2760.94
388.488	2798.94
388.713	2757.94
388.938	2781.94
389.163	2714.94
389.387	2765.94
389.612	2747.94
389.837	2765.94
390.062	2783.94
390.287	2775.94
390.512	2798.94
390.736	2843.94
390.961	2904.94
391.186	2862.94
391.411	2890.94
391.636	2932.94
391.86	2890.94
392.085	2940.94
392.31	2892.94
392.534	2846.94
392.759	2878.94
392.984	2798.94
393.208	2848.94
393.433	2906.94
393.658	2853.94
393.882	2763.94
394.107	2759.94
394.331	2767.94
394.556	2842.94
394.78	2832.94
395.005	2792.94
395.229	2794.94
395.454	2846.94
395.678	2898.94
395.903	2912.94
396.127	2892.94
396.352	2872.94
396.576	2837.94
396.801	2874.94
397.025	2937.94
397.249	2924.94
397.474	2900.94
397.698	2868.94
397.922	2921.94
398.147	2932.94
398.371	3006.94
398.595	3002.94
398.82	3084.94
399.044	3194.94
399.268	3375.94
399.492	3570.94
399.717	3659.94
399.941	3637.94
400.165	3515.94
400.389	3439.94
400.613	3302.94
400.837	3131.94
401.062	3128.94
401.286	3114.94
401.51	3030.94
401.734	2999.94
401.958	3090.94
402.182	3070.94
402.406	3070.94
402.63	3075.94
402.854	3080.94
403.078	3115.94
403.302	3116.94
403.526	3192.94
403.75	3179.94
403.974	3137.94
404.198	3171.94
404.422	3176.94
404.645	3132.94
404.869	3090.94
405.093	3150.94
405.317	3149.94
405.541	3215.94
405.765	3280.94
405.988	3228.94
406.212	3328.94
406.436	3230.94
406.66	3259.94
406.883	3246.94
407.107	3406.94
407.331	3414.94
407.555	3494.94
407.778	3443.94
408.002	3416.94
408.226	3394.94
408.449	3358.94
408.673	3335.94
408.896	3286.94
409.12	3130.94
409.344	3240.94
409.567	3135.94
409.791	3218.94
410.014	3170.94
410.238	3171.94
410.461	3149.94
410.685	3147.94
410.908	3176.94
411.132	3097.94
411.355	3019.94
411.578	3068.94
411.802	2999.94
412.025	3015.94
412.249	3077.94
412.472	3055.94
412.695	3009.94
412.919	2967.94
413.142	3017.94
413.365	2987.94
413.589	2995.94
413.812	2955.94
414.035	2968.94
414.258	2978.94
414.482	2947.94
414.705	2990.94
414.928	2972.94
415.151	3018.94
415.374	2993.94
415.597	2931.94
415.821	2876.94
416.044	2816.94
416.267	2882.94
416.49	2879.94
416.713	2891.94
416.936	2890.94
417.159	2836.94
417.382	2804.94
417.605	2828.94
417.828	2879.94
418.051	2867.94
418.274	2882.94
418.497	2945.94
418.72	2987.94
418.943	2854.94
419.166	3041.94
419.389	3194.94
419.611	3109.94
419.834	3006.94
420.057	2976.94
420.28	2903.94
420.503	2837.94
420.726	2856.94
420.948	2813.94
421.171	2808.94
421.394	2892.94
421.617	2895.94
421.839	2885.94
422.062	2921.94
422.285	2862.94
422.507	2890.94
422.73	2942.94
422.953	2914.94
423.175	2972.94
423.398	2910.94
423.621	2848.94
423.843	2892.94
424.066	2879.94
424.288	2828.94
424.511	2913.94
424.733	2856.94
424.956	2799.94
425.178	2832.94
425.401	2816.94
425.623	2857.94
425.846	2769.94
426.068	2775.94
426.291	2738.94
426.513	2739.94
426.735	2728.94
426.958	2739.94
427.18	2736.94
427.402	2727.94
427.625	2706.94
427.847	2690.94
428.069	2694.94
428.292	2679.94
428.514	2666.94
428.736	2619.94
428.958	2690.94
429.181	2656.94
429.403	2622.94
429.625	2608.94
429.847	2645.94
430.069	2742.94
430.292	2782.94
430.514	2867.94
430.736	2828.94
430.958	2654.94
431.18	2630.94
431.402	2681.94
431.624	2599.94
431.846	2587.94
432.068	2565.94
432.29	2631.94
432.512	2625.94
432.734	2651.94
432.956	2641.94
433.178	2694.94
433.4	2671.94
433.622	2676.94
433.844	2706.94
434.066	2642.94
434.287	2618.94
434.509	2717.94
434.731	2670.94
434.953	2717.94
435.175	2786.94
435.397	2680.94
435.618	2665.94
435.84	2641.94
436.062	2632.94
436.284	2586.94
436.505	2640.94
436.727	2610.94
436.949	2558.94
437.17	2583.94
437.392	2573.94
437.614	2602.94
437.835	2471.94
438.057	2526.94
438.278	2517.94
438.5	2543.94
438.721	2600.94
438.943	2684.94
439.165	2690.94
439.386	2745.94
439.608	2703.94
439.829	2714.94
440.05	2791.94
440.272	2843.94
440.493	2753.94
440.715	2674.94
440.936	2716.94
441.158	2737.94
441.379	2736.94
441.6	2842.94
441.822	2922.94
442.043	3099.94
442.264	3175.94
442.486	2944.94
442.707	2802.94
442.928	2772.94
443.149	2822.94
443.371	2782.94
443.592	2813.94
443.813	2860.94
444.034	2864.94
444.255	2870.94
444.476	2971.94
444.698	2949.94
444.919	3010.94
445.14	3127.94
445.361	3014.94
445.582	2897.94
445.803	2763.94
446.024	2800.94
446.245	2819.94
446.466	2785.94
446.687	2714.94
446.908	2729.94
447.129	2632.94
447.35	2697.94
447.571	2686.94
447.792	2569.94
448.013	2585.94
448.234	2585.94
448.455	2597.94
448.675	2616.94
448.896	2678.94
449.117	2749.94
449.338	3026.94
449.559	3184.94
449.779	2768.94
450	2589.94
450.221	2531.94
450.442	2572.94
450.662	2488.94
450.883	2494.94
451.104	2535.94
451.324	2490.94
451.545	2475.94
451.766	2499.94
451.986	2557.94
452.207	2778.94
452.428	3589.94
452.648	5496.94
452.869	4503.94
453.089	3087.94
453.31	2905.94
453.53	2965.94
453.751	3017.94
453.971	3144.94
454.192	3182.94
454.412	2676.94
454.633	2532.94
454.853	2467.94
455.073	2415.94
455.294	2450.94
455.514	2382.94
455.734	2420.94
455.955	2402.94
456.175	2391.94
456.395	2370.94
456.616	2387.94
456.836	2460.94
457.056	2475.94
457.276	2461.94
457.497	2617.94
457.717	2602.94
457.937	2572.94
458.157	2533.94
458.377	2556.94
458.598	2567.94
458.818	2568.94
459.038	2600.94
459.258	2589.94
459.478	2642.94
459.698	2637.94
459.918	2646.94
460.138	2699.94
460.358	2772.94
460.578	2815.94
460.798	2838.94
461.018	2840.94
461.238	2870.94
461.458	2880.94
461.678	2923.94
461.898	2987.94
462.118	3010.94
462.338	3073.94
462.558	3095.94
462.777	3126.94
462.997	3248.94
463.217	3357.94
463.437	3531.94
463.657	3562.94
463.876	3600.94
464.096	3363.94
464.316	3212.94
464.536	3099.94
464.755	3055.94
464.975	2984.94
465.195	2899.94
465.414	2794.94
465.634	2744.94
465.854	2662.94
466.073	2718.94
466.293	2601.94
466.512	2644.94
466.732	2645.94
466.951	2880.94
467.171	3056.94
467.391	2939.94
467.61	2680.94
467.829	2660.94
468.049	2584.94
468.268	2571.94
468.488	2569.94
468.707	2539.94
468.927	2546.94
469.146	2513.94
469.365	2602.94
469.585	2603.94
469.804	2642.94
470.023	2675.94
470.243	2722.94
470.462	2839.94
470.681	2930.94
470.901	3272.94
471.12	3822.94
471.339	3849.94
471.558	3161.94
471.777	2901.94
471.997	2735.94
472.216	2655.94
472.435	2609.94
472.654	2645.94
472.873	2483.94
473.092	2559.94
473.311	2625.94
473.53	2616.94
473.749	2696.94
473.968	2781.94
474.187	2608.94
474.406	2548.94
474.625	2610.94
474.844	2617.94
475.063	2645.94
475.282	2631.94
475.501	2611.94
475.72	2635.94
475.939	2665.94
476.158	2732.94
476.377	2800.94
476.596	2700.94
476.814	2760.94
477.033	2686.94
477.252	2778.94
477.471	2804.94
477.69	2826.94
477.908	2900.94
478.127	2935.94
478.346	3004.94
478.564	3017.94
478.783	3024.94
479.002	3098.94
479.22	3043.94
479.439	3094.94
479.658	3139.94
479.876	3138.94
480.095	3106.94
480.313	3221.94
480.532	3240.94
480.751	3208.94
480.969	3099.94
481.188	3090.94
481.406	3122.94
481.624	3175.94
481.843	3152.94
482.061	3192.94
482.28	3166.94
482.498	3190.94
482.717	3105.94
482.935	3190.94
483.153	3231.94
483.372	3256.94
483.59	3254.94
483.808	3339.94
484.027	3358.94
484.245	3626.94
484.463	4136.94
484.681	4571.94
484.9	4087.94
485.118	3781.94
485.336	3703.94
485.554	3785.94
485.772	4011.94
485.99	4588.94
486.209	4967.94
486.427	4086.94
486.645	3655.94
486.863	3521.94
487.081	3439.94
487.299	3384.94
487.517	3346.94
487.735	3358.94
487.953	3388.94
