Data from SnStandardFlinnAPT0064_LampEnergy5.5_LIBS07252019.E.O._I.C._HRD10591_15-16-06-491.txt Node
Date: Thu Jul 25 15:16:06 EDT 2019
User: cochatt
Spectrometer: HR+D1059
Trigger mode: 1
Integration Time (sec): 1.000000E-1
Scans to average: 1
Electric dark correction enabled: true
Nonlinearity correction enabled: false
Boxcar width: 0
XAxis mode: Wavelengths
Number of Pixels in Spectrum: 2048
>>>>>Begin Spectral Data<<<<<
223.165	-9.5
223.4	-9.5
223.635	-9.5
223.869	-29.5
224.104	-16.5
224.338	-17.5
224.573	-6.5
224.808	-21.5
225.042	-3.5
225.277	-2.5
225.511	-1.5
225.746	16.5
225.98	11.5
226.215	4.5
226.449	15.5
226.683	12.5
226.918	19.5
227.152	28.5
227.387	37.5
227.621	44.5
227.856	41.5
228.09	43.5
228.324	62.5
228.559	38.5
228.793	83.5
229.027	158.5
229.262	156.5
229.496	150.5
229.73	148.5
229.964	154.5
230.199	144.5
230.433	162.5
230.667	168.5
230.901	161.5
231.136	157.5
231.37	169.5
231.604	185.5
231.838	202.5
232.072	210.5
232.306	227.5
232.541	205.5
232.775	176.5
233.009	214.5
233.243	213.5
233.477	202.5
233.711	232.5
233.945	277.5
234.179	240.5
234.413	214.5
234.647	209.5
234.881	216.5
235.115	233.5
235.349	282.5
235.583	338.5
235.817	423.5
236.051	428.5
236.285	292.5
236.519	234.5
236.753	238.5
236.987	241.5
237.221	242.5
237.455	241.5
237.689	242.5
237.922	213.5
238.156	226.5
238.39	238.5
238.624	232.5
238.858	244.5
239.091	239.5
239.325	232.5
239.559	239.5
239.793	229.5
240.027	259.5
240.26	261.5
240.494	271.5
240.728	259.5
240.961	265.5
241.195	297.5
241.429	304.5
241.662	323.5
241.896	341.5
242.13	379.5
242.363	521.5
242.597	639.5
242.83	601.5
243.064	621.5
243.298	702.5
243.531	634.5
243.765	404.5
243.998	335.5
244.232	313.5
244.465	305.5
244.699	288.5
244.932	274.5
245.166	301.5
245.399	292.5
245.633	303.5
245.866	303.5
246.099	293.5
246.333	302.5
246.566	292.5
246.8	290.5
247.033	292.5
247.266	310.5
247.5	300.5
247.733	309.5
247.966	315.5
248.2	326.5
248.433	379.5
248.666	420.5
248.899	388.5
249.133	378.5
249.366	361.5
249.599	385.5
249.832	451.5
250.066	449.5
250.299	379.5
250.532	358.5
250.765	345.5
250.998	343.5
251.231	320.5
251.465	334.5
251.698	333.5
251.931	355.5
252.164	335.5
252.397	329.5
252.63	356.5
252.863	353.5
253.096	344.5
253.329	321.5
253.562	344.5
253.795	366.5
254.028	356.5
254.261	370.5
254.494	380.5
254.727	422.5
254.96	491.5
255.193	501.5
255.426	409.5
255.659	384.5
255.892	386.5
256.124	377.5
256.357	392.5
256.59	394.5
256.823	413.5
257.056	469.5
257.289	532.5
257.521	567.5
257.754	478.5
257.987	426.5
258.22	394.5
258.452	405.5
258.685	415.5
258.918	397.5
259.151	433.5
259.383	465.5
259.616	493.5
259.849	499.5
260.081	471.5
260.314	441.5
260.547	409.5
260.779	424.5
261.012	425.5
261.244	407.5
261.477	451.5
261.71	446.5
261.942	440.5
262.175	452.5
262.407	480.5
262.64	466.5
262.872	503.5
263.105	519.5
263.337	540.5
263.57	585.5
263.802	549.5
264.035	577.5
264.267	586.5
264.499	597.5
264.732	596.5
264.964	617.5
265.197	613.5
265.429	629.5
265.661	643.5
265.894	666.5
266.126	724.5
266.358	793.5
266.591	769.5
266.823	700.5
267.055	634.5
267.287	595.5
267.52	584.5
267.752	570.5
267.984	587.5
268.216	585.5
268.448	549.5
268.681	548.5
268.913	542.5
269.145	547.5
269.377	564.5
269.609	544.5
269.841	576.5
270.073	591.5
270.306	652.5
270.538	858.5
270.77	1214.5
271.002	1473.5
271.234	1040.5
271.466	739.5
271.698	646.5
271.93	604.5
272.162	558.5
272.394	564.5
272.626	536.5
272.858	540.5
273.09	550.5
273.322	521.5
273.553	537.5
273.785	531.5
274.017	529.5
274.249	514.5
274.481	546.5
274.713	526.5
274.945	537.5
275.176	526.5
275.408	522.5
275.64	530.5
275.872	517.5
276.104	548.5
276.335	564.5
276.567	565.5
276.799	539.5
277.031	577.5
277.262	581.5
277.494	583.5
277.726	625.5
277.957	687.5
278.189	801.5
278.421	706.5
278.652	675.5
278.884	668.5
279.115	636.5
279.347	612.5
279.579	609.5
279.81	632.5
280.042	631.5
280.273	607.5
280.505	628.5
280.736	649.5
280.968	662.5
281.199	696.5
281.431	749.5
281.662	789.5
281.894	725.5
282.125	676.5
282.356	690.5
282.588	696.5
282.819	702.5
283.051	740.5
283.282	818.5
283.513	966.5
283.745	1401.5
283.976	2136.5
284.207	3070.5
284.439	2704.5
284.67	1660.5
284.901	1354.5
285.132	1320.5
285.364	1292.5
285.595	1022.5
285.826	935.5
286.057	1096.5
286.288	1439.5
286.52	1972.5
286.751	1799.5
286.982	1141.5
287.213	898.5
287.444	819.5
287.675	750.5
287.906	736.5
288.138	730.5
288.369	717.5
288.6	722.5
288.831	686.5
289.062	725.5
289.293	696.5
289.524	697.5
289.755	710.5
289.986	714.5
290.217	720.5
290.448	732.5
290.679	727.5
290.91	735.5
291.141	749.5
291.371	780.5
291.602	813.5
291.833	761.5
292.064	720.5
292.295	701.5
292.526	723.5
292.757	691.5
292.987	680.5
293.218	695.5
293.449	692.5
293.68	658.5
293.91	686.5
294.141	662.5
294.372	675.5
294.603	665.5
294.833	674.5
295.064	676.5
295.295	663.5
295.525	678.5
295.756	674.5
295.987	676.5
296.217	669.5
296.448	667.5
296.679	695.5
296.909	684.5
297.14	697.5
297.37	704.5
297.601	697.5
297.831	690.5
298.062	691.5
298.292	694.5
298.523	722.5
298.753	714.5
298.984	721.5
299.214	714.5
299.445	744.5
299.675	766.5
299.905	784.5
300.136	809.5
300.366	886.5
300.597	1091.5
300.827	1458.5
301.057	1928.5
301.288	1928.5
301.518	1251.5
301.748	1017.5
301.979	940.5
302.209	894.5
302.439	902.5
302.669	954.5
302.9	1163.5
303.13	1506.5
303.36	2172.5
303.59	2920.5
303.82	2539.5
304.051	1569.5
304.281	1144.5
304.511	976.5
304.741	915.5
304.971	886.5
305.201	842.5
305.431	809.5
305.661	825.5
305.891	784.5
306.121	784.5
306.352	779.5
306.582	752.5
306.812	784.5
307.042	806.5
307.272	785.5
307.502	785.5
307.731	763.5
307.961	745.5
308.191	770.5
308.421	762.5
308.651	797.5
308.881	770.5
309.111	769.5
309.341	756.5
309.571	766.5
309.8	797.5
310.03	790.5
310.26	814.5
310.49	798.5
310.72	800.5
310.949	800.5
311.179	810.5
311.409	807.5
311.639	810.5
311.868	803.5
312.098	820.5
312.328	825.5
312.557	823.5
312.787	810.5
313.017	829.5
313.246	850.5
313.476	837.5
313.706	850.5
313.935	899.5
314.165	937.5
314.394	965.5
314.624	928.5
314.853	909.5
315.083	855.5
315.312	869.5
315.542	900.5
315.771	920.5
316.001	957.5
316.23	942.5
316.46	976.5
316.689	1080.5
316.919	1252.5
317.148	1734.5
317.377	2663.5
317.607	3879.5
317.836	3939.5
318.065	2358.5
318.295	1559.5
318.524	1282.5
318.753	1147.5
318.983	1088.5
319.212	1019.5
319.441	1009.5
319.67	1002.5
319.9	982.5
320.129	959.5
320.358	992.5
320.587	941.5
320.816	951.5
321.046	961.5
321.275	970.5
321.504	988.5
321.733	1027.5
321.962	1006.5
322.191	1030.5
322.42	1029.5
322.649	1006.5
322.878	1010.5
323.108	1021.5
323.337	1058.5
323.566	1051.5
323.795	1058.5
324.024	1078.5
324.253	1120.5
324.482	1148.5
324.71	1172.5
324.939	1224.5
325.168	1249.5
325.397	1316.5
325.626	1538.5
325.855	2121.5
326.084	3269.5
326.313	4801.5
326.542	5109.5
326.77	3238.5
326.999	2189.5
327.228	1828.5
327.457	1812.5
327.686	1815.5
327.914	1931.5
328.143	2173.5
328.372	2533.5
328.6	2726.5
328.829	2531.5
329.058	2190.5
329.287	1968.5
329.515	1823.5
329.744	1683.5
329.972	1622.5
330.201	1534.5
330.43	1458.5
330.658	1463.5
330.887	1423.5
331.115	1404.5
331.344	1383.5
331.572	1396.5
331.801	1428.5
332.03	1421.5
332.258	1416.5
332.486	1481.5
332.715	1662.5
332.943	1997.5
333.172	2368.5
333.4	2373.5
333.629	1891.5
333.857	1744.5
334.085	1780.5
334.314	1859.5
334.542	1989.5
334.771	2287.5
334.999	2706.5
335.227	3322.5
335.455	3642.5
335.684	3388.5
335.912	2893.5
336.14	2502.5
336.369	2240.5
336.597	2055.5
336.825	1922.5
337.053	1812.5
337.281	1689.5
337.51	1664.5
337.738	1565.5
337.966	1507.5
338.194	1466.5
338.422	1437.5
338.65	1397.5
338.878	1349.5
339.106	1349.5
339.334	1298.5
339.562	1307.5
339.79	1256.5
340.018	1292.5
340.246	1248.5
340.474	1238.5
340.702	1280.5
340.93	1272.5
341.158	1232.5
341.386	1233.5
341.614	1265.5
341.842	1199.5
342.07	1182.5
342.298	1180.5
342.526	1174.5
342.754	1146.5
342.981	1154.5
343.209	1124.5
343.437	1177.5
343.665	1196.5
343.893	1176.5
344.12	1177.5
344.348	1168.5
344.576	1155.5
344.804	1113.5
345.031	1133.5
345.259	1082.5
345.487	1085.5
345.714	1088.5
345.942	1071.5
346.17	1101.5
346.397	1079.5
346.625	1065.5
346.853	1074.5
347.08	1088.5
347.308	1061.5
347.535	1061.5
347.763	1034.5
347.99	1040.5
348.218	1056.5
348.445	1076.5
348.673	1070.5
348.9	1054.5
349.128	1045.5
349.355	1005.5
349.583	1022.5
349.81	1049.5
350.037	1011.5
350.265	1032.5
350.492	1020.5
350.72	1024.5
350.947	1000.5
351.174	1029.5
351.402	1031.5
351.629	1033.5
351.856	1013.5
352.083	1026.5
352.311	995.5
352.538	1014.5
352.765	1028.5
352.992	996.5
353.22	1006.5
353.447	1013.5
353.674	1044.5
353.901	1004.5
354.128	1005.5
354.355	1027.5
354.583	1009.5
354.81	1005.5
355.037	1035.5
355.264	1040.5
355.491	1003.5
355.718	1025.5
355.945	1033.5
356.172	1045.5
356.399	1081.5
356.626	1017.5
356.853	1043.5
357.08	1029.5
357.307	1079.5
357.534	1056.5
357.761	1074.5
357.988	1094.5
358.215	1076.5
358.441	1095.5
358.668	1064.5
358.895	1068.5
359.122	1089.5
359.349	1068.5
359.576	1073.5
359.802	1074.5
360.029	1073.5
360.256	1084.5
360.483	1090.5
360.709	1086.5
360.936	1100.5
361.163	1073.5
361.39	1101.5
361.616	1083.5
361.843	1077.5
362.07	1098.5
362.296	1077.5
362.523	1084.5
362.749	1092.5
362.976	1053.5
363.203	1103.5
363.429	1086.5
363.656	1075.5
363.882	1054.5
364.109	1096.5
364.335	1090.5
364.562	1060.5
364.788	1082.5
365.015	1074.5
365.241	1107.5
365.468	1108.5
365.694	1177.5
365.92	1161.5
366.147	1122.5
366.373	1099.5
366.599	1134.5
366.826	1093.5
367.052	1087.5
367.278	1082.5
367.505	1082.5
367.731	1076.5
367.957	1109.5
368.184	1126.5
368.41	1101.5
368.636	1124.5
368.862	1124.5
369.089	1107.5
369.315	1112.5
369.541	1108.5
369.767	1101.5
369.993	1116.5
370.219	1117.5
370.445	1111.5
370.672	1147.5
370.898	1142.5
371.124	1146.5
371.35	1128.5
371.576	1156.5
371.802	1142.5
372.028	1162.5
372.254	1198.5
372.48	1182.5
372.706	1147.5
372.932	1193.5
373.158	1160.5
373.384	1182.5
373.61	1170.5
373.835	1212.5
374.061	1181.5
374.287	1205.5
374.513	1187.5
374.739	1201.5
374.965	1241.5
375.191	1214.5
375.416	1189.5
375.642	1217.5
375.868	1217.5
376.094	1191.5
376.319	1200.5
376.545	1176.5
376.771	1148.5
376.997	1167.5
377.222	1166.5
377.448	1186.5
377.674	1170.5
377.899	1157.5
378.125	1148.5
378.35	1165.5
378.576	1137.5
378.802	1149.5
379.027	1162.5
379.253	1207.5
379.478	1268.5
379.704	1453.5
379.929	1975.5
380.155	2841.5
380.38	3000.5
380.606	1946.5
380.831	1424.5
381.057	1282.5
381.282	1218.5
381.507	1214.5
381.733	1174.5
381.958	1186.5
382.184	1154.5
382.409	1128.5
382.634	1148.5
382.86	1165.5
383.085	1185.5
383.31	1176.5
383.535	1135.5
383.761	1188.5
383.986	1161.5
384.211	1169.5
384.436	1185.5
384.662	1171.5
384.887	1159.5
385.112	1168.5
385.337	1198.5
385.562	1216.5
385.787	1184.5
386.013	1212.5
386.238	1232.5
386.463	1168.5
386.688	1198.5
386.913	1198.5
387.138	1203.5
387.363	1197.5
387.588	1150.5
387.813	1197.5
388.038	1158.5
388.263	1185.5
388.488	1186.5
388.713	1182.5
388.938	1225.5
389.163	1192.5
389.387	1192.5
389.612	1173.5
389.837	1200.5
390.062	1190.5
390.287	1225.5
390.512	1211.5
390.736	1215.5
390.961	1222.5
391.186	1241.5
391.411	1231.5
391.636	1276.5
391.86	1247.5
392.085	1280.5
392.31	1266.5
392.534	1224.5
392.759	1232.5
392.984	1226.5
393.208	1232.5
393.433	1255.5
393.658	1266.5
393.882	1242.5
394.107	1204.5
394.331	1239.5
394.556	1188.5
394.78	1188.5
395.005	1222.5
395.229	1205.5
395.454	1266.5
395.678	1258.5
395.903	1208.5
396.127	1252.5
396.352	1249.5
396.576	1252.5
396.801	1243.5
397.025	1310.5
397.249	1291.5
397.474	1263.5
397.698	1267.5
397.922	1263.5
398.147	1266.5
398.371	1305.5
398.595	1309.5
398.82	1316.5
399.044	1378.5
399.268	1446.5
399.492	1540.5
399.717	1596.5
399.941	1604.5
400.165	1570.5
400.389	1452.5
400.613	1412.5
400.837	1352.5
401.062	1367.5
401.286	1349.5
401.51	1360.5
401.734	1326.5
401.958	1337.5
402.182	1361.5
402.406	1328.5
402.63	1327.5
402.854	1381.5
403.078	1322.5
403.302	1384.5
403.526	1342.5
403.75	1344.5
403.974	1383.5
404.198	1403.5
404.422	1369.5
404.645	1377.5
404.869	1381.5
405.093	1367.5
405.317	1373.5
405.541	1378.5
405.765	1408.5
405.988	1408.5
406.212	1403.5
406.436	1405.5
406.66	1439.5
406.883	1426.5
407.107	1468.5
407.331	1473.5
407.555	1513.5
407.778	1502.5
408.002	1508.5
408.226	1488.5
408.449	1468.5
408.673	1405.5
408.896	1381.5
409.12	1389.5
409.344	1367.5
409.567	1366.5
409.791	1381.5
410.014	1343.5
410.238	1385.5
410.461	1376.5
410.685	1376.5
410.908	1332.5
411.132	1348.5
411.355	1310.5
411.578	1316.5
411.802	1320.5
412.025	1328.5
412.249	1315.5
412.472	1308.5
412.695	1294.5
412.919	1294.5
413.142	1308.5
413.365	1274.5
413.589	1302.5
413.812	1294.5
414.035	1313.5
414.258	1316.5
414.482	1263.5
414.705	1293.5
414.928	1282.5
415.151	1284.5
415.374	1266.5
415.597	1282.5
415.821	1262.5
416.044	1258.5
416.267	1276.5
416.49	1253.5
416.713	1253.5
416.936	1268.5
417.159	1258.5
417.382	1216.5
417.605	1239.5
417.828	1239.5
418.051	1258.5
418.274	1271.5
418.497	1245.5
418.72	1265.5
418.943	1267.5
419.166	1335.5
419.389	1378.5
419.611	1374.5
419.834	1320.5
420.057	1283.5
420.28	1299.5
420.503	1222.5
420.726	1233.5
420.948	1249.5
421.171	1247.5
421.394	1232.5
421.617	1279.5
421.839	1266.5
422.062	1285.5
422.285	1233.5
422.507	1276.5
422.73	1279.5
422.953	1290.5
423.175	1298.5
423.398	1251.5
423.621	1238.5
423.843	1285.5
424.066	1257.5
424.288	1234.5
424.511	1265.5
424.733	1237.5
424.956	1249.5
425.178	1247.5
425.401	1216.5
425.623	1239.5
425.846	1224.5
426.068	1230.5
426.291	1209.5
426.513	1205.5
426.735	1185.5
426.958	1202.5
427.18	1185.5
427.402	1187.5
427.625	1200.5
427.847	1166.5
428.069	1152.5
428.292	1168.5
428.514	1192.5
428.736	1178.5
428.958	1156.5
429.181	1170.5
429.403	1143.5
429.625	1117.5
429.847	1138.5
430.069	1204.5
430.292	1203.5
430.514	1232.5
430.736	1243.5
430.958	1145.5
431.18	1122.5
431.402	1140.5
431.624	1132.5
431.846	1131.5
432.068	1121.5
432.29	1116.5
432.512	1130.5
432.734	1148.5
432.956	1174.5
433.178	1212.5
433.4	1158.5
433.622	1154.5
433.844	1181.5
434.066	1166.5
434.287	1140.5
434.509	1171.5
434.731	1172.5
434.953	1219.5
435.175	1190.5
435.397	1193.5
435.618	1167.5
435.84	1176.5
436.062	1132.5
436.284	1148.5
436.505	1144.5
436.727	1172.5
436.949	1149.5
437.17	1160.5
437.392	1125.5
437.614	1129.5
437.835	1095.5
438.057	1101.5
438.278	1092.5
438.5	1098.5
438.721	1144.5
438.943	1142.5
439.165	1192.5
439.386	1185.5
439.608	1188.5
439.829	1177.5
440.05	1195.5
440.272	1241.5
440.493	1180.5
440.715	1198.5
440.936	1174.5
441.158	1208.5
441.379	1214.5
441.6	1270.5
441.822	1272.5
442.043	1310.5
442.264	1389.5
442.486	1288.5
442.707	1254.5
442.928	1232.5
443.149	1232.5
443.371	1243.5
443.592	1239.5
443.813	1243.5
444.034	1254.5
444.255	1272.5
444.476	1288.5
444.698	1327.5
444.919	1330.5
445.14	1426.5
445.361	1333.5
445.582	1289.5
445.803	1260.5
446.024	1266.5
446.245	1237.5
446.466	1229.5
446.687	1198.5
446.908	1200.5
447.129	1185.5
447.35	1174.5
447.571	1145.5
447.792	1161.5
448.013	1124.5
448.234	1118.5
448.455	1129.5
448.675	1142.5
448.896	1183.5
449.117	1190.5
449.338	1273.5
449.559	1346.5
449.779	1204.5
450	1127.5
450.221	1105.5
450.442	1148.5
450.662	1104.5
450.883	1108.5
451.104	1104.5
451.324	1113.5
451.545	1133.5
451.766	1123.5
451.986	1104.5
452.207	1184.5
452.428	1421.5
452.648	1866.5
452.869	1661.5
453.089	1275.5
453.31	1202.5
453.53	1224.5
453.751	1238.5
453.971	1293.5
454.192	1276.5
454.412	1156.5
454.633	1106.5
454.853	1068.5
455.073	1099.5
455.294	1057.5
455.514	1017.5
455.734	1058.5
455.955	1071.5
456.175	1092.5
456.395	1022.5
456.616	1038.5
456.836	1038.5
457.056	1032.5
457.276	1044.5
457.497	1121.5
457.717	1134.5
457.937	1106.5
458.157	1108.5
458.377	1133.5
458.598	1129.5
458.818	1124.5
459.038	1135.5
459.258	1111.5
459.478	1150.5
459.698	1148.5
459.918	1160.5
460.138	1196.5
460.358	1217.5
460.578	1221.5
460.798	1250.5
461.018	1243.5
461.238	1232.5
461.458	1268.5
461.678	1248.5
461.898	1321.5
462.118	1279.5
462.338	1284.5
462.558	1326.5
462.777	1362.5
462.997	1395.5
463.217	1463.5
463.437	1486.5
463.657	1480.5
463.876	1425.5
464.096	1414.5
464.316	1327.5
464.536	1342.5
464.755	1324.5
464.975	1303.5
465.195	1261.5
465.414	1229.5
465.634	1207.5
465.854	1184.5
466.073	1161.5
466.293	1158.5
466.512	1174.5
466.732	1184.5
466.951	1254.5
467.171	1279.5
467.391	1266.5
467.61	1159.5
467.829	1149.5
468.049	1120.5
468.268	1104.5
468.488	1145.5
468.707	1111.5
468.927	1159.5
469.146	1098.5
469.365	1109.5
469.585	1124.5
469.804	1177.5
470.023	1220.5
470.243	1180.5
470.462	1208.5
470.681	1244.5
470.901	1411.5
471.12	1586.5
471.339	1584.5
471.558	1340.5
471.777	1228.5
471.997	1180.5
472.216	1166.5
472.435	1162.5
472.654	1140.5
472.873	1117.5
473.092	1141.5
473.311	1133.5
473.53	1144.5
473.749	1174.5
473.968	1187.5
474.187	1161.5
474.406	1129.5
474.625	1137.5
474.844	1137.5
475.063	1162.5
475.282	1122.5
475.501	1120.5
475.72	1145.5
475.939	1168.5
476.158	1192.5
476.377	1183.5
476.596	1181.5
476.814	1181.5
477.033	1210.5
477.252	1223.5
477.471	1229.5
477.69	1216.5
477.908	1296.5
478.127	1311.5
478.346	1289.5
478.564	1311.5
478.783	1312.5
479.002	1330.5
479.22	1332.5
479.439	1352.5
479.658	1359.5
479.876	1318.5
480.095	1331.5
480.313	1395.5
480.532	1428.5
480.751	1395.5
480.969	1347.5
481.188	1358.5
481.406	1358.5
481.624	1309.5
481.843	1300.5
482.061	1348.5
482.28	1340.5
482.498	1363.5
482.717	1310.5
482.935	1354.5
483.153	1378.5
483.372	1423.5
483.59	1473.5
483.808	1444.5
484.027	1445.5
484.245	1504.5
484.463	1702.5
484.681	1825.5
484.9	1696.5
485.118	1590.5
485.336	1569.5
485.554	1600.5
485.772	1633.5
485.99	1874.5
486.209	2066.5
486.427	1697.5
486.645	1554.5
486.863	1503.5
487.081	1462.5
487.299	1441.5
487.517	1448.5
487.735	1461.5
487.953	1474.5
488.171	1461.5
488.389	1447.5
488.607	1413.5
488.825	1387.5
489.043	1408.5
489.261	1398.5
489.479	1445.5
489.696	1401.5
489.914	1403.5
490.132	1412.5
490.35	1429.5
490.568	1434.5
490.786	1437.5
491.003	1504.5
491.221	1500.5
491.439	1496.5
491.657	1495.5
491.874	1534.5
492.092	1557.5
492.31	1538.5
492.527	1505.5
492.745	1528.5
492.963	1474.5
493.18	1481.5
493.398	1502.5
493.615	1503.5
493.833	1552.5
494.05	1503.5
494.268	1491.5
494.485	1517.5
494.703	1490.5
494.92	1481.5
495.138	1447.5
495.355	1505.5
495.573	1535.5
495.79	1533.5
496.008	1522.5
496.225	1540.5
496.442	1536.5
496.66	1575.5
496.877	1674.5
497.094	1657.5
497.312	1624.5
497.529	1609.5
497.746	1626.5
497.963	1620.5
498.181	1712.5
498.398	1689.5
498.615	1740.5
498.832	1799.5
499.049	1898.5
499.267	2033.5
499.484	2177.5
499.701	2218.5
499.918	2278.5
500.135	2402.5
500.352	2532.5
500.569	2610.5
500.786	2524.5
501.003	2423.5
501.22	2326.5
501.437	2196.5
501.654	2067.5
501.871	1975.5
502.088	1903.5
502.305	1863.5
502.522	1750.5
502.739	1756.5
502.956	1656.5
503.172	1625.5
503.389	1593.5
503.606	1520.5
503.823	1554.5
504.04	1508.5
504.256	1535.5
504.473	1548.5
504.69	1568.5
504.907	1532.5
505.123	1472.5
505.34	1456.5
505.557	1406.5
505.773	1398.5
505.99	1367.5
506.207	1332.5
506.423	1360.5
506.64	1347.5
506.856	1327.5
507.073	1312.5
