Data from SnStandardFlinnAPT0064_QswitchEnergy10_LIBS07252019.E.O._I.C._HRD10591_15-26-11-973.txt Node
Date: Thu Jul 25 15:26:11 EDT 2019
User: cochatt
Spectrometer: HR+D1059
Trigger mode: 1
Integration Time (sec): 1.000000E-1
Scans to average: 1
Electric dark correction enabled: true
Nonlinearity correction enabled: false
Boxcar width: 0
XAxis mode: Wavelengths
Number of Pixels in Spectrum: 2048
>>>>>Begin Spectral Data<<<<<
223.165	-22.31
223.4	-22.31
223.635	-22.31
223.869	-9.31
224.104	-22.31
224.338	-21.31
224.573	-0.31
224.808	-21.31
225.042	-10.31
225.277	-1.31
225.511	-3.31
225.746	-0.31
225.98	0.69
226.215	16.69
226.449	17.69
226.683	22.69
226.918	18.69
227.152	35.69
227.387	27.69
227.621	34.69
227.856	40.69
228.09	61.69
228.324	43.69
228.559	62.69
228.793	48.69
229.027	85.69
229.262	68.69
229.496	63.69
229.73	69.69
229.964	79.69
230.199	75.69
230.433	73.69
230.667	74.69
230.901	78.69
231.136	83.69
231.37	89.69
231.604	86.69
231.838	90.69
232.072	110.69
232.306	118.69
232.541	106.69
232.775	83.69
233.009	97.69
233.243	86.69
233.477	83.69
233.711	92.69
233.945	100.69
234.179	83.69
234.413	96.69
234.647	83.69
234.881	91.69
235.115	86.69
235.349	94.69
235.583	103.69
235.817	133.69
236.051	123.69
236.285	90.69
236.519	79.69
236.753	78.69
236.987	80.69
237.221	69.69
237.455	83.69
237.689	88.69
237.922	86.69
238.156	78.69
238.39	89.69
238.624	84.69
238.858	88.69
239.091	89.69
239.325	78.69
239.559	74.69
239.793	85.69
240.027	67.69
240.26	70.69
240.494	94.69
240.728	71.69
240.961	92.69
241.195	101.69
241.429	98.69
241.662	72.69
241.896	89.69
242.13	83.69
242.363	144.69
242.597	178.69
242.83	148.69
243.064	135.69
243.298	163.69
243.531	149.69
243.765	106.69
243.998	89.69
244.232	85.69
244.465	88.69
244.699	74.69
244.932	79.69
245.166	82.69
245.399	80.69
245.633	86.69
245.866	79.69
246.099	81.69
246.333	80.69
246.566	85.69
246.8	81.69
247.033	84.69
247.266	76.69
247.5	84.69
247.733	80.69
247.966	89.69
248.2	79.69
248.433	120.69
248.666	130.69
248.899	121.69
249.133	91.69
249.366	107.69
249.599	96.69
249.832	124.69
250.066	138.69
250.299	83.69
250.532	80.69
250.765	79.69
250.998	67.69
251.231	84.69
251.465	87.69
251.698	82.69
251.931	82.69
252.164	90.69
252.397	95.69
252.63	104.69
252.863	118.69
253.096	94.69
253.329	78.69
253.562	86.69
253.795	79.69
254.028	86.69
254.261	89.69
254.494	95.69
254.727	107.69
254.96	133.69
255.193	122.69
255.426	99.69
255.659	94.69
255.892	94.69
256.124	103.69
256.357	95.69
256.59	97.69
256.823	94.69
257.056	94.69
257.289	138.69
257.521	164.69
257.754	146.69
257.987	81.69
258.22	101.69
258.452	87.69
258.685	92.69
258.918	92.69
259.151	103.69
259.383	110.69
259.616	131.69
259.849	153.69
260.081	101.69
260.314	84.69
260.547	96.69
260.779	73.69
261.012	74.69
261.244	80.69
261.477	96.69
261.71	78.69
261.942	83.69
262.175	79.69
262.407	74.69
262.64	70.69
262.872	87.69
263.105	89.69
263.337	94.69
263.57	79.69
263.802	82.69
264.035	84.69
264.267	72.69
264.499	92.69
264.732	81.69
264.964	89.69
265.197	80.69
265.429	99.69
265.661	93.69
265.894	94.69
266.126	127.69
266.358	155.69
266.591	152.69
266.823	102.69
267.055	86.69
267.287	87.69
267.52	88.69
267.752	90.69
267.984	94.69
268.216	81.69
268.448	97.69
268.681	87.69
268.913	91.69
269.145	85.69
269.377	80.69
269.609	118.69
269.841	101.69
270.073	93.69
270.306	123.69
270.538	188.69
270.77	315.69
271.002	399.69
271.234	194.69
271.466	104.69
271.698	98.69
271.93	91.69
272.162	81.69
272.394	74.69
272.626	86.69
272.858	81.69
273.09	84.69
273.322	93.69
273.553	86.69
273.785	83.69
274.017	92.69
274.249	90.69
274.481	98.69
274.713	84.69
274.945	100.69
275.176	89.69
275.408	83.69
275.64	80.69
275.872	95.69
276.104	90.69
276.335	101.69
276.567	105.69
276.799	100.69
277.031	89.69
277.262	99.69
277.494	110.69
277.726	131.69
277.957	184.69
278.189	259.69
278.421	246.69
278.652	185.69
278.884	188.69
279.115	132.69
279.347	106.69
279.579	96.69
279.81	108.69
280.042	104.69
280.273	97.69
280.505	105.69
280.736	106.69
280.968	127.69
281.199	157.69
281.431	244.69
281.662	272.69
281.894	147.69
282.125	103.69
282.356	113.69
282.588	117.69
282.819	100.69
283.051	110.69
283.282	128.69
283.513	194.69
283.745	308.69
283.976	545.69
284.207	819.69
284.439	599.69
284.67	272.69
284.901	247.69
285.132	324.69
285.364	392.69
285.595	232.69
285.826	166.69
286.057	248.69
286.288	402.69
286.52	620.69
286.751	501.69
286.982	202.69
287.213	114.69
287.444	94.69
287.675	97.69
287.906	91.69
288.138	91.69
288.369	83.69
288.6	93.69
288.831	86.69
289.062	101.69
289.293	88.69
289.524	103.69
289.755	97.69
289.986	98.69
290.217	86.69
290.448	100.69
290.679	92.69
290.91	118.69
291.141	165.69
291.371	212.69
291.602	288.69
291.833	189.69
292.064	110.69
292.295	98.69
292.526	93.69
292.757	79.69
292.987	88.69
293.218	83.69
293.449	110.69
293.68	85.69
293.91	93.69
294.141	82.69
294.372	89.69
294.603	89.69
294.833	100.69
295.064	99.69
295.295	102.69
295.525	108.69
295.756	96.69
295.987	85.69
296.217	100.69
296.448	81.69
296.679	76.69
296.909	100.69
297.14	102.69
297.37	97.69
297.601	86.69
297.831	99.69
298.062	89.69
298.292	117.69
298.523	108.69
298.753	98.69
298.984	99.69
299.214	104.69
299.445	110.69
299.675	111.69
299.905	105.69
300.136	114.69
300.366	165.69
300.597	246.69
300.827	446.69
301.057	691.69
301.288	633.69
301.518	260.69
301.748	134.69
301.979	130.69
302.209	129.69
302.439	126.69
302.669	161.69
302.9	258.69
303.13	476.69
303.36	870.69
303.59	1202.69
303.82	854.69
304.051	288.69
304.281	160.69
304.511	131.69
304.741	112.69
304.971	105.69
305.201	107.69
305.431	105.69
305.661	97.69
305.891	102.69
306.121	107.69
306.352	103.69
306.582	103.69
306.812	100.69
307.042	105.69
307.272	94.69
307.502	94.69
307.731	81.69
307.961	100.69
308.191	107.69
308.421	91.69
308.651	102.69
308.881	91.69
309.111	102.69
309.341	110.69
309.571	110.69
309.8	99.69
310.03	114.69
310.26	111.69
310.49	94.69
310.72	84.69
310.949	106.69
311.179	101.69
311.409	107.69
311.639	102.69
311.868	116.69
312.098	118.69
312.328	104.69
312.557	105.69
312.787	120.69
313.017	114.69
313.246	112.69
313.476	119.69
313.706	116.69
313.935	138.69
314.165	174.69
314.394	227.69
314.624	171.69
314.853	121.69
315.083	110.69
315.312	104.69
315.542	122.69
315.771	124.69
316.001	133.69
316.23	121.69
316.46	147.69
316.689	175.69
316.919	236.69
317.148	471.69
317.377	864.69
317.607	1462.69
317.836	1412.69
318.065	517.69
318.295	234.69
318.524	156.69
318.753	140.69
318.983	124.69
319.212	112.69
319.441	99.69
319.67	108.69
319.9	116.69
320.129	126.69
320.358	126.69
320.587	116.69
320.816	107.69
321.046	110.69
321.275	119.69
321.504	117.69
321.733	123.69
321.962	141.69
322.191	155.69
322.42	130.69
322.649	123.69
322.878	124.69
323.108	111.69
323.337	117.69
323.566	119.69
323.795	120.69
324.024	122.69
324.253	134.69
324.482	161.69
324.71	206.69
324.939	278.69
325.168	223.69
325.397	188.69
325.626	231.69
325.855	475.69
326.084	898.69
326.313	1566.69
326.542	1585.69
326.77	576.69
326.999	245.69
327.228	202.69
327.457	226.69
327.686	203.69
327.914	142.69
328.143	116.69
328.372	128.69
328.6	109.69
328.829	117.69
329.058	113.69
329.287	114.69
329.515	120.69
329.744	120.69
329.972	114.69
330.201	118.69
330.43	116.69
330.658	110.69
330.887	114.69
331.115	132.69
331.344	110.69
331.572	122.69
331.801	119.69
332.03	116.69
332.258	123.69
332.486	162.69
332.715	291.69
332.943	479.69
333.172	723.69
333.4	666.69
333.629	245.69
333.857	136.69
334.085	125.69
334.314	110.69
334.542	108.69
334.771	116.69
334.999	136.69
335.227	114.69
335.455	122.69
335.684	111.69
335.912	112.69
336.14	103.69
336.369	118.69
336.597	116.69
336.825	113.69
337.053	112.69
337.281	105.69
337.51	104.69
337.738	106.69
337.966	111.69
338.194	118.69
338.422	110.69
338.65	100.69
338.878	99.69
339.106	114.69
339.334	114.69
339.562	104.69
339.79	100.69
340.018	118.69
340.246	93.69
340.474	115.69
340.702	123.69
340.93	101.69
341.158	118.69
341.386	114.69
341.614	107.69
341.842	108.69
342.07	104.69
342.298	103.69
342.526	104.69
342.754	105.69
342.981	103.69
343.209	118.69
343.437	99.69
343.665	105.69
343.893	103.69
344.12	112.69
344.348	100.69
344.576	102.69
344.804	118.69
345.031	103.69
345.259	120.69
345.487	128.69
345.714	97.69
345.942	114.69
346.17	102.69
346.397	111.69
346.625	101.69
346.853	96.69
347.08	95.69
347.308	120.69
347.535	112.69
347.763	121.69
347.99	117.69
348.218	114.69
348.445	102.69
348.673	98.69
348.9	117.69
349.128	124.69
349.355	124.69
349.583	120.69
349.81	105.69
350.037	108.69
350.265	111.69
350.492	114.69
350.72	95.69
350.947	100.69
351.174	98.69
351.402	114.69
351.629	107.69
351.856	104.69
352.083	104.69
352.311	106.69
352.538	94.69
352.765	106.69
352.992	113.69
353.22	99.69
353.447	98.69
353.674	108.69
353.901	99.69
354.128	105.69
354.355	103.69
354.583	104.69
354.81	106.69
355.037	106.69
355.264	101.69
355.491	111.69
355.718	95.69
355.945	97.69
356.172	92.69
356.399	104.69
356.626	99.69
356.853	106.69
357.08	123.69
357.307	114.69
357.534	97.69
357.761	105.69
357.988	101.69
358.215	85.69
358.441	100.69
358.668	104.69
358.895	121.69
359.122	113.69
359.349	103.69
359.576	108.69
359.802	107.69
360.029	120.69
360.256	114.69
360.483	119.69
360.709	105.69
360.936	120.69
361.163	111.69
361.39	104.69
361.616	104.69
361.843	116.69
362.07	104.69
362.296	110.69
362.523	109.69
362.749	101.69
362.976	100.69
363.203	108.69
363.429	112.69
363.656	99.69
363.882	93.69
364.109	103.69
364.335	115.69
364.562	99.69
364.788	98.69
365.015	117.69
365.241	128.69
365.468	178.69
365.694	229.69
365.92	208.69
366.147	122.69
366.373	102.69
366.599	90.69
366.826	96.69
367.052	99.69
367.278	114.69
367.505	90.69
367.731	104.69
367.957	108.69
368.184	100.69
368.41	114.69
368.636	114.69
368.862	102.69
369.089	105.69
369.315	88.69
369.541	115.69
369.767	104.69
369.993	94.69
370.219	94.69
370.445	98.69
370.672	104.69
370.898	103.69
371.124	96.69
371.35	108.69
371.576	97.69
371.802	83.69
372.028	92.69
372.254	110.69
372.48	101.69
372.706	96.69
372.932	103.69
373.158	95.69
373.384	115.69
373.61	107.69
373.835	111.69
374.061	103.69
374.287	102.69
374.513	102.69
374.739	92.69
374.965	111.69
375.191	88.69
375.416	100.69
375.642	94.69
375.868	99.69
376.094	101.69
376.319	99.69
376.545	113.69
376.771	97.69
376.997	107.69
377.222	99.69
377.448	111.69
377.674	112.69
377.899	103.69
378.125	108.69
378.35	111.69
378.576	122.69
378.802	115.69
379.027	135.69
379.253	146.69
379.478	170.69
379.704	292.69
379.929	716.69
380.155	1555.69
380.38	1617.69
380.606	528.69
380.831	194.69
381.057	130.69
381.282	115.69
381.507	107.69
381.733	93.69
381.958	95.69
382.184	87.69
382.409	110.69
382.634	110.69
382.86	96.69
383.085	107.69
383.31	92.69
383.535	120.69
383.761	115.69
383.986	111.69
384.211	112.69
384.436	110.69
384.662	106.69
384.887	99.69
385.112	106.69
385.337	105.69
385.562	111.69
385.787	96.69
386.013	112.69
386.238	94.69
386.463	106.69
386.688	97.69
386.913	104.69
387.138	103.69
387.363	89.69
387.588	116.69
387.813	100.69
388.038	96.69
388.263	94.69
388.488	99.69
388.713	97.69
388.938	101.69
389.163	116.69
389.387	83.69
389.612	85.69
389.837	98.69
390.062	105.69
390.287	96.69
390.512	87.69
390.736	88.69
390.961	88.69
391.186	99.69
391.411	94.69
391.636	99.69
391.86	104.69
392.085	98.69
392.31	105.69
392.534	94.69
392.759	110.69
392.984	102.69
393.208	108.69
393.433	113.69
393.658	128.69
393.882	107.69
394.107	95.69
394.331	94.69
394.556	82.69
394.78	81.69
395.005	89.69
395.229	97.69
395.454	99.69
395.678	107.69
395.903	108.69
396.127	119.69
396.352	93.69
396.576	118.69
396.801	128.69
397.025	129.69
397.249	100.69
397.474	110.69
397.698	95.69
397.922	107.69
398.147	100.69
398.371	99.69
398.595	97.69
398.82	97.69
399.044	103.69
399.268	87.69
399.492	97.69
399.717	97.69
399.941	92.69
400.165	83.69
400.389	106.69
400.613	80.69
400.837	91.69
401.062	100.69
401.286	96.69
401.51	101.69
401.734	97.69
401.958	102.69
402.182	92.69
402.406	87.69
402.63	97.69
402.854	96.69
403.078	102.69
403.302	96.69
403.526	90.69
403.75	95.69
403.974	106.69
404.198	95.69
404.422	85.69
404.645	91.69
404.869	94.69
405.093	97.69
405.317	105.69
405.541	114.69
405.765	90.69
405.988	139.69
406.212	122.69
406.436	94.69
406.66	97.69
406.883	85.69
407.107	90.69
407.331	91.69
407.555	85.69
407.778	83.69
408.002	96.69
408.226	99.69
408.449	113.69
408.673	102.69
408.896	91.69
409.12	104.69
409.344	104.69
409.567	98.69
409.791	91.69
410.014	96.69
410.238	100.69
410.461	97.69
410.685	105.69
410.908	100.69
411.132	98.69
411.355	96.69
411.578	105.69
411.802	89.69
412.025	99.69
412.249	98.69
412.472	101.69
412.695	99.69
412.919	89.69
413.142	95.69
413.365	108.69
413.589	103.69
413.812	82.69
414.035	109.69
414.258	88.69
414.482	90.69
414.705	85.69
414.928	93.69
415.151	94.69
415.374	103.69
415.597	100.69
415.821	89.69
416.044	91.69
416.267	98.69
416.49	94.69
416.713	94.69
416.936	104.69
417.159	93.69
417.382	90.69
417.605	92.69
417.828	102.69
418.051	88.69
418.274	94.69
418.497	101.69
418.72	107.69
418.943	82.69
419.166	103.69
419.389	112.69
419.611	108.69
419.834	92.69
420.057	97.69
420.28	108.69
420.503	83.69
420.726	101.69
420.948	104.69
421.171	112.69
421.394	92.69
421.617	94.69
421.839	96.69
422.062	99.69
422.285	97.69
422.507	94.69
422.73	121.69
422.953	124.69
423.175	114.69
423.398	100.69
423.621	94.69
423.843	92.69
424.066	80.69
424.288	102.69
424.511	95.69
424.733	105.69
424.956	105.69
425.178	91.69
425.401	100.69
425.623	90.69
425.846	96.69
426.068	98.69
426.291	87.69
426.513	95.69
426.735	100.69
426.958	95.69
427.18	98.69
427.402	81.69
427.625	82.69
427.847	94.69
428.069	91.69
428.292	94.69
428.514	97.69
428.736	93.69
428.958	104.69
429.181	103.69
429.403	90.69
429.625	96.69
429.847	101.69
430.069	104.69
430.292	128.69
430.514	103.69
430.736	116.69
430.958	94.69
431.18	102.69
431.402	101.69
431.624	95.69
431.846	99.69
432.068	100.69
432.29	92.69
432.512	104.69
432.734	92.69
432.956	103.69
433.178	98.69
433.4	106.69
433.622	87.69
433.844	100.69
434.066	89.69
434.287	84.69
434.509	92.69
434.731	93.69
434.953	95.69
435.175	88.69
435.397	81.69
435.618	81.69
435.84	75.69
436.062	91.69
436.284	82.69
436.505	98.69
436.727	99.69
436.949	108.69
437.17	78.69
437.392	93.69
437.614	87.69
437.835	86.69
438.057	95.69
438.278	105.69
438.5	88.69
438.721	96.69
438.943	98.69
439.165	107.69
439.386	105.69
439.608	101.69
439.829	94.69
440.05	118.69
440.272	111.69
440.493	112.69
440.715	97.69
440.936	92.69
441.158	105.69
441.379	89.69
441.6	88.69
441.822	104.69
442.043	115.69
442.264	126.69
442.486	111.69
442.707	98.69
442.928	90.69
443.149	107.69
443.371	114.69
443.592	90.69
443.813	91.69
444.034	104.69
444.255	107.69
444.476	90.69
444.698	84.69
444.919	99.69
445.14	198.69
445.361	149.69
445.582	100.69
445.803	105.69
446.024	92.69
446.245	89.69
446.466	88.69
446.687	111.69
446.908	114.69
447.129	100.69
447.35	98.69
447.571	103.69
447.792	102.69
448.013	89.69
448.234	89.69
448.455	116.69
448.675	87.69
448.896	96.69
449.117	116.69
449.338	117.69
449.559	158.69
449.779	127.69
450	108.69
450.221	106.69
450.442	119.69
450.662	98.69
450.883	122.69
451.104	116.69
451.324	112.69
451.545	118.69
451.766	108.69
451.986	126.69
452.207	202.69
452.428	498.69
452.648	1272.69
452.869	718.69
453.089	194.69
453.31	130.69
453.53	124.69
453.751	148.69
453.971	165.69
454.192	159.69
454.412	118.69
454.633	111.69
454.853	94.69
455.073	79.69
455.294	103.69
455.514	89.69
455.734	91.69
455.955	92.69
456.175	90.69
456.395	90.69
456.616	90.69
456.836	84.69
457.056	106.69
457.276	99.69
457.497	110.69
457.717	122.69
457.937	90.69
458.157	102.69
458.377	101.69
458.598	95.69
458.818	100.69
459.038	88.69
459.258	96.69
459.478	111.69
459.698	94.69
459.918	89.69
460.138	89.69
460.358	76.69
460.578	91.69
460.798	79.69
461.018	92.69
461.238	83.69
461.458	88.69
461.678	76.69
461.898	95.69
462.118	100.69
462.338	100.69
462.558	87.69
462.777	104.69
462.997	107.69
463.217	110.69
463.437	144.69
463.657	209.69
463.876	207.69
464.096	113.69
464.316	89.69
464.536	106.69
464.755	83.69
464.975	84.69
465.195	90.69
465.414	104.69
465.634	101.69
465.854	90.69
466.073	89.69
466.293	91.69
466.512	98.69
466.732	93.69
466.951	111.69
467.171	146.69
467.391	123.69
467.61	100.69
467.829	91.69
468.049	86.69
468.268	104.69
468.488	100.69
468.707	73.69
468.927	88.69
469.146	98.69
469.365	92.69
469.585	95.69
469.804	98.69
470.023	87.69
470.243	94.69
470.462	106.69
470.681	110.69
470.901	130.69
471.12	186.69
471.339	228.69
471.558	146.69
471.777	106.69
471.997	102.69
472.216	98.69
472.435	83.69
472.654	83.69
472.873	80.69
473.092	96.69
473.311	91.69
473.53	94.69
473.749	115.69
473.968	98.69
474.187	90.69
474.406	84.69
474.625	96.69
474.844	92.69
475.063	104.69
475.282	97.69
475.501	94.69
475.72	95.69
475.939	110.69
476.158	96.69
476.377	110.69
476.596	101.69
476.814	94.69
477.033	89.69
477.252	110.69
477.471	99.69
477.69	93.69
477.908	92.69
478.127	110.69
478.346	84.69
478.564	90.69
478.783	94.69
479.002	89.69
479.22	79.69
479.439	103.69
479.658	99.69
479.876	98.69
480.095	81.69
480.313	95.69
480.532	80.69
480.751	118.69
480.969	100.69
481.188	91.69
481.406	99.69
481.624	105.69
481.843	115.69
482.061	123.69
482.28	111.69
482.498	82.69
482.717	93.69
482.935	113.69
483.153	96.69
483.372	91.69
483.59	89.69
483.808	100.69
484.027	91.69
484.245	114.69
484.463	171.69
484.681	255.69
484.9	141.69
485.118	125.69
485.336	98.69
485.554	99.69
485.772	125.69
485.99	178.69
486.209	269.69
486.427	174.69
486.645	122.69
486.863	117.69
487.081	94.69
487.299	95.69
487.517	91.69
487.735	95.69
487.953	102.69
488.171	102.69
488.389	91.69
488.607	88.69
488.825	89.69
489.043	106.69
489.261	99.69
489.479	96.69
489.696	102.69
489.914	85.69
490.132	79.69
490.35	91.69
490.568	102.69
490.786	100.69
491.003	101.69
491.221	97.69
491.439	119.69
491.657	96.69
491.874	113.69
492.092	93.69
492.31	113.69
492.527	95.69
492.745	109.69
492.963	100.69
493.18	105.69
493.398	94.69
493.615	104.69
493.833	94.69
494.05	90.69
494.268	106.69
494.485	110.69
494.703	97.69
494.92	98.69
495.138	105.69
495.355	105.69
495.573	106.69
495.79	107.69
496.008	105.69
496.225	93.69
496.442	97.69
496.66	115.69
496.877	158.69
497.094	150.69
497.312	116.69
497.529	107.69
497.746	88.69
497.963	96.69
498.181	105.69
498.398	113.69
498.615	112.69
498.832	108.69
499.049	90.69
499.267	124.69
499.484	180.69
499.701	116.69
499.918	100.69
500.135	104.69
500.352	102.69
500.569	93.69
500.786	98.69
501.003	102.69
501.22	99.69
501.437	82.69
501.654	90.69
501.871	99.69
502.088	91.69
502.305	93.69
502.522	94.69
502.739	96.69
502.956	103.69
503.172	94.69
503.389	89.69
503.606	100.69
503.823	91.69
504.04	109.69
504.256	90.69
504.473	101.69
504.69	96.69
504.907	104.69
505.123	102.69
505.34	102.69
505.557	102.69
505.773	89.69
505.99	103.69
506.207	106.69
506.423	103.69
506.64	100.69
506.856	76.69
507.073	90.69
507.289	110.69
507.506	101.69
507.722	101.69
507.939	101.69
508.155	97.69
508.372	98.69
508.588	106.69
508.805	92.69
509.021	100.69
509.238	104.69
