Data from SnStandardFlinnAPT0064_QswitchEnergy10_LIBS07252019.E.O._I.C._HRD10591_15-27-35-973.txt Node
Date: Thu Jul 25 15:27:35 EDT 2019
User: cochatt
Spectrometer: HR+D1059
Trigger mode: 1
Integration Time (sec): 1.000000E-1
Scans to average: 1
Electric dark correction enabled: true
Nonlinearity correction enabled: false
Boxcar width: 0
XAxis mode: Wavelengths
Number of Pixels in Spectrum: 2048
>>>>>Begin Spectral Data<<<<<
223.165	-15.62
223.4	-15.62
223.635	-15.62
223.869	-20.62
224.104	-22.62
224.338	-18.62
224.573	-16.62
224.808	-13.62
225.042	-0.62
225.277	-11.62
225.511	-8.62
225.746	1.38
225.98	3.38
226.215	19.38
226.449	28.38
226.683	29.38
226.918	11.38
227.152	35.38
227.387	26.38
227.621	43.38
227.856	57.38
228.09	58.38
228.324	54.38
228.559	57.38
228.793	59.38
229.027	61.38
229.262	85.38
229.496	69.38
229.73	79.38
229.964	93.38
230.199	69.38
230.433	84.38
230.667	83.38
230.901	77.38
231.136	95.38
231.37	84.38
231.604	91.38
231.838	108.38
232.072	114.38
232.306	126.38
232.541	87.38
232.775	85.38
233.009	85.38
233.243	84.38
233.477	100.38
233.711	115.38
233.945	105.38
234.179	99.38
234.413	88.38
234.647	87.38
234.881	79.38
235.115	90.38
235.349	95.38
235.583	104.38
235.817	131.38
236.051	126.38
236.285	97.38
236.519	87.38
236.753	82.38
236.987	91.38
237.221	64.38
237.455	72.38
237.689	100.38
237.922	70.38
238.156	91.38
238.39	85.38
238.624	84.38
238.858	96.38
239.091	89.38
239.325	92.38
239.559	82.38
239.793	81.38
240.027	69.38
240.26	78.38
240.494	72.38
240.728	77.38
240.961	86.38
241.195	89.38
241.429	97.38
241.662	87.38
241.896	76.38
242.13	111.38
242.363	147.38
242.597	166.38
242.83	131.38
243.064	153.38
243.298	187.38
243.531	134.38
243.765	95.38
243.998	84.38
244.232	84.38
244.465	97.38
244.699	94.38
244.932	95.38
245.166	98.38
245.399	91.38
245.633	82.38
245.866	73.38
246.099	87.38
246.333	87.38
246.566	82.38
246.8	82.38
247.033	88.38
247.266	89.38
247.5	78.38
247.733	87.38
247.966	85.38
248.2	91.38
248.433	111.38
248.666	130.38
248.899	120.38
249.133	89.38
249.366	105.38
249.599	94.38
249.832	124.38
250.066	139.38
250.299	91.38
250.532	91.38
250.765	88.38
250.998	75.38
251.231	80.38
251.465	80.38
251.698	77.38
251.931	96.38
252.164	83.38
252.397	97.38
252.63	87.38
252.863	102.38
253.096	108.38
253.329	102.38
253.562	87.38
253.795	81.38
254.028	89.38
254.261	105.38
254.494	94.38
254.727	128.38
254.96	148.38
255.193	133.38
255.426	106.38
255.659	85.38
255.892	81.38
256.124	106.38
256.357	87.38
256.59	110.38
256.823	101.38
257.056	108.38
257.289	162.38
257.521	199.38
257.754	133.38
257.987	87.38
258.22	97.38
258.452	76.38
258.685	74.38
258.918	82.38
259.151	78.38
259.383	99.38
259.616	115.38
259.849	146.38
260.081	116.38
260.314	90.38
260.547	91.38
260.779	89.38
261.012	104.38
261.244	85.38
261.477	79.38
261.71	97.38
261.942	89.38
262.175	84.38
262.407	79.38
262.64	92.38
262.872	79.38
263.105	96.38
263.337	97.38
263.57	89.38
263.802	103.38
264.035	104.38
264.267	101.38
264.499	98.38
264.732	91.38
264.964	99.38
265.197	88.38
265.429	94.38
265.661	87.38
265.894	113.38
266.126	122.38
266.358	179.38
266.591	156.38
266.823	103.38
267.055	84.38
267.287	85.38
267.52	93.38
267.752	95.38
267.984	103.38
268.216	96.38
268.448	91.38
268.681	86.38
268.913	101.38
269.145	98.38
269.377	100.38
269.609	81.38
269.841	87.38
270.073	104.38
270.306	127.38
270.538	200.38
270.77	310.38
271.002	367.38
271.234	207.38
271.466	124.38
271.698	107.38
271.93	105.38
272.162	94.38
272.394	94.38
272.626	97.38
272.858	90.38
273.09	90.38
273.322	88.38
273.553	103.38
273.785	85.38
274.017	75.38
274.249	86.38
274.481	96.38
274.713	85.38
274.945	92.38
275.176	94.38
275.408	89.38
275.64	89.38
275.872	88.38
276.104	87.38
276.335	105.38
276.567	93.38
276.799	94.38
277.031	96.38
277.262	106.38
277.494	114.38
277.726	131.38
277.957	189.38
278.189	257.38
278.421	243.38
278.652	185.38
278.884	183.38
279.115	141.38
279.347	123.38
279.579	114.38
279.81	101.38
280.042	104.38
280.273	88.38
280.505	108.38
280.736	101.38
280.968	117.38
281.199	169.38
281.431	243.38
281.662	263.38
281.894	152.38
282.125	105.38
282.356	113.38
282.588	108.38
282.819	106.38
283.051	117.38
283.282	139.38
283.513	189.38
283.745	305.38
283.976	545.38
284.207	775.38
284.439	596.38
284.67	261.38
284.901	260.38
285.132	337.38
285.364	375.38
285.595	238.38
285.826	179.38
286.057	256.38
286.288	410.38
286.52	603.38
286.751	505.38
286.982	194.38
287.213	129.38
287.444	113.38
287.675	105.38
287.906	103.38
288.138	90.38
288.369	93.38
288.6	94.38
288.831	99.38
289.062	87.38
289.293	107.38
289.524	102.38
289.755	102.38
289.986	101.38
290.217	103.38
290.448	99.38
290.679	104.38
290.91	115.38
291.141	174.38
291.371	246.38
291.602	284.38
291.833	202.38
292.064	117.38
292.295	102.38
292.526	99.38
292.757	95.38
292.987	103.38
293.218	83.38
293.449	102.38
293.68	110.38
293.91	87.38
294.141	90.38
294.372	106.38
294.603	101.38
294.833	108.38
295.064	83.38
295.295	87.38
295.525	92.38
295.756	98.38
295.987	83.38
296.217	85.38
296.448	81.38
296.679	88.38
296.909	100.38
297.14	122.38
297.37	82.38
297.601	106.38
297.831	101.38
298.062	114.38
298.292	102.38
298.523	108.38
298.753	117.38
298.984	112.38
299.214	110.38
299.445	109.38
299.675	121.38
299.905	110.38
300.136	132.38
300.366	181.38
300.597	277.38
300.827	453.38
301.057	659.38
301.288	606.38
301.518	265.38
301.748	149.38
301.979	127.38
302.209	138.38
302.439	143.38
302.669	168.38
302.9	282.38
303.13	489.38
303.36	865.38
303.59	1221.38
303.82	834.38
304.051	281.38
304.281	151.38
304.511	136.38
304.741	132.38
304.971	120.38
305.201	121.38
305.431	111.38
305.661	106.38
305.891	107.38
306.121	115.38
306.352	119.38
306.582	108.38
306.812	121.38
307.042	116.38
307.272	113.38
307.502	117.38
307.731	101.38
307.961	112.38
308.191	102.38
308.421	111.38
308.651	108.38
308.881	115.38
309.111	113.38
309.341	117.38
309.571	99.38
309.8	125.38
310.03	108.38
310.26	115.38
310.49	106.38
310.72	102.38
310.949	104.38
311.179	124.38
311.409	99.38
311.639	97.38
311.868	102.38
312.098	116.38
312.328	121.38
312.557	125.38
312.787	124.38
313.017	106.38
313.246	112.38
313.476	103.38
313.706	124.38
313.935	161.38
314.165	200.38
314.394	231.38
314.624	182.38
314.853	129.38
315.083	107.38
315.312	118.38
315.542	131.38
315.771	136.38
316.001	129.38
316.23	140.38
316.46	142.38
316.689	169.38
316.919	261.38
317.148	525.38
317.377	898.38
317.607	1438.38
317.836	1395.38
318.065	543.38
318.295	228.38
318.524	161.38
318.753	150.38
318.983	136.38
319.212	116.38
319.441	108.38
319.67	107.38
319.9	113.38
320.129	123.38
320.358	107.38
320.587	116.38
320.816	129.38
321.046	146.38
321.275	136.38
321.504	124.38
321.733	140.38
321.962	157.38
322.191	173.38
322.42	136.38
322.649	128.38
322.878	121.38
323.108	133.38
323.337	125.38
323.566	134.38
323.795	129.38
324.024	124.38
324.253	149.38
324.482	189.38
324.71	223.38
324.939	283.38
325.168	238.38
325.397	186.38
325.626	261.38
325.855	498.38
326.084	965.38
326.313	1590.38
326.542	1552.38
326.77	599.38
326.999	258.38
327.228	211.38
327.457	227.38
327.686	228.38
327.914	159.38
328.143	131.38
328.372	122.38
328.6	143.38
328.829	119.38
329.058	135.38
329.287	121.38
329.515	116.38
329.744	115.38
329.972	129.38
330.201	124.38
330.43	108.38
330.658	113.38
330.887	102.38
331.115	115.38
331.344	121.38
331.572	117.38
331.801	124.38
332.03	129.38
332.258	134.38
332.486	169.38
332.715	298.38
332.943	509.38
333.172	771.38
333.4	664.38
333.629	249.38
333.857	157.38
334.085	133.38
334.314	121.38
334.542	144.38
334.771	131.38
334.999	122.38
335.227	126.38
335.455	114.38
335.684	121.38
335.912	116.38
336.14	99.38
336.369	117.38
336.597	123.38
336.825	107.38
337.053	115.38
337.281	125.38
337.51	107.38
337.738	118.38
337.966	113.38
338.194	113.38
338.422	102.38
338.65	133.38
338.878	119.38
339.106	117.38
339.334	123.38
339.562	122.38
339.79	118.38
340.018	103.38
340.246	108.38
340.474	120.38
340.702	124.38
340.93	111.38
341.158	104.38
341.386	105.38
341.614	129.38
341.842	112.38
342.07	110.38
342.298	113.38
342.526	115.38
342.754	109.38
342.981	111.38
343.209	119.38
343.437	120.38
343.665	109.38
343.893	103.38
344.12	116.38
344.348	105.38
344.576	123.38
344.804	110.38
345.031	104.38
345.259	113.38
345.487	119.38
345.714	109.38
345.942	101.38
346.17	122.38
346.397	107.38
346.625	96.38
346.853	99.38
347.08	101.38
347.308	98.38
347.535	112.38
347.763	102.38
347.99	116.38
348.218	101.38
348.445	107.38
348.673	100.38
348.9	114.38
349.128	125.38
349.355	134.38
349.583	109.38
349.81	113.38
350.037	110.38
350.265	119.38
350.492	123.38
350.72	113.38
350.947	121.38
351.174	122.38
351.402	102.38
351.629	113.38
351.856	115.38
352.083	104.38
352.311	115.38
352.538	123.38
352.765	119.38
352.992	103.38
353.22	101.38
353.447	111.38
353.674	118.38
353.901	106.38
354.128	113.38
354.355	106.38
354.583	120.38
354.81	115.38
355.037	113.38
355.264	113.38
355.491	98.38
355.718	94.38
355.945	99.38
356.172	100.38
356.399	105.38
356.626	113.38
356.853	85.38
357.08	120.38
357.307	114.38
357.534	102.38
357.761	109.38
357.988	95.38
358.215	106.38
358.441	107.38
358.668	108.38
358.895	121.38
359.122	131.38
359.349	111.38
359.576	102.38
359.802	102.38
360.029	117.38
360.256	111.38
360.483	98.38
360.709	114.38
360.936	121.38
361.163	113.38
361.39	115.38
361.616	105.38
361.843	108.38
362.07	133.38
362.296	105.38
362.523	120.38
362.749	111.38
362.976	120.38
363.203	112.38
363.429	100.38
363.656	120.38
363.882	117.38
364.109	113.38
364.335	115.38
364.562	132.38
364.788	110.38
365.015	118.38
365.241	139.38
365.468	186.38
365.694	268.38
365.92	194.38
366.147	122.38
366.373	104.38
366.599	100.38
366.826	100.38
367.052	100.38
367.278	107.38
367.505	100.38
367.731	108.38
367.957	109.38
368.184	112.38
368.41	129.38
368.636	137.38
368.862	101.38
369.089	95.38
369.315	121.38
369.541	115.38
369.767	112.38
369.993	120.38
370.219	105.38
370.445	109.38
370.672	113.38
370.898	108.38
371.124	113.38
371.35	108.38
371.576	119.38
371.802	106.38
372.028	99.38
372.254	117.38
372.48	125.38
372.706	118.38
372.932	116.38
373.158	125.38
373.384	120.38
373.61	115.38
373.835	109.38
374.061	111.38
374.287	109.38
374.513	102.38
374.739	105.38
374.965	110.38
375.191	117.38
375.416	121.38
375.642	115.38
375.868	105.38
376.094	113.38
376.319	103.38
376.545	113.38
376.771	122.38
376.997	110.38
377.222	97.38
377.448	105.38
377.674	108.38
377.899	111.38
378.125	114.38
378.35	117.38
378.576	122.38
378.802	126.38
379.027	127.38
379.253	150.38
379.478	173.38
379.704	311.38
379.929	784.38
380.155	1563.38
380.38	1602.38
380.606	544.38
380.831	197.38
381.057	147.38
381.282	117.38
381.507	115.38
381.733	109.38
381.958	115.38
382.184	113.38
382.409	104.38
382.634	111.38
382.86	104.38
383.085	101.38
383.31	112.38
383.535	127.38
383.761	116.38
383.986	109.38
384.211	103.38
384.436	116.38
384.662	103.38
384.887	117.38
385.112	81.38
385.337	116.38
385.562	106.38
385.787	103.38
386.013	130.38
386.238	103.38
386.463	91.38
386.688	115.38
386.913	113.38
387.138	99.38
387.363	109.38
387.588	113.38
387.813	93.38
388.038	110.38
388.263	106.38
388.488	99.38
388.713	100.38
388.938	88.38
389.163	98.38
389.387	117.38
389.612	110.38
389.837	99.38
390.062	111.38
390.287	102.38
390.512	114.38
390.736	115.38
390.961	106.38
391.186	93.38
391.411	105.38
391.636	103.38
391.86	104.38
392.085	99.38
392.31	103.38
392.534	105.38
392.759	114.38
392.984	110.38
393.208	102.38
393.433	127.38
393.658	129.38
393.882	107.38
394.107	101.38
394.331	104.38
394.556	97.38
394.78	110.38
395.005	100.38
395.229	106.38
395.454	102.38
395.678	98.38
395.903	97.38
396.127	109.38
396.352	112.38
396.576	107.38
396.801	121.38
397.025	143.38
397.249	124.38
397.474	106.38
397.698	102.38
397.922	84.38
398.147	114.38
398.371	103.38
398.595	104.38
398.82	105.38
399.044	114.38
399.268	94.38
399.492	110.38
399.717	114.38
399.941	93.38
400.165	97.38
400.389	91.38
400.613	98.38
400.837	98.38
401.062	92.38
401.286	109.38
401.51	111.38
401.734	98.38
401.958	87.38
402.182	114.38
402.406	101.38
402.63	100.38
402.854	103.38
403.078	91.38
403.302	112.38
403.526	87.38
403.75	114.38
403.974	100.38
404.198	93.38
404.422	114.38
404.645	101.38
404.869	103.38
405.093	97.38
405.317	103.38
405.541	107.38
405.765	129.38
405.988	146.38
406.212	102.38
406.436	95.38
406.66	109.38
406.883	93.38
407.107	106.38
407.331	96.38
407.555	106.38
407.778	90.38
408.002	91.38
408.226	95.38
408.449	108.38
408.673	109.38
408.896	89.38
409.12	96.38
409.344	84.38
409.567	95.38
409.791	99.38
410.014	98.38
410.238	100.38
410.461	91.38
410.685	100.38
410.908	113.38
411.132	99.38
411.355	106.38
411.578	102.38
411.802	101.38
412.025	94.38
412.249	97.38
412.472	94.38
412.695	116.38
412.919	104.38
413.142	108.38
413.365	105.38
413.589	102.38
413.812	95.38
414.035	119.38
414.258	96.38
414.482	105.38
414.705	111.38
414.928	105.38
415.151	104.38
415.374	95.38
415.597	97.38
415.821	109.38
416.044	100.38
416.267	95.38
416.49	102.38
416.713	95.38
416.936	103.38
417.159	113.38
417.382	103.38
417.605	103.38
417.828	102.38
418.051	103.38
418.274	100.38
418.497	110.38
418.72	107.38
418.943	107.38
419.166	114.38
419.389	106.38
419.611	103.38
419.834	110.38
420.057	104.38
420.28	98.38
420.503	113.38
420.726	112.38
420.948	109.38
421.171	89.38
421.394	99.38
421.617	89.38
421.839	101.38
422.062	106.38
422.285	106.38
422.507	98.38
422.73	120.38
422.953	139.38
423.175	113.38
423.398	99.38
423.621	101.38
423.843	110.38
424.066	96.38
424.288	95.38
424.511	95.38
424.733	114.38
424.956	97.38
425.178	91.38
425.401	86.38
425.623	100.38
425.846	95.38
426.068	97.38
426.291	90.38
426.513	109.38
426.735	97.38
426.958	104.38
427.18	112.38
427.402	98.38
427.625	106.38
427.847	108.38
428.069	111.38
428.292	107.38
428.514	103.38
428.736	98.38
428.958	98.38
429.181	109.38
429.403	97.38
429.625	108.38
429.847	115.38
430.069	111.38
430.292	108.38
430.514	106.38
430.736	108.38
430.958	87.38
431.18	86.38
431.402	98.38
431.624	94.38
431.846	91.38
432.068	106.38
432.29	106.38
432.512	104.38
432.734	102.38
432.956	99.38
433.178	93.38
433.4	92.38
433.622	82.38
433.844	101.38
434.066	97.38
434.287	93.38
434.509	99.38
434.731	100.38
434.953	90.38
435.175	100.38
435.397	91.38
435.618	100.38
435.84	87.38
436.062	102.38
436.284	99.38
436.505	93.38
436.727	102.38
436.949	102.38
437.17	98.38
437.392	99.38
437.614	98.38
437.835	98.38
438.057	100.38
438.278	103.38
438.5	95.38
438.721	116.38
438.943	100.38
439.165	118.38
439.386	107.38
439.608	107.38
439.829	103.38
440.05	116.38
440.272	111.38
440.493	111.38
440.715	96.38
440.936	102.38
441.158	84.38
441.379	102.38
441.6	99.38
441.822	115.38
442.043	132.38
442.264	133.38
442.486	117.38
442.707	88.38
442.928	100.38
443.149	88.38
443.371	104.38
443.592	110.38
443.813	94.38
444.034	101.38
444.255	98.38
444.476	127.38
444.698	102.38
444.919	87.38
445.14	201.38
445.361	139.38
445.582	100.38
445.803	103.38
446.024	94.38
446.245	103.38
446.466	113.38
446.687	106.38
446.908	87.38
447.129	108.38
447.35	111.38
447.571	110.38
447.792	83.38
448.013	108.38
448.234	112.38
448.455	99.38
448.675	103.38
448.896	101.38
449.117	107.38
449.338	135.38
449.559	158.38
449.779	121.38
450	120.38
450.221	106.38
450.442	133.38
450.662	123.38
450.883	113.38
451.104	123.38
451.324	136.38
451.545	97.38
451.766	123.38
451.986	134.38
452.207	209.38
452.428	556.38
452.648	1323.38
452.869	745.38
453.089	204.38
453.31	129.38
453.53	117.38
453.751	167.38
453.971	170.38
454.192	155.38
454.412	117.38
454.633	101.38
454.853	110.38
455.073	100.38
455.294	94.38
455.514	91.38
455.734	84.38
455.955	103.38
456.175	94.38
456.395	98.38
456.616	112.38
456.836	97.38
457.056	98.38
457.276	119.38
457.497	115.38
457.717	131.38
457.937	104.38
458.157	97.38
458.377	93.38
458.598	108.38
458.818	98.38
459.038	83.38
459.258	89.38
459.478	98.38
459.698	89.38
459.918	97.38
460.138	97.38
460.358	88.38
460.578	109.38
460.798	96.38
461.018	114.38
461.238	98.38
461.458	106.38
461.678	100.38
461.898	100.38
462.118	95.38
462.338	87.38
462.558	108.38
462.777	103.38
462.997	104.38
463.217	104.38
463.437	135.38
463.657	180.38
463.876	192.38
464.096	125.38
464.316	101.38
464.536	107.38
464.755	106.38
464.975	89.38
465.195	101.38
465.414	107.38
465.634	106.38
465.854	79.38
466.073	93.38
466.293	89.38
466.512	107.38
466.732	111.38
466.951	110.38
467.171	156.38
467.391	134.38
467.61	123.38
467.829	91.38
468.049	129.38
468.268	84.38
468.488	89.38
468.707	95.38
468.927	103.38
469.146	121.38
469.365	100.38
469.585	91.38
469.804	107.38
470.023	111.38
470.243	103.38
470.462	114.38
470.681	105.38
470.901	135.38
471.12	196.38
471.339	202.38
471.558	137.38
471.777	126.38
471.997	115.38
472.216	95.38
472.435	97.38
472.654	96.38
472.873	108.38
473.092	112.38
473.311	94.38
473.53	101.38
473.749	97.38
473.968	103.38
474.187	104.38
474.406	82.38
474.625	93.38
474.844	91.38
475.063	85.38
475.282	109.38
475.501	93.38
475.72	87.38
475.939	98.38
476.158	93.38
476.377	111.38
476.596	115.38
476.814	107.38
477.033	96.38
477.252	114.38
477.471	96.38
477.69	98.38
477.908	97.38
478.127	98.38
478.346	95.38
478.564	92.38
478.783	84.38
479.002	108.38
479.22	87.38
479.439	98.38
479.658	112.38
479.876	119.38
480.095	109.38
480.313	98.38
480.532	92.38
480.751	113.38
480.969	85.38
481.188	94.38
481.406	98.38
481.624	101.38
481.843	113.38
482.061	110.38
482.28	103.38
482.498	95.38
482.717	105.38
482.935	100.38
483.153	103.38
483.372	111.38
483.59	111.38
483.808	101.38
484.027	96.38
484.245	118.38
484.463	177.38
484.681	248.38
484.9	148.38
485.118	142.38
485.336	103.38
485.554	106.38
485.772	143.38
485.99	185.38
486.209	253.38
486.427	169.38
486.645	102.38
486.863	113.38
487.081	123.38
487.299	100.38
487.517	107.38
487.735	99.38
487.953	88.38
488.171	92.38
488.389	98.38
488.607	111.38
488.825	105.38
489.043	95.38
489.261	105.38
489.479	99.38
489.696	100.38
489.914	94.38
490.132	85.38
490.35	104.38
490.568	105.38
490.786	103.38
491.003	103.38
491.221	139.38
491.439	123.38
491.657	119.38
491.874	116.38
492.092	117.38
492.31	117.38
492.527	102.38
492.745	110.38
492.963	109.38
493.18	117.38
493.398	117.38
493.615	107.38
493.833	104.38
494.05	93.38
494.268	109.38
494.485	102.38
494.703	107.38
494.92	107.38
495.138	105.38
495.355	101.38
495.573	98.38
495.79	100.38
496.008	119.38
496.225	118.38
496.442	117.38
496.66	121.38
496.877	164.38
497.094	155.38
497.312	110.38
497.529	106.38
497.746	115.38
497.963	92.38
498.181	117.38
498.398	109.38
498.615	129.38
498.832	113.38
499.049	102.38
499.267	140.38
499.484	160.38
499.701	108.38
499.918	98.38
500.135	97.38
500.352	103.38
500.569	99.38
500.786	97.38
501.003	102.38
501.22	101.38
501.437	91.38
501.654	117.38
501.871	110.38
502.088	100.38
502.305	102.38
502.522	105.38
502.739	118.38
502.956	110.38
503.172	117.38
503.389	97.38
503.606	84.38
503.823	104.38
504.04	108.38
504.256	105.38
504.473	99.38
504.69	110.38
504.907	99.38
505.123	109.38
505.34	103.38
505.557	99.38
505.773	103.38
505.99	93.38
506.207	115.38
506.423	97.38
506.64	112.38
506.856	107.38
