Data from SnStandardFlinnAPT0064_LampEnergy10_LIBS07252019.E.O._I.C._HRD10591_15-22-19-494.txt Node
Date: Thu Jul 25 15:22:19 EDT 2019
User: cochatt
Spectrometer: HR+D1059
Trigger mode: 1
Integration Time (sec): 1.000000E-1
Scans to average: 1
Electric dark correction enabled: true
Nonlinearity correction enabled: false
Boxcar width: 0
XAxis mode: Wavelengths
Number of Pixels in Spectrum: 2048
>>>>>Begin Spectral Data<<<<<
223.165	-12.56
223.4	-12.56
223.635	-12.56
223.869	-10.56
224.104	-21.56
224.338	-12.56
224.573	-25.56
224.808	-12.56
225.042	1.44
225.277	-6.56
225.511	3.44
225.746	-0.56
225.98	11.44
226.215	11.44
226.449	4.44
226.683	15.44
226.918	27.44
227.152	27.44
227.387	44.44
227.621	49.44
227.856	57.44
228.09	48.44
228.324	42.44
228.559	42.44
228.793	119.44
229.027	308.44
229.262	333.44
229.496	293.44
229.73	297.44
229.964	315.44
230.199	299.44
230.433	316.44
230.667	330.44
230.901	322.44
231.136	323.44
231.37	337.44
231.604	386.44
231.838	422.44
232.072	501.44
232.306	548.44
232.541	461.44
232.775	425.44
233.009	433.44
233.243	436.44
233.477	441.44
233.711	484.44
233.945	566.44
234.179	479.44
234.413	466.44
234.647	437.44
234.881	460.44
235.115	481.44
235.349	617.44
235.583	746.44
235.817	954.44
236.051	925.44
236.285	635.44
236.519	536.44
236.753	489.44
236.987	491.44
237.221	538.44
237.455	500.44
237.689	461.44
237.922	448.44
238.156	462.44
238.39	466.44
238.624	469.44
238.858	488.44
239.091	475.44
239.325	470.44
239.559	485.44
239.793	497.44
240.027	497.44
240.26	533.44
240.494	547.44
240.728	559.44
240.961	614.44
241.195	618.44
241.429	653.44
241.662	684.44
241.896	762.44
242.13	899.44
242.363	1218.44
242.597	1551.44
242.83	1457.44
243.064	1485.44
243.298	1747.44
243.531	1437.44
243.765	927.44
243.998	781.44
244.232	675.44
244.465	674.44
244.699	648.44
244.932	641.44
245.166	644.44
245.399	659.44
245.633	664.44
245.866	650.44
246.099	646.44
246.333	625.44
246.566	662.44
246.8	654.44
247.033	627.44
247.266	636.44
247.5	652.44
247.733	648.44
247.966	684.44
248.2	777.44
248.433	844.44
248.666	968.44
248.899	909.44
249.133	840.44
249.366	847.44
249.599	918.44
249.832	1111.44
250.066	1073.44
250.299	855.44
250.532	774.44
250.765	745.44
250.998	751.44
251.231	727.44
251.465	723.44
251.698	743.44
251.931	744.44
252.164	739.44
252.397	754.44
252.63	768.44
252.863	800.44
253.096	757.44
253.329	793.44
253.562	767.44
253.795	777.44
254.028	809.44
254.261	829.44
254.494	863.44
254.727	998.44
254.96	1224.44
255.193	1233.44
255.426	947.44
255.659	887.44
255.892	844.44
256.124	856.44
256.357	869.44
256.59	901.44
256.823	991.44
257.056	1113.44
257.289	1324.44
257.521	1442.44
257.754	1196.44
257.987	951.44
258.22	903.44
258.452	922.44
258.685	921.44
258.918	948.44
259.151	1000.44
259.383	1067.44
259.616	1173.44
259.849	1225.44
260.081	1051.44
260.314	972.44
260.547	929.44
260.779	919.44
261.012	943.44
261.244	917.44
261.477	961.44
261.71	1017.44
261.942	999.44
262.175	987.44
262.407	1036.44
262.64	1043.44
262.872	1101.44
263.105	1137.44
263.337	1191.44
263.57	1238.44
263.802	1288.44
264.035	1303.44
264.267	1360.44
264.499	1388.44
264.732	1415.44
264.964	1431.44
265.197	1401.44
265.429	1431.44
265.661	1439.44
265.894	1536.44
266.126	1736.44
266.358	1965.44
266.591	1907.44
266.823	1611.44
267.055	1430.44
267.287	1388.44
267.52	1304.44
267.752	1324.44
267.984	1269.44
268.216	1255.44
268.448	1261.44
268.681	1244.44
268.913	1241.44
269.145	1246.44
269.377	1233.44
269.609	1239.44
269.841	1274.44
270.073	1335.44
270.306	1553.44
270.538	2091.44
270.77	3042.44
271.002	3772.44
271.234	2665.44
271.466	1831.44
271.698	1512.44
271.93	1361.44
272.162	1335.44
272.394	1266.44
272.626	1230.44
272.858	1219.44
273.09	1220.44
273.322	1205.44
273.553	1210.44
273.785	1201.44
274.017	1191.44
274.249	1158.44
274.481	1171.44
274.713	1182.44
274.945	1196.44
275.176	1190.44
275.408	1209.44
275.64	1207.44
275.872	1212.44
276.104	1232.44
276.335	1254.44
276.567	1286.44
276.799	1272.44
277.031	1292.44
277.262	1317.44
277.494	1362.44
277.726	1527.44
277.957	1783.44
278.189	2078.44
278.421	1991.44
278.652	1783.44
278.884	1662.44
279.115	1460.44
279.347	1413.44
279.579	1422.44
279.81	1391.44
280.042	1346.44
280.273	1404.44
280.505	1431.44
280.736	1492.44
280.968	1562.44
281.199	1773.44
281.431	1954.44
281.662	2020.44
281.894	1751.44
282.125	1599.44
282.356	1623.44
282.588	1660.44
282.819	1675.44
283.051	1787.44
283.282	1963.44
283.513	2387.44
283.745	3464.44
283.976	5333.44
284.207	7639.44
284.439	7024.44
284.67	4418.44
284.901	3579.44
285.132	3649.44
285.364	3504.44
285.595	2627.44
285.826	2385.44
286.057	2726.44
286.288	3754.44
286.52	4992.44
286.751	4711.44
286.982	3012.44
287.213	2216.44
287.444	1963.44
287.675	1840.44
287.906	1762.44
288.138	1762.44
288.369	1669.44
288.6	1655.44
288.831	1666.44
289.062	1650.44
289.293	1693.44
289.524	1692.44
289.755	1654.44
289.986	1695.44
290.217	1719.44
290.448	1711.44
290.679	1744.44
290.91	1765.44
291.141	1858.44
291.371	2000.44
291.602	2114.44
291.833	1916.44
292.064	1741.44
292.295	1665.44
292.526	1655.44
292.757	1601.44
292.987	1596.44
293.218	1579.44
293.449	1554.44
293.68	1627.44
293.91	1604.44
294.141	1552.44
294.372	1539.44
294.603	1546.44
294.833	1564.44
295.064	1595.44
295.295	1581.44
295.525	1557.44
295.756	1597.44
295.987	1527.44
296.217	1567.44
296.448	1576.44
296.679	1556.44
296.909	1555.44
297.14	1545.44
297.37	1583.44
297.601	1633.44
297.831	1652.44
298.062	1610.44
298.292	1595.44
298.523	1715.44
298.753	1697.44
298.984	1673.44
299.214	1713.44
299.445	1717.44
299.675	1737.44
299.905	1808.44
300.136	1885.44
300.366	2105.44
300.597	2705.44
300.827	3734.44
301.057	5051.44
301.288	5079.44
301.518	3314.44
301.748	2544.44
301.979	2303.44
302.209	2235.44
302.439	2271.44
302.669	2396.44
302.9	2898.44
303.13	4047.44
303.36	5992.44
303.59	7972.44
303.82	6844.44
304.051	4054.44
304.281	2981.44
304.511	2459.44
304.741	2290.44
304.971	2173.44
305.201	2028.44
305.431	1983.44
305.661	1932.44
305.891	1886.44
306.121	1874.44
306.352	1847.44
306.582	1858.44
306.812	1832.44
307.042	1882.44
307.272	1812.44
307.502	1801.44
307.731	1817.44
307.961	1795.44
308.191	1802.44
308.421	1791.44
308.651	1799.44
308.881	1768.44
309.111	1799.44
309.341	1821.44
309.571	1804.44
309.8	1857.44
310.03	1863.44
310.26	1816.44
310.49	1815.44
310.72	1860.44
310.949	1845.44
311.179	1831.44
311.409	1880.44
311.639	1923.44
311.868	1932.44
312.098	1879.44
312.328	1955.44
312.557	1977.44
312.787	1949.44
313.017	2018.44
313.246	2045.44
313.476	2002.44
313.706	2086.44
313.935	2159.44
314.165	2346.44
314.394	2494.44
314.624	2375.44
314.853	2164.44
315.083	2154.44
315.312	2167.44
315.542	2184.44
315.771	2179.44
316.001	2226.44
316.23	2292.44
316.46	2402.44
316.689	2644.44
316.919	3143.44
317.148	4459.44
317.377	6781.44
317.607	10113.44
317.836	10460.44
318.065	6438.44
318.295	4140.44
318.524	3383.44
318.753	2912.44
318.983	2692.44
319.212	2561.44
319.441	2473.44
319.67	2396.44
319.9	2375.44
320.129	2330.44
320.358	2280.44
320.587	2296.44
320.816	2313.44
321.046	2343.44
321.275	2335.44
321.504	2351.44
321.733	2392.44
321.962	2449.44
322.191	2504.44
322.42	2481.44
322.649	2451.44
322.878	2465.44
323.108	2468.44
323.337	2522.44
323.566	2563.44
323.795	2571.44
324.024	2664.44
324.253	2705.44
324.482	2836.44
324.71	2995.44
324.939	3166.44
325.168	3248.44
325.397	3323.44
325.626	3923.44
325.855	5445.44
326.084	8418.44
326.313	12219.44
326.542	13055.44
326.77	8766.44
326.999	5807.44
327.228	4785.44
327.457	4601.44
327.686	4647.44
327.914	4939.44
328.143	5721.44
328.372	6744.44
328.6	7371.44
328.829	6502.44
329.058	5583.44
329.287	4899.44
329.515	4509.44
329.744	4169.44
329.972	4021.44
330.201	3866.44
330.43	3643.44
330.658	3567.44
330.887	3531.44
331.115	3508.44
331.344	3421.44
331.572	3412.44
331.801	3477.44
332.03	3503.44
332.258	3501.44
332.486	3770.44
332.715	4234.44
332.943	5180.44
333.172	6514.44
333.4	6485.44
333.629	4910.44
333.857	4435.44
334.085	4346.44
334.314	4586.44
334.542	4973.44
334.771	5749.44
334.999	6984.44
335.227	8761.44
335.455	9706.44
335.684	8831.44
335.912	7402.44
336.14	6209.44
336.369	5505.44
336.597	5078.44
336.825	4776.44
337.053	4435.44
337.281	4173.44
337.51	3981.44
337.738	3852.44
337.966	3665.44
338.194	3578.44
338.422	3426.44
338.65	3343.44
338.878	3273.44
339.106	3255.44
339.334	3235.44
339.562	3164.44
339.79	3064.44
340.018	3027.44
340.246	2964.44
340.474	3056.44
340.702	3035.44
340.93	3027.44
341.158	2974.44
341.386	3012.44
341.614	2998.44
341.842	2888.44
342.07	2837.44
342.298	2832.44
342.526	2721.44
342.754	2742.44
342.981	2732.44
343.209	2700.44
343.437	2714.44
343.665	2769.44
343.893	2808.44
344.12	2852.44
344.348	2764.44
344.576	2726.44
344.804	2659.44
345.031	2695.44
345.259	2609.44
345.487	2613.44
345.714	2544.44
345.942	2504.44
346.17	2541.44
346.397	2524.44
346.625	2519.44
346.853	2452.44
347.08	2533.44
347.308	2509.44
347.535	2532.44
347.763	2494.44
347.99	2513.44
348.218	2514.44
348.445	2466.44
348.673	2449.44
348.9	2443.44
349.128	2461.44
349.355	2437.44
349.583	2424.44
349.81	2443.44
350.037	2413.44
350.265	2413.44
350.492	2412.44
350.72	2383.44
350.947	2411.44
351.174	2372.44
351.402	2356.44
351.629	2403.44
351.856	2399.44
352.083	2402.44
352.311	2394.44
352.538	2344.44
352.765	2367.44
352.992	2416.44
353.22	2381.44
353.447	2380.44
353.674	2368.44
353.901	2409.44
354.128	2387.44
354.355	2364.44
354.583	2388.44
354.81	2401.44
355.037	2437.44
355.264	2447.44
355.491	2420.44
355.718	2461.44
355.945	2406.44
356.172	2418.44
356.399	2463.44
356.626	2513.44
356.853	2499.44
357.08	2498.44
357.307	2489.44
357.534	2535.44
357.761	2569.44
357.988	2568.44
358.215	2569.44
358.441	2523.44
358.668	2499.44
358.895	2526.44
359.122	2551.44
359.349	2517.44
359.576	2510.44
359.802	2457.44
360.029	2548.44
360.256	2531.44
360.483	2551.44
360.709	2547.44
360.936	2563.44
361.163	2541.44
361.39	2556.44
361.616	2529.44
361.843	2547.44
362.07	2563.44
362.296	2543.44
362.523	2539.44
362.749	2594.44
362.976	2524.44
363.203	2573.44
363.429	2503.44
363.656	2521.44
363.882	2553.44
364.109	2522.44
364.335	2513.44
364.562	2539.44
364.788	2533.44
365.015	2572.44
365.241	2672.44
365.468	2792.44
365.694	2906.44
365.92	2827.44
366.147	2609.44
366.373	2557.44
366.599	2609.44
366.826	2617.44
367.052	2539.44
367.278	2631.44
367.505	2593.44
367.731	2570.44
367.957	2652.44
368.184	2616.44
368.41	2627.44
368.636	2643.44
368.862	2661.44
369.089	2649.44
369.315	2647.44
369.541	2636.44
369.767	2693.44
369.993	2605.44
370.219	2678.44
370.445	2657.44
370.672	2661.44
370.898	2635.44
371.124	2696.44
371.35	2725.44
371.576	2740.44
371.802	2768.44
372.028	2727.44
372.254	2756.44
372.48	2720.44
372.706	2788.44
372.932	2848.44
373.158	2738.44
373.384	2760.44
373.61	2744.44
373.835	2826.44
374.061	2799.44
374.287	2833.44
374.513	2906.44
374.739	2873.44
374.965	2924.44
375.191	2921.44
375.416	2905.44
375.642	2851.44
375.868	2871.44
376.094	2833.44
376.319	2750.44
376.545	2778.44
376.771	2744.44
376.997	2714.44
377.222	2753.44
377.448	2745.44
377.674	2698.44
377.899	2685.44
378.125	2721.44
378.35	2717.44
378.576	2666.44
378.802	2745.44
379.027	2790.44
379.253	2876.44
379.478	3035.44
379.704	3512.44
379.929	5077.44
380.155	7781.44
380.38	8525.44
380.606	5137.44
380.831	3613.44
381.057	3203.44
381.282	2964.44
381.507	2834.44
381.733	2753.44
381.958	2734.44
382.184	2664.44
382.409	2745.44
382.634	2679.44
382.86	2671.44
383.085	2700.44
383.31	2671.44
383.535	2713.44
383.761	2690.44
383.986	2673.44
384.211	2716.44
384.436	2747.44
384.662	2738.44
384.887	2765.44
385.112	2751.44
385.337	2800.44
385.562	2777.44
385.787	2824.44
386.013	2797.44
386.238	2790.44
386.463	2759.44
386.688	2841.44
386.913	2744.44
387.138	2760.44
387.363	2769.44
387.588	2738.44
387.813	2721.44
388.038	2735.44
388.263	2771.44
388.488	2792.44
388.713	2758.44
388.938	2752.44
389.163	2752.44
389.387	2785.44
389.612	2744.44
389.837	2770.44
390.062	2750.44
390.287	2793.44
390.512	2791.44
390.736	2803.44
390.961	2881.44
391.186	2858.44
391.411	2859.44
391.636	2906.44
391.86	2936.44
392.085	2972.44
392.31	2827.44
392.534	2883.44
392.759	2889.44
392.984	2824.44
393.208	2851.44
393.433	2841.44
393.658	2837.44
393.882	2815.44
394.107	2747.44
394.331	2791.44
394.556	2774.44
394.78	2780.44
395.005	2825.44
395.229	2836.44
395.454	2858.44
395.678	2877.44
395.903	2886.44
396.127	2916.44
396.352	2805.44
396.576	2822.44
396.801	2841.44
397.025	2906.44
397.249	2922.44
397.474	2948.44
397.698	2879.44
397.922	2955.44
398.147	2953.44
398.371	2957.44
398.595	2997.44
398.82	3044.44
399.044	3190.44
399.268	3290.44
399.492	3529.44
399.717	3684.44
399.941	3676.44
400.165	3542.44
400.389	3356.44
400.613	3211.44
400.837	3133.44
401.062	3135.44
401.286	3090.44
401.51	3061.44
401.734	2996.44
401.958	3091.44
402.182	3065.44
402.406	3030.44
402.63	3044.44
402.854	3124.44
403.078	3113.44
403.302	3083.44
403.526	3114.44
403.75	3139.44
403.974	3197.44
404.198	3115.44
404.422	3146.44
404.645	3130.44
404.869	3141.44
405.093	3184.44
405.317	3163.44
405.541	3214.44
405.765	3260.44
405.988	3240.44
406.212	3280.44
406.436	3222.44
406.66	3268.44
406.883	3235.44
407.107	3349.44
407.331	3385.44
407.555	3462.44
407.778	3455.44
408.002	3385.44
408.226	3410.44
408.449	3384.44
408.673	3331.44
408.896	3259.44
409.12	3203.44
409.344	3215.44
409.567	3151.44
409.791	3190.44
410.014	3157.44
410.238	3170.44
410.461	3176.44
410.685	3160.44
410.908	3138.44
411.132	3053.44
411.355	3069.44
411.578	3030.44
411.802	3058.44
412.025	3008.44
412.249	3066.44
412.472	3044.44
412.695	3029.44
412.919	2998.44
413.142	3056.44
413.365	3003.44
413.589	3013.44
413.812	2973.44
414.035	2947.44
414.258	3018.44
414.482	2997.44
414.705	3015.44
414.928	2925.44
415.151	2995.44
415.374	2923.44
415.597	2913.44
415.821	2900.44
416.044	2875.44
416.267	2885.44
416.49	2882.44
416.713	2816.44
416.936	2863.44
417.159	2833.44
417.382	2843.44
417.605	2796.44
417.828	2828.44
418.051	2867.44
418.274	2854.44
418.497	2917.44
418.72	2921.44
418.943	2867.44
419.166	3037.44
419.389	3194.44
419.611	3147.44
419.834	3036.44
420.057	2977.44
420.28	2906.44
420.503	2868.44
420.726	2809.44
420.948	2886.44
421.171	2875.44
421.394	2906.44
421.617	2823.44
421.839	2881.44
422.062	2971.44
422.285	2844.44
422.507	2938.44
422.73	2904.44
422.953	2943.44
423.175	2947.44
423.398	2929.44
423.621	2937.44
423.843	2897.44
424.066	2847.44
424.288	2885.44
424.511	2827.44
424.733	2836.44
424.956	2826.44
425.178	2829.44
425.401	2801.44
425.623	2816.44
425.846	2752.44
426.068	2757.44
426.291	2756.44
426.513	2775.44
426.735	2733.44
426.958	2736.44
427.18	2688.44
427.402	2708.44
427.625	2723.44
427.847	2675.44
428.069	2638.44
428.292	2680.44
428.514	2680.44
428.736	2627.44
428.958	2659.44
429.181	2638.44
429.403	2591.44
429.625	2644.44
429.847	2653.44
430.069	2741.44
430.292	2758.44
430.514	2846.44
430.736	2844.44
430.958	2682.44
431.18	2652.44
431.402	2648.44
431.624	2592.44
431.846	2607.44
432.068	2571.44
432.29	2603.44
432.512	2573.44
432.734	2612.44
432.956	2620.44
433.178	2636.44
433.4	2641.44
433.622	2653.44
433.844	2640.44
434.066	2596.44
434.287	2632.44
434.509	2682.44
434.731	2698.44
434.953	2713.44
435.175	2681.44
435.397	2764.44
435.618	2623.44
435.84	2641.44
436.062	2643.44
436.284	2623.44
436.505	2535.44
436.727	2620.44
436.949	2625.44
437.17	2528.44
437.392	2602.44
437.614	2538.44
437.835	2501.44
438.057	2557.44
438.278	2521.44
438.5	2509.44
438.721	2586.44
438.943	2662.44
439.165	2691.44
439.386	2671.44
439.608	2687.44
439.829	2724.44
440.05	2787.44
440.272	2815.44
440.493	2695.44
440.715	2664.44
440.936	2675.44
441.158	2732.44
441.379	2781.44
441.6	2872.44
441.822	2916.44
442.043	3091.44
442.264	3157.44
442.486	2970.44
442.707	2869.44
442.928	2851.44
443.149	2795.44
443.371	2780.44
443.592	2879.44
443.813	2837.44
444.034	2823.44
444.255	2899.44
444.476	2908.44
444.698	2931.44
444.919	3011.44
445.14	3144.44
445.361	2955.44
445.582	2907.44
445.803	2802.44
446.024	2764.44
446.245	2786.44
446.466	2756.44
446.687	2716.44
446.908	2770.44
447.129	2625.44
447.35	2652.44
447.571	2621.44
447.792	2600.44
448.013	2577.44
448.234	2587.44
448.455	2596.44
448.675	2605.44
448.896	2663.44
449.117	2732.44
449.338	2969.44
449.559	3057.44
449.779	2765.44
450	2553.44
450.221	2527.44
450.442	2588.44
450.662	2493.44
450.883	2495.44
451.104	2458.44
451.324	2492.44
451.545	2518.44
451.766	2502.44
451.986	2582.44
452.207	2809.44
452.428	3597.44
452.648	5440.44
452.869	4563.44
453.089	3149.44
453.31	2907.44
453.53	2882.44
453.751	3047.44
453.971	3131.44
454.192	3035.44
454.412	2721.44
454.633	2557.44
454.853	2533.44
455.073	2462.44
455.294	2425.44
455.514	2398.44
455.734	2412.44
455.955	2377.44
456.175	2389.44
456.395	2387.44
456.616	2405.44
456.836	2476.44
457.056	2464.44
457.276	2449.44
457.497	2595.44
457.717	2619.44
457.937	2592.44
458.157	2522.44
458.377	2567.44
458.598	2577.44
458.818	2579.44
459.038	2619.44
459.258	2597.44
459.478	2691.44
459.698	2654.44
459.918	2679.44
460.138	2714.44
460.358	2761.44
460.578	2823.44
460.798	2829.44
461.018	2868.44
461.238	2851.44
461.458	2897.44
461.678	2887.44
461.898	2940.44
462.118	2973.44
462.338	2999.44
462.558	3021.44
462.777	3145.44
462.997	3237.44
463.217	3380.44
463.437	3489.44
463.657	3519.44
463.876	3543.44
464.096	3356.44
464.316	3225.44
464.536	3159.44
464.755	3048.44
464.975	2946.44
465.195	2908.44
465.414	2830.44
465.634	2714.44
465.854	2690.44
466.073	2695.44
466.293	2669.44
466.512	2654.44
466.732	2736.44
466.951	2818.44
467.171	2983.44
467.391	2922.44
467.61	2697.44
467.829	2620.44
468.049	2580.44
468.268	2579.44
468.488	2538.44
468.707	2560.44
468.927	2579.44
469.146	2577.44
469.365	2575.44
469.585	2628.44
469.804	2588.44
470.023	2710.44
470.243	2739.44
470.462	2885.44
470.681	2982.44
470.901	3225.44
471.12	3642.44
471.339	3703.44
471.558	3164.44
471.777	2839.44
471.997	2731.44
472.216	2708.44
472.435	2662.44
472.654	2624.44
472.873	2599.44
473.092	2653.44
473.311	2611.44
473.53	2614.44
473.749	2612.44
473.968	2732.44
474.187	2605.44
474.406	2588.44
474.625	2599.44
474.844	2579.44
475.063	2589.44
475.282	2578.44
475.501	2617.44
475.72	2663.44
475.939	2655.44
476.158	2657.44
476.377	2834.44
476.596	2724.44
476.814	2755.44
477.033	2700.44
477.252	2780.44
477.471	2829.44
477.69	2857.44
477.908	2889.44
478.127	2927.44
478.346	2933.44
478.564	3008.44
478.783	3045.44
479.002	3019.44
479.22	3072.44
479.439	3057.44
479.658	3130.44
479.876	3075.44
480.095	3104.44
480.313	3211.44
480.532	3176.44
480.751	3185.44
480.969	3109.44
481.188	3190.44
481.406	3083.44
481.624	3129.44
481.843	3136.44
482.061	3181.44
482.28	3121.44
482.498	3139.44
482.717	3125.44
482.935	3239.44
483.153	3131.44
483.372	3235.44
483.59	3292.44
483.808	3357.44
484.027	3403.44
484.245	3551.44
484.463	4015.44
484.681	4413.44
484.9	4043.44
485.118	3748.44
485.336	3733.44
485.554	3775.44
485.772	3939.44
485.99	4437.44
486.209	4727.44
486.427	4032.44
486.645	3665.44
486.863	3480.44
487.081	3439.44
487.299	3341.44
487.517	3356.44
487.735	3365.44
