Data from SnStandardFlinnAPT0064_LampEnergy10_LIBS07252019.E.O._I.C._HRD10591_15-21-47-494.txt Node
Date: Thu Jul 25 15:21:47 EDT 2019
User: cochatt
Spectrometer: HR+D1059
Trigger mode: 1
Integration Time (sec): 1.000000E-1
Scans to average: 1
Electric dark correction enabled: true
Nonlinearity correction enabled: false
Boxcar width: 0
XAxis mode: Wavelengths
Number of Pixels in Spectrum: 2048
>>>>>Begin Spectral Data<<<<<
223.165	-12.44
223.4	-12.44
223.635	-12.44
223.869	-20.44
224.104	-11.44
224.338	-15.44
224.573	-9.44
224.808	-13.44
225.042	-8.44
225.277	-5.44
225.511	-2.44
225.746	8.56
225.98	-11.44
226.215	20.56
226.449	16.56
226.683	28.56
226.918	8.56
227.152	27.56
227.387	22.56
227.621	34.56
227.856	60.56
228.09	38.56
228.324	57.56
228.559	51.56
228.793	120.56
229.027	320.56
229.262	327.56
229.496	321.56
229.73	283.56
229.964	291.56
230.199	294.56
230.433	304.56
230.667	315.56
230.901	315.56
231.136	324.56
231.37	375.56
231.604	373.56
231.838	435.56
232.072	519.56
232.306	539.56
232.541	472.56
232.775	425.56
233.009	396.56
233.243	430.56
233.477	452.56
233.711	538.56
233.945	576.56
234.179	491.56
234.413	447.56
234.647	421.56
234.881	473.56
235.115	520.56
235.349	608.56
235.583	732.56
235.817	978.56
236.051	957.56
236.285	656.56
236.519	531.56
236.753	497.56
236.987	499.56
237.221	522.56
237.455	513.56
237.689	467.56
237.922	456.56
238.156	437.56
238.39	501.56
238.624	496.56
238.858	454.56
239.091	475.56
239.325	477.56
239.559	511.56
239.793	495.56
240.027	502.56
240.26	543.56
240.494	549.56
240.728	588.56
240.961	600.56
241.195	644.56
241.429	671.56
241.662	692.56
241.896	773.56
242.13	922.56
242.363	1203.56
242.597	1548.56
242.83	1491.56
243.064	1484.56
243.298	1756.56
243.531	1475.56
243.765	945.56
243.998	757.56
244.232	698.56
244.465	659.56
244.699	659.56
244.932	640.56
245.166	676.56
245.399	668.56
245.633	681.56
245.866	678.56
246.099	655.56
246.333	638.56
246.566	631.56
246.8	625.56
247.033	644.56
247.266	641.56
247.5	663.56
247.733	677.56
247.966	690.56
248.2	742.56
248.433	858.56
248.666	977.56
248.899	947.56
249.133	835.56
249.366	889.56
249.599	910.56
249.832	1076.56
250.066	1049.56
250.299	865.56
250.532	779.56
250.765	760.56
250.998	752.56
251.231	731.56
251.465	732.56
251.698	747.56
251.931	744.56
252.164	730.56
252.397	741.56
252.63	772.56
252.863	765.56
253.096	785.56
253.329	777.56
253.562	787.56
253.795	773.56
254.028	803.56
254.261	825.56
254.494	881.56
254.727	1007.56
254.96	1217.56
255.193	1194.56
255.426	955.56
255.659	885.56
255.892	852.56
256.124	871.56
256.357	888.56
256.59	915.56
256.823	981.56
257.056	1087.56
257.289	1339.56
257.521	1449.56
257.754	1153.56
257.987	973.56
258.22	911.56
258.452	907.56
258.685	888.56
258.918	927.56
259.151	984.56
259.383	1092.56
259.616	1214.56
259.849	1245.56
260.081	1095.56
260.314	970.56
260.547	928.56
260.779	951.56
261.012	957.56
261.244	974.56
261.477	978.56
261.71	989.56
261.942	1003.56
262.175	979.56
262.407	1050.56
262.64	1041.56
262.872	1098.56
263.105	1143.56
263.337	1196.56
263.57	1268.56
263.802	1305.56
264.035	1318.56
264.267	1361.56
264.499	1399.56
264.732	1431.56
264.964	1450.56
265.197	1424.56
265.429	1455.56
265.661	1453.56
265.894	1567.56
266.126	1727.56
266.358	1937.56
266.591	1916.56
266.823	1602.56
267.055	1441.56
267.287	1376.56
267.52	1355.56
267.752	1299.56
267.984	1289.56
268.216	1269.56
268.448	1217.56
268.681	1221.56
268.913	1237.56
269.145	1233.56
269.377	1255.56
269.609	1269.56
269.841	1300.56
270.073	1360.56
270.306	1578.56
270.538	2090.56
270.77	3089.56
271.002	3769.56
271.234	2700.56
271.466	1826.56
271.698	1499.56
271.93	1401.56
272.162	1285.56
272.394	1242.56
272.626	1251.56
272.858	1224.56
273.09	1211.56
273.322	1219.56
273.553	1226.56
273.785	1191.56
274.017	1191.56
274.249	1224.56
274.481	1185.56
274.713	1214.56
274.945	1223.56
275.176	1239.56
275.408	1209.56
275.64	1207.56
275.872	1201.56
276.104	1257.56
276.335	1252.56
276.567	1275.56
276.799	1281.56
277.031	1313.56
277.262	1313.56
277.494	1411.56
277.726	1514.56
277.957	1796.56
278.189	2052.56
278.421	1955.56
278.652	1697.56
278.884	1656.56
279.115	1473.56
279.347	1429.56
279.579	1408.56
279.81	1363.56
280.042	1381.56
280.273	1392.56
280.505	1433.56
280.736	1476.56
280.968	1589.56
281.199	1741.56
281.431	1982.56
281.662	2044.56
281.894	1779.56
282.125	1606.56
282.356	1635.56
282.588	1648.56
282.819	1675.56
283.051	1757.56
283.282	1907.56
283.513	2429.56
283.745	3440.56
283.976	5519.56
284.207	7834.56
284.439	7092.56
284.67	4344.56
284.901	3608.56
285.132	3617.56
285.364	3461.56
285.595	2643.56
285.826	2335.56
286.057	2783.56
286.288	3761.56
286.52	4986.56
286.751	4678.56
286.982	2965.56
287.213	2217.56
287.444	1967.56
287.675	1843.56
287.906	1789.56
288.138	1711.56
288.369	1697.56
288.6	1678.56
288.831	1665.56
289.062	1682.56
289.293	1690.56
289.524	1706.56
289.755	1716.56
289.986	1700.56
290.217	1684.56
290.448	1706.56
290.679	1730.56
290.91	1773.56
291.141	1893.56
291.371	1986.56
291.602	2120.56
291.833	1913.56
292.064	1716.56
292.295	1679.56
292.526	1668.56
292.757	1642.56
292.987	1629.56
293.218	1596.56
293.449	1589.56
293.68	1595.56
293.91	1569.56
294.141	1588.56
294.372	1563.56
294.603	1550.56
294.833	1582.56
295.064	1570.56
295.295	1553.56
295.525	1512.56
295.756	1547.56
295.987	1551.56
296.217	1591.56
296.448	1557.56
296.679	1575.56
296.909	1535.56
297.14	1577.56
297.37	1608.56
297.601	1610.56
297.831	1619.56
298.062	1635.56
298.292	1619.56
298.523	1653.56
298.753	1708.56
298.984	1702.56
299.214	1750.56
299.445	1719.56
299.675	1759.56
299.905	1805.56
300.136	1905.56
300.366	2131.56
300.597	2676.56
300.827	3677.56
301.057	5041.56
301.288	5045.56
301.518	3306.56
301.748	2556.56
301.979	2323.56
302.209	2241.56
302.439	2300.56
302.669	2443.56
302.9	2890.56
303.13	4069.56
303.36	5949.56
303.59	7935.56
303.82	6839.56
304.051	4047.56
304.281	2937.56
304.511	2543.56
304.741	2284.56
304.971	2143.56
305.201	2099.56
305.431	1936.56
305.661	1928.56
305.891	1862.56
306.121	1832.56
306.352	1856.56
306.582	1843.56
306.812	1781.56
307.042	1894.56
307.272	1806.56
307.502	1805.56
307.731	1804.56
307.961	1801.56
308.191	1762.56
308.421	1812.56
308.651	1827.56
308.881	1799.56
309.111	1809.56
309.341	1782.56
309.571	1849.56
309.8	1853.56
310.03	1866.56
310.26	1857.56
310.49	1855.56
310.72	1901.56
310.949	1875.56
311.179	1883.56
311.409	1865.56
311.639	1954.56
311.868	1912.56
312.098	1934.56
312.328	1916.56
312.557	1936.56
312.787	1982.56
313.017	1989.56
313.246	2007.56
313.476	1995.56
313.706	2079.56
313.935	2196.56
314.165	2351.56
314.394	2453.56
314.624	2385.56
314.853	2148.56
315.083	2163.56
315.312	2129.56
315.542	2143.56
315.771	2171.56
316.001	2255.56
316.23	2283.56
316.46	2390.56
316.689	2687.56
316.919	3116.56
317.148	4485.56
317.377	6844.56
317.607	10101.56
317.836	10457.56
318.065	6354.56
318.295	4161.56
318.524	3305.56
318.753	2998.56
318.983	2753.56
319.212	2540.56
319.441	2472.56
319.67	2445.56
319.9	2363.56
320.129	2387.56
320.358	2317.56
320.587	2346.56
320.816	2328.56
321.046	2363.56
321.275	2367.56
321.504	2413.56
321.733	2465.56
321.962	2511.56
322.191	2520.56
322.42	2493.56
322.649	2474.56
322.878	2493.56
323.108	2479.56
323.337	2528.56
323.566	2520.56
323.795	2620.56
324.024	2648.56
324.253	2655.56
324.482	2851.56
324.71	2975.56
324.939	3153.56
325.168	3245.56
325.397	3340.56
325.626	3945.56
325.855	5466.56
326.084	8400.56
326.313	12331.56
326.542	13011.56
326.77	8769.56
326.999	5817.56
327.228	4888.56
327.457	4681.56
327.686	4727.56
327.914	5066.56
328.143	5922.56
328.372	7116.56
328.6	7788.56
328.829	6991.56
329.058	5789.56
329.287	5044.56
329.515	4540.56
329.744	4266.56
329.972	4015.56
330.201	3884.56
330.43	3741.56
330.658	3617.56
330.887	3601.56
331.115	3473.56
331.344	3496.56
331.572	3450.56
331.801	3506.56
332.03	3524.56
332.258	3597.56
332.486	3733.56
332.715	4231.56
332.943	5250.56
333.172	6455.56
333.4	6385.56
333.629	4902.56
333.857	4424.56
334.085	4507.56
334.314	4671.56
334.542	5139.56
334.771	5989.56
334.999	7439.56
335.227	9429.56
335.455	10513.56
335.684	9377.56
335.912	7599.56
336.14	6453.56
336.369	5631.56
336.597	5196.56
336.825	4797.56
337.053	4568.56
337.281	4219.56
337.51	4099.56
337.738	3890.56
337.966	3689.56
338.194	3573.56
338.422	3431.56
338.65	3343.56
338.878	3332.56
339.106	3274.56
339.334	3211.56
339.562	3133.56
339.79	3121.56
340.018	3051.56
340.246	3057.56
340.474	3000.56
340.702	3049.56
340.93	3027.56
341.158	3044.56
341.386	3027.56
341.614	2956.56
341.842	2866.56
342.07	2875.56
342.298	2832.56
342.526	2747.56
342.754	2713.56
342.981	2725.56
343.209	2740.56
343.437	2769.56
343.665	2806.56
343.893	2827.56
344.12	2793.56
344.348	2793.56
344.576	2708.56
344.804	2685.56
345.031	2625.56
345.259	2588.56
345.487	2649.56
345.714	2595.56
345.942	2543.56
346.17	2502.56
346.397	2562.56
346.625	2500.56
346.853	2522.56
347.08	2526.56
347.308	2497.56
347.535	2509.56
347.763	2488.56
347.99	2491.56
348.218	2460.56
348.445	2458.56
348.673	2465.56
348.9	2403.56
349.128	2457.56
349.355	2484.56
349.583	2443.56
349.81	2468.56
350.037	2435.56
350.265	2451.56
350.492	2408.56
350.72	2409.56
350.947	2377.56
351.174	2411.56
351.402	2426.56
351.629	2376.56
351.856	2383.56
352.083	2391.56
352.311	2388.56
352.538	2384.56
352.765	2396.56
352.992	2372.56
353.22	2327.56
353.447	2387.56
353.674	2372.56
353.901	2379.56
354.128	2413.56
354.355	2355.56
354.583	2392.56
354.81	2391.56
355.037	2475.56
355.264	2452.56
355.491	2434.56
355.718	2437.56
355.945	2483.56
356.172	2487.56
356.399	2476.56
356.626	2517.56
356.853	2468.56
357.08	2515.56
357.307	2564.56
357.534	2524.56
357.761	2623.56
357.988	2613.56
358.215	2547.56
358.441	2556.56
358.668	2540.56
358.895	2532.56
359.122	2556.56
359.349	2515.56
359.576	2527.56
359.802	2523.56
360.029	2518.56
360.256	2569.56
360.483	2523.56
360.709	2570.56
360.936	2570.56
361.163	2569.56
361.39	2589.56
361.616	2562.56
361.843	2575.56
362.07	2566.56
362.296	2570.56
362.523	2567.56
362.749	2528.56
362.976	2559.56
363.203	2565.56
363.429	2472.56
363.656	2554.56
363.882	2551.56
364.109	2571.56
364.335	2555.56
364.562	2555.56
364.788	2567.56
365.015	2588.56
365.241	2634.56
365.468	2831.56
365.694	2907.56
365.92	2809.56
366.147	2636.56
366.373	2589.56
366.599	2656.56
366.826	2627.56
367.052	2616.56
367.278	2682.56
367.505	2618.56
367.731	2609.56
367.957	2585.56
368.184	2623.56
368.41	2682.56
368.636	2671.56
368.862	2687.56
369.089	2620.56
369.315	2629.56
369.541	2657.56
369.767	2689.56
369.993	2630.56
370.219	2643.56
370.445	2633.56
370.672	2664.56
370.898	2662.56
371.124	2676.56
371.35	2724.56
371.576	2771.56
371.802	2738.56
372.028	2731.56
372.254	2729.56
372.48	2784.56
372.706	2816.56
372.932	2799.56
373.158	2828.56
373.384	2794.56
373.61	2817.56
373.835	2851.56
374.061	2815.56
374.287	2918.56
374.513	2904.56
374.739	2905.56
374.965	2905.56
375.191	2943.56
375.416	2907.56
375.642	2833.56
375.868	2867.56
376.094	2823.56
376.319	2802.56
376.545	2785.56
376.771	2751.56
376.997	2726.56
377.222	2685.56
377.448	2707.56
377.674	2746.56
377.899	2725.56
378.125	2688.56
378.35	2726.56
378.576	2728.56
378.802	2770.56
379.027	2808.56
379.253	2867.56
379.478	3029.56
379.704	3577.56
379.929	5098.56
380.155	7720.56
380.38	8359.56
380.606	5143.56
380.831	3588.56
381.057	3192.56
381.282	2947.56
381.507	2899.56
381.733	2766.56
381.958	2764.56
382.184	2726.56
382.409	2707.56
382.634	2671.56
382.86	2674.56
383.085	2683.56
383.31	2701.56
383.535	2702.56
383.761	2698.56
383.986	2721.56
384.211	2768.56
384.436	2801.56
384.662	2725.56
384.887	2813.56
385.112	2773.56
385.337	2788.56
385.562	2784.56
385.787	2761.56
386.013	2767.56
386.238	2767.56
386.463	2768.56
386.688	2779.56
386.913	2752.56
387.138	2787.56
387.363	2765.56
387.588	2754.56
387.813	2798.56
388.038	2763.56
388.263	2795.56
388.488	2803.56
388.713	2748.56
388.938	2760.56
389.163	2748.56
389.387	2817.56
389.612	2767.56
389.837	2754.56
390.062	2759.56
390.287	2784.56
390.512	2847.56
390.736	2873.56
390.961	2888.56
391.186	2838.56
391.411	2913.56
391.636	2898.56
391.86	2938.56
392.085	2964.56
392.31	2908.56
392.534	2885.56
392.759	2856.56
392.984	2868.56
393.208	2849.56
393.433	2845.56
393.658	2823.56
393.882	2780.56
394.107	2786.56
394.331	2769.56
394.556	2802.56
394.78	2808.56
395.005	2863.56
395.229	2839.56
395.454	2858.56
395.678	2925.56
395.903	2881.56
396.127	2889.56
396.352	2884.56
396.576	2817.56
396.801	2864.56
397.025	2912.56
397.249	2871.56
397.474	2961.56
397.698	2924.56
397.922	2991.56
398.147	2951.56
398.371	2970.56
398.595	2937.56
398.82	3068.56
399.044	3203.56
399.268	3357.56
399.492	3565.56
399.717	3643.56
399.941	3681.56
400.165	3538.56
400.389	3364.56
400.613	3278.56
400.837	3170.56
401.062	3127.56
401.286	3043.56
401.51	3095.56
401.734	3025.56
401.958	3081.56
402.182	3028.56
402.406	3084.56
402.63	3080.56
402.854	3050.56
403.078	3153.56
403.302	3176.56
403.526	3147.56
403.75	3164.56
403.974	3187.56
404.198	3138.56
404.422	3179.56
404.645	3206.56
404.869	3209.56
405.093	3170.56
405.317	3169.56
405.541	3256.56
405.765	3298.56
405.988	3244.56
406.212	3253.56
406.436	3221.56
406.66	3323.56
406.883	3322.56
407.107	3395.56
407.331	3441.56
407.555	3497.56
407.778	3464.56
408.002	3483.56
408.226	3404.56
408.449	3425.56
408.673	3332.56
408.896	3330.56
409.12	3244.56
409.344	3227.56
409.567	3203.56
409.791	3212.56
410.014	3139.56
410.238	3144.56
410.461	3141.56
410.685	3144.56
410.908	3133.56
411.132	3093.56
411.355	3059.56
411.578	3021.56
411.802	3093.56
412.025	3022.56
412.249	3078.56
412.472	3070.56
412.695	3022.56
412.919	3045.56
413.142	2991.56
413.365	2976.56
413.589	3008.56
413.812	2941.56
414.035	3012.56
414.258	3025.56
414.482	3007.56
414.705	3049.56
414.928	2966.56
415.151	3005.56
415.374	2961.56
415.597	2920.56
415.821	2888.56
416.044	2873.56
416.267	2847.56
416.49	2888.56
416.713	2864.56
416.936	2877.56
417.159	2844.56
417.382	2840.56
417.605	2837.56
417.828	2893.56
418.051	2924.56
418.274	2895.56
418.497	2881.56
418.72	2969.56
418.943	2943.56
419.166	3088.56
419.389	3254.56
419.611	3135.56
419.834	3034.56
420.057	3032.56
420.28	2906.56
420.503	2855.56
420.726	2886.56
420.948	2893.56
421.171	2902.56
421.394	2908.56
421.617	2910.56
421.839	2891.56
422.062	2914.56
422.285	2880.56
422.507	2893.56
422.73	2873.56
422.953	2985.56
423.175	2943.56
423.398	2957.56
423.621	2906.56
423.843	2891.56
424.066	2855.56
424.288	2834.56
424.511	2838.56
424.733	2837.56
424.956	2902.56
425.178	2856.56
425.401	2796.56
425.623	2890.56
425.846	2783.56
426.068	2820.56
426.291	2725.56
426.513	2701.56
426.735	2752.56
426.958	2772.56
427.18	2712.56
427.402	2695.56
427.625	2726.56
427.847	2643.56
428.069	2655.56
428.292	2720.56
428.514	2664.56
428.736	2677.56
428.958	2700.56
429.181	2645.56
429.403	2624.56
429.625	2613.56
429.847	2619.56
430.069	2710.56
430.292	2773.56
430.514	2857.56
430.736	2857.56
430.958	2709.56
431.18	2612.56
431.402	2645.56
431.624	2621.56
431.846	2565.56
432.068	2616.56
432.29	2603.56
432.512	2614.56
432.734	2634.56
432.956	2605.56
433.178	2688.56
433.4	2653.56
433.622	2657.56
433.844	2694.56
434.066	2633.56
434.287	2616.56
434.509	2715.56
434.731	2732.56
434.953	2739.56
435.175	2781.56
435.397	2741.56
435.618	2664.56
435.84	2661.56
436.062	2596.56
436.284	2636.56
436.505	2609.56
436.727	2647.56
436.949	2617.56
437.17	2631.56
437.392	2589.56
437.614	2560.56
437.835	2522.56
438.057	2537.56
438.278	2515.56
438.5	2555.56
438.721	2638.56
438.943	2659.56
439.165	2729.56
439.386	2739.56
439.608	2679.56
439.829	2761.56
440.05	2792.56
440.272	2856.56
440.493	2732.56
440.715	2737.56
440.936	2733.56
441.158	2764.56
441.379	2789.56
441.6	2863.56
441.822	2924.56
442.043	3063.56
442.264	3154.56
442.486	2937.56
442.707	2861.56
442.928	2840.56
443.149	2858.56
443.371	2783.56
443.592	2832.56
443.813	2877.56
444.034	2810.56
444.255	2907.56
444.476	2915.56
444.698	2983.56
444.919	3012.56
445.14	3036.56
445.361	2988.56
445.582	2867.56
445.803	2778.56
446.024	2804.56
446.245	2806.56
446.466	2773.56
446.687	2696.56
446.908	2759.56
447.129	2709.56
447.35	2633.56
447.571	2646.56
447.792	2581.56
448.013	2601.56
448.234	2572.56
448.455	2585.56
448.675	2626.56
448.896	2700.56
449.117	2768.56
449.338	2983.56
449.559	3093.56
449.779	2749.56
450	2612.56
450.221	2530.56
450.442	2565.56
450.662	2563.56
450.883	2529.56
451.104	2540.56
451.324	2500.56
451.545	2497.56
451.766	2525.56
451.986	2598.56
452.207	2794.56
452.428	3583.56
452.648	5395.56
452.869	4425.56
453.089	3126.56
453.31	2915.56
453.53	2947.56
453.751	2955.56
453.971	3135.56
454.192	3056.56
454.412	2666.56
454.633	2525.56
454.853	2498.56
455.073	2504.56
455.294	2512.56
455.514	2434.56
455.734	2458.56
455.955	2427.56
456.175	2466.56
456.395	2412.56
456.616	2449.56
456.836	2463.56
457.056	2486.56
457.276	2474.56
457.497	2607.56
457.717	2669.56
457.937	2594.56
458.157	2558.56
458.377	2589.56
458.598	2573.56
458.818	2589.56
459.038	2576.56
459.258	2620.56
459.478	2652.56
459.698	2713.56
459.918	2699.56
460.138	2761.56
460.358	2810.56
460.578	2827.56
460.798	2886.56
461.018	2885.56
461.238	2882.56
461.458	2873.56
461.678	2897.56
461.898	3000.56
462.118	2987.56
462.338	3052.56
462.558	3135.56
462.777	3159.56
462.997	3210.56
463.217	3358.56
463.437	3522.56
463.657	3552.56
463.876	3509.56
464.096	3337.56
464.316	3151.56
464.536	3180.56
464.755	3092.56
464.975	3027.56
465.195	2906.56
465.414	2878.56
465.634	2820.56
465.854	2721.56
466.073	2683.56
466.293	2693.56
466.512	2632.56
466.732	2687.56
466.951	2785.56
467.171	2944.56
467.391	2947.56
467.61	2724.56
467.829	2627.56
468.049	2598.56
468.268	2587.56
468.488	2546.56
468.707	2574.56
468.927	2545.56
469.146	2575.56
469.365	2609.56
469.585	2579.56
469.804	2654.56
470.023	2799.56
470.243	2771.56
470.462	2798.56
470.681	2968.56
470.901	3297.56
471.12	3703.56
471.339	3696.56
471.558	3101.56
471.777	2891.56
471.997	2765.56
472.216	2720.56
472.435	2612.56
472.654	2595.56
472.873	2567.56
473.092	2594.56
473.311	2597.56
473.53	2639.56
473.749	2703.56
473.968	2802.56
474.187	2661.56
474.406	2599.56
474.625	2610.56
474.844	2619.56
475.063	2544.56
475.282	2654.56
475.501	2615.56
475.72	2625.56
475.939	2653.56
476.158	2730.56
476.377	2789.56
476.596	2755.56
476.814	2762.56
477.033	2746.56
477.252	2758.56
477.471	2778.56
477.69	2923.56
477.908	2904.56
478.127	2940.56
478.346	2961.56
478.564	3018.56
478.783	3061.56
479.002	3035.56
479.22	3085.56
479.439	3144.56
479.658	3129.56
479.876	3147.56
480.095	3185.56
480.313	3226.56
480.532	3221.56
480.751	3220.56
480.969	3158.56
481.188	3194.56
481.406	3077.56
481.624	3087.56
481.843	3162.56
482.061	3145.56
482.28	3169.56
482.498	3157.56
482.717	3165.56
482.935	3200.56
483.153	3233.56
483.372	3264.56
483.59	3313.56
483.808	3434.56
484.027	3432.56
484.245	3601.56
484.463	3985.56
484.681	4475.56
484.9	4068.56
485.118	3767.56
485.336	3745.56
485.554	3844.56
485.772	3992.56
485.99	4527.56
486.209	4821.56
486.427	4139.56
486.645	3631.56
486.863	3517.56
487.081	3479.56
487.299	3429.56
487.517	3347.56
487.735	3386.56
