Data from SnStandardFlinnAPT0064_QswitchEnergy10_LIBS07252019.E.O._I.C._HRD10591_15-26-21-973.txt Node
Date: Thu Jul 25 15:26:21 EDT 2019
User: cochatt
Spectrometer: HR+D1059
Trigger mode: 1
Integration Time (sec): 1.000000E-1
Scans to average: 1
Electric dark correction enabled: true
Nonlinearity correction enabled: false
Boxcar width: 0
XAxis mode: Wavelengths
Number of Pixels in Spectrum: 2048
>>>>>Begin Spectral Data<<<<<
223.165	-2.44
223.4	-2.44
223.635	-2.44
223.869	-19.44
224.104	-13.44
224.338	-11.44
224.573	-13.44
224.808	-12.44
225.042	-11.44
225.277	-1.44
225.511	-5.44
225.746	0.56
225.98	9.56
226.215	3.56
226.449	12.56
226.683	11.56
226.918	20.56
227.152	32.56
227.387	28.56
227.621	26.56
227.856	30.56
228.09	52.56
228.324	60.56
228.559	71.56
228.793	54.56
229.027	69.56
229.262	82.56
229.496	83.56
229.73	67.56
229.964	77.56
230.199	78.56
230.433	93.56
230.667	86.56
230.901	77.56
231.136	80.56
231.37	84.56
231.604	94.56
231.838	104.56
232.072	112.56
232.306	129.56
232.541	94.56
232.775	91.56
233.009	79.56
233.243	87.56
233.477	98.56
233.711	103.56
233.945	98.56
234.179	92.56
234.413	81.56
234.647	90.56
234.881	88.56
235.115	94.56
235.349	88.56
235.583	114.56
235.817	122.56
236.051	142.56
236.285	98.56
236.519	89.56
236.753	76.56
236.987	79.56
237.221	83.56
237.455	64.56
237.689	72.56
237.922	63.56
238.156	70.56
238.39	102.56
238.624	89.56
238.858	74.56
239.091	77.56
239.325	80.56
239.559	77.56
239.793	71.56
240.027	98.56
240.26	94.56
240.494	82.56
240.728	86.56
240.961	106.56
241.195	98.56
241.429	89.56
241.662	73.56
241.896	83.56
242.13	94.56
242.363	133.56
242.597	146.56
242.83	120.56
243.064	130.56
243.298	171.56
243.531	147.56
243.765	93.56
243.998	87.56
244.232	97.56
244.465	67.56
244.699	79.56
244.932	84.56
245.166	77.56
245.399	70.56
245.633	93.56
245.866	75.56
246.099	73.56
246.333	67.56
246.566	100.56
246.8	82.56
247.033	81.56
247.266	94.56
247.5	86.56
247.733	73.56
247.966	81.56
248.2	95.56
248.433	115.56
248.666	132.56
248.899	122.56
249.133	82.56
249.366	101.56
249.599	109.56
249.832	114.56
250.066	131.56
250.299	91.56
250.532	89.56
250.765	76.56
250.998	84.56
251.231	76.56
251.465	89.56
251.698	78.56
251.931	92.56
252.164	67.56
252.397	83.56
252.63	108.56
252.863	89.56
253.096	96.56
253.329	98.56
253.562	101.56
253.795	99.56
254.028	94.56
254.261	97.56
254.494	103.56
254.727	109.56
254.96	141.56
255.193	130.56
255.426	97.56
255.659	98.56
255.892	104.56
256.124	98.56
256.357	86.56
256.59	84.56
256.823	102.56
257.056	114.56
257.289	140.56
257.521	198.56
257.754	124.56
257.987	89.56
258.22	80.56
258.452	79.56
258.685	85.56
258.918	69.56
259.151	89.56
259.383	115.56
259.616	141.56
259.849	145.56
260.081	107.56
260.314	90.56
260.547	96.56
260.779	82.56
261.012	71.56
261.244	90.56
261.477	102.56
261.71	78.56
261.942	77.56
262.175	93.56
262.407	72.56
262.64	77.56
262.872	86.56
263.105	74.56
263.337	95.56
263.57	85.56
263.802	99.56
264.035	101.56
264.267	91.56
264.499	92.56
264.732	86.56
264.964	81.56
265.197	93.56
265.429	85.56
265.661	94.56
265.894	104.56
266.126	117.56
266.358	146.56
266.591	147.56
266.823	107.56
267.055	86.56
267.287	92.56
267.52	96.56
267.752	84.56
267.984	83.56
268.216	76.56
268.448	85.56
268.681	72.56
268.913	83.56
269.145	95.56
269.377	93.56
269.609	92.56
269.841	103.56
270.073	103.56
270.306	127.56
270.538	190.56
270.77	319.56
271.002	365.56
271.234	192.56
271.466	105.56
271.698	101.56
271.93	93.56
272.162	93.56
272.394	94.56
272.626	89.56
272.858	82.56
273.09	69.56
273.322	84.56
273.553	85.56
273.785	98.56
274.017	87.56
274.249	82.56
274.481	86.56
274.713	90.56
274.945	96.56
275.176	86.56
275.408	89.56
275.64	90.56
275.872	97.56
276.104	93.56
276.335	108.56
276.567	109.56
276.799	87.56
277.031	70.56
277.262	98.56
277.494	98.56
277.726	125.56
277.957	171.56
278.189	252.56
278.421	224.56
278.652	187.56
278.884	191.56
279.115	142.56
279.347	127.56
279.579	102.56
279.81	106.56
280.042	99.56
280.273	97.56
280.505	101.56
280.736	103.56
280.968	133.56
281.199	162.56
281.431	244.56
281.662	271.56
281.894	158.56
282.125	97.56
282.356	112.56
282.588	103.56
282.819	103.56
283.051	107.56
283.282	142.56
283.513	182.56
283.745	314.56
283.976	526.56
284.207	775.56
284.439	588.56
284.67	259.56
284.901	256.56
285.132	361.56
285.364	364.56
285.595	219.56
285.826	173.56
286.057	247.56
286.288	396.56
286.52	591.56
286.751	470.56
286.982	191.56
287.213	140.56
287.444	104.56
287.675	96.56
287.906	99.56
288.138	100.56
288.369	91.56
288.6	86.56
288.831	90.56
289.062	98.56
289.293	94.56
289.524	91.56
289.755	89.56
289.986	88.56
290.217	92.56
290.448	102.56
290.679	112.56
290.91	109.56
291.141	148.56
291.371	235.56
291.602	273.56
291.833	190.56
292.064	112.56
292.295	89.56
292.526	92.56
292.757	90.56
292.987	86.56
293.218	98.56
293.449	91.56
293.68	91.56
293.91	95.56
294.141	91.56
294.372	105.56
294.603	101.56
294.833	97.56
295.064	82.56
295.295	88.56
295.525	92.56
295.756	96.56
295.987	81.56
296.217	105.56
296.448	97.56
296.679	82.56
296.909	93.56
297.14	99.56
297.37	101.56
297.601	89.56
297.831	98.56
298.062	99.56
298.292	100.56
298.523	105.56
298.753	106.56
298.984	107.56
299.214	100.56
299.445	106.56
299.675	108.56
299.905	101.56
300.136	125.56
300.366	187.56
300.597	268.56
300.827	434.56
301.057	662.56
301.288	619.56
301.518	260.56
301.748	143.56
301.979	124.56
302.209	132.56
302.439	149.56
302.669	174.56
302.9	270.56
303.13	475.56
303.36	878.56
303.59	1177.56
303.82	844.56
304.051	302.56
304.281	158.56
304.511	138.56
304.741	119.56
304.971	112.56
305.201	121.56
305.431	113.56
305.661	103.56
305.891	99.56
306.121	108.56
306.352	117.56
306.582	106.56
306.812	125.56
307.042	109.56
307.272	106.56
307.502	99.56
307.731	79.56
307.961	95.56
308.191	109.56
308.421	96.56
308.651	117.56
308.881	112.56
309.111	85.56
309.341	110.56
309.571	111.56
309.8	93.56
310.03	103.56
310.26	115.56
310.49	118.56
310.72	109.56
310.949	104.56
311.179	120.56
311.409	101.56
311.639	103.56
311.868	89.56
312.098	108.56
312.328	105.56
312.557	97.56
312.787	104.56
313.017	117.56
313.246	116.56
313.476	118.56
313.706	121.56
313.935	166.56
314.165	188.56
314.394	217.56
314.624	177.56
314.853	130.56
315.083	122.56
315.312	137.56
315.542	129.56
315.771	123.56
316.001	134.56
316.23	132.56
316.46	160.56
316.689	167.56
316.919	256.56
317.148	478.56
317.377	880.56
317.607	1446.56
317.836	1344.56
318.065	512.56
318.295	219.56
318.524	168.56
318.753	136.56
318.983	128.56
319.212	129.56
319.441	113.56
319.67	108.56
319.9	115.56
320.129	107.56
320.358	101.56
320.587	102.56
320.816	131.56
321.046	121.56
321.275	136.56
321.504	126.56
321.733	125.56
321.962	164.56
322.191	173.56
322.42	123.56
322.649	129.56
322.878	122.56
323.108	121.56
323.337	113.56
323.566	104.56
323.795	123.56
324.024	134.56
324.253	132.56
324.482	168.56
324.71	206.56
324.939	276.56
325.168	224.56
325.397	180.56
325.626	243.56
325.855	484.56
326.084	903.56
326.313	1570.56
326.542	1570.56
326.77	598.56
326.999	263.56
327.228	194.56
327.457	225.56
327.686	219.56
327.914	157.56
328.143	135.56
328.372	120.56
328.6	123.56
328.829	122.56
329.058	122.56
329.287	116.56
329.515	125.56
329.744	107.56
329.972	97.56
330.201	109.56
330.43	108.56
330.658	128.56
330.887	116.56
331.115	100.56
331.344	96.56
331.572	109.56
331.801	123.56
332.03	109.56
332.258	124.56
332.486	164.56
332.715	271.56
332.943	506.56
333.172	745.56
333.4	642.56
333.629	240.56
333.857	120.56
334.085	121.56
334.314	120.56
334.542	113.56
334.771	124.56
334.999	132.56
335.227	136.56
335.455	132.56
335.684	124.56
335.912	109.56
336.14	109.56
336.369	113.56
336.597	122.56
336.825	114.56
337.053	107.56
337.281	102.56
337.51	110.56
337.738	112.56
337.966	108.56
338.194	121.56
338.422	108.56
338.65	105.56
338.878	113.56
339.106	131.56
339.334	117.56
339.562	129.56
339.79	110.56
340.018	99.56
340.246	106.56
340.474	99.56
340.702	108.56
340.93	103.56
341.158	98.56
341.386	116.56
341.614	132.56
341.842	117.56
342.07	121.56
342.298	115.56
342.526	119.56
342.754	110.56
342.981	120.56
343.209	115.56
343.437	122.56
343.665	121.56
343.893	102.56
344.12	106.56
344.348	97.56
344.576	104.56
344.804	112.56
345.031	112.56
345.259	110.56
345.487	102.56
345.714	105.56
345.942	97.56
346.17	97.56
346.397	96.56
346.625	104.56
346.853	91.56
347.08	102.56
347.308	109.56
347.535	100.56
347.763	101.56
347.99	94.56
348.218	106.56
348.445	120.56
348.673	102.56
348.9	108.56
349.128	114.56
349.355	104.56
349.583	103.56
349.81	104.56
350.037	120.56
350.265	126.56
350.492	116.56
350.72	117.56
350.947	109.56
351.174	110.56
351.402	116.56
351.629	108.56
351.856	112.56
352.083	106.56
352.311	112.56
352.538	108.56
352.765	104.56
352.992	117.56
353.22	107.56
353.447	87.56
353.674	107.56
353.901	102.56
354.128	105.56
354.355	105.56
354.583	103.56
354.81	102.56
355.037	102.56
355.264	106.56
355.491	104.56
355.718	109.56
355.945	98.56
356.172	82.56
356.399	82.56
356.626	110.56
356.853	111.56
357.08	117.56
357.307	120.56
357.534	114.56
357.761	108.56
357.988	105.56
358.215	102.56
358.441	101.56
358.668	101.56
358.895	118.56
359.122	108.56
359.349	109.56
359.576	97.56
359.802	125.56
360.029	107.56
360.256	110.56
360.483	125.56
360.709	108.56
360.936	125.56
361.163	102.56
361.39	96.56
361.616	104.56
361.843	116.56
362.07	114.56
362.296	104.56
362.523	102.56
362.749	107.56
362.976	114.56
363.203	116.56
363.429	101.56
363.656	101.56
363.882	107.56
364.109	105.56
364.335	102.56
364.562	113.56
364.788	105.56
365.015	93.56
365.241	116.56
365.468	180.56
365.694	244.56
365.92	214.56
366.147	122.56
366.373	102.56
366.599	92.56
366.826	92.56
367.052	97.56
367.278	100.56
367.505	103.56
367.731	113.56
367.957	97.56
368.184	98.56
368.41	125.56
368.636	130.56
368.862	110.56
369.089	99.56
369.315	106.56
369.541	117.56
369.767	105.56
369.993	110.56
370.219	109.56
370.445	94.56
370.672	101.56
370.898	115.56
371.124	108.56
371.35	116.56
371.576	125.56
371.802	100.56
372.028	100.56
372.254	123.56
372.48	107.56
372.706	104.56
372.932	109.56
373.158	112.56
373.384	105.56
373.61	108.56
373.835	109.56
374.061	120.56
374.287	116.56
374.513	101.56
374.739	104.56
374.965	104.56
375.191	105.56
375.416	93.56
375.642	102.56
375.868	107.56
376.094	100.56
376.319	94.56
376.545	96.56
376.771	119.56
376.997	99.56
377.222	106.56
377.448	117.56
377.674	104.56
377.899	124.56
378.125	110.56
378.35	112.56
378.576	99.56
378.802	110.56
379.027	126.56
379.253	141.56
379.478	159.56
379.704	297.56
379.929	746.56
380.155	1502.56
380.38	1577.56
380.606	519.56
380.831	171.56
381.057	126.56
381.282	133.56
381.507	108.56
381.733	121.56
381.958	101.56
382.184	113.56
382.409	108.56
382.634	107.56
382.86	106.56
383.085	98.56
383.31	102.56
383.535	113.56
383.761	105.56
383.986	92.56
384.211	102.56
384.436	89.56
384.662	102.56
384.887	91.56
385.112	118.56
385.337	108.56
385.562	102.56
385.787	105.56
386.013	117.56
386.238	90.56
386.463	94.56
386.688	97.56
386.913	98.56
387.138	100.56
387.363	114.56
387.588	106.56
387.813	108.56
388.038	108.56
388.263	96.56
388.488	113.56
388.713	100.56
388.938	103.56
389.163	101.56
389.387	88.56
389.612	102.56
389.837	98.56
390.062	95.56
390.287	101.56
390.512	108.56
390.736	93.56
390.961	104.56
391.186	110.56
391.411	102.56
391.636	84.56
391.86	88.56
392.085	107.56
392.31	98.56
392.534	106.56
392.759	113.56
392.984	100.56
393.208	94.56
393.433	117.56
393.658	139.56
393.882	105.56
394.107	97.56
394.331	117.56
394.556	98.56
394.78	85.56
395.005	113.56
395.229	100.56
395.454	107.56
395.678	85.56
395.903	116.56
396.127	114.56
396.352	97.56
396.576	108.56
396.801	115.56
397.025	113.56
397.249	109.56
397.474	96.56
397.698	110.56
397.922	109.56
398.147	101.56
398.371	100.56
398.595	110.56
398.82	99.56
399.044	116.56
399.268	105.56
399.492	92.56
399.717	90.56
399.941	100.56
400.165	95.56
400.389	93.56
400.613	91.56
400.837	92.56
401.062	89.56
401.286	81.56
401.51	94.56
401.734	97.56
401.958	95.56
402.182	105.56
402.406	97.56
402.63	88.56
402.854	100.56
403.078	101.56
403.302	112.56
403.526	107.56
403.75	98.56
403.974	84.56
404.198	104.56
404.422	83.56
404.645	93.56
404.869	89.56
405.093	101.56
405.317	100.56
405.541	93.56
405.765	139.56
405.988	140.56
406.212	103.56
406.436	108.56
406.66	96.56
406.883	101.56
407.107	103.56
407.331	89.56
407.555	86.56
407.778	108.56
408.002	97.56
408.226	99.56
408.449	94.56
408.673	96.56
408.896	100.56
409.12	93.56
409.344	94.56
409.567	91.56
409.791	107.56
410.014	99.56
410.238	103.56
410.461	89.56
410.685	112.56
410.908	85.56
411.132	103.56
411.355	103.56
411.578	92.56
411.802	94.56
412.025	97.56
412.249	104.56
412.472	90.56
412.695	106.56
412.919	104.56
413.142	104.56
413.365	103.56
413.589	106.56
413.812	93.56
414.035	120.56
414.258	96.56
414.482	100.56
414.705	98.56
414.928	116.56
415.151	116.56
415.374	84.56
415.597	98.56
415.821	89.56
416.044	86.56
416.267	109.56
416.49	91.56
416.713	94.56
416.936	106.56
417.159	98.56
417.382	107.56
417.605	95.56
417.828	93.56
418.051	104.56
418.274	97.56
418.497	97.56
418.72	100.56
418.943	109.56
419.166	103.56
419.389	117.56
419.611	110.56
419.834	113.56
420.057	94.56
420.28	86.56
420.503	99.56
420.726	104.56
420.948	89.56
421.171	91.56
421.394	101.56
421.617	100.56
421.839	85.56
422.062	92.56
422.285	94.56
422.507	104.56
422.73	124.56
422.953	129.56
423.175	101.56
423.398	101.56
423.621	82.56
423.843	78.56
424.066	86.56
424.288	100.56
424.511	110.56
424.733	100.56
424.956	92.56
425.178	90.56
425.401	87.56
425.623	112.56
425.846	96.56
426.068	78.56
426.291	100.56
426.513	101.56
426.735	106.56
426.958	94.56
427.18	99.56
427.402	92.56
427.625	108.56
427.847	92.56
428.069	92.56
428.292	100.56
428.514	99.56
428.736	122.56
428.958	93.56
429.181	88.56
429.403	91.56
429.625	98.56
429.847	103.56
430.069	117.56
430.292	93.56
430.514	95.56
430.736	91.56
430.958	98.56
431.18	100.56
431.402	113.56
431.624	108.56
431.846	106.56
432.068	86.56
432.29	101.56
432.512	98.56
432.734	109.56
432.956	87.56
433.178	98.56
433.4	96.56
433.622	108.56
433.844	94.56
434.066	83.56
434.287	102.56
434.509	93.56
434.731	95.56
434.953	91.56
435.175	86.56
435.397	82.56
435.618	96.56
435.84	91.56
436.062	100.56
436.284	97.56
436.505	101.56
436.727	108.56
436.949	101.56
437.17	109.56
437.392	103.56
437.614	88.56
437.835	87.56
438.057	94.56
438.278	92.56
438.5	97.56
438.721	98.56
438.943	107.56
439.165	105.56
439.386	108.56
439.608	101.56
439.829	99.56
440.05	116.56
440.272	109.56
440.493	101.56
440.715	99.56
440.936	99.56
441.158	96.56
441.379	85.56
441.6	100.56
441.822	120.56
442.043	118.56
442.264	147.56
442.486	121.56
442.707	97.56
442.928	86.56
443.149	94.56
443.371	89.56
443.592	87.56
443.813	98.56
444.034	93.56
444.255	91.56
444.476	102.56
444.698	87.56
444.919	89.56
445.14	207.56
445.361	153.56
445.582	97.56
445.803	91.56
446.024	86.56
446.245	95.56
446.466	116.56
446.687	120.56
446.908	102.56
447.129	101.56
447.35	107.56
447.571	98.56
447.792	115.56
448.013	109.56
448.234	101.56
448.455	106.56
448.675	92.56
448.896	106.56
449.117	110.56
449.338	125.56
449.559	148.56
449.779	125.56
450	112.56
450.221	101.56
450.442	124.56
450.662	128.56
450.883	105.56
451.104	116.56
451.324	122.56
451.545	115.56
451.766	110.56
451.986	128.56
452.207	196.56
452.428	524.56
452.648	1298.56
452.869	729.56
453.089	204.56
453.31	126.56
453.53	101.56
453.751	145.56
453.971	157.56
454.192	157.56
454.412	125.56
454.633	123.56
454.853	92.56
455.073	93.56
455.294	94.56
455.514	112.56
455.734	84.56
455.955	89.56
456.175	101.56
456.395	86.56
456.616	92.56
456.836	97.56
457.056	95.56
457.276	94.56
457.497	102.56
457.717	123.56
457.937	86.56
458.157	109.56
458.377	95.56
458.598	107.56
458.818	88.56
459.038	80.56
459.258	98.56
459.478	96.56
459.698	89.56
459.918	95.56
460.138	89.56
460.358	92.56
460.578	90.56
460.798	106.56
461.018	87.56
461.238	97.56
461.458	85.56
461.678	85.56
461.898	85.56
462.118	86.56
462.338	106.56
462.558	101.56
462.777	108.56
462.997	94.56
463.217	117.56
463.437	129.56
463.657	184.56
463.876	184.56
464.096	118.56
464.316	103.56
464.536	102.56
464.755	85.56
464.975	97.56
465.195	92.56
465.414	92.56
465.634	112.56
465.854	99.56
466.073	90.56
466.293	92.56
466.512	90.56
466.732	99.56
466.951	105.56
467.171	141.56
467.391	130.56
467.61	112.56
467.829	96.56
468.049	85.56
468.268	84.56
468.488	106.56
468.707	96.56
468.927	94.56
469.146	96.56
469.365	88.56
469.585	93.56
469.804	99.56
470.023	91.56
470.243	86.56
470.462	107.56
470.681	103.56
470.901	119.56
471.12	180.56
471.339	218.56
471.558	132.56
471.777	120.56
471.997	105.56
472.216	93.56
472.435	112.56
472.654	92.56
472.873	102.56
473.092	100.56
473.311	107.56
473.53	103.56
473.749	107.56
473.968	96.56
474.187	101.56
474.406	93.56
474.625	94.56
474.844	99.56
475.063	85.56
475.282	91.56
475.501	92.56
475.72	102.56
475.939	108.56
476.158	98.56
476.377	111.56
476.596	120.56
476.814	98.56
477.033	92.56
477.252	97.56
477.471	105.56
477.69	108.56
477.908	99.56
478.127	101.56
478.346	96.56
478.564	95.56
478.783	118.56
479.002	101.56
479.22	88.56
479.439	102.56
479.658	113.56
479.876	101.56
480.095	90.56
480.313	90.56
480.532	95.56
480.751	93.56
480.969	97.56
481.188	96.56
481.406	87.56
481.624	102.56
481.843	101.56
482.061	128.56
482.28	104.56
482.498	94.56
482.717	79.56
482.935	94.56
483.153	116.56
483.372	106.56
483.59	91.56
483.808	118.56
484.027	109.56
484.245	124.56
484.463	180.56
484.681	234.56
484.9	152.56
485.118	118.56
485.336	91.56
485.554	116.56
485.772	129.56
485.99	196.56
486.209	266.56
486.427	160.56
486.645	108.56
486.863	103.56
487.081	114.56
487.299	126.56
487.517	105.56
487.735	96.56
487.953	93.56
488.171	102.56
488.389	92.56
488.607	96.56
488.825	89.56
489.043	90.56
489.261	100.56
489.479	96.56
489.696	103.56
489.914	107.56
490.132	99.56
490.35	106.56
490.568	120.56
490.786	101.56
491.003	106.56
491.221	101.56
491.439	124.56
491.657	108.56
491.874	113.56
492.092	120.56
492.31	103.56
492.527	96.56
492.745	99.56
492.963	109.56
493.18	99.56
493.398	112.56
493.615	100.56
493.833	118.56
494.05	99.56
494.268	87.56
494.485	87.56
494.703	101.56
494.92	113.56
495.138	91.56
495.355	87.56
495.573	120.56
495.79	97.56
496.008	107.56
496.225	109.56
496.442	96.56
496.66	128.56
496.877	168.56
497.094	152.56
497.312	105.56
497.529	112.56
497.746	120.56
497.963	109.56
498.181	97.56
498.398	108.56
498.615	105.56
498.832	117.56
499.049	115.56
499.267	126.56
499.484	164.56
499.701	114.56
499.918	107.56
500.135	105.56
500.352	107.56
500.569	97.56
500.786	102.56
501.003	117.56
501.22	95.56
501.437	94.56
501.654	101.56
501.871	102.56
502.088	100.56
502.305	93.56
502.522	97.56
502.739	107.56
502.956	98.56
503.172	104.56
503.389	101.56
503.606	98.56
503.823	100.56
504.04	106.56
504.256	93.56
504.473	96.56
504.69	94.56
504.907	122.56
505.123	114.56
505.34	104.56
505.557	112.56
505.773	91.56
505.99	110.56
506.207	103.56
506.423	105.56
506.64	116.56
506.856	105.56
507.073	83.56
507.289	97.56
507.506	98.56
507.722	86.56
507.939	101.56
508.155	81.56
508.372	93.56
