Data from SnStandardFlinnAPT0064_QswitchEnergy10_LIBS07252019.E.O._I.C._HRD10591_15-28-33-974.txt Node
Date: Thu Jul 25 15:28:33 EDT 2019
User: cochatt
Spectrometer: HR+D1059
Trigger mode: 1
Integration Time (sec): 1.000000E-1
Scans to average: 1
Electric dark correction enabled: true
Nonlinearity correction enabled: false
Boxcar width: 0
XAxis mode: Wavelengths
Number of Pixels in Spectrum: 2048
>>>>>Begin Spectral Data<<<<<
223.165	-8.44
223.4	-8.44
223.635	-8.44
223.869	-27.44
224.104	-9.44
224.338	-17.44
224.573	-13.44
224.808	-23.44
225.042	-17.44
225.277	-3.44
225.511	-11.44
225.746	-1.44
225.98	8.56
226.215	24.56
226.449	15.56
226.683	23.56
226.918	25.56
227.152	35.56
227.387	32.56
227.621	55.56
227.856	35.56
228.09	51.56
228.324	47.56
228.559	51.56
228.793	63.56
229.027	71.56
229.262	88.56
229.496	69.56
229.73	71.56
229.964	75.56
230.199	87.56
230.433	69.56
230.667	84.56
230.901	80.56
231.136	70.56
231.37	96.56
231.604	95.56
231.838	116.56
232.072	128.56
232.306	132.56
232.541	119.56
232.775	86.56
233.009	95.56
233.243	80.56
233.477	105.56
233.711	109.56
233.945	123.56
234.179	103.56
234.413	91.56
234.647	92.56
234.881	99.56
235.115	91.56
235.349	102.56
235.583	122.56
235.817	160.56
236.051	139.56
236.285	92.56
236.519	95.56
236.753	80.56
236.987	97.56
237.221	96.56
237.455	88.56
237.689	85.56
237.922	92.56
238.156	95.56
238.39	98.56
238.624	79.56
238.858	94.56
239.091	86.56
239.325	75.56
239.559	91.56
239.793	86.56
240.027	93.56
240.26	96.56
240.494	90.56
240.728	87.56
240.961	96.56
241.195	111.56
241.429	97.56
241.662	98.56
241.896	94.56
242.13	103.56
242.363	145.56
242.597	200.56
242.83	171.56
243.064	155.56
243.298	206.56
243.531	182.56
243.765	114.56
243.998	83.56
244.232	98.56
244.465	92.56
244.699	80.56
244.932	71.56
245.166	92.56
245.399	76.56
245.633	78.56
245.866	79.56
246.099	89.56
246.333	89.56
246.566	71.56
246.8	93.56
247.033	87.56
247.266	86.56
247.5	96.56
247.733	93.56
247.966	97.56
248.2	106.56
248.433	117.56
248.666	138.56
248.899	122.56
249.133	99.56
249.366	108.56
249.599	117.56
249.832	132.56
250.066	131.56
250.299	88.56
250.532	88.56
250.765	74.56
250.998	80.56
251.231	96.56
251.465	85.56
251.698	86.56
251.931	92.56
252.164	75.56
252.397	83.56
252.63	110.56
252.863	101.56
253.096	101.56
253.329	103.56
253.562	107.56
253.795	100.56
254.028	95.56
254.261	92.56
254.494	111.56
254.727	130.56
254.96	173.56
255.193	134.56
255.426	111.56
255.659	96.56
255.892	97.56
256.124	82.56
256.357	89.56
256.59	97.56
256.823	103.56
257.056	127.56
257.289	181.56
257.521	207.56
257.754	134.56
257.987	106.56
258.22	102.56
258.452	94.56
258.685	98.56
258.918	97.56
259.151	94.56
259.383	126.56
259.616	154.56
259.849	169.56
260.081	114.56
260.314	93.56
260.547	92.56
260.779	84.56
261.012	74.56
261.244	86.56
261.477	95.56
261.71	115.56
261.942	89.56
262.175	99.56
262.407	94.56
262.64	75.56
262.872	88.56
263.105	94.56
263.337	74.56
263.57	89.56
263.802	98.56
264.035	92.56
264.267	89.56
264.499	87.56
264.732	85.56
264.964	95.56
265.197	98.56
265.429	100.56
265.661	106.56
265.894	102.56
266.126	128.56
266.358	186.56
266.591	174.56
266.823	110.56
267.055	90.56
267.287	90.56
267.52	78.56
267.752	93.56
267.984	100.56
268.216	85.56
268.448	77.56
268.681	101.56
268.913	99.56
269.145	106.56
269.377	97.56
269.609	91.56
269.841	98.56
270.073	125.56
270.306	153.56
270.538	224.56
270.77	372.56
271.002	442.56
271.234	224.56
271.466	134.56
271.698	88.56
271.93	86.56
272.162	106.56
272.394	90.56
272.626	87.56
272.858	86.56
273.09	92.56
273.322	107.56
273.553	104.56
273.785	91.56
274.017	98.56
274.249	102.56
274.481	86.56
274.713	104.56
274.945	95.56
275.176	88.56
275.408	97.56
275.64	91.56
275.872	93.56
276.104	105.56
276.335	90.56
276.567	108.56
276.799	99.56
277.031	104.56
277.262	90.56
277.494	124.56
277.726	150.56
277.957	211.56
278.189	307.56
278.421	284.56
278.652	234.56
278.884	222.56
279.115	168.56
279.347	112.56
279.579	118.56
279.81	92.56
280.042	92.56
280.273	116.56
280.505	112.56
280.736	116.56
280.968	130.56
281.199	208.56
281.431	275.56
281.662	318.56
281.894	190.56
282.125	124.56
282.356	122.56
282.588	122.56
282.819	107.56
283.051	116.56
283.282	153.56
283.513	234.56
283.745	366.56
283.976	652.56
284.207	935.56
284.439	716.56
284.67	310.56
284.901	287.56
285.132	425.56
285.364	443.56
285.595	260.56
285.826	204.56
286.057	287.56
286.288	476.56
286.52	708.56
286.751	584.56
286.982	233.56
287.213	152.56
287.444	122.56
287.675	112.56
287.906	112.56
288.138	115.56
288.369	102.56
288.6	106.56
288.831	96.56
289.062	107.56
289.293	98.56
289.524	104.56
289.755	105.56
289.986	94.56
290.217	99.56
290.448	108.56
290.679	120.56
290.91	132.56
291.141	189.56
291.371	299.56
291.602	337.56
291.833	233.56
292.064	119.56
292.295	120.56
292.526	104.56
292.757	96.56
292.987	101.56
293.218	108.56
293.449	102.56
293.68	109.56
293.91	109.56
294.141	111.56
294.372	95.56
294.603	86.56
294.833	91.56
295.064	94.56
295.295	104.56
295.525	109.56
295.756	104.56
295.987	102.56
296.217	109.56
296.448	99.56
296.679	103.56
296.909	104.56
297.14	111.56
297.37	107.56
297.601	111.56
297.831	104.56
298.062	108.56
298.292	103.56
298.523	101.56
298.753	105.56
298.984	116.56
299.214	131.56
299.445	113.56
299.675	115.56
299.905	140.56
300.136	146.56
300.366	182.56
300.597	317.56
300.827	523.56
301.057	822.56
301.288	731.56
301.518	300.56
301.748	164.56
301.979	147.56
302.209	153.56
302.439	161.56
302.669	181.56
302.9	319.56
303.13	586.56
303.36	1091.56
303.59	1452.56
303.82	1015.56
304.051	363.56
304.281	172.56
304.511	122.56
304.741	130.56
304.971	122.56
305.201	127.56
305.431	125.56
305.661	114.56
305.891	110.56
306.121	121.56
306.352	109.56
306.582	90.56
306.812	124.56
307.042	128.56
307.272	117.56
307.502	120.56
307.731	114.56
307.961	116.56
308.191	107.56
308.421	114.56
308.651	100.56
308.881	99.56
309.111	105.56
309.341	104.56
309.571	115.56
309.8	110.56
310.03	114.56
310.26	106.56
310.49	118.56
310.72	111.56
310.949	128.56
311.179	108.56
311.409	108.56
311.639	115.56
311.868	115.56
312.098	116.56
312.328	118.56
312.557	120.56
312.787	127.56
313.017	111.56
313.246	119.56
313.476	141.56
313.706	146.56
313.935	172.56
314.165	238.56
314.394	274.56
314.624	217.56
314.853	152.56
315.083	138.56
315.312	138.56
315.542	158.56
315.771	150.56
316.001	150.56
316.23	149.56
316.46	166.56
316.689	204.56
316.919	302.56
317.148	560.56
317.377	1060.56
317.607	1782.56
317.836	1678.56
318.065	644.56
318.295	272.56
318.524	187.56
318.753	148.56
318.983	134.56
319.212	142.56
319.441	132.56
319.67	127.56
319.9	133.56
320.129	125.56
320.358	124.56
320.587	132.56
320.816	130.56
321.046	130.56
321.275	141.56
321.504	145.56
321.733	168.56
321.962	188.56
322.191	178.56
322.42	156.56
322.649	141.56
322.878	148.56
323.108	130.56
323.337	142.56
323.566	132.56
323.795	141.56
324.024	140.56
324.253	168.56
324.482	203.56
324.71	261.56
324.939	321.56
325.168	273.56
325.397	213.56
325.626	303.56
325.855	559.56
326.084	1152.56
326.313	1917.56
326.542	1867.56
326.77	737.56
326.999	314.56
327.228	250.56
327.457	267.56
327.686	254.56
327.914	183.56
328.143	163.56
328.372	156.56
328.6	140.56
328.829	128.56
329.058	127.56
329.287	133.56
329.515	130.56
329.744	128.56
329.972	145.56
330.201	111.56
330.43	138.56
330.658	126.56
330.887	111.56
331.115	119.56
331.344	121.56
331.572	128.56
331.801	143.56
332.03	148.56
332.258	138.56
332.486	194.56
332.715	344.56
332.943	594.56
333.172	902.56
333.4	788.56
333.629	287.56
333.857	173.56
334.085	148.56
334.314	130.56
334.542	139.56
334.771	130.56
334.999	123.56
335.227	138.56
335.455	122.56
335.684	127.56
335.912	134.56
336.14	122.56
336.369	128.56
336.597	135.56
336.825	124.56
337.053	98.56
337.281	120.56
337.51	127.56
337.738	121.56
337.966	122.56
338.194	117.56
338.422	127.56
338.65	115.56
338.878	130.56
339.106	122.56
339.334	123.56
339.562	130.56
339.79	123.56
340.018	127.56
340.246	112.56
340.474	130.56
340.702	122.56
340.93	122.56
341.158	115.56
341.386	120.56
341.614	123.56
341.842	128.56
342.07	113.56
342.298	131.56
342.526	146.56
342.754	116.56
342.981	119.56
343.209	113.56
343.437	123.56
343.665	118.56
343.893	137.56
344.12	132.56
344.348	108.56
344.576	114.56
344.804	126.56
345.031	125.56
345.259	120.56
345.487	128.56
345.714	119.56
345.942	129.56
346.17	117.56
346.397	122.56
346.625	103.56
346.853	86.56
347.08	116.56
347.308	100.56
347.535	115.56
347.763	122.56
347.99	117.56
348.218	126.56
348.445	117.56
348.673	125.56
348.9	126.56
349.128	141.56
349.355	125.56
349.583	138.56
349.81	130.56
350.037	129.56
350.265	131.56
350.492	119.56
350.72	119.56
350.947	119.56
351.174	130.56
351.402	128.56
351.629	113.56
351.856	129.56
352.083	104.56
352.311	122.56
352.538	122.56
352.765	131.56
352.992	106.56
353.22	122.56
353.447	118.56
353.674	107.56
353.901	117.56
354.128	122.56
354.355	108.56
354.583	132.56
354.81	108.56
355.037	122.56
355.264	122.56
355.491	109.56
355.718	121.56
355.945	128.56
356.172	118.56
356.399	110.56
356.626	117.56
356.853	122.56
357.08	125.56
357.307	121.56
357.534	101.56
357.761	119.56
357.988	116.56
358.215	120.56
358.441	127.56
358.668	127.56
358.895	136.56
359.122	137.56
359.349	134.56
359.576	127.56
359.802	138.56
360.029	119.56
360.256	124.56
360.483	124.56
360.709	128.56
360.936	128.56
361.163	128.56
361.39	121.56
361.616	127.56
361.843	117.56
362.07	135.56
362.296	113.56
362.523	120.56
362.749	131.56
362.976	108.56
363.203	110.56
363.429	119.56
363.656	114.56
363.882	130.56
364.109	127.56
364.335	111.56
364.562	111.56
364.788	116.56
365.015	126.56
365.241	157.56
365.468	236.56
365.694	330.56
365.92	248.56
366.147	136.56
366.373	117.56
366.599	105.56
366.826	94.56
367.052	116.56
367.278	109.56
367.505	107.56
367.731	123.56
367.957	125.56
368.184	132.56
368.41	140.56
368.636	127.56
368.862	119.56
369.089	111.56
369.315	134.56
369.541	133.56
369.767	123.56
369.993	128.56
370.219	116.56
370.445	122.56
370.672	112.56
370.898	109.56
371.124	124.56
371.35	124.56
371.576	125.56
371.802	111.56
372.028	118.56
372.254	125.56
372.48	125.56
372.706	116.56
372.932	128.56
373.158	121.56
373.384	115.56
373.61	135.56
373.835	142.56
374.061	122.56
374.287	124.56
374.513	123.56
374.739	121.56
374.965	124.56
375.191	111.56
375.416	106.56
375.642	121.56
375.868	129.56
376.094	130.56
376.319	125.56
376.545	111.56
376.771	109.56
376.997	121.56
377.222	119.56
377.448	131.56
377.674	129.56
377.899	103.56
378.125	137.56
378.35	124.56
378.576	122.56
378.802	119.56
379.027	140.56
379.253	160.56
379.478	194.56
379.704	351.56
379.929	920.56
380.155	1884.56
380.38	1951.56
380.606	626.56
380.831	232.56
381.057	150.56
381.282	121.56
381.507	122.56
381.733	124.56
381.958	119.56
382.184	129.56
382.409	126.56
382.634	112.56
382.86	112.56
383.085	105.56
383.31	126.56
383.535	129.56
383.761	114.56
383.986	102.56
384.211	116.56
384.436	122.56
384.662	125.56
384.887	116.56
385.112	121.56
385.337	120.56
385.562	116.56
385.787	121.56
386.013	130.56
386.238	108.56
386.463	111.56
386.688	123.56
386.913	127.56
387.138	107.56
387.363	109.56
387.588	114.56
387.813	110.56
388.038	134.56
388.263	114.56
388.488	123.56
388.713	108.56
388.938	111.56
389.163	92.56
389.387	95.56
389.612	111.56
389.837	108.56
390.062	96.56
390.287	115.56
390.512	100.56
390.736	106.56
390.961	104.56
391.186	115.56
391.411	108.56
391.636	118.56
391.86	109.56
392.085	106.56
392.31	109.56
392.534	116.56
392.759	103.56
392.984	103.56
393.208	118.56
393.433	150.56
393.658	153.56
393.882	113.56
394.107	114.56
394.331	109.56
394.556	106.56
394.78	106.56
395.005	103.56
395.229	108.56
395.454	123.56
395.678	108.56
395.903	108.56
396.127	118.56
396.352	95.56
396.576	106.56
396.801	132.56
397.025	152.56
397.249	117.56
397.474	111.56
397.698	106.56
397.922	123.56
398.147	114.56
398.371	111.56
398.595	104.56
398.82	100.56
399.044	111.56
399.268	115.56
399.492	110.56
399.717	99.56
399.941	100.56
400.165	126.56
400.389	111.56
400.613	102.56
400.837	114.56
401.062	109.56
401.286	102.56
401.51	101.56
401.734	100.56
401.958	101.56
402.182	110.56
402.406	96.56
402.63	81.56
402.854	110.56
403.078	112.56
403.302	96.56
403.526	123.56
403.75	114.56
403.974	110.56
404.198	96.56
404.422	104.56
404.645	109.56
404.869	104.56
405.093	103.56
405.317	93.56
405.541	121.56
405.765	148.56
405.988	154.56
406.212	135.56
406.436	108.56
406.66	107.56
406.883	100.56
407.107	101.56
407.331	98.56
407.555	98.56
407.778	104.56
408.002	102.56
408.226	94.56
408.449	116.56
408.673	108.56
408.896	99.56
409.12	95.56
409.344	103.56
409.567	113.56
409.791	97.56
410.014	123.56
410.238	122.56
410.461	108.56
410.685	104.56
410.908	108.56
411.132	114.56
411.355	103.56
411.578	117.56
411.802	118.56
412.025	113.56
412.249	92.56
412.472	108.56
412.695	119.56
412.919	108.56
413.142	128.56
413.365	106.56
413.589	107.56
413.812	104.56
414.035	127.56
414.258	107.56
414.482	111.56
414.705	116.56
414.928	106.56
415.151	106.56
415.374	103.56
415.597	98.56
415.821	115.56
416.044	107.56
416.267	101.56
416.49	100.56
416.713	93.56
416.936	99.56
417.159	104.56
417.382	95.56
417.605	92.56
417.828	115.56
418.051	104.56
418.274	104.56
418.497	114.56
418.72	116.56
418.943	102.56
419.166	122.56
419.389	118.56
419.611	115.56
419.834	117.56
420.057	114.56
420.28	99.56
420.503	105.56
420.726	110.56
420.948	99.56
421.171	111.56
421.394	119.56
421.617	96.56
421.839	108.56
422.062	119.56
422.285	104.56
422.507	116.56
422.73	136.56
422.953	144.56
423.175	127.56
423.398	101.56
423.621	88.56
423.843	105.56
424.066	102.56
424.288	90.56
424.511	113.56
424.733	109.56
424.956	107.56
425.178	103.56
425.401	110.56
425.623	97.56
425.846	92.56
426.068	96.56
426.291	107.56
426.513	108.56
426.735	108.56
426.958	105.56
427.18	101.56
427.402	107.56
427.625	116.56
427.847	108.56
428.069	99.56
428.292	107.56
428.514	103.56
428.736	94.56
428.958	108.56
429.181	109.56
429.403	103.56
429.625	119.56
429.847	107.56
430.069	119.56
430.292	95.56
430.514	125.56
430.736	100.56
430.958	102.56
431.18	107.56
431.402	104.56
431.624	105.56
431.846	91.56
432.068	100.56
432.29	98.56
432.512	103.56
432.734	102.56
432.956	89.56
433.178	101.56
433.4	98.56
433.622	114.56
433.844	106.56
434.066	96.56
434.287	87.56
434.509	104.56
434.731	108.56
434.953	95.56
435.175	101.56
435.397	93.56
435.618	99.56
435.84	95.56
436.062	104.56
436.284	93.56
436.505	103.56
436.727	110.56
436.949	90.56
437.17	92.56
437.392	92.56
437.614	98.56
437.835	92.56
438.057	92.56
438.278	103.56
438.5	103.56
438.721	110.56
438.943	117.56
439.165	123.56
439.386	117.56
439.608	116.56
439.829	113.56
440.05	122.56
440.272	130.56
440.493	103.56
440.715	98.56
440.936	94.56
441.158	106.56
441.379	99.56
441.6	101.56
441.822	115.56
442.043	150.56
442.264	164.56
442.486	123.56
442.707	103.56
442.928	104.56
443.149	100.56
443.371	111.56
443.592	105.56
443.813	109.56
444.034	117.56
444.255	110.56
444.476	90.56
444.698	109.56
444.919	115.56
445.14	178.56
445.361	144.56
445.582	114.56
445.803	108.56
446.024	97.56
446.245	119.56
446.466	107.56
446.687	112.56
446.908	127.56
447.129	90.56
447.35	103.56
447.571	109.56
447.792	96.56
448.013	110.56
448.234	108.56
448.455	88.56
448.675	97.56
448.896	99.56
449.117	118.56
449.338	151.56
449.559	188.56
449.779	142.56
450	114.56
450.221	120.56
450.442	129.56
450.662	139.56
450.883	116.56
451.104	118.56
451.324	137.56
451.545	130.56
451.766	126.56
451.986	180.56
452.207	247.56
452.428	642.56
452.648	1666.56
452.869	933.56
453.089	232.56
453.31	135.56
453.53	148.56
453.751	152.56
453.971	202.56
454.192	181.56
454.412	127.56
454.633	119.56
454.853	109.56
455.073	102.56
455.294	104.56
455.514	120.56
455.734	93.56
455.955	102.56
456.175	102.56
456.395	104.56
456.616	103.56
456.836	114.56
457.056	103.56
457.276	106.56
457.497	131.56
457.717	133.56
457.937	120.56
458.157	103.56
458.377	89.56
458.598	99.56
458.818	107.56
459.038	104.56
459.258	92.56
459.478	94.56
459.698	104.56
459.918	106.56
460.138	99.56
460.358	92.56
460.578	93.56
460.798	101.56
461.018	99.56
461.238	97.56
461.458	95.56
461.678	94.56
461.898	103.56
462.118	87.56
462.338	108.56
462.558	120.56
462.777	98.56
462.997	104.56
463.217	114.56
463.437	146.56
463.657	202.56
463.876	198.56
464.096	148.56
464.316	109.56
464.536	114.56
464.755	106.56
464.975	92.56
465.195	101.56
465.414	112.56
465.634	101.56
465.854	104.56
466.073	104.56
466.293	109.56
466.512	106.56
466.732	114.56
466.951	134.56
467.171	152.56
467.391	160.56
467.61	111.56
467.829	92.56
468.049	95.56
468.268	112.56
468.488	106.56
468.707	88.56
468.927	104.56
469.146	117.56
469.365	106.56
469.585	99.56
469.804	99.56
470.023	99.56
470.243	114.56
470.462	116.56
470.681	126.56
470.901	143.56
471.12	199.56
471.339	230.56
471.558	158.56
471.777	104.56
471.997	121.56
472.216	118.56
472.435	107.56
472.654	101.56
472.873	107.56
473.092	125.56
473.311	104.56
473.53	102.56
473.749	94.56
473.968	90.56
474.187	109.56
474.406	96.56
474.625	93.56
474.844	106.56
475.063	111.56
475.282	104.56
475.501	87.56
475.72	104.56
475.939	93.56
476.158	117.56
476.377	123.56
476.596	107.56
476.814	110.56
477.033	105.56
477.252	114.56
477.471	116.56
477.69	118.56
477.908	118.56
478.127	105.56
478.346	114.56
478.564	103.56
478.783	112.56
479.002	95.56
479.22	99.56
479.439	109.56
479.658	115.56
479.876	103.56
480.095	106.56
480.313	108.56
480.532	98.56
480.751	111.56
480.969	106.56
481.188	103.56
481.406	104.56
481.624	86.56
481.843	132.56
482.061	122.56
482.28	110.56
482.498	111.56
482.717	94.56
482.935	104.56
483.153	106.56
483.372	103.56
483.59	118.56
483.808	106.56
484.027	122.56
484.245	135.56
484.463	199.56
484.681	262.56
484.9	179.56
485.118	127.56
485.336	133.56
485.554	116.56
485.772	139.56
485.99	196.56
486.209	287.56
486.427	188.56
486.645	132.56
486.863	120.56
487.081	123.56
487.299	102.56
487.517	122.56
487.735	117.56
487.953	111.56
488.171	113.56
488.389	114.56
488.607	110.56
488.825	106.56
489.043	96.56
489.261	95.56
489.479	93.56
489.696	98.56
489.914	107.56
490.132	103.56
490.35	111.56
490.568	115.56
490.786	109.56
491.003	109.56
491.221	130.56
491.439	119.56
491.657	114.56
491.874	117.56
492.092	113.56
492.31	99.56
492.527	116.56
492.745	114.56
492.963	101.56
493.18	92.56
493.398	119.56
493.615	98.56
493.833	123.56
494.05	114.56
494.268	117.56
494.485	107.56
494.703	102.56
494.92	93.56
495.138	109.56
495.355	120.56
495.573	111.56
495.79	118.56
496.008	129.56
496.225	115.56
496.442	106.56
496.66	137.56
496.877	179.56
497.094	159.56
497.312	109.56
497.529	107.56
497.746	105.56
497.963	104.56
498.181	122.56
498.398	125.56
498.615	109.56
498.832	104.56
499.049	130.56
499.267	152.56
499.484	178.56
499.701	148.56
499.918	98.56
500.135	110.56
500.352	109.56
500.569	95.56
500.786	105.56
501.003	114.56
501.22	100.56
501.437	94.56
501.654	122.56
501.871	112.56
502.088	121.56
502.305	106.56
502.522	111.56
502.739	99.56
502.956	103.56
503.172	95.56
503.389	107.56
503.606	114.56
503.823	117.56
504.04	98.56
504.256	116.56
504.473	92.56
504.69	98.56
504.907	120.56
505.123	116.56
