Data from SnStandardFlinnAPT0064_LampEnergy10_LIBS07252019.E.O._I.C._HRD10591_15-20-47-493.txt Node
Date: Thu Jul 25 15:20:47 EDT 2019
User: cochatt
Spectrometer: HR+D1059
Trigger mode: 1
Integration Time (sec): 1.000000E-1
Scans to average: 1
Electric dark correction enabled: true
Nonlinearity correction enabled: false
Boxcar width: 0
XAxis mode: Wavelengths
Number of Pixels in Spectrum: 2048
>>>>>Begin Spectral Data<<<<<
223.165	-21.94
223.4	-21.94
223.635	-21.94
223.869	-20.94
224.104	-12.94
224.338	-15.94
224.573	-28.94
224.808	-11.94
225.042	-2.94
225.277	-6.94
225.511	8.06
225.746	6.06
225.98	6.06
226.215	21.06
226.449	13.06
226.683	22.06
226.918	21.06
227.152	25.06
227.387	26.06
227.621	32.06
227.856	34.06
228.09	46.06
228.324	48.06
228.559	58.06
228.793	128.06
229.027	313.06
229.262	350.06
229.496	308.06
229.73	291.06
229.964	313.06
230.199	319.06
230.433	299.06
230.667	313.06
230.901	322.06
231.136	318.06
231.37	356.06
231.604	393.06
231.838	455.06
232.072	526.06
232.306	578.06
232.541	497.06
232.775	427.06
233.009	412.06
233.243	408.06
233.477	443.06
233.711	519.06
233.945	577.06
234.179	519.06
234.413	462.06
234.647	440.06
234.881	470.06
235.115	522.06
235.349	589.06
235.583	772.06
235.817	1000.06
236.051	996.06
236.285	672.06
236.519	534.06
236.753	490.06
236.987	513.06
237.221	556.06
237.455	521.06
237.689	477.06
237.922	474.06
238.156	476.06
238.39	497.06
238.624	480.06
238.858	444.06
239.091	465.06
239.325	469.06
239.559	488.06
239.793	503.06
240.027	522.06
240.26	532.06
240.494	549.06
240.728	588.06
240.961	593.06
241.195	673.06
241.429	640.06
241.662	694.06
241.896	784.06
242.13	994.06
242.363	1239.06
242.597	1631.06
242.83	1579.06
243.064	1536.06
243.298	1820.06
243.531	1505.06
243.765	973.06
243.998	765.06
244.232	712.06
244.465	678.06
244.699	647.06
244.932	638.06
245.166	662.06
245.399	694.06
245.633	662.06
245.866	682.06
246.099	683.06
246.333	667.06
246.566	643.06
246.8	638.06
247.033	628.06
247.266	636.06
247.5	651.06
247.733	675.06
247.966	716.06
248.2	764.06
248.433	874.06
248.666	987.06
248.899	971.06
249.133	834.06
249.366	892.06
249.599	993.06
249.832	1097.06
250.066	1118.06
250.299	876.06
250.532	782.06
250.765	748.06
250.998	753.06
251.231	730.06
251.465	726.06
251.698	716.06
251.931	731.06
252.164	746.06
252.397	760.06
252.63	810.06
252.863	814.06
253.096	779.06
253.329	778.06
253.562	803.06
253.795	798.06
254.028	797.06
254.261	824.06
254.494	876.06
254.727	1019.06
254.96	1245.06
255.193	1214.06
255.426	983.06
255.659	860.06
255.892	854.06
256.124	860.06
256.357	872.06
256.59	909.06
256.823	970.06
257.056	1134.06
257.289	1369.06
257.521	1527.06
257.754	1180.06
257.987	964.06
258.22	930.06
258.452	920.06
258.685	922.06
258.918	944.06
259.151	986.06
259.383	1104.06
259.616	1200.06
259.849	1274.06
260.081	1110.06
260.314	1013.06
260.547	948.06
260.779	934.06
261.012	961.06
261.244	966.06
261.477	969.06
261.71	994.06
261.942	1018.06
262.175	1032.06
262.407	1068.06
262.64	1045.06
262.872	1097.06
263.105	1160.06
263.337	1201.06
263.57	1259.06
263.802	1289.06
264.035	1294.06
264.267	1350.06
264.499	1345.06
264.732	1439.06
264.964	1436.06
265.197	1373.06
265.429	1394.06
265.661	1472.06
265.894	1564.06
266.126	1745.06
266.358	1945.06
266.591	1870.06
266.823	1614.06
267.055	1433.06
267.287	1400.06
267.52	1350.06
267.752	1292.06
267.984	1292.06
268.216	1254.06
268.448	1251.06
268.681	1212.06
268.913	1248.06
269.145	1223.06
269.377	1172.06
269.609	1219.06
269.841	1326.06
270.073	1346.06
270.306	1580.06
270.538	2146.06
270.77	3185.06
271.002	4011.06
271.234	2784.06
271.466	1910.06
271.698	1487.06
271.93	1385.06
272.162	1308.06
272.394	1264.06
272.626	1241.06
272.858	1231.06
273.09	1224.06
273.322	1212.06
273.553	1160.06
273.785	1198.06
274.017	1233.06
274.249	1199.06
274.481	1197.06
274.713	1197.06
274.945	1205.06
275.176	1204.06
275.408	1220.06
275.64	1266.06
275.872	1202.06
276.104	1251.06
276.335	1271.06
276.567	1286.06
276.799	1244.06
277.031	1312.06
277.262	1298.06
277.494	1432.06
277.726	1584.06
277.957	1834.06
278.189	2096.06
278.421	1960.06
278.652	1730.06
278.884	1669.06
279.115	1469.06
279.347	1407.06
279.579	1388.06
279.81	1392.06
280.042	1398.06
280.273	1388.06
280.505	1436.06
280.736	1461.06
280.968	1567.06
281.199	1752.06
281.431	2088.06
281.662	2147.06
281.894	1827.06
282.125	1605.06
282.356	1644.06
282.588	1686.06
282.819	1757.06
283.051	1803.06
283.282	1957.06
283.513	2471.06
283.745	3592.06
283.976	5671.06
284.207	8154.06
284.439	7318.06
284.67	4555.06
284.901	3780.06
285.132	3829.06
285.364	3645.06
285.595	2706.06
285.826	2452.06
286.057	2887.06
286.288	3896.06
286.52	5248.06
286.751	4923.06
286.982	3101.06
287.213	2284.06
287.444	1972.06
287.675	1841.06
287.906	1827.06
288.138	1738.06
288.369	1678.06
288.6	1729.06
288.831	1648.06
289.062	1666.06
289.293	1652.06
289.524	1666.06
289.755	1696.06
289.986	1707.06
290.217	1657.06
290.448	1693.06
290.679	1721.06
290.91	1780.06
291.141	1897.06
291.371	1998.06
291.602	2132.06
291.833	1913.06
292.064	1742.06
292.295	1664.06
292.526	1640.06
292.757	1624.06
292.987	1594.06
293.218	1557.06
293.449	1577.06
293.68	1575.06
293.91	1554.06
294.141	1536.06
294.372	1555.06
294.603	1538.06
294.833	1584.06
295.064	1574.06
295.295	1575.06
295.525	1580.06
295.756	1516.06
295.987	1539.06
296.217	1534.06
296.448	1565.06
296.679	1589.06
296.909	1590.06
297.14	1592.06
297.37	1587.06
297.601	1610.06
297.831	1613.06
298.062	1595.06
298.292	1655.06
298.523	1643.06
298.753	1705.06
298.984	1701.06
299.214	1720.06
299.445	1729.06
299.675	1770.06
299.905	1820.06
300.136	1912.06
300.366	2118.06
300.597	2792.06
300.827	3870.06
301.057	5294.06
301.288	5280.06
301.518	3415.06
301.748	2586.06
301.979	2366.06
302.209	2253.06
302.439	2306.06
302.669	2444.06
302.9	2955.06
303.13	4201.06
303.36	6227.06
303.59	8283.06
303.82	7243.06
304.051	4290.06
304.281	3049.06
304.511	2543.06
304.741	2337.06
304.971	2218.06
305.201	2126.06
305.431	1949.06
305.661	1943.06
305.891	1877.06
306.121	1852.06
306.352	1849.06
306.582	1804.06
306.812	1814.06
307.042	1838.06
307.272	1831.06
307.502	1769.06
307.731	1829.06
307.961	1771.06
308.191	1796.06
308.421	1791.06
308.651	1795.06
308.881	1785.06
309.111	1802.06
309.341	1779.06
309.571	1835.06
309.8	1870.06
310.03	1852.06
310.26	1841.06
310.49	1851.06
310.72	1876.06
310.949	1882.06
311.179	1864.06
311.409	1895.06
311.639	1921.06
311.868	1910.06
312.098	1923.06
312.328	1914.06
312.557	1983.06
312.787	1949.06
313.017	1960.06
313.246	1976.06
313.476	1965.06
313.706	2082.06
313.935	2178.06
314.165	2354.06
314.394	2444.06
314.624	2362.06
314.853	2155.06
315.083	2130.06
315.312	2160.06
315.542	2132.06
315.771	2208.06
316.001	2232.06
316.23	2305.06
316.46	2396.06
316.689	2674.06
316.919	3198.06
317.148	4608.06
317.377	7201.06
317.607	10467.06
317.836	10861.06
318.065	6626.06
318.295	4285.06
318.524	3397.06
318.753	3004.06
318.983	2742.06
319.212	2597.06
319.441	2444.06
319.67	2397.06
319.9	2381.06
320.129	2326.06
320.358	2343.06
320.587	2298.06
320.816	2322.06
321.046	2355.06
321.275	2308.06
321.504	2362.06
321.733	2434.06
321.962	2453.06
322.191	2546.06
322.42	2507.06
322.649	2454.06
322.878	2484.06
323.108	2513.06
323.337	2520.06
323.566	2499.06
323.795	2570.06
324.024	2628.06
324.253	2701.06
324.482	2822.06
324.71	2967.06
324.939	3204.06
325.168	3284.06
325.397	3426.06
325.626	4028.06
325.855	5612.06
326.084	8650.06
326.313	12748.06
326.542	13448.06
326.77	9160.06
326.999	5975.06
327.228	4986.06
327.457	4754.06
327.686	4756.06
327.914	5101.06
328.143	5998.06
328.372	7158.06
328.6	7795.06
328.829	7010.06
329.058	5816.06
329.287	5086.06
329.515	4602.06
329.744	4265.06
329.972	4050.06
330.201	3805.06
330.43	3694.06
330.658	3632.06
330.887	3530.06
331.115	3465.06
331.344	3432.06
331.572	3393.06
331.801	3452.06
332.03	3480.06
332.258	3523.06
332.486	3716.06
332.715	4276.06
332.943	5262.06
333.172	6681.06
333.4	6728.06
333.629	4973.06
333.857	4526.06
334.085	4505.06
334.314	4764.06
334.542	5131.06
334.771	6030.06
334.999	7432.06
335.227	9346.06
335.455	10501.06
335.684	9433.06
335.912	7701.06
336.14	6374.06
336.369	5723.06
336.597	5132.06
336.825	4769.06
337.053	4450.06
337.281	4235.06
337.51	3988.06
337.738	3870.06
337.966	3709.06
338.194	3572.06
338.422	3441.06
338.65	3354.06
338.878	3274.06
339.106	3213.06
339.334	3191.06
339.562	3094.06
339.79	2993.06
340.018	3038.06
340.246	3024.06
340.474	2977.06
340.702	2972.06
340.93	3019.06
341.158	2971.06
341.386	3005.06
341.614	2927.06
341.842	2868.06
342.07	2828.06
342.298	2819.06
342.526	2729.06
342.754	2752.06
342.981	2685.06
343.209	2698.06
343.437	2715.06
343.665	2775.06
343.893	2818.06
344.12	2774.06
344.348	2780.06
344.576	2682.06
344.804	2673.06
345.031	2634.06
345.259	2590.06
345.487	2523.06
345.714	2578.06
345.942	2544.06
346.17	2572.06
346.397	2510.06
346.625	2526.06
346.853	2501.06
347.08	2504.06
347.308	2492.06
347.535	2522.06
347.763	2545.06
347.99	2483.06
348.218	2434.06
348.445	2430.06
348.673	2409.06
348.9	2446.06
349.128	2448.06
349.355	2407.06
349.583	2434.06
349.81	2454.06
350.037	2387.06
350.265	2387.06
350.492	2406.06
350.72	2387.06
350.947	2381.06
351.174	2379.06
351.402	2393.06
351.629	2369.06
351.856	2390.06
352.083	2386.06
352.311	2382.06
352.538	2336.06
352.765	2386.06
352.992	2324.06
353.22	2361.06
353.447	2313.06
353.674	2352.06
353.901	2359.06
354.128	2418.06
354.355	2373.06
354.583	2434.06
354.81	2420.06
355.037	2404.06
355.264	2391.06
355.491	2413.06
355.718	2403.06
355.945	2413.06
356.172	2464.06
356.399	2516.06
356.626	2459.06
356.853	2473.06
357.08	2498.06
357.307	2521.06
357.534	2507.06
357.761	2553.06
357.988	2546.06
358.215	2550.06
358.441	2560.06
358.668	2507.06
358.895	2562.06
359.122	2473.06
359.349	2545.06
359.576	2492.06
359.802	2535.06
360.029	2494.06
360.256	2520.06
360.483	2525.06
360.709	2502.06
360.936	2559.06
361.163	2520.06
361.39	2538.06
361.616	2544.06
361.843	2519.06
362.07	2564.06
362.296	2520.06
362.523	2501.06
362.749	2526.06
362.976	2509.06
363.203	2530.06
363.429	2488.06
363.656	2472.06
363.882	2517.06
364.109	2493.06
364.335	2505.06
364.562	2553.06
364.788	2562.06
365.015	2559.06
365.241	2665.06
365.468	2819.06
365.694	2916.06
365.92	2760.06
366.147	2589.06
366.373	2586.06
366.599	2590.06
366.826	2534.06
367.052	2526.06
367.278	2573.06
367.505	2579.06
367.731	2569.06
367.957	2542.06
368.184	2603.06
368.41	2612.06
368.636	2688.06
368.862	2699.06
369.089	2634.06
369.315	2617.06
369.541	2597.06
369.767	2616.06
369.993	2629.06
370.219	2584.06
370.445	2646.06
370.672	2691.06
370.898	2650.06
371.124	2645.06
371.35	2682.06
371.576	2674.06
371.802	2687.06
372.028	2683.06
372.254	2748.06
372.48	2796.06
372.706	2725.06
372.932	2786.06
373.158	2763.06
373.384	2748.06
373.61	2715.06
373.835	2818.06
374.061	2772.06
374.287	2800.06
374.513	2861.06
374.739	2893.06
374.965	2848.06
375.191	2872.06
375.416	2847.06
375.642	2835.06
375.868	2785.06
376.094	2756.06
376.319	2750.06
376.545	2780.06
376.771	2779.06
376.997	2744.06
377.222	2695.06
377.448	2724.06
377.674	2729.06
377.899	2645.06
378.125	2745.06
378.35	2665.06
378.576	2724.06
378.802	2743.06
379.027	2842.06
379.253	2878.06
379.478	3026.06
379.704	3546.06
379.929	5119.06
380.155	7950.06
380.38	8714.06
380.606	5305.06
380.831	3752.06
381.057	3179.06
381.282	2956.06
381.507	2848.06
381.733	2757.06
381.958	2728.06
382.184	2738.06
382.409	2686.06
382.634	2648.06
382.86	2685.06
383.085	2681.06
383.31	2701.06
383.535	2672.06
383.761	2679.06
383.986	2722.06
384.211	2722.06
384.436	2700.06
384.662	2721.06
384.887	2737.06
385.112	2710.06
385.337	2761.06
385.562	2732.06
385.787	2756.06
386.013	2766.06
386.238	2767.06
386.463	2720.06
386.688	2795.06
386.913	2754.06
387.138	2789.06
387.363	2722.06
387.588	2692.06
387.813	2691.06
388.038	2757.06
388.263	2753.06
388.488	2742.06
388.713	2713.06
388.938	2720.06
389.163	2712.06
389.387	2790.06
389.612	2724.06
389.837	2740.06
390.062	2771.06
390.287	2776.06
390.512	2800.06
390.736	2768.06
390.961	2837.06
391.186	2794.06
391.411	2873.06
391.636	2888.06
391.86	2882.06
392.085	2884.06
392.31	2881.06
392.534	2813.06
392.759	2829.06
392.984	2849.06
393.208	2797.06
393.433	2841.06
393.658	2822.06
393.882	2793.06
394.107	2763.06
394.331	2718.06
394.556	2774.06
394.78	2805.06
395.005	2805.06
395.229	2848.06
395.454	2830.06
395.678	2865.06
395.903	2864.06
396.127	2862.06
396.352	2881.06
396.576	2830.06
396.801	2834.06
397.025	2855.06
397.249	2895.06
397.474	2872.06
397.698	2876.06
397.922	2907.06
398.147	2898.06
398.371	2933.06
398.595	3018.06
398.82	3024.06
399.044	3221.06
399.268	3332.06
399.492	3498.06
399.717	3608.06
399.941	3616.06
400.165	3457.06
400.389	3383.06
400.613	3208.06
400.837	3124.06
401.062	3078.06
401.286	3047.06
401.51	3079.06
401.734	2971.06
401.958	3006.06
402.182	3019.06
402.406	3097.06
402.63	3058.06
402.854	3066.06
403.078	3106.06
403.302	3100.06
403.526	3156.06
403.75	3131.06
403.974	3155.06
404.198	3125.06
404.422	3154.06
404.645	3148.06
404.869	3094.06
405.093	3124.06
405.317	3169.06
405.541	3210.06
405.765	3220.06
405.988	3219.06
406.212	3210.06
406.436	3143.06
406.66	3269.06
406.883	3226.06
407.107	3328.06
407.331	3408.06
407.555	3489.06
407.778	3370.06
408.002	3378.06
408.226	3386.06
408.449	3365.06
408.673	3284.06
408.896	3222.06
409.12	3156.06
409.344	3202.06
409.567	3121.06
409.791	3115.06
410.014	3112.06
410.238	3089.06
410.461	3157.06
410.685	3109.06
410.908	3114.06
411.132	3117.06
411.355	3028.06
411.578	3020.06
411.802	3040.06
412.025	3016.06
412.249	3013.06
412.472	3038.06
412.695	2965.06
412.919	2946.06
413.142	2981.06
413.365	2973.06
413.589	3012.06
413.812	2992.06
414.035	2982.06
414.258	2973.06
414.482	2970.06
414.705	2970.06
414.928	2969.06
415.151	2951.06
415.374	2924.06
415.597	2966.06
415.821	2808.06
416.044	2813.06
416.267	2885.06
416.49	2801.06
416.713	2866.06
416.936	2845.06
417.159	2828.06
417.382	2797.06
417.605	2804.06
417.828	2828.06
418.051	2859.06
418.274	2880.06
418.497	2868.06
418.72	2940.06
418.943	2844.06
419.166	3070.06
419.389	3232.06
419.611	3142.06
419.834	3016.06
420.057	2935.06
420.28	2932.06
420.503	2869.06
420.726	2832.06
420.948	2874.06
421.171	2829.06
421.394	2888.06
421.617	2826.06
421.839	2890.06
422.062	2864.06
422.285	2838.06
422.507	2952.06
422.73	2907.06
422.953	2952.06
423.175	2977.06
423.398	2950.06
423.621	2881.06
423.843	2917.06
424.066	2890.06
424.288	2829.06
424.511	2829.06
424.733	2890.06
424.956	2860.06
425.178	2789.06
425.401	2821.06
425.623	2794.06
425.846	2727.06
426.068	2747.06
426.291	2797.06
426.513	2723.06
426.735	2697.06
426.958	2731.06
427.18	2668.06
427.402	2649.06
427.625	2697.06
427.847	2633.06
428.069	2644.06
428.292	2706.06
428.514	2635.06
428.736	2653.06
428.958	2656.06
429.181	2592.06
429.403	2580.06
429.625	2588.06
429.847	2651.06
430.069	2702.06
430.292	2742.06
430.514	2829.06
430.736	2848.06
430.958	2710.06
431.18	2603.06
431.402	2637.06
431.624	2634.06
431.846	2621.06
432.068	2563.06
432.29	2622.06
432.512	2578.06
432.734	2638.06
432.956	2629.06
433.178	2614.06
433.4	2580.06
433.622	2680.06
433.844	2626.06
434.066	2637.06
434.287	2633.06
434.509	2677.06
434.731	2643.06
434.953	2666.06
435.175	2714.06
435.397	2761.06
435.618	2659.06
435.84	2645.06
436.062	2549.06
436.284	2612.06
436.505	2589.06
436.727	2579.06
436.949	2624.06
437.17	2565.06
437.392	2586.06
437.614	2542.06
437.835	2492.06
438.057	2517.06
438.278	2485.06
438.5	2566.06
438.721	2567.06
438.943	2666.06
439.165	2688.06
439.386	2713.06
439.608	2696.06
439.829	2683.06
440.05	2812.06
440.272	2858.06
440.493	2733.06
440.715	2702.06
440.936	2745.06
441.158	2731.06
441.379	2750.06
441.6	2831.06
441.822	2938.06
442.043	3108.06
442.264	3166.06
442.486	2958.06
442.707	2897.06
442.928	2786.06
443.149	2765.06
443.371	2797.06
443.592	2845.06
443.813	2855.06
444.034	2810.06
444.255	2853.06
444.476	2891.06
444.698	3032.06
444.919	3012.06
445.14	3044.06
445.361	2919.06
445.582	2869.06
445.803	2825.06
446.024	2776.06
446.245	2734.06
446.466	2748.06
446.687	2758.06
446.908	2677.06
447.129	2647.06
447.35	2618.06
447.571	2670.06
447.792	2555.06
448.013	2580.06
448.234	2540.06
448.455	2539.06
448.675	2643.06
448.896	2743.06
449.117	2730.06
449.338	2986.06
449.559	3087.06
449.779	2814.06
450	2628.06
450.221	2575.06
450.442	2569.06
450.662	2529.06
450.883	2530.06
451.104	2528.06
451.324	2495.06
451.545	2514.06
451.766	2533.06
451.986	2568.06
452.207	2808.06
452.428	3648.06
452.648	5468.06
452.869	4644.06
453.089	3144.06
453.31	2948.06
453.53	2946.06
453.751	2996.06
453.971	3175.06
454.192	3120.06
454.412	2715.06
454.633	2523.06
454.853	2536.06
455.073	2481.06
455.294	2435.06
455.514	2413.06
455.734	2452.06
455.955	2390.06
456.175	2356.06
456.395	2420.06
456.616	2428.06
456.836	2458.06
457.056	2482.06
457.276	2453.06
457.497	2622.06
457.717	2644.06
457.937	2584.06
458.157	2560.06
458.377	2506.06
458.598	2612.06
458.818	2619.06
459.038	2562.06
459.258	2568.06
459.478	2593.06
459.698	2655.06
459.918	2688.06
460.138	2786.06
460.358	2824.06
460.578	2781.06
460.798	2807.06
461.018	2841.06
461.238	2839.06
461.458	2875.06
461.678	2858.06
461.898	2992.06
462.118	2956.06
462.338	3020.06
462.558	3011.06
462.777	3155.06
462.997	3244.06
463.217	3374.06
463.437	3476.06
463.657	3552.06
463.876	3636.06
464.096	3356.06
464.316	3208.06
464.536	3203.06
464.755	3057.06
464.975	2987.06
465.195	2885.06
465.414	2828.06
465.634	2696.06
465.854	2732.06
466.073	2683.06
466.293	2621.06
466.512	2626.06
466.732	2698.06
466.951	2820.06
467.171	2908.06
467.391	2935.06
467.61	2670.06
467.829	2615.06
468.049	2583.06
468.268	2565.06
468.488	2559.06
468.707	2532.06
468.927	2568.06
469.146	2514.06
469.365	2650.06
469.585	2611.06
469.804	2637.06
470.023	2685.06
470.243	2748.06
470.462	2837.06
470.681	2936.06
470.901	3218.06
471.12	3835.06
471.339	3753.06
471.558	3156.06
471.777	2918.06
471.997	2728.06
472.216	2676.06
472.435	2605.06
472.654	2604.06
472.873	2594.06
473.092	2616.06
473.311	2579.06
473.53	2592.06
473.749	2711.06
473.968	2810.06
474.187	2625.06
474.406	2587.06
474.625	2640.06
474.844	2580.06
475.063	2606.06
475.282	2605.06
475.501	2615.06
475.72	2601.06
475.939	2653.06
476.158	2693.06
476.377	2772.06
476.596	2690.06
476.814	2765.06
477.033	2715.06
477.252	2768.06
477.471	2756.06
477.69	2862.06
477.908	2902.06
478.127	2909.06
478.346	2949.06
478.564	2978.06
478.783	3027.06
479.002	3049.06
479.22	3072.06
479.439	3136.06
479.658	3140.06
479.876	3065.06
480.095	3087.06
480.313	3220.06
480.532	3209.06
480.751	3184.06
480.969	3136.06
481.188	3137.06
481.406	3062.06
481.624	3123.06
481.843	3152.06
482.061	3189.06
482.28	3129.06
482.498	3112.06
482.717	3084.06
482.935	3197.06
483.153	3194.06
483.372	3242.06
483.59	3317.06
483.808	3294.06
484.027	3392.06
484.245	3620.06
484.463	4034.06
484.681	4476.06
484.9	4127.06
485.118	3738.06
485.336	3680.06
485.554	3738.06
485.772	4029.06
485.99	4561.06
486.209	4875.06
486.427	4131.06
486.645	3627.06
486.863	3494.06
487.081	3428.06
487.299	3385.06
487.517	3343.06
487.735	3344.06
