Data from SnStandardFlinnAPT0064_QswitchEnergy10_LIBS07252019.E.O._I.C._HRD10591_15-27-26-973.txt Node
Date: Thu Jul 25 15:27:26 EDT 2019
User: cochatt
Spectrometer: HR+D1059
Trigger mode: 1
Integration Time (sec): 1.000000E-1
Scans to average: 1
Electric dark correction enabled: true
Nonlinearity correction enabled: false
Boxcar width: 0
XAxis mode: Wavelengths
Number of Pixels in Spectrum: 2048
>>>>>Begin Spectral Data<<<<<
223.165	-23.19
223.4	-23.19
223.635	-23.19
223.869	-26.19
224.104	-18.19
224.338	-11.19
224.573	0.81
224.808	-5.19
225.042	-25.19
225.277	-0.19
225.511	6.81
225.746	-8.19
225.98	10.81
226.215	3.81
226.449	21.81
226.683	22.81
226.918	30.81
227.152	19.81
227.387	27.81
227.621	37.81
227.856	44.81
228.09	38.81
228.324	51.81
228.559	55.81
228.793	53.81
229.027	73.81
229.262	83.81
229.496	58.81
229.73	80.81
229.964	81.81
230.199	74.81
230.433	71.81
230.667	83.81
230.901	83.81
231.136	90.81
231.37	76.81
231.604	103.81
231.838	103.81
232.072	110.81
232.306	115.81
232.541	77.81
232.775	84.81
233.009	67.81
233.243	85.81
233.477	82.81
233.711	89.81
233.945	95.81
234.179	77.81
234.413	83.81
234.647	96.81
234.881	65.81
235.115	79.81
235.349	94.81
235.583	111.81
235.817	128.81
236.051	117.81
236.285	96.81
236.519	88.81
236.753	81.81
236.987	100.81
237.221	86.81
237.455	70.81
237.689	75.81
237.922	80.81
238.156	71.81
238.39	67.81
238.624	85.81
238.858	77.81
239.091	86.81
239.325	77.81
239.559	81.81
239.793	74.81
240.027	81.81
240.26	78.81
240.494	87.81
240.728	57.81
240.961	65.81
241.195	94.81
241.429	78.81
241.662	89.81
241.896	93.81
242.13	99.81
242.363	125.81
242.597	160.81
242.83	135.81
243.064	147.81
243.298	177.81
243.531	145.81
243.765	85.81
243.998	84.81
244.232	80.81
244.465	73.81
244.699	81.81
244.932	70.81
245.166	74.81
245.399	77.81
245.633	73.81
245.866	94.81
246.099	83.81
246.333	84.81
246.566	78.81
246.8	92.81
247.033	79.81
247.266	75.81
247.5	81.81
247.733	94.81
247.966	78.81
248.2	91.81
248.433	110.81
248.666	111.81
248.899	102.81
249.133	83.81
249.366	94.81
249.599	98.81
249.832	118.81
250.066	114.81
250.299	93.81
250.532	85.81
250.765	90.81
250.998	96.81
251.231	76.81
251.465	83.81
251.698	77.81
251.931	92.81
252.164	81.81
252.397	88.81
252.63	79.81
252.863	84.81
253.096	104.81
253.329	87.81
253.562	83.81
253.795	83.81
254.028	89.81
254.261	75.81
254.494	91.81
254.727	120.81
254.96	127.81
255.193	115.81
255.426	87.81
255.659	86.81
255.892	98.81
256.124	98.81
256.357	89.81
256.59	91.81
256.823	88.81
257.056	116.81
257.289	145.81
257.521	157.81
257.754	116.81
257.987	95.81
258.22	97.81
258.452	88.81
258.685	85.81
258.918	87.81
259.151	72.81
259.383	96.81
259.616	125.81
259.849	147.81
260.081	100.81
260.314	97.81
260.547	86.81
260.779	79.81
261.012	92.81
261.244	88.81
261.477	93.81
261.71	81.81
261.942	78.81
262.175	77.81
262.407	85.81
262.64	88.81
262.872	80.81
263.105	85.81
263.337	84.81
263.57	81.81
263.802	86.81
264.035	93.81
264.267	88.81
264.499	95.81
264.732	91.81
264.964	85.81
265.197	90.81
265.429	99.81
265.661	83.81
265.894	100.81
266.126	127.81
266.358	148.81
266.591	139.81
266.823	94.81
267.055	78.81
267.287	79.81
267.52	80.81
267.752	85.81
267.984	79.81
268.216	81.81
268.448	85.81
268.681	102.81
268.913	83.81
269.145	80.81
269.377	81.81
269.609	84.81
269.841	86.81
270.073	101.81
270.306	114.81
270.538	180.81
270.77	291.81
271.002	352.81
271.234	184.81
271.466	104.81
271.698	104.81
271.93	96.81
272.162	88.81
272.394	101.81
272.626	94.81
272.858	90.81
273.09	82.81
273.322	99.81
273.553	107.81
273.785	86.81
274.017	86.81
274.249	90.81
274.481	97.81
274.713	79.81
274.945	83.81
275.176	87.81
275.408	81.81
275.64	85.81
275.872	91.81
276.104	99.81
276.335	100.81
276.567	98.81
276.799	83.81
277.031	86.81
277.262	78.81
277.494	109.81
277.726	127.81
277.957	167.81
278.189	232.81
278.421	193.81
278.652	181.81
278.884	166.81
279.115	130.81
279.347	93.81
279.579	111.81
279.81	101.81
280.042	89.81
280.273	97.81
280.505	105.81
280.736	106.81
280.968	118.81
281.199	162.81
281.431	226.81
281.662	251.81
281.894	135.81
282.125	109.81
282.356	111.81
282.588	115.81
282.819	99.81
283.051	129.81
283.282	124.81
283.513	186.81
283.745	286.81
283.976	529.81
284.207	732.81
284.439	566.81
284.67	247.81
284.901	227.81
285.132	310.81
285.364	369.81
285.595	211.81
285.826	177.81
286.057	229.81
286.288	387.81
286.52	573.81
286.751	462.81
286.982	199.81
287.213	127.81
287.444	109.81
287.675	97.81
287.906	97.81
288.138	97.81
288.369	75.81
288.6	88.81
288.831	75.81
289.062	90.81
289.293	93.81
289.524	95.81
289.755	84.81
289.986	85.81
290.217	103.81
290.448	103.81
290.679	90.81
290.91	109.81
291.141	139.81
291.371	217.81
291.602	266.81
291.833	166.81
292.064	112.81
292.295	104.81
292.526	98.81
292.757	89.81
292.987	87.81
293.218	97.81
293.449	84.81
293.68	85.81
293.91	88.81
294.141	97.81
294.372	88.81
294.603	86.81
294.833	93.81
295.064	84.81
295.295	95.81
295.525	92.81
295.756	93.81
295.987	101.81
296.217	94.81
296.448	94.81
296.679	89.81
296.909	85.81
297.14	104.81
297.37	90.81
297.601	87.81
297.831	103.81
298.062	96.81
298.292	103.81
298.523	105.81
298.753	91.81
298.984	88.81
299.214	113.81
299.445	101.81
299.675	98.81
299.905	110.81
300.136	114.81
300.366	144.81
300.597	261.81
300.827	400.81
301.057	629.81
301.288	551.81
301.518	225.81
301.748	155.81
301.979	127.81
302.209	127.81
302.439	118.81
302.669	144.81
302.9	255.81
303.13	440.81
303.36	823.81
303.59	1089.81
303.82	769.81
304.051	280.81
304.281	144.81
304.511	111.81
304.741	109.81
304.971	109.81
305.201	100.81
305.431	117.81
305.661	117.81
305.891	118.81
306.121	99.81
306.352	89.81
306.582	86.81
306.812	115.81
307.042	102.81
307.272	98.81
307.502	110.81
307.731	103.81
307.961	106.81
308.191	101.81
308.421	116.81
308.651	117.81
308.881	110.81
309.111	93.81
309.341	97.81
309.571	110.81
309.8	117.81
310.03	113.81
310.26	103.81
310.49	109.81
310.72	104.81
310.949	105.81
311.179	113.81
311.409	117.81
311.639	112.81
311.868	96.81
312.098	105.81
312.328	107.81
312.557	110.81
312.787	103.81
313.017	110.81
313.246	113.81
313.476	116.81
313.706	128.81
313.935	138.81
314.165	179.81
314.394	220.81
314.624	190.81
314.853	119.81
315.083	125.81
315.312	130.81
315.542	121.81
315.771	129.81
316.001	129.81
316.23	139.81
316.46	141.81
316.689	181.81
316.919	245.81
317.148	458.81
317.377	877.81
317.607	1360.81
317.836	1272.81
318.065	482.81
318.295	218.81
318.524	140.81
318.753	123.81
318.983	120.81
319.212	122.81
319.441	116.81
319.67	96.81
319.9	95.81
320.129	114.81
320.358	117.81
320.587	106.81
320.816	111.81
321.046	121.81
321.275	113.81
321.504	128.81
321.733	131.81
321.962	155.81
322.191	152.81
322.42	133.81
322.649	117.81
322.878	109.81
323.108	110.81
323.337	113.81
323.566	121.81
323.795	124.81
324.024	133.81
324.253	145.81
324.482	154.81
324.71	217.81
324.939	273.81
325.168	228.81
325.397	179.81
325.626	232.81
325.855	423.81
326.084	873.81
326.313	1455.81
326.542	1435.81
326.77	550.81
326.999	233.81
327.228	207.81
327.457	221.81
327.686	219.81
327.914	155.81
328.143	129.81
328.372	143.81
328.6	130.81
328.829	131.81
329.058	104.81
329.287	111.81
329.515	102.81
329.744	111.81
329.972	103.81
330.201	96.81
330.43	115.81
330.658	102.81
330.887	109.81
331.115	104.81
331.344	112.81
331.572	120.81
331.801	116.81
332.03	127.81
332.258	127.81
332.486	155.81
332.715	280.81
332.943	479.81
333.172	689.81
333.4	587.81
333.629	234.81
333.857	139.81
334.085	126.81
334.314	118.81
334.542	119.81
334.771	116.81
334.999	115.81
335.227	113.81
335.455	130.81
335.684	125.81
335.912	129.81
336.14	114.81
336.369	123.81
336.597	116.81
336.825	114.81
337.053	105.81
337.281	109.81
337.51	100.81
337.738	118.81
337.966	117.81
338.194	111.81
338.422	109.81
338.65	113.81
338.878	113.81
339.106	96.81
339.334	125.81
339.562	125.81
339.79	114.81
340.018	107.81
340.246	100.81
340.474	106.81
340.702	106.81
340.93	107.81
341.158	115.81
341.386	125.81
341.614	115.81
341.842	116.81
342.07	120.81
342.298	116.81
342.526	105.81
342.754	104.81
342.981	103.81
343.209	99.81
343.437	107.81
343.665	104.81
343.893	116.81
344.12	104.81
344.348	104.81
344.576	103.81
344.804	113.81
345.031	103.81
345.259	103.81
345.487	111.81
345.714	123.81
345.942	114.81
346.17	115.81
346.397	101.81
346.625	94.81
346.853	104.81
347.08	91.81
347.308	101.81
347.535	95.81
347.763	95.81
347.99	119.81
348.218	98.81
348.445	103.81
348.673	105.81
348.9	123.81
349.128	110.81
349.355	118.81
349.583	116.81
349.81	110.81
350.037	112.81
350.265	118.81
350.492	103.81
350.72	107.81
350.947	111.81
351.174	125.81
351.402	114.81
351.629	105.81
351.856	106.81
352.083	101.81
352.311	105.81
352.538	102.81
352.765	109.81
352.992	92.81
353.22	103.81
353.447	103.81
353.674	106.81
353.901	113.81
354.128	119.81
354.355	113.81
354.583	101.81
354.81	104.81
355.037	104.81
355.264	112.81
355.491	106.81
355.718	112.81
355.945	97.81
356.172	105.81
356.399	100.81
356.626	100.81
356.853	107.81
357.08	117.81
357.307	118.81
357.534	112.81
357.761	85.81
357.988	103.81
358.215	92.81
358.441	114.81
358.668	105.81
358.895	107.81
359.122	121.81
359.349	94.81
359.576	127.81
359.802	127.81
360.029	116.81
360.256	93.81
360.483	106.81
360.709	112.81
360.936	111.81
361.163	105.81
361.39	101.81
361.616	116.81
361.843	98.81
362.07	112.81
362.296	117.81
362.523	109.81
362.749	110.81
362.976	107.81
363.203	99.81
363.429	97.81
363.656	109.81
363.882	103.81
364.109	108.81
364.335	115.81
364.562	96.81
364.788	99.81
365.015	103.81
365.241	121.81
365.468	183.81
365.694	230.81
365.92	186.81
366.147	110.81
366.373	97.81
366.599	79.81
366.826	107.81
367.052	97.81
367.278	85.81
367.505	109.81
367.731	91.81
367.957	102.81
368.184	105.81
368.41	105.81
368.636	111.81
368.862	113.81
369.089	95.81
369.315	93.81
369.541	106.81
369.767	110.81
369.993	99.81
370.219	101.81
370.445	115.81
370.672	113.81
370.898	113.81
371.124	106.81
371.35	113.81
371.576	104.81
371.802	111.81
372.028	111.81
372.254	121.81
372.48	98.81
372.706	117.81
372.932	109.81
373.158	115.81
373.384	107.81
373.61	123.81
373.835	113.81
374.061	115.81
374.287	118.81
374.513	101.81
374.739	102.81
374.965	96.81
375.191	112.81
375.416	106.81
375.642	117.81
375.868	97.81
376.094	95.81
376.319	105.81
376.545	106.81
376.771	97.81
376.997	111.81
377.222	90.81
377.448	113.81
377.674	103.81
377.899	111.81
378.125	112.81
378.35	112.81
378.576	119.81
378.802	110.81
379.027	121.81
379.253	131.81
379.478	168.81
379.704	274.81
379.929	709.81
380.155	1450.81
380.38	1482.81
380.606	486.81
380.831	140.81
381.057	120.81
381.282	103.81
381.507	106.81
381.733	111.81
381.958	123.81
382.184	102.81
382.409	86.81
382.634	101.81
382.86	113.81
383.085	100.81
383.31	105.81
383.535	111.81
383.761	104.81
383.986	107.81
384.211	102.81
384.436	99.81
384.662	97.81
384.887	88.81
385.112	91.81
385.337	106.81
385.562	96.81
385.787	111.81
386.013	127.81
386.238	86.81
386.463	95.81
386.688	107.81
386.913	104.81
387.138	105.81
387.363	92.81
387.588	93.81
387.813	103.81
388.038	111.81
388.263	110.81
388.488	114.81
388.713	104.81
388.938	95.81
389.163	91.81
389.387	91.81
389.612	89.81
389.837	109.81
390.062	89.81
390.287	104.81
390.512	82.81
390.736	91.81
390.961	88.81
391.186	95.81
391.411	93.81
391.636	96.81
391.86	91.81
392.085	104.81
392.31	109.81
392.534	97.81
392.759	97.81
392.984	121.81
393.208	95.81
393.433	125.81
393.658	130.81
393.882	118.81
394.107	85.81
394.331	95.81
394.556	89.81
394.78	97.81
395.005	106.81
395.229	116.81
395.454	102.81
395.678	95.81
395.903	105.81
396.127	103.81
396.352	106.81
396.576	95.81
396.801	102.81
397.025	124.81
397.249	109.81
397.474	102.81
397.698	106.81
397.922	98.81
398.147	97.81
398.371	100.81
398.595	104.81
398.82	105.81
399.044	83.81
399.268	101.81
399.492	110.81
399.717	103.81
399.941	92.81
400.165	99.81
400.389	105.81
400.613	91.81
400.837	94.81
401.062	118.81
401.286	98.81
401.51	103.81
401.734	89.81
401.958	116.81
402.182	81.81
402.406	91.81
402.63	93.81
402.854	88.81
403.078	107.81
403.302	85.81
403.526	78.81
403.75	97.81
403.974	96.81
404.198	91.81
404.422	96.81
404.645	109.81
404.869	107.81
405.093	102.81
405.317	105.81
405.541	96.81
405.765	124.81
405.988	131.81
406.212	105.81
406.436	102.81
406.66	93.81
406.883	109.81
407.107	111.81
407.331	98.81
407.555	96.81
407.778	88.81
408.002	96.81
408.226	96.81
408.449	109.81
408.673	104.81
408.896	85.81
409.12	101.81
409.344	87.81
409.567	98.81
409.791	94.81
410.014	102.81
410.238	95.81
410.461	98.81
410.685	92.81
410.908	97.81
411.132	97.81
411.355	96.81
411.578	94.81
411.802	87.81
412.025	84.81
412.249	97.81
412.472	90.81
412.695	89.81
412.919	99.81
413.142	98.81
413.365	99.81
413.589	98.81
413.812	105.81
414.035	110.81
414.258	101.81
414.482	99.81
414.705	93.81
414.928	112.81
415.151	103.81
415.374	90.81
415.597	96.81
415.821	93.81
416.044	105.81
416.267	99.81
416.49	82.81
416.713	99.81
416.936	87.81
417.159	75.81
417.382	90.81
417.605	105.81
417.828	103.81
418.051	95.81
418.274	105.81
418.497	97.81
418.72	95.81
418.943	96.81
419.166	94.81
419.389	114.81
419.611	95.81
419.834	101.81
420.057	103.81
420.28	91.81
420.503	110.81
420.726	90.81
420.948	100.81
421.171	93.81
421.394	94.81
421.617	99.81
421.839	80.81
422.062	85.81
422.285	97.81
422.507	97.81
422.73	128.81
422.953	120.81
423.175	97.81
423.398	103.81
423.621	92.81
423.843	103.81
424.066	96.81
424.288	90.81
424.511	90.81
424.733	98.81
424.956	100.81
425.178	97.81
425.401	84.81
425.623	95.81
425.846	80.81
426.068	101.81
426.291	87.81
426.513	96.81
426.735	108.81
426.958	79.81
427.18	97.81
427.402	97.81
427.625	96.81
427.847	108.81
428.069	98.81
428.292	86.81
428.514	95.81
428.736	101.81
428.958	84.81
429.181	99.81
429.403	99.81
429.625	98.81
429.847	92.81
430.069	98.81
430.292	99.81
430.514	110.81
430.736	109.81
430.958	93.81
431.18	81.81
431.402	89.81
431.624	92.81
431.846	101.81
432.068	80.81
432.29	96.81
432.512	97.81
432.734	96.81
432.956	90.81
433.178	97.81
433.4	93.81
433.622	97.81
433.844	95.81
434.066	102.81
434.287	93.81
434.509	86.81
434.731	88.81
434.953	109.81
435.175	98.81
435.397	94.81
435.618	96.81
435.84	91.81
436.062	77.81
436.284	80.81
436.505	83.81
436.727	95.81
436.949	95.81
437.17	86.81
437.392	104.81
437.614	103.81
437.835	96.81
438.057	85.81
438.278	94.81
438.5	89.81
438.721	99.81
438.943	96.81
439.165	116.81
439.386	110.81
439.608	111.81
439.829	102.81
440.05	114.81
440.272	107.81
440.493	84.81
440.715	99.81
440.936	98.81
441.158	98.81
441.379	103.81
441.6	94.81
441.822	102.81
442.043	120.81
442.264	127.81
442.486	113.81
442.707	95.81
442.928	101.81
443.149	86.81
443.371	106.81
443.592	100.81
443.813	93.81
444.034	89.81
444.255	100.81
444.476	74.81
444.698	95.81
444.919	88.81
445.14	183.81
445.361	135.81
445.582	95.81
445.803	93.81
446.024	87.81
446.245	99.81
446.466	88.81
446.687	99.81
446.908	102.81
447.129	91.81
447.35	85.81
447.571	104.81
447.792	92.81
448.013	94.81
448.234	96.81
448.455	75.81
448.675	87.81
448.896	96.81
449.117	106.81
449.338	131.81
449.559	150.81
449.779	110.81
450	102.81
450.221	109.81
450.442	105.81
450.662	119.81
450.883	101.81
451.104	119.81
451.324	138.81
451.545	122.81
451.766	107.81
451.986	129.81
452.207	201.81
452.428	496.81
452.648	1209.81
452.869	715.81
453.089	199.81
453.31	103.81
453.53	115.81
453.751	145.81
453.971	150.81
454.192	155.81
454.412	103.81
454.633	99.81
454.853	91.81
455.073	80.81
455.294	92.81
455.514	109.81
455.734	99.81
455.955	96.81
456.175	92.81
456.395	89.81
456.616	95.81
456.836	103.81
457.056	94.81
457.276	88.81
457.497	114.81
457.717	102.81
457.937	91.81
458.157	104.81
458.377	91.81
458.598	73.81
458.818	85.81
459.038	77.81
459.258	90.81
459.478	89.81
459.698	99.81
459.918	82.81
460.138	106.81
460.358	87.81
460.578	88.81
460.798	94.81
461.018	90.81
461.238	102.81
461.458	95.81
461.678	84.81
461.898	101.81
462.118	92.81
462.338	104.81
462.558	100.81
462.777	92.81
462.997	96.81
463.217	86.81
463.437	116.81
463.657	182.81
463.876	182.81
464.096	128.81
464.316	87.81
464.536	91.81
464.755	87.81
464.975	95.81
465.195	101.81
465.414	99.81
465.634	92.81
465.854	96.81
466.073	101.81
466.293	87.81
466.512	81.81
466.732	98.81
466.951	109.81
467.171	131.81
467.391	128.81
467.61	114.81
467.829	97.81
468.049	100.81
468.268	93.81
468.488	82.81
468.707	93.81
468.927	89.81
469.146	101.81
469.365	92.81
469.585	81.81
469.804	101.81
470.023	85.81
470.243	96.81
470.462	106.81
470.681	109.81
470.901	129.81
471.12	190.81
471.339	206.81
471.558	124.81
471.777	114.81
471.997	95.81
472.216	94.81
472.435	86.81
472.654	94.81
472.873	104.81
473.092	97.81
473.311	86.81
473.53	91.81
473.749	84.81
473.968	103.81
474.187	88.81
474.406	95.81
474.625	85.81
474.844	88.81
475.063	83.81
475.282	82.81
475.501	97.81
475.72	89.81
475.939	88.81
476.158	104.81
476.377	113.81
476.596	110.81
476.814	78.81
477.033	90.81
477.252	87.81
477.471	95.81
477.69	80.81
477.908	95.81
478.127	103.81
478.346	105.81
478.564	84.81
478.783	97.81
479.002	102.81
479.22	98.81
479.439	94.81
479.658	94.81
479.876	97.81
480.095	101.81
480.313	95.81
480.532	95.81
480.751	91.81
480.969	79.81
481.188	83.81
481.406	99.81
481.624	102.81
481.843	104.81
482.061	111.81
482.28	104.81
482.498	97.81
482.717	94.81
482.935	92.81
483.153	107.81
483.372	93.81
483.59	107.81
483.808	99.81
484.027	105.81
484.245	116.81
484.463	171.81
484.681	199.81
484.9	153.81
485.118	104.81
485.336	111.81
485.554	117.81
485.772	113.81
485.99	191.81
486.209	241.81
486.427	151.81
486.645	121.81
486.863	116.81
487.081	115.81
487.299	95.81
487.517	98.81
487.735	91.81
487.953	99.81
488.171	117.81
488.389	118.81
488.607	99.81
488.825	91.81
489.043	92.81
489.261	89.81
489.479	83.81
489.696	101.81
489.914	97.81
490.132	100.81
490.35	104.81
490.568	98.81
490.786	101.81
491.003	98.81
491.221	96.81
491.439	107.81
491.657	106.81
491.874	98.81
492.092	109.81
492.31	93.81
492.527	102.81
492.745	103.81
492.963	90.81
493.18	103.81
493.398	122.81
493.615	104.81
493.833	97.81
494.05	105.81
494.268	90.81
494.485	99.81
494.703	101.81
494.92	107.81
495.138	98.81
495.355	108.81
495.573	129.81
495.79	109.81
496.008	109.81
496.225	100.81
496.442	117.81
496.66	108.81
496.877	139.81
497.094	145.81
497.312	84.81
497.529	98.81
497.746	101.81
497.963	95.81
498.181	94.81
498.398	102.81
498.615	113.81
498.832	96.81
499.049	96.81
499.267	123.81
499.484	145.81
499.701	106.81
499.918	111.81
500.135	95.81
500.352	96.81
500.569	104.81
500.786	95.81
501.003	106.81
501.22	97.81
501.437	91.81
501.654	99.81
501.871	90.81
502.088	90.81
502.305	99.81
502.522	102.81
502.739	74.81
502.956	85.81
503.172	105.81
503.389	105.81
503.606	95.81
503.823	105.81
504.04	89.81
504.256	96.81
504.473	109.81
504.69	110.81
504.907	100.81
505.123	110.81
505.34	87.81
505.557	106.81
505.773	101.81
505.99	108.81
506.207	89.81
506.423	113.81
506.64	95.81
506.856	100.81
507.073	83.81
507.289	98.81
507.506	100.81
507.722	97.81
507.939	92.81
508.155	98.81
508.372	76.81
508.588	91.81
508.805	104.81
509.021	98.81
509.238	94.81
509.454	135.81
509.67	161.81
