Data from SnStandardFlinnAPT0064_LampEnergy10_LIBS07252019.E.O._I.C._HRD10591_15-20-03-493.txt Node
Date: Thu Jul 25 15:20:03 EDT 2019
User: cochatt
Spectrometer: HR+D1059
Trigger mode: 1
Integration Time (sec): 1.000000E-1
Scans to average: 1
Electric dark correction enabled: true
Nonlinearity correction enabled: false
Boxcar width: 0
XAxis mode: Wavelengths
Number of Pixels in Spectrum: 2048
>>>>>Begin Spectral Data<<<<<
223.165	-10.94
223.4	-10.94
223.635	-10.94
223.869	-17.94
224.104	-13.94
224.338	-2.94
224.573	-13.94
224.808	-14.94
225.042	-9.94
225.277	-14.94
225.511	-12.94
225.746	1.06
225.98	15.06
226.215	3.06
226.449	27.06
226.683	25.06
226.918	24.06
227.152	17.06
227.387	50.06
227.621	39.06
227.856	41.06
228.09	45.06
228.324	36.06
228.559	51.06
228.793	119.06
229.027	307.06
229.262	343.06
229.496	323.06
229.73	291.06
229.964	306.06
230.199	319.06
230.433	312.06
230.667	297.06
230.901	315.06
231.136	327.06
231.37	350.06
231.604	389.06
231.838	444.06
232.072	539.06
232.306	589.06
232.541	467.06
232.775	420.06
233.009	431.06
233.243	439.06
233.477	448.06
233.711	551.06
233.945	608.06
234.179	519.06
234.413	475.06
234.647	445.06
234.881	485.06
235.115	535.06
235.349	623.06
235.583	788.06
235.817	1001.06
236.051	977.06
236.285	651.06
236.519	547.06
236.753	522.06
236.987	517.06
237.221	541.06
237.455	518.06
237.689	463.06
237.922	471.06
238.156	476.06
238.39	489.06
238.624	514.06
238.858	489.06
239.091	497.06
239.325	502.06
239.559	489.06
239.793	508.06
240.027	521.06
240.26	554.06
240.494	585.06
240.728	594.06
240.961	635.06
241.195	673.06
241.429	687.06
241.662	731.06
241.896	802.06
242.13	981.06
242.363	1265.06
242.597	1587.06
242.83	1539.06
243.064	1559.06
243.298	1795.06
243.531	1481.06
243.765	969.06
243.998	812.06
244.232	714.06
244.465	679.06
244.699	668.06
244.932	680.06
245.166	662.06
245.399	679.06
245.633	700.06
245.866	691.06
246.099	673.06
246.333	675.06
246.566	647.06
246.8	643.06
247.033	664.06
247.266	659.06
247.5	666.06
247.733	674.06
247.966	712.06
248.2	776.06
248.433	884.06
248.666	1027.06
248.899	966.06
249.133	869.06
249.366	906.06
249.599	964.06
249.832	1128.06
250.066	1091.06
250.299	868.06
250.532	772.06
250.765	744.06
250.998	746.06
251.231	738.06
251.465	735.06
251.698	723.06
251.931	756.06
252.164	724.06
252.397	769.06
252.63	803.06
252.863	811.06
253.096	818.06
253.329	775.06
253.562	796.06
253.795	802.06
254.028	807.06
254.261	838.06
254.494	908.06
254.727	1043.06
254.96	1214.06
255.193	1221.06
255.426	983.06
255.659	884.06
255.892	876.06
256.124	863.06
256.357	913.06
256.59	906.06
256.823	1003.06
257.056	1126.06
257.289	1356.06
257.521	1547.06
257.754	1213.06
257.987	997.06
258.22	946.06
258.452	937.06
258.685	909.06
258.918	957.06
259.151	1030.06
259.383	1080.06
259.616	1234.06
259.849	1269.06
260.081	1095.06
260.314	1028.06
260.547	971.06
260.779	945.06
261.012	964.06
261.244	970.06
261.477	960.06
261.71	993.06
261.942	994.06
262.175	1020.06
262.407	1041.06
262.64	1067.06
262.872	1074.06
263.105	1123.06
263.337	1222.06
263.57	1267.06
263.802	1271.06
264.035	1286.06
264.267	1314.06
264.499	1348.06
264.732	1400.06
264.964	1431.06
265.197	1421.06
265.429	1445.06
265.661	1472.06
265.894	1535.06
266.126	1730.06
266.358	1974.06
266.591	1929.06
266.823	1651.06
267.055	1445.06
267.287	1378.06
267.52	1320.06
267.752	1307.06
267.984	1267.06
268.216	1260.06
268.448	1238.06
268.681	1252.06
268.913	1194.06
269.145	1261.06
269.377	1220.06
269.609	1233.06
269.841	1311.06
270.073	1380.06
270.306	1633.06
270.538	2157.06
270.77	3199.06
271.002	3914.06
271.234	2847.06
271.466	1949.06
271.698	1589.06
271.93	1445.06
272.162	1350.06
272.394	1299.06
272.626	1260.06
272.858	1253.06
273.09	1244.06
273.322	1243.06
273.553	1195.06
273.785	1209.06
274.017	1235.06
274.249	1216.06
274.481	1227.06
274.713	1216.06
274.945	1200.06
275.176	1204.06
275.408	1193.06
275.64	1216.06
275.872	1238.06
276.104	1263.06
276.335	1248.06
276.567	1293.06
276.799	1282.06
277.031	1297.06
277.262	1354.06
277.494	1444.06
277.726	1588.06
277.957	1866.06
278.189	2123.06
278.421	1986.06
278.652	1768.06
278.884	1667.06
279.115	1496.06
279.347	1443.06
279.579	1413.06
279.81	1449.06
280.042	1397.06
280.273	1439.06
280.505	1443.06
280.736	1511.06
280.968	1597.06
281.199	1830.06
281.431	2047.06
281.662	2139.06
281.894	1844.06
282.125	1661.06
282.356	1647.06
282.588	1686.06
282.819	1725.06
283.051	1868.06
283.282	2058.06
283.513	2487.06
283.745	3579.06
283.976	5663.06
284.207	7922.06
284.439	7200.06
284.67	4652.06
284.901	3850.06
285.132	3849.06
285.364	3643.06
285.595	2783.06
285.826	2473.06
286.057	2865.06
286.288	3873.06
286.52	5163.06
286.751	4859.06
286.982	3111.06
287.213	2383.06
287.444	2026.06
287.675	1873.06
287.906	1787.06
288.138	1775.06
288.369	1734.06
288.6	1709.06
288.831	1713.06
289.062	1673.06
289.293	1727.06
289.524	1727.06
289.755	1716.06
289.986	1714.06
290.217	1747.06
290.448	1690.06
290.679	1759.06
290.91	1786.06
291.141	1865.06
291.371	2055.06
291.602	2136.06
291.833	1980.06
292.064	1756.06
292.295	1697.06
292.526	1667.06
292.757	1643.06
292.987	1626.06
293.218	1635.06
293.449	1619.06
293.68	1618.06
293.91	1610.06
294.141	1598.06
294.372	1539.06
294.603	1580.06
294.833	1599.06
295.064	1597.06
295.295	1588.06
295.525	1580.06
295.756	1559.06
295.987	1557.06
296.217	1604.06
296.448	1589.06
296.679	1601.06
296.909	1606.06
297.14	1615.06
297.37	1627.06
297.601	1664.06
297.831	1622.06
298.062	1621.06
298.292	1665.06
298.523	1680.06
298.753	1719.06
298.984	1704.06
299.214	1756.06
299.445	1807.06
299.675	1809.06
299.905	1894.06
300.136	1947.06
300.366	2153.06
300.597	2753.06
300.827	3840.06
301.057	5187.06
301.288	5262.06
301.518	3461.06
301.748	2653.06
301.979	2426.06
302.209	2298.06
302.439	2359.06
302.669	2503.06
302.9	2952.06
303.13	4186.06
303.36	6178.06
303.59	8128.06
303.82	7206.06
304.051	4331.06
304.281	3091.06
304.511	2591.06
304.741	2388.06
304.971	2273.06
305.201	2122.06
305.431	2008.06
305.661	1967.06
305.891	1955.06
306.121	1901.06
306.352	1897.06
306.582	1904.06
306.812	1844.06
307.042	1865.06
307.272	1820.06
307.502	1824.06
307.731	1819.06
307.961	1806.06
308.191	1834.06
308.421	1812.06
308.651	1844.06
308.881	1818.06
309.111	1814.06
309.341	1827.06
309.571	1843.06
309.8	1865.06
310.03	1888.06
310.26	1888.06
310.49	1851.06
310.72	1882.06
310.949	1874.06
311.179	1890.06
311.409	1895.06
311.639	1915.06
311.868	1941.06
312.098	1960.06
312.328	1977.06
312.557	1975.06
312.787	1937.06
313.017	2006.06
313.246	2012.06
313.476	2024.06
313.706	2077.06
313.935	2243.06
314.165	2379.06
314.394	2537.06
314.624	2421.06
314.853	2201.06
315.083	2193.06
315.312	2202.06
315.542	2264.06
315.771	2168.06
316.001	2273.06
316.23	2384.06
316.46	2457.06
316.689	2690.06
316.919	3207.06
317.148	4667.06
317.377	7018.06
317.607	10265.06
317.836	10758.06
318.065	6771.06
318.295	4424.06
318.524	3519.06
318.753	3058.06
318.983	2821.06
319.212	2631.06
319.441	2525.06
319.67	2503.06
319.9	2418.06
320.129	2407.06
320.358	2396.06
320.587	2418.06
320.816	2363.06
321.046	2372.06
321.275	2339.06
321.504	2396.06
321.733	2455.06
321.962	2511.06
322.191	2541.06
322.42	2514.06
322.649	2500.06
322.878	2473.06
323.108	2479.06
323.337	2528.06
323.566	2599.06
323.795	2605.06
324.024	2677.06
324.253	2760.06
324.482	2809.06
324.71	3039.06
324.939	3192.06
325.168	3387.06
325.397	3475.06
325.626	4084.06
325.855	5562.06
326.084	8668.06
326.313	12563.06
326.542	13245.06
326.77	9235.06
326.999	6181.06
327.228	5153.06
327.457	4904.06
327.686	4916.06
327.914	5211.06
328.143	6044.06
328.372	7167.06
328.6	7851.06
328.829	7073.06
329.058	5910.06
329.287	5209.06
329.515	4659.06
329.744	4347.06
329.972	4151.06
330.201	3898.06
330.43	3746.06
330.658	3648.06
330.887	3613.06
331.115	3499.06
331.344	3541.06
331.572	3505.06
331.801	3508.06
332.03	3478.06
332.258	3611.06
332.486	3833.06
332.715	4290.06
332.943	5370.06
333.172	6641.06
333.4	6590.06
333.629	5095.06
333.857	4527.06
334.085	4603.06
334.314	4814.06
334.542	5186.06
334.771	6063.06
334.999	7363.06
335.227	9355.06
335.455	10377.06
335.684	9509.06
335.912	7865.06
336.14	6583.06
336.369	5764.06
336.597	5302.06
336.825	4902.06
337.053	4610.06
337.281	4309.06
337.51	4023.06
337.738	3917.06
337.966	3767.06
338.194	3628.06
338.422	3540.06
338.65	3379.06
338.878	3369.06
339.106	3256.06
339.334	3227.06
339.562	3199.06
339.79	3114.06
340.018	3083.06
340.246	3042.06
340.474	3028.06
340.702	2998.06
340.93	2994.06
341.158	3036.06
341.386	2976.06
341.614	2972.06
341.842	2905.06
342.07	2862.06
342.298	2868.06
342.526	2812.06
342.754	2713.06
342.981	2682.06
343.209	2753.06
343.437	2783.06
343.665	2783.06
343.893	2851.06
344.12	2814.06
344.348	2807.06
344.576	2775.06
344.804	2700.06
345.031	2617.06
345.259	2658.06
345.487	2619.06
345.714	2609.06
345.942	2606.06
346.17	2569.06
346.397	2551.06
346.625	2537.06
346.853	2547.06
347.08	2481.06
347.308	2514.06
347.535	2516.06
347.763	2527.06
347.99	2523.06
348.218	2510.06
348.445	2453.06
348.673	2460.06
348.9	2432.06
349.128	2456.06
349.355	2492.06
349.583	2384.06
349.81	2406.06
350.037	2419.06
350.265	2439.06
350.492	2409.06
350.72	2412.06
350.947	2423.06
351.174	2425.06
351.402	2417.06
351.629	2392.06
351.856	2408.06
352.083	2419.06
352.311	2381.06
352.538	2325.06
352.765	2375.06
352.992	2357.06
353.22	2385.06
353.447	2336.06
353.674	2361.06
353.901	2380.06
354.128	2388.06
354.355	2403.06
354.583	2383.06
354.81	2425.06
355.037	2442.06
355.264	2435.06
355.491	2424.06
355.718	2465.06
355.945	2475.06
356.172	2453.06
356.399	2463.06
356.626	2476.06
356.853	2502.06
357.08	2476.06
357.307	2496.06
357.534	2607.06
357.761	2621.06
357.988	2604.06
358.215	2555.06
358.441	2547.06
358.668	2564.06
358.895	2569.06
359.122	2529.06
359.349	2587.06
359.576	2591.06
359.802	2546.06
360.029	2475.06
360.256	2538.06
360.483	2587.06
360.709	2594.06
360.936	2591.06
361.163	2573.06
361.39	2581.06
361.616	2576.06
361.843	2601.06
362.07	2559.06
362.296	2551.06
362.523	2549.06
362.749	2554.06
362.976	2572.06
363.203	2510.06
363.429	2531.06
363.656	2550.06
363.882	2485.06
364.109	2543.06
364.335	2523.06
364.562	2528.06
364.788	2563.06
365.015	2583.06
365.241	2675.06
365.468	2813.06
365.694	2934.06
365.92	2831.06
366.147	2635.06
366.373	2589.06
366.599	2609.06
366.826	2566.06
367.052	2592.06
367.278	2637.06
367.505	2637.06
367.731	2617.06
367.957	2592.06
368.184	2589.06
368.41	2730.06
368.636	2691.06
368.862	2649.06
369.089	2662.06
369.315	2648.06
369.541	2618.06
369.767	2655.06
369.993	2561.06
370.219	2591.06
370.445	2637.06
370.672	2701.06
370.898	2668.06
371.124	2722.06
371.35	2711.06
371.576	2733.06
371.802	2709.06
372.028	2754.06
372.254	2760.06
372.48	2746.06
372.706	2776.06
372.932	2759.06
373.158	2768.06
373.384	2796.06
373.61	2767.06
373.835	2796.06
374.061	2770.06
374.287	2827.06
374.513	2809.06
374.739	2896.06
374.965	2868.06
375.191	2929.06
375.416	2876.06
375.642	2830.06
375.868	2873.06
376.094	2822.06
376.319	2759.06
376.545	2698.06
376.771	2753.06
376.997	2743.06
377.222	2777.06
377.448	2694.06
377.674	2725.06
377.899	2705.06
378.125	2739.06
378.35	2693.06
378.576	2696.06
378.802	2734.06
379.027	2788.06
379.253	2907.06
379.478	3075.06
379.704	3580.06
379.929	5073.06
380.155	7857.06
380.38	8677.06
380.606	5369.06
380.831	3749.06
381.057	3207.06
381.282	3023.06
381.507	2890.06
381.733	2823.06
381.958	2778.06
382.184	2723.06
382.409	2715.06
382.634	2669.06
382.86	2697.06
383.085	2715.06
383.31	2678.06
383.535	2675.06
383.761	2675.06
383.986	2716.06
384.211	2779.06
384.436	2746.06
384.662	2745.06
384.887	2779.06
385.112	2758.06
385.337	2770.06
385.562	2836.06
385.787	2799.06
386.013	2795.06
386.238	2769.06
386.463	2789.06
386.688	2785.06
386.913	2748.06
387.138	2792.06
387.363	2748.06
387.588	2725.06
387.813	2764.06
388.038	2769.06
388.263	2701.06
388.488	2779.06
388.713	2761.06
388.938	2735.06
389.163	2693.06
389.387	2721.06
389.612	2708.06
389.837	2725.06
390.062	2749.06
390.287	2837.06
390.512	2821.06
390.736	2855.06
390.961	2855.06
391.186	2866.06
391.411	2907.06
391.636	2867.06
391.86	2931.06
392.085	2912.06
392.31	2893.06
392.534	2876.06
392.759	2889.06
392.984	2890.06
393.208	2843.06
393.433	2875.06
393.658	2839.06
393.882	2786.06
394.107	2830.06
394.331	2776.06
394.556	2793.06
394.78	2824.06
395.005	2847.06
395.229	2828.06
395.454	2882.06
395.678	2825.06
395.903	2872.06
396.127	2947.06
396.352	2829.06
396.576	2839.06
396.801	2863.06
397.025	2912.06
397.249	2911.06
397.474	2940.06
397.698	2922.06
397.922	2959.06
398.147	2891.06
398.371	2982.06
398.595	3001.06
398.82	3067.06
399.044	3246.06
399.268	3317.06
399.492	3543.06
399.717	3587.06
399.941	3629.06
400.165	3503.06
400.389	3353.06
400.613	3253.06
400.837	3138.06
401.062	3085.06
401.286	3069.06
401.51	3041.06
401.734	3006.06
401.958	3100.06
402.182	3091.06
402.406	3001.06
402.63	3029.06
402.854	3103.06
403.078	3123.06
403.302	3139.06
403.526	3126.06
403.75	3156.06
403.974	3135.06
404.198	3137.06
404.422	3163.06
404.645	3228.06
404.869	3200.06
405.093	3195.06
405.317	3155.06
405.541	3231.06
405.765	3204.06
405.988	3261.06
406.212	3315.06
406.436	3269.06
406.66	3343.06
406.883	3255.06
407.107	3354.06
407.331	3410.06
407.555	3473.06
407.778	3497.06
408.002	3394.06
408.226	3430.06
408.449	3409.06
408.673	3313.06
408.896	3241.06
409.12	3241.06
409.344	3233.06
409.567	3140.06
409.791	3185.06
410.014	3186.06
410.238	3191.06
410.461	3145.06
410.685	3152.06
410.908	3036.06
411.132	3082.06
411.355	3027.06
411.578	3041.06
411.802	3047.06
412.025	3039.06
412.249	3089.06
412.472	3034.06
412.695	3057.06
412.919	2943.06
413.142	2967.06
413.365	3013.06
413.589	2980.06
413.812	2951.06
414.035	3004.06
414.258	3003.06
414.482	3018.06
414.705	3029.06
414.928	3057.06
415.151	2977.06
415.374	3021.06
415.597	2964.06
415.821	2893.06
416.044	2865.06
416.267	2897.06
416.49	2870.06
416.713	2854.06
416.936	2932.06
417.159	2799.06
417.382	2781.06
417.605	2791.06
417.828	2865.06
418.051	2866.06
418.274	2922.06
418.497	2918.06
418.72	2975.06
418.943	2900.06
419.166	3060.06
419.389	3206.06
419.611	3127.06
419.834	3035.06
420.057	2942.06
420.28	2917.06
420.503	2891.06
420.726	2903.06
420.948	2826.06
421.171	2872.06
421.394	2911.06
421.617	2871.06
421.839	2835.06
422.062	2912.06
422.285	2851.06
422.507	2903.06
422.73	2921.06
422.953	2941.06
423.175	2983.06
423.398	2940.06
423.621	2868.06
423.843	2906.06
424.066	2892.06
424.288	2813.06
424.511	2880.06
424.733	2901.06
424.956	2831.06
425.178	2843.06
425.401	2825.06
425.623	2785.06
425.846	2804.06
426.068	2752.06
426.291	2738.06
426.513	2754.06
426.735	2737.06
426.958	2744.06
427.18	2715.06
427.402	2714.06
427.625	2751.06
427.847	2697.06
428.069	2674.06
428.292	2696.06
428.514	2679.06
428.736	2621.06
428.958	2670.06
429.181	2620.06
429.403	2641.06
429.625	2639.06
429.847	2672.06
430.069	2682.06
430.292	2795.06
430.514	2842.06
430.736	2856.06
430.958	2713.06
431.18	2661.06
431.402	2680.06
431.624	2607.06
431.846	2607.06
432.068	2585.06
432.29	2670.06
432.512	2627.06
432.734	2632.06
432.956	2601.06
433.178	2632.06
433.4	2679.06
433.622	2668.06
433.844	2650.06
434.066	2650.06
434.287	2656.06
434.509	2697.06
434.731	2685.06
434.953	2723.06
435.175	2753.06
435.397	2788.06
435.618	2665.06
435.84	2648.06
436.062	2632.06
436.284	2629.06
436.505	2644.06
436.727	2619.06
436.949	2583.06
437.17	2590.06
437.392	2566.06
437.614	2609.06
437.835	2522.06
438.057	2587.06
438.278	2529.06
438.5	2583.06
438.721	2623.06
438.943	2701.06
439.165	2725.06
439.386	2765.06
439.608	2743.06
439.829	2729.06
440.05	2789.06
440.272	2853.06
440.493	2778.06
440.715	2732.06
440.936	2703.06
441.158	2766.06
441.379	2768.06
441.6	2877.06
441.822	2879.06
442.043	3060.06
442.264	3173.06
442.486	2991.06
442.707	2853.06
442.928	2825.06
443.149	2804.06
443.371	2840.06
443.592	2829.06
443.813	2845.06
444.034	2848.06
444.255	2836.06
444.476	2920.06
444.698	2964.06
444.919	3008.06
445.14	3058.06
445.361	2946.06
445.582	2859.06
445.803	2848.06
446.024	2820.06
446.245	2830.06
446.466	2805.06
446.687	2773.06
446.908	2715.06
447.129	2714.06
447.35	2651.06
447.571	2709.06
447.792	2608.06
448.013	2611.06
448.234	2544.06
448.455	2572.06
448.675	2596.06
448.896	2684.06
449.117	2791.06
449.338	3003.06
449.559	3089.06
449.779	2786.06
450	2631.06
450.221	2534.06
450.442	2583.06
450.662	2565.06
450.883	2491.06
451.104	2535.06
451.324	2574.06
451.545	2549.06
451.766	2565.06
451.986	2601.06
452.207	2779.06
452.428	3624.06
452.648	5455.06
452.869	4588.06
453.089	3231.06
453.31	2987.06
453.53	2951.06
453.751	3069.06
453.971	3169.06
454.192	3105.06
454.412	2697.06
454.633	2572.06
454.853	2519.06
455.073	2477.06
455.294	2458.06
455.514	2435.06
455.734	2417.06
455.955	2428.06
456.175	2450.06
456.395	2447.06
456.616	2465.06
456.836	2433.06
457.056	2496.06
457.276	2453.06
457.497	2585.06
457.717	2674.06
457.937	2596.06
458.157	2547.06
458.377	2587.06
458.598	2599.06
458.818	2635.06
459.038	2591.06
459.258	2638.06
459.478	2706.06
459.698	2689.06
459.918	2657.06
460.138	2724.06
460.358	2809.06
460.578	2821.06
460.798	2853.06
461.018	2914.06
461.238	2883.06
461.458	2899.06
461.678	2895.06
461.898	2959.06
462.118	3007.06
462.338	3081.06
462.558	3056.06
462.777	3124.06
462.997	3259.06
463.217	3383.06
463.437	3519.06
463.657	3540.06
463.876	3544.06
464.096	3390.06
464.316	3205.06
464.536	3201.06
464.755	3080.06
464.975	2972.06
465.195	2914.06
465.414	2825.06
465.634	2778.06
465.854	2780.06
466.073	2701.06
466.293	2697.06
466.512	2734.06
466.732	2713.06
466.951	2807.06
467.171	2978.06
467.391	2972.06
467.61	2714.06
467.829	2687.06
468.049	2663.06
468.268	2576.06
468.488	2585.06
468.707	2594.06
468.927	2574.06
469.146	2609.06
469.365	2687.06
469.585	2640.06
469.804	2717.06
470.023	2771.06
470.243	2772.06
470.462	2859.06
470.681	3033.06
470.901	3328.06
471.12	3693.06
471.339	3735.06
471.558	3197.06
471.777	2933.06
471.997	2765.06
472.216	2751.06
472.435	2659.06
472.654	2627.06
472.873	2603.06
473.092	2629.06
473.311	2627.06
473.53	2617.06
473.749	2699.06
473.968	2830.06
474.187	2639.06
474.406	2587.06
474.625	2593.06
474.844	2631.06
475.063	2609.06
475.282	2592.06
475.501	2612.06
475.72	2644.06
475.939	2683.06
476.158	2728.06
476.377	2802.06
476.596	2763.06
476.814	2774.06
477.033	2778.06
477.252	2858.06
477.471	2849.06
477.69	2867.06
477.908	2931.06
478.127	2963.06
478.346	2965.06
478.564	3049.06
478.783	3009.06
479.002	3089.06
479.22	3121.06
479.439	3122.06
479.658	3101.06
479.876	3188.06
480.095	3201.06
480.313	3190.06
480.532	3211.06
480.751	3197.06
480.969	3183.06
481.188	3163.06
481.406	3156.06
481.624	3129.06
481.843	3201.06
482.061	3229.06
482.28	3198.06
482.498	3201.06
482.717	3153.06
482.935	3207.06
483.153	3259.06
483.372	3263.06
483.59	3359.06
483.808	3356.06
484.027	3467.06
484.245	3689.06
484.463	4052.06
484.681	4442.06
484.9	4102.06
485.118	3845.06
485.336	3824.06
485.554	3804.06
485.772	3986.06
485.99	4509.06
486.209	4811.06
486.427	4170.06
486.645	3732.06
486.863	3559.06
487.081	3425.06
487.299	3390.06
487.517	3370.06
487.735	3350.06
