Data from SnStandardFlinnAPT0064_LampEnergy5.5_LIBS07252019.E.O._I.C._HRD10591_15-14-37-491.txt Node
Date: Thu Jul 25 15:14:37 EDT 2019
User: cochatt
Spectrometer: HR+D1059
Trigger mode: 1
Integration Time (sec): 1.000000E-1
Scans to average: 1
Electric dark correction enabled: true
Nonlinearity correction enabled: false
Boxcar width: 0
XAxis mode: Wavelengths
Number of Pixels in Spectrum: 2048
>>>>>Begin Spectral Data<<<<<
223.165	-21.69
223.4	-21.69
223.635	-21.69
223.869	-34.69
224.104	-11.69
224.338	-14.69
224.573	-14.69
224.808	-14.69
225.042	4.31
225.277	-10.69
225.511	-0.69
225.746	6.31
225.98	15.31
226.215	13.31
226.449	5.31
226.683	22.31
226.918	24.31
227.152	32.31
227.387	20.31
227.621	31.31
227.856	45.31
228.09	25.31
228.324	43.31
228.559	55.31
228.793	70.31
229.027	138.31
229.262	150.31
229.496	150.31
229.73	141.31
229.964	143.31
230.199	159.31
230.433	141.31
230.667	173.31
230.901	158.31
231.136	162.31
231.37	151.31
231.604	181.31
231.838	193.31
232.072	205.31
232.306	223.31
232.541	216.31
232.775	189.31
233.009	177.31
233.243	187.31
233.477	200.31
233.711	214.31
233.945	259.31
234.179	227.31
234.413	201.31
234.647	206.31
234.881	219.31
235.115	236.31
235.349	243.31
235.583	301.31
235.817	375.31
236.051	356.31
236.285	249.31
236.519	227.31
236.753	225.31
236.987	227.31
237.221	232.31
237.455	220.31
237.689	208.31
237.922	192.31
238.156	199.31
238.39	204.31
238.624	222.31
238.858	214.31
239.091	203.31
239.325	217.31
239.559	216.31
239.793	209.31
240.027	250.31
240.26	224.31
240.494	251.31
240.728	250.31
240.961	244.31
241.195	267.31
241.429	268.31
241.662	269.31
241.896	320.31
242.13	344.31
242.363	417.31
242.597	535.31
242.83	517.31
243.064	524.31
243.298	586.31
243.531	525.31
243.765	355.31
243.998	294.31
244.232	283.31
244.465	275.31
244.699	276.31
244.932	264.31
245.166	258.31
245.399	270.31
245.633	271.31
245.866	272.31
246.099	284.31
246.333	283.31
246.566	280.31
246.8	280.31
247.033	277.31
247.266	280.31
247.5	275.31
247.733	285.31
247.966	304.31
248.2	304.31
248.433	335.31
248.666	343.31
248.899	348.31
249.133	309.31
249.366	357.31
249.599	370.31
249.832	387.31
250.066	380.31
250.299	343.31
250.532	303.31
250.765	316.31
250.998	321.31
251.231	316.31
251.465	316.31
251.698	344.31
251.931	309.31
252.164	311.31
252.397	325.31
252.63	301.31
252.863	320.31
253.096	335.31
253.329	298.31
253.562	312.31
253.795	339.31
254.028	346.31
254.261	338.31
254.494	360.31
254.727	395.31
254.96	443.31
255.193	442.31
255.426	359.31
255.659	355.31
255.892	355.31
256.124	353.31
256.357	354.31
256.59	353.31
256.823	381.31
257.056	411.31
257.289	481.31
257.521	513.31
257.754	438.31
257.987	389.31
258.22	393.31
258.452	369.31
258.685	376.31
258.918	377.31
259.151	409.31
259.383	450.31
259.616	455.31
259.849	448.31
260.081	435.31
260.314	396.31
260.547	398.31
260.779	395.31
261.012	389.31
261.244	399.31
261.477	428.31
261.71	412.31
261.942	410.31
262.175	422.31
262.407	439.31
262.64	446.31
262.872	440.31
263.105	480.31
263.337	510.31
263.57	525.31
263.802	533.31
264.035	510.31
264.267	555.31
264.499	560.31
264.732	589.31
264.964	610.31
265.197	575.31
265.429	582.31
265.661	607.31
265.894	642.31
266.126	695.31
266.358	738.31
266.591	705.31
266.823	649.31
267.055	581.31
267.287	569.31
267.52	553.31
267.752	530.31
267.984	522.31
268.216	519.31
268.448	501.31
268.681	499.31
268.913	525.31
269.145	483.31
269.377	497.31
269.609	495.31
269.841	528.31
270.073	528.31
270.306	617.31
270.538	775.31
270.77	1016.31
271.002	1242.31
271.234	905.31
271.466	694.31
271.698	584.31
271.93	539.31
272.162	538.31
272.394	501.31
272.626	506.31
272.858	490.31
273.09	494.31
273.322	517.31
273.553	507.31
273.785	503.31
274.017	473.31
274.249	483.31
274.481	466.31
274.713	497.31
274.945	497.31
275.176	508.31
275.408	500.31
275.64	501.31
275.872	481.31
276.104	509.31
276.335	526.31
276.567	501.31
276.799	516.31
277.031	523.31
277.262	518.31
277.494	559.31
277.726	597.31
277.957	627.31
278.189	678.31
278.421	658.31
278.652	610.31
278.884	607.31
279.115	539.31
279.347	543.31
279.579	544.31
279.81	561.31
280.042	544.31
280.273	565.31
280.505	587.31
280.736	551.31
280.968	607.31
281.199	626.31
281.431	703.31
281.662	687.31
281.894	639.31
282.125	616.31
282.356	623.31
282.588	644.31
282.819	661.31
283.051	664.31
283.282	703.31
283.513	865.31
283.745	1211.31
283.976	1795.31
284.207	2469.31
284.439	2221.31
284.67	1453.31
284.901	1218.31
285.132	1159.31
285.364	1071.31
285.595	912.31
285.826	852.31
286.057	991.31
286.288	1259.31
286.52	1623.31
286.751	1519.31
286.982	1037.31
287.213	819.31
287.444	727.31
287.675	695.31
287.906	672.31
288.138	691.31
288.369	683.31
288.6	642.31
288.831	668.31
289.062	647.31
289.293	664.31
289.524	663.31
289.755	655.31
289.986	651.31
290.217	660.31
290.448	649.31
290.679	687.31
290.91	667.31
291.141	675.31
291.371	716.31
291.602	729.31
291.833	703.31
292.064	652.31
292.295	663.31
292.526	651.31
292.757	627.31
292.987	639.31
293.218	629.31
293.449	630.31
293.68	612.31
293.91	623.31
294.141	607.31
294.372	635.31
294.603	641.31
294.833	600.31
295.064	628.31
295.295	602.31
295.525	603.31
295.756	618.31
295.987	621.31
296.217	625.31
296.448	625.31
296.679	623.31
296.909	638.31
297.14	626.31
297.37	633.31
297.601	630.31
297.831	639.31
298.062	637.31
298.292	640.31
298.523	645.31
298.753	659.31
298.984	629.31
299.214	675.31
299.445	675.31
299.675	689.31
299.905	696.31
300.136	728.31
300.366	780.31
300.597	961.31
300.827	1241.31
301.057	1575.31
301.288	1599.31
301.518	1095.31
301.748	913.31
301.979	851.31
302.209	853.31
302.439	844.31
302.669	888.31
302.9	987.31
303.13	1332.31
303.36	1797.31
303.59	2367.31
303.82	2110.31
304.051	1317.31
304.281	1033.31
304.511	883.31
304.741	833.31
304.971	797.31
305.201	797.31
305.431	770.31
305.661	781.31
305.891	756.31
306.121	740.31
306.352	729.31
306.582	719.31
306.812	722.31
307.042	726.31
307.272	724.31
307.502	719.31
307.731	692.31
307.961	708.31
308.191	706.31
308.421	699.31
308.651	727.31
308.881	688.31
309.111	705.31
309.341	687.31
309.571	730.31
309.8	740.31
310.03	721.31
310.26	738.31
310.49	725.31
310.72	733.31
310.949	732.31
311.179	737.31
311.409	746.31
311.639	753.31
311.868	751.31
312.098	731.31
312.328	756.31
312.557	792.31
312.787	766.31
313.017	740.31
313.246	769.31
313.476	757.31
313.706	817.31
313.935	819.31
314.165	869.31
314.394	856.31
314.624	853.31
314.853	826.31
315.083	846.31
315.312	819.31
315.542	840.31
315.771	833.31
316.001	856.31
316.23	861.31
316.46	927.31
316.689	971.31
316.919	1105.31
317.148	1467.31
317.377	2196.31
317.607	3108.31
317.836	3225.31
318.065	2035.31
318.295	1388.31
318.524	1171.31
318.753	1051.31
318.983	1019.31
319.212	944.31
319.441	933.31
319.67	921.31
319.9	881.31
320.129	933.31
320.358	907.31
320.587	915.31
320.816	892.31
321.046	907.31
321.275	885.31
321.504	907.31
321.733	925.31
321.962	935.31
322.191	935.31
322.42	935.31
322.649	934.31
322.878	933.31
323.108	944.31
323.337	952.31
323.566	953.31
323.795	976.31
324.024	988.31
324.253	1011.31
324.482	1062.31
324.71	1091.31
324.939	1172.31
325.168	1157.31
325.397	1197.31
325.626	1378.31
325.855	1839.31
326.084	2701.31
326.313	3852.31
326.542	4081.31
326.77	2796.31
326.999	1957.31
327.228	1694.31
327.457	1629.31
327.686	1637.31
327.914	1733.31
328.143	1965.31
328.372	2239.31
328.6	2362.31
328.829	2240.31
329.058	1983.31
329.287	1783.31
329.515	1661.31
329.744	1576.31
329.972	1492.31
330.201	1431.31
330.43	1365.31
330.658	1358.31
330.887	1336.31
331.115	1339.31
331.344	1311.31
331.572	1321.31
331.801	1319.31
332.03	1337.31
332.258	1316.31
332.486	1388.31
332.715	1512.31
332.943	1765.31
333.172	2072.31
333.4	2079.31
333.629	1762.31
333.857	1579.31
334.085	1628.31
334.314	1724.31
334.542	1823.31
334.771	2047.31
334.999	2372.31
335.227	2801.31
335.455	3171.31
335.684	2973.31
335.912	2599.31
336.14	2269.31
336.369	2061.31
336.597	1918.31
336.825	1740.31
337.053	1679.31
337.281	1565.31
337.51	1517.31
337.738	1449.31
337.966	1408.31
338.194	1342.31
338.422	1293.31
338.65	1283.31
338.878	1264.31
339.106	1240.31
339.334	1214.31
339.562	1183.31
339.79	1189.31
340.018	1176.31
340.246	1189.31
340.474	1158.31
340.702	1138.31
340.93	1169.31
341.158	1129.31
341.386	1114.31
341.614	1145.31
341.842	1105.31
342.07	1089.31
342.298	1103.31
342.526	1088.31
342.754	1081.31
342.981	1035.31
343.209	1037.31
343.437	1061.31
343.665	1076.31
343.893	1105.31
344.12	1112.31
344.348	1081.31
344.576	1079.31
344.804	1032.31
345.031	1029.31
345.259	1027.31
345.487	1011.31
345.714	1016.31
345.942	993.31
346.17	1003.31
346.397	989.31
346.625	989.31
346.853	983.31
347.08	975.31
347.308	970.31
347.535	991.31
347.763	977.31
347.99	968.31
348.218	972.31
348.445	980.31
348.673	946.31
348.9	941.31
349.128	943.31
349.355	959.31
349.583	948.31
349.81	959.31
350.037	929.31
350.265	967.31
350.492	945.31
350.72	945.31
350.947	939.31
351.174	937.31
351.402	959.31
351.629	960.31
351.856	910.31
352.083	927.31
352.311	921.31
352.538	944.31
352.765	932.31
352.992	923.31
353.22	930.31
353.447	927.31
353.674	927.31
353.901	935.31
354.128	938.31
354.355	914.31
354.583	969.31
354.81	957.31
355.037	953.31
355.264	937.31
355.491	953.31
355.718	923.31
355.945	939.31
356.172	949.31
356.399	988.31
356.626	963.31
356.853	964.31
357.08	959.31
357.307	982.31
357.534	992.31
357.761	989.31
357.988	988.31
358.215	981.31
358.441	963.31
358.668	1001.31
358.895	1025.31
359.122	986.31
359.349	982.31
359.576	994.31
359.802	999.31
360.029	984.31
360.256	987.31
360.483	1007.31
360.709	1005.31
360.936	995.31
361.163	991.31
361.39	1015.31
361.616	996.31
361.843	1005.31
362.07	999.31
362.296	1027.31
362.523	1015.31
362.749	1001.31
362.976	974.31
363.203	1007.31
363.429	991.31
363.656	987.31
363.882	998.31
364.109	1000.31
364.335	986.31
364.562	1004.31
364.788	1001.31
365.015	980.31
365.241	994.31
365.468	1056.31
365.694	1080.31
365.92	1079.31
366.147	1017.31
366.373	1038.31
366.599	1038.31
366.826	1022.31
367.052	1011.31
367.278	1023.31
367.505	992.31
367.731	1027.31
367.957	1052.31
368.184	1007.31
368.41	1027.31
368.636	1060.31
368.862	1017.31
369.089	1015.31
369.315	1043.31
369.541	1026.31
369.767	1020.31
369.993	1071.31
370.219	1034.31
370.445	1044.31
370.672	1066.31
370.898	1071.31
371.124	1056.31
371.35	1061.31
371.576	1067.31
371.802	1075.31
372.028	1041.31
372.254	1060.31
372.48	1107.31
372.706	1119.31
372.932	1137.31
373.158	1109.31
373.384	1097.31
373.61	1079.31
373.835	1116.31
374.061	1130.31
374.287	1142.31
374.513	1144.31
374.739	1131.31
374.965	1125.31
375.191	1142.31
375.416	1127.31
375.642	1122.31
375.868	1140.31
376.094	1095.31
376.319	1087.31
376.545	1130.31
376.771	1090.31
376.997	1080.31
377.222	1058.31
377.448	1079.31
377.674	1083.31
377.899	1080.31
378.125	1072.31
378.35	1052.31
378.576	1079.31
378.802	1079.31
379.027	1091.31
379.253	1130.31
379.478	1146.31
379.704	1325.31
379.929	1709.31
380.155	2348.31
380.38	2503.31
380.606	1719.31
380.831	1333.31
381.057	1199.31
381.282	1126.31
381.507	1080.31
381.733	1059.31
381.958	1068.31
382.184	1059.31
382.409	1067.31
382.634	1090.31
382.86	1059.31
383.085	1046.31
383.31	1044.31
383.535	1101.31
383.761	1105.31
383.986	1061.31
384.211	1088.31
384.436	1098.31
384.662	1090.31
384.887	1098.31
385.112	1109.31
385.337	1100.31
385.562	1107.31
385.787	1081.31
386.013	1120.31
386.238	1107.31
386.463	1151.31
386.688	1102.31
386.913	1099.31
387.138	1063.31
387.363	1121.31
387.588	1106.31
387.813	1085.31
388.038	1115.31
388.263	1080.31
388.488	1101.31
388.713	1106.31
388.938	1115.31
389.163	1087.31
389.387	1089.31
389.612	1112.31
389.837	1110.31
390.062	1101.31
390.287	1130.31
390.512	1106.31
390.736	1116.31
390.961	1151.31
391.186	1141.31
391.411	1164.31
391.636	1166.31
391.86	1181.31
392.085	1183.31
392.31	1165.31
392.534	1126.31
392.759	1147.31
392.984	1145.31
393.208	1124.31
393.433	1103.31
393.658	1112.31
393.882	1111.31
394.107	1108.31
394.331	1122.31
394.556	1125.31
394.78	1140.31
395.005	1131.31
395.229	1129.31
395.454	1136.31
395.678	1155.31
395.903	1139.31
396.127	1147.31
396.352	1154.31
396.576	1123.31
396.801	1147.31
397.025	1152.31
397.249	1157.31
397.474	1144.31
397.698	1159.31
397.922	1147.31
398.147	1179.31
398.371	1188.31
398.595	1215.31
398.82	1261.31
399.044	1302.31
399.268	1324.31
399.492	1389.31
399.717	1453.31
399.941	1445.31
400.165	1419.31
400.389	1345.31
400.613	1317.31
400.837	1265.31
401.062	1286.31
401.286	1249.31
401.51	1215.31
401.734	1222.31
401.958	1214.31
402.182	1253.31
402.406	1216.31
402.63	1258.31
402.854	1246.31
403.078	1259.31
403.302	1284.31
403.526	1281.31
403.75	1311.31
403.974	1277.31
404.198	1237.31
404.422	1304.31
404.645	1263.31
404.869	1274.31
405.093	1301.31
405.317	1250.31
405.541	1261.31
405.765	1329.31
405.988	1294.31
406.212	1282.31
406.436	1299.31
406.66	1307.31
406.883	1301.31
407.107	1353.31
407.331	1339.31
407.555	1379.31
407.778	1336.31
408.002	1343.31
408.226	1345.31
408.449	1334.31
408.673	1275.31
408.896	1267.31
409.12	1317.31
409.344	1261.31
409.567	1265.31
409.791	1281.31
410.014	1280.31
410.238	1234.31
410.461	1242.31
410.685	1268.31
410.908	1260.31
411.132	1234.31
411.355	1231.31
411.578	1253.31
411.802	1247.31
412.025	1208.31
412.249	1219.31
412.472	1215.31
412.695	1191.31
412.919	1180.31
413.142	1206.31
413.365	1188.31
413.589	1188.31
413.812	1168.31
414.035	1197.31
414.258	1219.31
414.482	1224.31
414.705	1197.31
414.928	1183.31
415.151	1194.31
415.374	1220.31
415.597	1186.31
415.821	1181.31
416.044	1179.31
416.267	1141.31
416.49	1162.31
416.713	1151.31
416.936	1176.31
417.159	1151.31
417.382	1170.31
417.605	1143.31
417.828	1139.31
418.051	1155.31
418.274	1179.31
418.497	1197.31
418.72	1181.31
418.943	1178.31
419.166	1183.31
419.389	1293.31
419.611	1257.31
419.834	1215.31
420.057	1215.31
420.28	1191.31
420.503	1191.31
420.726	1162.31
420.948	1161.31
421.171	1169.31
421.394	1161.31
421.617	1174.31
421.839	1165.31
422.062	1166.31
422.285	1161.31
422.507	1186.31
422.73	1179.31
422.953	1175.31
423.175	1191.31
423.398	1208.31
423.621	1173.31
423.843	1145.31
424.066	1176.31
424.288	1171.31
424.511	1176.31
424.733	1214.31
424.956	1169.31
425.178	1171.31
425.401	1122.31
425.623	1131.31
425.846	1133.31
426.068	1122.31
426.291	1119.31
426.513	1104.31
426.735	1097.31
426.958	1109.31
427.18	1077.31
427.402	1101.31
427.625	1079.31
427.847	1059.31
428.069	1099.31
428.292	1073.31
428.514	1106.31
428.736	1100.31
428.958	1087.31
429.181	1040.31
429.403	1031.31
429.625	1069.31
429.847	1058.31
430.069	1062.31
430.292	1113.31
430.514	1112.31
430.736	1115.31
430.958	1106.31
431.18	1043.31
431.402	1051.31
431.624	1054.31
431.846	1099.31
432.068	1024.31
432.29	1037.31
432.512	1047.31
432.734	1075.31
432.956	1081.31
433.178	1125.31
433.4	1103.31
433.622	1081.31
433.844	1075.31
434.066	1078.31
434.287	1057.31
434.509	1088.31
434.731	1068.31
434.953	1132.31
435.175	1129.31
435.397	1137.31
435.618	1067.31
435.84	1052.31
436.062	1070.31
436.284	1061.31
436.505	1067.31
436.727	1097.31
436.949	1064.31
437.17	1084.31
437.392	1021.31
437.614	1050.31
437.835	1049.31
438.057	1055.31
438.278	1050.31
438.5	1060.31
438.721	1087.31
438.943	1098.31
439.165	1099.31
439.386	1115.31
439.608	1089.31
439.829	1106.31
440.05	1124.31
440.272	1157.31
440.493	1084.31
440.715	1116.31
440.936	1125.31
441.158	1123.31
441.379	1148.31
441.6	1183.31
441.822	1180.31
442.043	1229.31
442.264	1246.31
442.486	1222.31
442.707	1146.31
442.928	1158.31
443.149	1156.31
443.371	1142.31
443.592	1144.31
443.813	1164.31
444.034	1163.31
444.255	1208.31
444.476	1203.31
444.698	1224.31
444.919	1253.31
445.14	1315.31
445.361	1241.31
445.582	1187.31
445.803	1181.31
446.024	1148.31
446.245	1154.31
446.466	1161.31
446.687	1140.31
446.908	1133.31
447.129	1087.31
447.35	1134.31
447.571	1090.31
447.792	1052.31
448.013	1051.31
448.234	1046.31
448.455	1060.31
448.675	1081.31
448.896	1080.31
449.117	1093.31
449.338	1168.31
449.559	1187.31
449.779	1095.31
450	1071.31
450.221	1050.31
450.442	1024.31
450.662	1015.31
450.883	1001.31
451.104	1024.31
451.324	1003.31
451.545	1003.31
451.766	1014.31
451.986	1044.31
452.207	1073.31
452.428	1279.31
452.648	1623.31
452.869	1474.31
453.089	1146.31
453.31	1117.31
453.53	1129.31
453.751	1115.31
453.971	1158.31
454.192	1147.31
454.412	1061.31
454.633	999.31
454.853	986.31
455.073	971.31
455.294	980.31
455.514	1006.31
455.734	991.31
455.955	959.31
456.175	971.31
456.395	982.31
456.616	1002.31
456.836	995.31
457.056	997.31
457.276	1001.31
457.497	1027.31
457.717	1023.31
457.937	1023.31
458.157	1034.31
458.377	1013.31
458.598	1059.31
458.818	1009.31
459.038	1016.31
459.258	1050.31
459.478	1051.31
459.698	1095.31
459.918	1109.31
460.138	1122.31
460.358	1155.31
460.578	1149.31
460.798	1169.31
461.018	1170.31
461.238	1174.31
461.458	1155.31
461.678	1182.31
461.898	1202.31
462.118	1201.31
462.338	1217.31
462.558	1233.31
462.777	1260.31
462.997	1317.31
463.217	1331.31
463.437	1380.31
463.657	1358.31
463.876	1343.31
464.096	1311.31
464.316	1255.31
464.536	1277.31
464.755	1241.31
464.975	1186.31
465.195	1183.31
465.414	1139.31
465.634	1102.31
465.854	1115.31
466.073	1075.31
466.293	1083.31
466.512	1075.31
466.732	1075.31
466.951	1126.31
467.171	1169.31
467.391	1148.31
467.61	1083.31
467.829	1102.31
468.049	1057.31
468.268	1060.31
468.488	1058.31
468.707	1041.31
468.927	1075.31
469.146	1075.31
469.365	1064.31
469.585	1092.31
469.804	1084.31
470.023	1096.31
470.243	1129.31
470.462	1178.31
470.681	1196.31
470.901	1260.31
471.12	1368.31
471.339	1398.31
471.558	1216.31
471.777	1148.31
471.997	1091.31
472.216	1099.31
472.435	1076.31
472.654	1068.31
472.873	1060.31
473.092	1061.31
473.311	1034.31
473.53	1058.31
473.749	1087.31
473.968	1111.31
474.187	1045.31
474.406	1049.31
474.625	1089.31
474.844	1094.31
475.063	1071.31
475.282	1076.31
475.501	1094.31
475.72	1051.31
475.939	1075.31
476.158	1077.31
476.377	1098.31
476.596	1115.31
476.814	1103.31
477.033	1093.31
477.252	1125.31
477.471	1113.31
477.69	1131.31
477.908	1199.31
478.127	1205.31
478.346	1225.31
478.564	1240.31
478.783	1227.31
479.002	1222.31
479.22	1242.31
479.439	1284.31
479.658	1241.31
479.876	1249.31
480.095	1275.31
480.313	1291.31
480.532	1289.31
480.751	1305.31
480.969	1274.31
481.188	1275.31
481.406	1276.31
481.624	1232.31
481.843	1269.31
482.061	1264.31
482.28	1247.31
482.498	1270.31
482.717	1241.31
482.935	1271.31
483.153	1252.31
483.372	1314.31
483.59	1329.31
483.808	1310.31
484.027	1340.31
484.245	1397.31
484.463	1511.31
484.681	1624.31
484.9	1556.31
485.118	1435.31
485.336	1450.31
485.554	1476.31
485.772	1512.31
485.99	1681.31
486.209	1818.31
486.427	1548.31
486.645	1408.31
486.863	1371.31
487.081	1389.31
487.299	1391.31
487.517	1361.31
487.735	1361.31
487.953	1395.31
488.171	1357.31
488.389	1355.31
488.607	1351.31
488.825	1317.31
489.043	1284.31
489.261	1315.31
489.479	1312.31
489.696	1307.31
489.914	1309.31
490.132	1313.31
490.35	1337.31
490.568	1366.31
490.786	1359.31
491.003	1351.31
491.221	1382.31
491.439	1411.31
491.657	1401.31
491.874	1407.31
492.092	1449.31
492.31	1440.31
