Data from SnStandardFlinnAPT0064_LampEnergy10_LIBS07252019.E.O._I.C._HRD10591_15-22-01-494.txt Node
Date: Thu Jul 25 15:22:01 EDT 2019
User: cochatt
Spectrometer: HR+D1059
Trigger mode: 1
Integration Time (sec): 1.000000E-1
Scans to average: 1
Electric dark correction enabled: true
Nonlinearity correction enabled: false
Boxcar width: 0
XAxis mode: Wavelengths
Number of Pixels in Spectrum: 2048
>>>>>Begin Spectral Data<<<<<
223.165	-8
223.4	-8
223.635	-8
223.869	-22
224.104	-14
224.338	-4
224.573	-22
224.808	-18
225.042	-10
225.277	4
225.511	-5
225.746	9
225.98	-5
226.215	13
226.449	17
226.683	9
226.918	21
227.152	35
227.387	36
227.621	33
227.856	50
228.09	71
228.324	59
228.559	53
228.793	117
229.027	309
229.262	336
229.496	311
229.73	300
229.964	312
230.199	315
230.433	319
230.667	309
230.901	323
231.136	327
231.37	354
231.604	402
231.838	444
232.072	533
232.306	590
232.541	491
232.775	419
233.009	412
233.243	419
233.477	460
233.711	554
233.945	596
234.179	541
234.413	442
234.647	429
234.881	471
235.115	536
235.349	636
235.583	780
235.817	1083
236.051	1067
236.285	659
236.519	538
236.753	506
236.987	512
237.221	526
237.455	521
237.689	475
237.922	463
238.156	469
238.39	513
238.624	493
238.858	485
239.091	486
239.325	512
239.559	525
239.793	520
240.027	516
240.26	511
240.494	546
240.728	599
240.961	644
241.195	651
241.429	691
241.662	704
241.896	805
242.13	993
242.363	1329
242.597	1738
242.83	1614
243.064	1587
243.298	1924
243.531	1612
243.765	975
243.998	786
244.232	710
244.465	673
244.699	651
244.932	641
245.166	668
245.399	666
245.633	702
245.866	688
246.099	673
246.333	667
246.566	643
246.8	648
247.033	639
247.266	640
247.5	668
247.733	680
247.966	706
248.2	750
248.433	907
248.666	1032
248.899	955
249.133	863
249.366	886
249.599	984
249.832	1143
250.066	1092
250.299	872
250.532	791
250.765	742
250.998	724
251.231	747
251.465	743
251.698	726
251.931	750
252.164	770
252.397	789
252.63	791
252.863	780
253.096	819
253.329	791
253.562	795
253.795	826
254.028	831
254.261	842
254.494	891
254.727	1021
254.96	1261
255.193	1255
255.426	977
255.659	874
255.892	861
256.124	877
256.357	857
256.59	920
256.823	1009
257.056	1121
257.289	1372
257.521	1540
257.754	1192
257.987	988
258.22	949
258.452	916
258.685	951
258.918	970
259.151	998
259.383	1098
259.616	1237
259.849	1297
260.081	1087
260.314	1025
260.547	945
260.779	924
261.012	942
261.244	959
261.477	969
261.71	982
261.942	1006
262.175	1004
262.407	1041
262.64	1056
262.872	1119
263.105	1152
263.337	1209
263.57	1228
263.802	1301
264.035	1313
264.267	1346
264.499	1381
264.732	1448
264.964	1474
265.197	1433
265.429	1468
265.661	1508
265.894	1608
266.126	1805
266.358	2014
266.591	1929
266.823	1615
267.055	1474
267.287	1394
267.52	1317
267.752	1265
267.984	1259
268.216	1272
268.448	1258
268.681	1265
268.913	1189
269.145	1227
269.377	1192
269.609	1250
269.841	1326
270.073	1371
270.306	1638
270.538	2268
270.77	3402
271.002	4177
271.234	2850
271.466	1918
271.698	1549
271.93	1413
272.162	1334
272.394	1322
272.626	1261
272.858	1263
273.09	1259
273.322	1266
273.553	1197
273.785	1217
274.017	1169
274.249	1234
274.481	1271
274.713	1205
274.945	1247
275.176	1229
275.408	1236
275.64	1205
275.872	1235
276.104	1272
276.335	1295
276.567	1333
276.799	1292
277.031	1317
277.262	1330
277.494	1403
277.726	1565
277.957	1899
278.189	2137
278.421	2026
278.652	1824
278.884	1678
279.115	1522
279.347	1424
279.579	1417
279.81	1394
280.042	1405
280.273	1429
280.505	1459
280.736	1481
280.968	1627
281.199	1780
281.431	2101
281.662	2179
281.894	1836
282.125	1654
282.356	1655
282.588	1690
282.819	1714
283.051	1834
283.282	2018
283.513	2551
283.745	3765
283.976	6092
284.207	8592
284.439	7692
284.67	4602
284.901	3809
285.132	3909
285.364	3627
285.595	2771
285.826	2454
286.057	2989
286.288	4067
286.52	5593
286.751	5127
286.982	3071
287.213	2308
287.444	1997
287.675	1865
287.906	1804
288.138	1742
288.369	1723
288.6	1711
288.831	1694
289.062	1686
289.293	1688
289.524	1719
289.755	1729
289.986	1735
290.217	1718
290.448	1721
290.679	1780
290.91	1810
291.141	1929
291.371	2040
291.602	2167
291.833	1951
292.064	1811
292.295	1695
292.526	1686
292.757	1653
292.987	1625
293.218	1572
293.449	1645
293.68	1621
293.91	1558
294.141	1594
294.372	1597
294.603	1558
294.833	1537
295.064	1550
295.295	1577
295.525	1561
295.756	1565
295.987	1561
296.217	1615
296.448	1592
296.679	1610
296.909	1615
297.14	1604
297.37	1665
297.601	1667
297.831	1677
298.062	1669
298.292	1663
298.523	1683
298.753	1719
298.984	1737
299.214	1737
299.445	1763
299.675	1814
299.905	1878
300.136	1920
300.366	2181
300.597	2895
300.827	4055
301.057	5582
301.288	5560
301.518	3481
301.748	2637
301.979	2368
302.209	2303
302.439	2293
302.669	2517
302.9	3023
303.13	4381
303.36	6491
303.59	8841
303.82	7535
304.051	4269
304.281	3114
304.511	2593
304.741	2334
304.971	2251
305.201	2111
305.431	2060
305.661	1979
305.891	1945
306.121	1871
306.352	1896
306.582	1838
306.812	1846
307.042	1858
307.272	1830
307.502	1818
307.731	1868
307.961	1844
308.191	1847
308.421	1825
308.651	1849
308.881	1798
309.111	1821
309.341	1853
309.571	1885
309.8	1899
310.03	1876
310.26	1870
310.49	1897
310.72	1887
310.949	1890
311.179	1904
311.409	1898
311.639	1935
311.868	1920
312.098	2006
312.328	1954
312.557	1987
312.787	1969
313.017	2027
313.246	2034
313.476	2046
313.706	2104
313.935	2245
314.165	2409
314.394	2511
314.624	2398
314.853	2217
315.083	2185
315.312	2229
315.542	2235
315.771	2228
316.001	2261
316.23	2359
316.46	2459
316.689	2686
316.919	3311
317.148	4821
317.377	7574
317.607	11097
317.836	11470
318.065	6805
318.295	4298
318.524	3435
318.753	3047
318.983	2791
319.212	2592
319.441	2532
319.67	2476
319.9	2414
320.129	2363
320.358	2389
320.587	2361
320.816	2330
321.046	2389
321.275	2355
321.504	2400
321.733	2463
321.962	2513
322.191	2538
322.42	2565
322.649	2493
322.878	2473
323.108	2491
323.337	2533
323.566	2587
323.795	2669
324.024	2727
324.253	2745
324.482	2919
324.71	3063
324.939	3291
325.168	3318
325.397	3453
325.626	4075
325.855	5865
326.084	9188
326.313	13349
326.542	14046
326.77	9429
326.999	6049
327.228	5015
327.457	4761
327.686	4842
327.914	5116
328.143	6068
328.372	7236
328.6	7978
328.829	6999
329.058	5852
329.287	5033
329.515	4615
329.744	4328
329.972	4034
330.201	3867
330.43	3789
330.658	3663
330.887	3554
331.115	3521
331.344	3433
331.572	3490
331.801	3469
332.03	3483
332.258	3612
332.486	3813
332.715	4393
332.943	5401
333.172	6804
333.4	6691
333.629	5014
333.857	4519
334.085	4517
334.314	4776
334.542	5178
334.771	6019
334.999	7555
335.227	9575
335.455	10655
335.684	9421
335.912	7645
336.14	6457
336.369	5629
336.597	5180
336.825	4809
337.053	4565
337.281	4231
337.51	4019
337.738	3881
337.966	3733
338.194	3605
338.422	3484
338.65	3407
338.878	3395
339.106	3254
339.334	3279
339.562	3131
339.79	3117
340.018	3124
340.246	3043
340.474	3065
340.702	3027
340.93	3084
341.158	3052
341.386	3019
341.614	2987
341.842	2953
342.07	2873
342.298	2849
342.526	2815
342.754	2763
342.981	2759
343.209	2747
343.437	2787
343.665	2849
343.893	2852
344.12	2878
344.348	2838
344.576	2759
344.804	2681
345.031	2600
345.259	2627
345.487	2643
345.714	2595
345.942	2563
346.17	2555
346.397	2559
346.625	2545
346.853	2523
347.08	2559
347.308	2538
347.535	2558
347.763	2529
347.99	2517
348.218	2515
348.445	2466
348.673	2516
348.9	2499
349.128	2509
349.355	2477
349.583	2498
349.81	2461
350.037	2439
350.265	2391
350.492	2449
350.72	2421
350.947	2435
351.174	2434
351.402	2454
351.629	2406
351.856	2414
352.083	2429
352.311	2440
352.538	2442
352.765	2374
352.992	2382
353.22	2332
353.447	2393
353.674	2398
353.901	2393
354.128	2413
354.355	2399
354.583	2403
354.81	2464
355.037	2454
355.264	2474
355.491	2441
355.718	2460
355.945	2466
356.172	2509
356.399	2482
356.626	2501
356.853	2517
357.08	2554
357.307	2581
357.534	2661
357.761	2622
357.988	2609
358.215	2590
358.441	2603
358.668	2579
358.895	2521
359.122	2515
359.349	2523
359.576	2513
359.802	2534
360.029	2555
360.256	2546
360.483	2551
360.709	2550
360.936	2572
361.163	2556
361.39	2561
361.616	2596
361.843	2577
362.07	2597
362.296	2585
362.523	2586
362.749	2594
362.976	2588
363.203	2512
363.429	2545
363.656	2620
363.882	2523
364.109	2598
364.335	2490
364.562	2524
364.788	2621
365.015	2623
365.241	2653
365.468	2860
365.694	2942
365.92	2819
366.147	2641
366.373	2635
366.599	2638
366.826	2671
367.052	2599
367.278	2620
367.505	2629
367.731	2629
367.957	2656
368.184	2671
368.41	2704
368.636	2711
368.862	2671
369.089	2710
369.315	2657
369.541	2689
369.767	2713
369.993	2707
370.219	2604
370.445	2691
370.672	2726
370.898	2671
371.124	2698
371.35	2738
371.576	2796
371.802	2817
372.028	2789
372.254	2820
372.48	2779
372.706	2832
372.932	2833
373.158	2843
373.384	2874
373.61	2810
373.835	2855
374.061	2845
374.287	2850
374.513	2861
374.739	2914
374.965	2940
375.191	2937
375.416	2940
375.642	2918
375.868	2900
376.094	2837
376.319	2841
376.545	2874
376.771	2732
376.997	2783
377.222	2772
377.448	2741
377.674	2747
377.899	2787
378.125	2752
378.35	2773
378.576	2758
378.802	2773
379.027	2876
379.253	2914
379.478	3133
379.704	3646
379.929	5313
380.155	8292
380.38	9007
380.606	5339
380.831	3761
381.057	3289
381.282	3027
381.507	2942
381.733	2851
381.958	2768
382.184	2776
382.409	2741
382.634	2692
382.86	2728
383.085	2703
383.31	2709
383.535	2742
383.761	2772
383.986	2719
384.211	2785
384.436	2810
384.662	2821
384.887	2809
385.112	2763
385.337	2806
385.562	2826
385.787	2778
386.013	2849
386.238	2797
386.463	2813
386.688	2790
386.913	2771
387.138	2779
387.363	2836
387.588	2770
387.813	2821
388.038	2832
388.263	2821
388.488	2789
388.713	2819
388.938	2825
389.163	2776
389.387	2788
389.612	2774
389.837	2777
390.062	2811
390.287	2940
390.512	2855
390.736	2894
390.961	2925
391.186	2878
391.411	2957
391.636	2904
391.86	2976
392.085	2993
392.31	2957
392.534	2943
392.759	2860
392.984	2889
393.208	2849
393.433	2837
393.658	2838
393.882	2823
394.107	2836
394.331	2841
394.556	2904
394.78	2843
395.005	2865
395.229	2866
395.454	2917
395.678	2954
395.903	2914
396.127	2922
396.352	2916
396.576	2849
396.801	2869
397.025	2905
397.249	2986
397.474	3001
397.698	2923
397.922	2949
398.147	2975
398.371	3027
398.595	3105
398.82	3115
399.044	3232
399.268	3331
399.492	3619
399.717	3720
399.941	3688
400.165	3566
400.389	3456
400.613	3269
400.837	3201
401.062	3157
401.286	3093
401.51	3123
401.734	3043
401.958	3082
402.182	3115
402.406	3006
402.63	3128
402.854	3141
403.078	3175
403.302	3202
403.526	3226
403.75	3165
403.974	3214
404.198	3205
404.422	3178
404.645	3153
404.869	3157
405.093	3223
405.317	3213
405.541	3234
405.765	3307
405.988	3354
406.212	3354
406.436	3316
406.66	3369
406.883	3319
407.107	3397
407.331	3421
407.555	3573
407.778	3489
408.002	3428
408.226	3444
408.449	3431
408.673	3429
408.896	3301
409.12	3266
409.344	3319
409.567	3191
409.791	3209
410.014	3172
410.238	3200
410.461	3267
410.685	3203
410.908	3109
411.132	3110
411.355	3103
411.578	3076
411.802	3069
412.025	3107
412.249	3117
412.472	3031
412.695	3051
412.919	3002
413.142	2979
413.365	3062
413.589	3078
413.812	3042
414.035	3023
414.258	3044
414.482	3012
414.705	3058
414.928	3066
415.151	3015
415.374	2949
415.597	2953
415.821	2926
416.044	2932
416.267	2899
416.49	2941
416.713	2888
416.936	2913
417.159	2893
417.382	2841
417.605	2859
417.828	2851
418.051	2898
418.274	2964
418.497	2965
418.72	3038
418.943	2958
419.166	3068
419.389	3278
419.611	3169
419.834	3122
420.057	3026
420.28	2998
420.503	2950
420.726	2909
420.948	2892
421.171	2879
421.394	2894
421.617	2909
421.839	2925
422.062	2946
422.285	2854
422.507	2993
422.73	2944
422.953	3011
423.175	3001
423.398	2947
423.621	2880
423.843	2948
424.066	2914
424.288	2893
424.511	2903
424.733	2922
424.956	2892
425.178	2862
425.401	2845
425.623	2926
425.846	2788
426.068	2818
426.291	2796
426.513	2797
426.735	2764
426.958	2749
427.18	2698
427.402	2773
427.625	2778
427.847	2737
428.069	2683
428.292	2770
428.514	2709
428.736	2691
428.958	2717
429.181	2701
429.403	2651
429.625	2682
429.847	2683
430.069	2783
430.292	2837
430.514	2934
430.736	2887
430.958	2746
431.18	2675
431.402	2646
431.624	2637
431.846	2674
432.068	2609
432.29	2687
432.512	2644
432.734	2643
432.956	2658
433.178	2653
433.4	2668
433.622	2701
433.844	2679
434.066	2697
434.287	2646
434.509	2716
434.731	2721
434.953	2803
435.175	2769
435.397	2769
435.618	2732
435.84	2702
436.062	2675
436.284	2653
436.505	2671
436.727	2639
436.949	2669
437.17	2636
437.392	2584
437.614	2607
437.835	2580
438.057	2515
438.278	2560
438.5	2627
438.721	2659
438.943	2713
439.165	2726
439.386	2716
439.608	2711
439.829	2803
440.05	2860
440.272	2908
440.493	2758
440.715	2772
440.936	2759
441.158	2809
441.379	2773
441.6	2877
441.822	2995
442.043	3104
442.264	3236
442.486	3046
442.707	2884
442.928	2804
443.149	2837
443.371	2800
443.592	2864
443.813	2895
444.034	2884
444.255	2893
444.476	2970
444.698	3039
444.919	3068
445.14	3147
445.361	2966
445.582	2893
445.803	2829
446.024	2811
446.245	2812
446.466	2824
446.687	2813
446.908	2774
447.129	2687
447.35	2702
447.571	2704
447.792	2653
448.013	2633
448.234	2630
448.455	2611
448.675	2690
448.896	2755
449.117	2854
449.338	3105
449.559	3239
449.779	2902
450	2615
450.221	2583
450.442	2629
450.662	2597
450.883	2623
451.104	2593
451.324	2550
451.545	2559
451.766	2586
451.986	2597
452.207	2865
452.428	3695
452.648	5597
452.869	4658
453.089	3196
453.31	2976
453.53	2970
453.751	3087
453.971	3297
454.192	3238
454.412	2726
454.633	2581
454.853	2525
455.073	2506
455.294	2485
455.514	2408
455.734	2455
455.955	2494
456.175	2425
456.395	2446
456.616	2421
456.836	2532
457.056	2510
457.276	2504
457.497	2703
457.717	2713
457.937	2577
458.157	2605
458.377	2606
458.598	2600
458.818	2645
459.038	2590
459.258	2617
459.478	2683
459.698	2714
459.918	2698
460.138	2809
460.358	2835
460.578	2831
460.798	2862
461.018	2879
461.238	2856
461.458	2904
461.678	2989
461.898	3001
462.118	3053
462.338	3099
462.558	3087
462.777	3211
462.997	3302
463.217	3401
463.437	3532
463.657	3682
463.876	3655
464.096	3472
464.316	3229
464.536	3175
464.755	3123
464.975	3008
465.195	2860
465.414	2906
465.634	2767
465.854	2740
466.073	2744
466.293	2727
466.512	2698
466.732	2743
466.951	2855
467.171	3082
467.391	2989
467.61	2707
467.829	2623
468.049	2652
468.268	2630
468.488	2603
468.707	2625
468.927	2554
469.146	2608
469.365	2625
469.585	2607
469.804	2699
470.023	2794
470.243	2761
470.462	2901
470.681	3036
470.901	3418
471.12	3908
471.339	3913
471.558	3217
471.777	2917
471.997	2741
472.216	2724
472.435	2659
472.654	2637
472.873	2670
473.092	2606
473.311	2625
473.53	2613
473.749	2735
473.968	2805
474.187	2664
474.406	2649
474.625	2649
474.844	2609
475.063	2666
475.282	2638
475.501	2614
475.72	2686
475.939	2707
476.158	2765
476.377	2827
476.596	2784
476.814	2816
477.033	2786
477.252	2816
477.471	2884
477.69	2861
477.908	2974
478.127	2987
478.346	3017
478.564	2994
478.783	3085
479.002	3073
479.22	3100
479.439	3116
479.658	3079
479.876	3157
480.095	3207
480.313	3237
480.532	3292
480.751	3296
480.969	3281
481.188	3242
481.406	3188
481.624	3176
481.843	3189
482.061	3221
482.28	3145
482.498	3190
482.717	3223
482.935	3242
483.153	3270
483.372	3289
483.59	3338
483.808	3399
484.027	3436
484.245	3669
484.463	4169
484.681	4675
484.9	4213
485.118	3926
485.336	3747
485.554	3818
485.772	4078
485.99	4669
486.209	5133
486.427	4221
486.645	3711
486.863	3602
487.081	3529
487.299	3473
487.517	3419
487.735	3401
487.953	3393
488.171	3410
488.389	3343
488.607	3284
488.825	3311
489.043	3199
489.261	3235
489.479	3313
489.696	3283
489.914	3313
490.132	3310
490.35	3335
490.568	3418
490.786	3346
491.003	3415
491.221	3452
491.439	3449
491.657	3416
491.874	3408
492.092	3441
492.31	3438
492.527	3443
492.745	3451
492.963	3418
493.18	3370
493.398	3453
493.615	3425
493.833	3434
494.05	3454
494.268	3423
494.485	3475
494.703	3493
494.92	3508
495.138	3416
495.355	3403
495.573	3450
495.79	3477
496.008	3508
496.225	3502
496.442	3612
496.66	3627
496.877	3948
497.094	3925
497.312	3664
497.529	3784
497.746	3830
497.963	3847
498.181	3875
498.398	4012
498.615	4153
498.832	4249
499.049	4496
499.267	4840
499.484	5177
499.701	5137
499.918	5246
500.135	5481
500.352	5744
500.569	5771
500.786	5755
501.003	5586
501.22	5329
501.437	5051
501.654	4815
501.871	4611
502.088	4383
502.305	4266
502.522	4182
502.739	3971
502.956	3917
503.172	3833
503.389	3779
503.606	3702
503.823	3654
504.04	3687
504.256	3603
504.473	3589
504.69	3591
504.907	3601
505.123	3524
505.34	3397
505.557	3321
505.773	3291
505.99	3235
506.207	3171
506.423	3156
506.64	3168
506.856	3057
507.073	3078
507.289	3042
507.506	2998
507.722	3050
507.939	3017
508.155	2975
508.372	2984
508.588	2983
508.805	2969
509.021	2991
509.238	3065
509.454	3229
509.67	3461
509.887	3173
510.103	3037
510.319	3008
510.536	2993
510.752	2980
510.968	2929
511.184	2937
511.401	2926
511.617	2885
511.833	2856
512.049	2881
512.265	2835
512.481	2851
512.698	2818
512.914	2854
513.13	2855
513.346	2841
513.562	2865
513.778	2894
513.994	2961
514.21	3005
514.426	3205
514.642	3380
514.858	3082
515.074	2977
515.29	2911
515.506	2933
515.721	2926
515.937	2981
516.153	2957
516.369	2973
516.585	3006
516.801	3029
517.016	3115
517.232	3164
517.448	3210
517.664	3279
517.879	3314
518.095	3245
518.311	3244
518.527	3160
518.742	3185
518.958	3257
519.173	3321
519.389	3156
519.605	3018
519.82	2980
520.036	2969
520.251	2828
520.467	2825
520.682	2845
520.898	2862
521.113	2837
521.329	2837
521.544	2792
521.76	2794
521.975	2859
522.19	2825
522.406	2784
522.621	2812
522.836	2778
523.052	2765
523.267	2775
523.482	2733
523.698	2741
523.913	2746
524.128	2772
524.343	2694
524.559	2737
524.774	2750
524.989	2737
525.204	2746
525.419	2739
525.634	2726
525.849	2754
526.064	2753
526.28	2761
526.495	2713
526.71	2757
526.925	2780
527.14	2755
527.355	2782
527.57	2759
527.785	2802
527.999	2747
528.214	2783
528.429	2839
528.644	2887
528.859	2898
529.074	2918
529.289	2937
529.503	2972
529.718	2930
529.933	2889
530.148	2893
530.363	2933
530.577	2901
530.792	2923
531.007	2956
531.221	2969
531.436	3013
531.651	3083
531.865	3035
532.08	3115
532.295	3173
532.509	3374
532.724	3363
532.938	3479
533.153	3643
533.367	3926
533.582	4130
533.796	4017
534.011	3789
534.225	3643
534.44	3510
534.654	3446
534.868	3310
535.083	3272
535.297	3285
535.511	3155
535.726	3099
535.94	3041
536.154	3068
536.369	2974
536.583	2940
536.797	2915
537.011	2856
537.225	2891
537.44	2849
537.654	2837
537.868	2739
538.082	2733
538.296	2717
538.51	2729
538.724	2757
538.938	2664
539.153	2667
539.367	2657
539.581	2659
539.795	2646
540.009	2646
540.222	2625
540.436	2657
540.65	2652
540.864	2652
541.078	2703
541.292	2859
541.506	3452
541.72	3612
541.934	3046
542.147	2909
542.361	2769
