Data from SnStandardFlinnAPT0064_QswitchEnergy10_LIBS07252019.E.O._I.C._HRD10591_15-28-17-973.txt Node
Date: Thu Jul 25 15:28:17 EDT 2019
User: cochatt
Spectrometer: HR+D1059
Trigger mode: 1
Integration Time (sec): 1.000000E-1
Scans to average: 1
Electric dark correction enabled: true
Nonlinearity correction enabled: false
Boxcar width: 0
XAxis mode: Wavelengths
Number of Pixels in Spectrum: 2048
>>>>>Begin Spectral Data<<<<<
223.165	-15.69
223.4	-15.69
223.635	-15.69
223.869	-21.69
224.104	-12.69
224.338	-17.69
224.573	-25.69
224.808	-20.69
225.042	-1.69
225.277	6.31
225.511	-9.69
225.746	-1.69
225.98	16.31
226.215	3.31
226.449	37.31
226.683	18.31
226.918	22.31
227.152	23.31
227.387	31.31
227.621	18.31
227.856	38.31
228.09	39.31
228.324	53.31
228.559	59.31
228.793	71.31
229.027	67.31
229.262	77.31
229.496	64.31
229.73	60.31
229.964	74.31
230.199	72.31
230.433	73.31
230.667	68.31
230.901	84.31
231.136	87.31
231.37	84.31
231.604	73.31
231.838	85.31
232.072	88.31
232.306	112.31
232.541	83.31
232.775	110.31
233.009	100.31
233.243	97.31
233.477	95.31
233.711	83.31
233.945	107.31
234.179	93.31
234.413	80.31
234.647	80.31
234.881	90.31
235.115	90.31
235.349	88.31
235.583	116.31
235.817	126.31
236.051	134.31
236.285	87.31
236.519	88.31
236.753	77.31
236.987	79.31
237.221	67.31
237.455	78.31
237.689	66.31
237.922	77.31
238.156	73.31
238.39	90.31
238.624	87.31
238.858	69.31
239.091	62.31
239.325	89.31
239.559	83.31
239.793	91.31
240.027	83.31
240.26	68.31
240.494	87.31
240.728	88.31
240.961	84.31
241.195	98.31
241.429	87.31
241.662	94.31
241.896	90.31
242.13	100.31
242.363	127.31
242.597	158.31
242.83	136.31
243.064	151.31
243.298	183.31
243.531	162.31
243.765	102.31
243.998	94.31
244.232	81.31
244.465	88.31
244.699	83.31
244.932	75.31
245.166	87.31
245.399	80.31
245.633	72.31
245.866	72.31
246.099	78.31
246.333	75.31
246.566	78.31
246.8	92.31
247.033	76.31
247.266	101.31
247.5	79.31
247.733	90.31
247.966	87.31
248.2	91.31
248.433	111.31
248.666	122.31
248.899	117.31
249.133	90.31
249.366	91.31
249.599	103.31
249.832	130.31
250.066	136.31
250.299	82.31
250.532	98.31
250.765	79.31
250.998	75.31
251.231	84.31
251.465	92.31
251.698	92.31
251.931	79.31
252.164	91.31
252.397	80.31
252.63	111.31
252.863	106.31
253.096	107.31
253.329	101.31
253.562	95.31
253.795	90.31
254.028	102.31
254.261	75.31
254.494	89.31
254.727	103.31
254.96	146.31
255.193	130.31
255.426	97.31
255.659	88.31
255.892	94.31
256.124	90.31
256.357	80.31
256.59	79.31
256.823	88.31
257.056	101.31
257.289	149.31
257.521	170.31
257.754	136.31
257.987	94.31
258.22	89.31
258.452	88.31
258.685	77.31
258.918	68.31
259.151	90.31
259.383	119.31
259.616	135.31
259.849	164.31
260.081	104.31
260.314	91.31
260.547	77.31
260.779	84.31
261.012	81.31
261.244	79.31
261.477	101.31
261.71	101.31
261.942	74.31
262.175	92.31
262.407	83.31
262.64	95.31
262.872	83.31
263.105	85.31
263.337	90.31
263.57	73.31
263.802	95.31
264.035	81.31
264.267	85.31
264.499	96.31
264.732	100.31
264.964	83.31
265.197	92.31
265.429	92.31
265.661	97.31
265.894	99.31
266.126	134.31
266.358	174.31
266.591	140.31
266.823	93.31
267.055	81.31
267.287	90.31
267.52	79.31
267.752	89.31
267.984	91.31
268.216	100.31
268.448	83.31
268.681	83.31
268.913	97.31
269.145	103.31
269.377	96.31
269.609	90.31
269.841	92.31
270.073	96.31
270.306	144.31
270.538	201.31
270.77	322.31
271.002	360.31
271.234	195.31
271.466	114.31
271.698	104.31
271.93	84.31
272.162	100.31
272.394	99.31
272.626	83.31
272.858	84.31
273.09	79.31
273.322	82.31
273.553	87.31
273.785	76.31
274.017	86.31
274.249	88.31
274.481	87.31
274.713	96.31
274.945	84.31
275.176	90.31
275.408	84.31
275.64	94.31
275.872	102.31
276.104	82.31
276.335	107.31
276.567	112.31
276.799	88.31
277.031	98.31
277.262	98.31
277.494	124.31
277.726	122.31
277.957	167.31
278.189	254.31
278.421	230.31
278.652	184.31
278.884	184.31
279.115	127.31
279.347	112.31
279.579	89.31
279.81	112.31
280.042	94.31
280.273	112.31
280.505	97.31
280.736	103.31
280.968	121.31
281.199	166.31
281.431	236.31
281.662	230.31
281.894	165.31
282.125	108.31
282.356	120.31
282.588	113.31
282.819	114.31
283.051	122.31
283.282	140.31
283.513	195.31
283.745	341.31
283.976	562.31
284.207	815.31
284.439	631.31
284.67	271.31
284.901	280.31
285.132	361.31
285.364	382.31
285.595	239.31
285.826	166.31
286.057	270.31
286.288	417.31
286.52	640.31
286.751	497.31
286.982	202.31
287.213	128.31
287.444	116.31
287.675	100.31
287.906	99.31
288.138	97.31
288.369	95.31
288.6	89.31
288.831	110.31
289.062	94.31
289.293	96.31
289.524	102.31
289.755	91.31
289.986	92.31
290.217	97.31
290.448	95.31
290.679	89.31
290.91	124.31
291.141	179.31
291.371	229.31
291.602	288.31
291.833	186.31
292.064	98.31
292.295	104.31
292.526	112.31
292.757	90.31
292.987	90.31
293.218	90.31
293.449	92.31
293.68	106.31
293.91	87.31
294.141	99.31
294.372	90.31
294.603	106.31
294.833	103.31
295.064	99.31
295.295	98.31
295.525	80.31
295.756	98.31
295.987	95.31
296.217	106.31
296.448	93.31
296.679	94.31
296.909	97.31
297.14	97.31
297.37	77.31
297.601	96.31
297.831	101.31
298.062	99.31
298.292	97.31
298.523	100.31
298.753	103.31
298.984	101.31
299.214	111.31
299.445	106.31
299.675	119.31
299.905	114.31
300.136	124.31
300.366	160.31
300.597	286.31
300.827	473.31
301.057	716.31
301.288	646.31
301.518	278.31
301.748	134.31
301.979	126.31
302.209	139.31
302.439	141.31
302.669	164.31
302.9	271.31
303.13	535.31
303.36	918.31
303.59	1270.31
303.82	879.31
304.051	302.31
304.281	149.31
304.511	126.31
304.741	102.31
304.971	112.31
305.201	117.31
305.431	103.31
305.661	97.31
305.891	99.31
306.121	104.31
306.352	97.31
306.582	116.31
306.812	103.31
307.042	121.31
307.272	114.31
307.502	112.31
307.731	94.31
307.961	126.31
308.191	102.31
308.421	101.31
308.651	104.31
308.881	107.31
309.111	105.31
309.341	103.31
309.571	104.31
309.8	120.31
310.03	116.31
310.26	94.31
310.49	99.31
310.72	100.31
310.949	105.31
311.179	103.31
311.409	100.31
311.639	113.31
311.868	118.31
312.098	111.31
312.328	119.31
312.557	120.31
312.787	104.31
313.017	118.31
313.246	112.31
313.476	134.31
313.706	144.31
313.935	144.31
314.165	196.31
314.394	247.31
314.624	180.31
314.853	138.31
315.083	138.31
315.312	113.31
315.542	141.31
315.771	127.31
316.001	133.31
316.23	158.31
316.46	162.31
316.689	187.31
316.919	290.31
317.148	534.31
317.377	953.31
317.607	1549.31
317.836	1436.31
318.065	534.31
318.295	222.31
318.524	169.31
318.753	139.31
318.983	125.31
319.212	115.31
319.441	123.31
319.67	136.31
319.9	117.31
320.129	121.31
320.358	107.31
320.587	119.31
320.816	120.31
321.046	119.31
321.275	128.31
321.504	132.31
321.733	141.31
321.962	172.31
322.191	158.31
322.42	139.31
322.649	124.31
322.878	130.31
323.108	128.31
323.337	125.31
323.566	124.31
323.795	132.31
324.024	138.31
324.253	135.31
324.482	183.31
324.71	235.31
324.939	289.31
325.168	230.31
325.397	191.31
325.626	275.31
325.855	502.31
326.084	981.31
326.313	1656.31
326.542	1611.31
326.77	644.31
326.999	281.31
327.228	207.31
327.457	233.31
327.686	227.31
327.914	154.31
328.143	122.31
328.372	128.31
328.6	123.31
328.829	127.31
329.058	123.31
329.287	116.31
329.515	114.31
329.744	118.31
329.972	115.31
330.201	119.31
330.43	111.31
330.658	120.31
330.887	105.31
331.115	104.31
331.344	120.31
331.572	125.31
331.801	116.31
332.03	124.31
332.258	139.31
332.486	163.31
332.715	309.31
332.943	516.31
333.172	786.31
333.4	682.31
333.629	259.31
333.857	150.31
334.085	119.31
334.314	126.31
334.542	120.31
334.771	131.31
334.999	130.31
335.227	143.31
335.455	135.31
335.684	121.31
335.912	113.31
336.14	118.31
336.369	117.31
336.597	102.31
336.825	101.31
337.053	123.31
337.281	117.31
337.51	106.31
337.738	120.31
337.966	107.31
338.194	103.31
338.422	138.31
338.65	122.31
338.878	116.31
339.106	114.31
339.334	132.31
339.562	102.31
339.79	126.31
340.018	112.31
340.246	115.31
340.474	120.31
340.702	118.31
340.93	118.31
341.158	106.31
341.386	126.31
341.614	129.31
341.842	131.31
342.07	129.31
342.298	130.31
342.526	118.31
342.754	116.31
342.981	115.31
343.209	116.31
343.437	110.31
343.665	105.31
343.893	107.31
344.12	116.31
344.348	110.31
344.576	107.31
344.804	121.31
345.031	113.31
345.259	104.31
345.487	118.31
345.714	104.31
345.942	114.31
346.17	106.31
346.397	110.31
346.625	112.31
346.853	100.31
347.08	110.31
347.308	94.31
347.535	100.31
347.763	102.31
347.99	118.31
348.218	113.31
348.445	99.31
348.673	114.31
348.9	127.31
349.128	132.31
349.355	130.31
349.583	106.31
349.81	102.31
350.037	130.31
350.265	122.31
350.492	104.31
350.72	119.31
350.947	101.31
351.174	116.31
351.402	130.31
351.629	108.31
351.856	110.31
352.083	107.31
352.311	116.31
352.538	118.31
352.765	118.31
352.992	101.31
353.22	108.31
353.447	113.31
353.674	106.31
353.901	103.31
354.128	105.31
354.355	104.31
354.583	105.31
354.81	104.31
355.037	101.31
355.264	104.31
355.491	92.31
355.718	114.31
355.945	119.31
356.172	96.31
356.399	109.31
356.626	92.31
356.853	103.31
357.08	107.31
357.307	107.31
357.534	114.31
357.761	120.31
357.988	102.31
358.215	116.31
358.441	121.31
358.668	80.31
358.895	108.31
359.122	122.31
359.349	120.31
359.576	115.31
359.802	123.31
360.029	130.31
360.256	108.31
360.483	108.31
360.709	122.31
360.936	120.31
361.163	110.31
361.39	122.31
361.616	112.31
361.843	112.31
362.07	112.31
362.296	95.31
362.523	98.31
362.749	92.31
362.976	111.31
363.203	110.31
363.429	105.31
363.656	110.31
363.882	118.31
364.109	118.31
364.335	113.31
364.562	112.31
364.788	113.31
365.015	128.31
365.241	146.31
365.468	208.31
365.694	252.31
365.92	204.31
366.147	118.31
366.373	112.31
366.599	108.31
366.826	110.31
367.052	99.31
367.278	103.31
367.505	118.31
367.731	102.31
367.957	105.31
368.184	112.31
368.41	109.31
368.636	110.31
368.862	117.31
369.089	109.31
369.315	116.31
369.541	116.31
369.767	107.31
369.993	126.31
370.219	108.31
370.445	108.31
370.672	107.31
370.898	111.31
371.124	110.31
371.35	112.31
371.576	107.31
371.802	105.31
372.028	123.31
372.254	107.31
372.48	128.31
372.706	108.31
372.932	116.31
373.158	114.31
373.384	118.31
373.61	122.31
373.835	121.31
374.061	123.31
374.287	124.31
374.513	105.31
374.739	114.31
374.965	116.31
375.191	126.31
375.416	118.31
375.642	113.31
375.868	110.31
376.094	112.31
376.319	117.31
376.545	112.31
376.771	105.31
376.997	105.31
377.222	101.31
377.448	99.31
377.674	110.31
377.899	104.31
378.125	113.31
378.35	125.31
378.576	115.31
378.802	122.31
379.027	127.31
379.253	152.31
379.478	164.31
379.704	318.31
379.929	820.31
380.155	1686.31
380.38	1712.31
380.606	533.31
380.831	178.31
381.057	130.31
381.282	121.31
381.507	118.31
381.733	126.31
381.958	94.31
382.184	106.31
382.409	103.31
382.634	116.31
382.86	101.31
383.085	90.31
383.31	112.31
383.535	116.31
383.761	100.31
383.986	102.31
384.211	102.31
384.436	91.31
384.662	104.31
384.887	92.31
385.112	101.31
385.337	97.31
385.562	102.31
385.787	105.31
386.013	105.31
386.238	118.31
386.463	112.31
386.688	97.31
386.913	116.31
387.138	110.31
387.363	98.31
387.588	121.31
387.813	111.31
388.038	122.31
388.263	104.31
388.488	89.31
388.713	82.31
388.938	98.31
389.163	91.31
389.387	95.31
389.612	82.31
389.837	100.31
390.062	118.31
390.287	113.31
390.512	86.31
390.736	102.31
390.961	100.31
391.186	101.31
391.411	100.31
391.636	94.31
391.86	91.31
392.085	108.31
392.31	81.31
392.534	107.31
392.759	89.31
392.984	115.31
393.208	115.31
393.433	134.31
393.658	140.31
393.882	98.31
394.107	102.31
394.331	100.31
394.556	116.31
394.78	100.31
395.005	98.31
395.229	90.31
395.454	100.31
395.678	108.31
395.903	115.31
396.127	100.31
396.352	94.31
396.576	108.31
396.801	110.31
397.025	125.31
397.249	117.31
397.474	103.31
397.698	106.31
397.922	99.31
398.147	105.31
398.371	98.31
398.595	111.31
398.82	100.31
399.044	100.31
399.268	113.31
399.492	101.31
399.717	92.31
399.941	104.31
400.165	116.31
400.389	119.31
400.613	91.31
400.837	78.31
401.062	94.31
401.286	94.31
401.51	87.31
401.734	105.31
401.958	104.31
402.182	86.31
402.406	91.31
402.63	96.31
402.854	92.31
403.078	99.31
403.302	100.31
403.526	99.31
403.75	108.31
403.974	97.31
404.198	105.31
404.422	106.31
404.645	106.31
404.869	113.31
405.093	98.31
405.317	112.31
405.541	118.31
405.765	120.31
405.988	156.31
406.212	116.31
406.436	88.31
406.66	93.31
406.883	101.31
407.107	108.31
407.331	99.31
407.555	112.31
407.778	92.31
408.002	103.31
408.226	98.31
408.449	107.31
408.673	104.31
408.896	98.31
409.12	88.31
409.344	96.31
409.567	102.31
409.791	99.31
410.014	102.31
410.238	105.31
410.461	112.31
410.685	100.31
410.908	97.31
411.132	103.31
411.355	101.31
411.578	104.31
411.802	110.31
412.025	102.31
412.249	96.31
412.472	105.31
412.695	101.31
412.919	98.31
413.142	112.31
413.365	116.31
413.589	98.31
413.812	104.31
414.035	119.31
414.258	93.31
414.482	101.31
414.705	103.31
414.928	105.31
415.151	116.31
415.374	121.31
415.597	96.31
415.821	103.31
416.044	106.31
416.267	89.31
416.49	106.31
416.713	110.31
416.936	109.31
417.159	101.31
417.382	98.31
417.605	99.31
417.828	98.31
418.051	103.31
418.274	95.31
418.497	91.31
418.72	98.31
418.943	103.31
419.166	102.31
419.389	126.31
419.611	114.31
419.834	101.31
420.057	98.31
420.28	103.31
420.503	97.31
420.726	108.31
420.948	96.31
421.171	95.31
421.394	99.31
421.617	94.31
421.839	76.31
422.062	97.31
422.285	107.31
422.507	113.31
422.73	118.31
422.953	122.31
423.175	95.31
423.398	97.31
423.621	105.31
423.843	102.31
424.066	84.31
424.288	94.31
424.511	85.31
424.733	84.31
424.956	94.31
425.178	99.31
425.401	91.31
425.623	96.31
425.846	87.31
426.068	86.31
426.291	98.31
426.513	99.31
426.735	96.31
426.958	92.31
427.18	97.31
427.402	99.31
427.625	102.31
427.847	79.31
428.069	98.31
428.292	105.31
428.514	102.31
428.736	96.31
428.958	94.31
429.181	106.31
429.403	87.31
429.625	98.31
429.847	105.31
430.069	120.31
430.292	114.31
430.514	107.31
430.736	99.31
430.958	97.31
431.18	91.31
431.402	93.31
431.624	107.31
431.846	90.31
432.068	80.31
432.29	91.31
432.512	95.31
432.734	98.31
432.956	90.31
433.178	99.31
433.4	89.31
433.622	103.31
433.844	99.31
434.066	86.31
434.287	96.31
434.509	89.31
434.731	92.31
434.953	96.31
435.175	95.31
435.397	86.31
435.618	85.31
435.84	98.31
436.062	87.31
436.284	97.31
436.505	94.31
436.727	83.31
436.949	101.31
437.17	80.31
437.392	101.31
437.614	99.31
437.835	86.31
438.057	96.31
438.278	89.31
438.5	93.31
438.721	93.31
438.943	105.31
439.165	116.31
439.386	117.31
439.608	98.31
439.829	98.31
440.05	100.31
440.272	113.31
440.493	98.31
440.715	91.31
440.936	104.31
441.158	89.31
441.379	101.31
441.6	96.31
441.822	104.31
442.043	105.31
442.264	131.31
442.486	111.31
442.707	104.31
442.928	104.31
443.149	102.31
443.371	105.31
443.592	115.31
443.813	97.31
444.034	90.31
444.255	99.31
444.476	104.31
444.698	100.31
444.919	98.31
445.14	173.31
445.361	134.31
445.582	99.31
445.803	91.31
446.024	110.31
446.245	115.31
446.466	90.31
446.687	118.31
446.908	104.31
447.129	106.31
447.35	103.31
447.571	88.31
447.792	100.31
448.013	96.31
448.234	91.31
448.455	99.31
448.675	98.31
448.896	95.31
449.117	106.31
449.338	128.31
449.559	152.31
449.779	115.31
450	101.31
450.221	106.31
450.442	101.31
450.662	129.31
450.883	114.31
451.104	127.31
451.324	139.31
451.545	117.31
451.766	118.31
451.986	128.31
452.207	220.31
452.428	582.31
452.648	1395.31
452.869	766.31
453.089	194.31
453.31	129.31
453.53	134.31
453.751	143.31
453.971	162.31
454.192	154.31
454.412	123.31
454.633	94.31
454.853	95.31
455.073	98.31
455.294	76.31
455.514	102.31
455.734	90.31
455.955	81.31
456.175	76.31
456.395	101.31
456.616	100.31
456.836	87.31
457.056	93.31
457.276	97.31
457.497	109.31
457.717	118.31
457.937	106.31
458.157	94.31
458.377	93.31
458.598	96.31
458.818	91.31
459.038	88.31
459.258	88.31
459.478	75.31
459.698	94.31
459.918	81.31
460.138	80.31
460.358	85.31
460.578	86.31
460.798	104.31
461.018	95.31
461.238	102.31
461.458	91.31
461.678	93.31
461.898	89.31
462.118	78.31
462.338	97.31
462.558	102.31
462.777	85.31
462.997	101.31
463.217	119.31
463.437	124.31
463.657	186.31
463.876	176.31
464.096	129.31
464.316	93.31
464.536	107.31
464.755	93.31
464.975	84.31
465.195	94.31
465.414	91.31
465.634	99.31
465.854	100.31
466.073	96.31
466.293	89.31
466.512	95.31
466.732	95.31
466.951	114.31
467.171	146.31
467.391	134.31
467.61	99.31
467.829	103.31
468.049	101.31
468.268	115.31
468.488	115.31
468.707	104.31
468.927	80.31
469.146	75.31
469.365	95.31
469.585	98.31
469.804	97.31
470.023	103.31
470.243	95.31
470.462	114.31
470.681	121.31
470.901	137.31
471.12	204.31
471.339	222.31
471.558	143.31
471.777	118.31
471.997	106.31
472.216	105.31
472.435	108.31
472.654	95.31
472.873	90.31
473.092	97.31
473.311	94.31
473.53	82.31
473.749	101.31
473.968	95.31
474.187	98.31
474.406	98.31
474.625	82.31
474.844	115.31
475.063	96.31
475.282	100.31
475.501	101.31
475.72	110.31
475.939	93.31
476.158	106.31
476.377	117.31
476.596	112.31
476.814	89.31
477.033	91.31
477.252	103.31
477.471	86.31
477.69	100.31
477.908	103.31
478.127	100.31
478.346	92.31
478.564	89.31
478.783	88.31
479.002	96.31
479.22	101.31
479.439	97.31
479.658	111.31
479.876	85.31
480.095	91.31
480.313	102.31
480.532	94.31
480.751	104.31
480.969	102.31
481.188	79.31
481.406	93.31
481.624	115.31
481.843	128.31
482.061	107.31
482.28	113.31
482.498	96.31
482.717	113.31
482.935	126.31
483.153	104.31
483.372	105.31
483.59	100.31
483.808	90.31
484.027	107.31
484.245	119.31
484.463	162.31
484.681	237.31
484.9	156.31
485.118	112.31
485.336	116.31
485.554	112.31
485.772	117.31
485.99	192.31
486.209	267.31
486.427	164.31
486.645	122.31
486.863	103.31
487.081	99.31
487.299	114.31
487.517	106.31
487.735	103.31
487.953	96.31
488.171	100.31
488.389	92.31
488.607	98.31
488.825	95.31
489.043	96.31
489.261	105.31
489.479	82.31
489.696	95.31
489.914	90.31
490.132	105.31
490.35	118.31
490.568	120.31
490.786	82.31
491.003	118.31
491.221	118.31
491.439	119.31
491.657	112.31
491.874	103.31
492.092	103.31
492.31	116.31
492.527	93.31
492.745	107.31
492.963	109.31
493.18	116.31
493.398	120.31
493.615	117.31
493.833	111.31
494.05	104.31
494.268	106.31
494.485	90.31
494.703	99.31
494.92	101.31
495.138	102.31
495.355	101.31
495.573	113.31
495.79	94.31
496.008	112.31
496.225	110.31
496.442	96.31
496.66	126.31
496.877	166.31
497.094	153.31
497.312	110.31
497.529	111.31
497.746	104.31
497.963	95.31
498.181	115.31
498.398	102.31
498.615	100.31
498.832	104.31
499.049	115.31
499.267	144.31
499.484	168.31
499.701	111.31
499.918	116.31
500.135	107.31
500.352	97.31
500.569	101.31
500.786	108.31
501.003	105.31
501.22	90.31
501.437	95.31
501.654	102.31
501.871	103.31
502.088	91.31
502.305	115.31
502.522	99.31
502.739	95.31
502.956	99.31
503.172	103.31
503.389	117.31
503.606	100.31
503.823	99.31
504.04	96.31
504.256	90.31
504.473	102.31
504.69	101.31
504.907	106.31
505.123	115.31
505.34	96.31
505.557	106.31
505.773	93.31
505.99	94.31
506.207	94.31
506.423	98.31
506.64	110.31
506.856	115.31
507.073	100.31
507.289	110.31
507.506	92.31
507.722	102.31
507.939	94.31
