Data from SnStandardFlinnAPT0064_LampEnergy5.5_LIBS07252019.E.O._I.C._HRD10591_15-14-45-491.txt Node
Date: Thu Jul 25 15:14:45 EDT 2019
User: cochatt
Spectrometer: HR+D1059
Trigger mode: 1
Integration Time (sec): 1.000000E-1
Scans to average: 1
Electric dark correction enabled: true
Nonlinearity correction enabled: false
Boxcar width: 0
XAxis mode: Wavelengths
Number of Pixels in Spectrum: 2048
>>>>>Begin Spectral Data<<<<<
223.165	-0.88
223.4	-0.88
223.635	-0.88
223.869	-14.88
224.104	-16.88
224.338	-31.88
224.573	-13.88
224.808	-19.88
225.042	-14.88
225.277	-7.88
225.511	11.12
225.746	4.12
225.98	4.12
226.215	14.12
226.449	14.12
226.683	24.12
226.918	30.12
227.152	19.12
227.387	26.12
227.621	35.12
227.856	41.12
228.09	49.12
228.324	59.12
228.559	49.12
228.793	72.12
229.027	136.12
229.262	145.12
229.496	138.12
229.73	131.12
229.964	154.12
230.199	136.12
230.433	135.12
230.667	153.12
230.901	165.12
231.136	151.12
231.37	152.12
231.604	184.12
231.838	190.12
232.072	202.12
232.306	222.12
232.541	191.12
232.775	203.12
233.009	172.12
233.243	180.12
233.477	191.12
233.711	195.12
233.945	226.12
234.179	224.12
234.413	198.12
234.647	223.12
234.881	195.12
235.115	216.12
235.349	230.12
235.583	298.12
235.817	364.12
236.051	351.12
236.285	257.12
236.519	226.12
236.753	216.12
236.987	225.12
237.221	228.12
237.455	204.12
237.689	220.12
237.922	211.12
238.156	216.12
238.39	199.12
238.624	230.12
238.858	218.12
239.091	213.12
239.325	233.12
239.559	208.12
239.793	224.12
240.027	247.12
240.26	253.12
240.494	227.12
240.728	216.12
240.961	244.12
241.195	253.12
241.429	278.12
241.662	294.12
241.896	297.12
242.13	338.12
242.363	428.12
242.597	544.12
242.83	499.12
243.064	528.12
243.298	603.12
243.531	507.12
243.765	353.12
243.998	330.12
244.232	286.12
244.465	265.12
244.699	274.12
244.932	273.12
245.166	267.12
245.399	283.12
245.633	281.12
245.866	275.12
246.099	274.12
246.333	277.12
246.566	260.12
246.8	278.12
247.033	286.12
247.266	295.12
247.5	279.12
247.733	292.12
247.966	289.12
248.2	304.12
248.433	326.12
248.666	341.12
248.899	328.12
249.133	318.12
249.366	353.12
249.599	342.12
249.832	394.12
250.066	382.12
250.299	352.12
250.532	316.12
250.765	313.12
250.998	314.12
251.231	307.12
251.465	310.12
251.698	321.12
251.931	330.12
252.164	311.12
252.397	308.12
252.63	308.12
252.863	324.12
253.096	302.12
253.329	322.12
253.562	326.12
253.795	309.12
254.028	332.12
254.261	320.12
254.494	339.12
254.727	384.12
254.96	448.12
255.193	449.12
255.426	377.12
255.659	356.12
255.892	346.12
256.124	347.12
256.357	344.12
256.59	352.12
256.823	385.12
257.056	419.12
257.289	447.12
257.521	508.12
257.754	432.12
257.987	400.12
258.22	379.12
258.452	380.12
258.685	377.12
258.918	367.12
259.151	391.12
259.383	419.12
259.616	443.12
259.849	434.12
260.081	422.12
260.314	366.12
260.547	382.12
260.779	388.12
261.012	383.12
261.244	410.12
261.477	405.12
261.71	408.12
261.942	433.12
262.175	438.12
262.407	434.12
262.64	438.12
262.872	439.12
263.105	479.12
263.337	498.12
263.57	507.12
263.802	501.12
264.035	527.12
264.267	535.12
264.499	548.12
264.732	593.12
264.964	594.12
265.197	591.12
265.429	569.12
265.661	600.12
265.894	630.12
266.126	659.12
266.358	703.12
266.591	710.12
266.823	630.12
267.055	600.12
267.287	564.12
267.52	542.12
267.752	530.12
267.984	522.12
268.216	535.12
268.448	523.12
268.681	520.12
268.913	523.12
269.145	503.12
269.377	525.12
269.609	519.12
269.841	497.12
270.073	564.12
270.306	611.12
270.538	780.12
270.77	1039.12
271.002	1222.12
271.234	916.12
271.466	659.12
271.698	570.12
271.93	564.12
272.162	522.12
272.394	531.12
272.626	510.12
272.858	486.12
273.09	504.12
273.322	483.12
273.553	470.12
273.785	491.12
274.017	464.12
274.249	486.12
274.481	490.12
274.713	464.12
274.945	487.12
275.176	490.12
275.408	497.12
275.64	484.12
275.872	473.12
276.104	487.12
276.335	489.12
276.567	488.12
276.799	503.12
277.031	512.12
277.262	519.12
277.494	546.12
277.726	558.12
277.957	617.12
278.189	706.12
278.421	652.12
278.652	608.12
278.884	593.12
279.115	554.12
279.347	560.12
279.579	532.12
279.81	540.12
280.042	543.12
280.273	563.12
280.505	536.12
280.736	569.12
280.968	570.12
281.199	626.12
281.431	664.12
281.662	699.12
281.894	633.12
282.125	606.12
282.356	630.12
282.588	619.12
282.819	640.12
283.051	657.12
283.282	714.12
283.513	854.12
283.745	1200.12
283.976	1797.12
284.207	2492.12
284.439	2247.12
284.67	1420.12
284.901	1179.12
285.132	1144.12
285.364	1068.12
285.595	913.12
285.826	843.12
286.057	980.12
286.288	1254.12
286.52	1597.12
286.751	1502.12
286.982	995.12
287.213	797.12
287.444	731.12
287.675	704.12
287.906	691.12
288.138	662.12
288.369	648.12
288.6	658.12
288.831	643.12
289.062	626.12
289.293	652.12
289.524	645.12
289.755	650.12
289.986	697.12
290.217	655.12
290.448	644.12
290.679	668.12
290.91	665.12
291.141	694.12
291.371	710.12
291.602	731.12
291.833	699.12
292.064	670.12
292.295	643.12
292.526	614.12
292.757	635.12
292.987	600.12
293.218	630.12
293.449	630.12
293.68	594.12
293.91	593.12
294.141	632.12
294.372	616.12
294.603	613.12
294.833	627.12
295.064	594.12
295.295	601.12
295.525	623.12
295.756	621.12
295.987	606.12
296.217	632.12
296.448	604.12
296.679	632.12
296.909	606.12
297.14	626.12
297.37	628.12
297.601	626.12
297.831	630.12
298.062	641.12
298.292	645.12
298.523	640.12
298.753	682.12
298.984	652.12
299.214	660.12
299.445	686.12
299.675	660.12
299.905	679.12
300.136	710.12
300.366	754.12
300.597	923.12
300.827	1217.12
301.057	1587.12
301.288	1588.12
301.518	1089.12
301.748	900.12
301.979	826.12
302.209	800.12
302.439	824.12
302.669	850.12
302.9	989.12
303.13	1282.12
303.36	1779.12
303.59	2347.12
303.82	2082.12
304.051	1345.12
304.281	981.12
304.511	908.12
304.741	816.12
304.971	781.12
305.201	750.12
305.431	762.12
305.661	737.12
305.891	730.12
306.121	716.12
306.352	719.12
306.582	704.12
306.812	705.12
307.042	690.12
307.272	689.12
307.502	698.12
307.731	709.12
307.961	720.12
308.191	710.12
308.421	694.12
308.651	691.12
308.881	693.12
309.111	700.12
309.341	700.12
309.571	718.12
309.8	718.12
310.03	742.12
310.26	742.12
310.49	723.12
310.72	748.12
310.949	722.12
311.179	727.12
311.409	734.12
311.639	710.12
311.868	721.12
312.098	736.12
312.328	751.12
312.557	742.12
312.787	737.12
313.017	761.12
313.246	790.12
313.476	783.12
313.706	789.12
313.935	779.12
314.165	841.12
314.394	863.12
314.624	880.12
314.853	818.12
315.083	806.12
315.312	809.12
315.542	827.12
315.771	827.12
316.001	849.12
316.23	840.12
316.46	868.12
316.689	958.12
316.919	1141.12
317.148	1504.12
317.377	2222.12
317.607	3152.12
317.836	3160.12
318.065	2017.12
318.295	1389.12
318.524	1134.12
318.753	1054.12
318.983	979.12
319.212	920.12
319.441	940.12
319.67	889.12
319.9	878.12
320.129	884.12
320.358	897.12
320.587	909.12
320.816	888.12
321.046	889.12
321.275	868.12
321.504	888.12
321.733	898.12
321.962	958.12
322.191	947.12
322.42	919.12
322.649	934.12
322.878	901.12
323.108	934.12
323.337	926.12
323.566	948.12
323.795	979.12
324.024	983.12
324.253	1018.12
324.482	996.12
324.71	1088.12
324.939	1106.12
325.168	1140.12
325.397	1157.12
325.626	1354.12
325.855	1806.12
326.084	2634.12
326.313	3828.12
326.542	4069.12
326.77	2749.12
326.999	1871.12
327.228	1683.12
327.457	1575.12
327.686	1657.12
327.914	1721.12
328.143	1947.12
328.372	2181.12
328.6	2395.12
328.829	2248.12
329.058	2020.12
329.287	1816.12
329.515	1672.12
329.744	1567.12
329.972	1464.12
330.201	1435.12
330.43	1354.12
330.658	1334.12
330.887	1301.12
331.115	1292.12
331.344	1290.12
331.572	1306.12
331.801	1291.12
332.03	1299.12
332.258	1316.12
332.486	1328.12
332.715	1474.12
332.943	1711.12
333.172	2064.12
333.4	2037.12
333.629	1687.12
333.857	1585.12
334.085	1615.12
334.314	1691.12
334.542	1776.12
334.771	2050.12
334.999	2416.12
335.227	2896.12
335.455	3133.12
335.684	3007.12
335.912	2630.12
336.14	2260.12
336.369	2060.12
336.597	1906.12
336.825	1760.12
337.053	1666.12
337.281	1546.12
337.51	1537.12
337.738	1455.12
337.966	1366.12
338.194	1342.12
338.422	1303.12
338.65	1269.12
338.878	1262.12
339.106	1242.12
339.334	1208.12
339.562	1186.12
339.79	1172.12
340.018	1185.12
340.246	1136.12
340.474	1177.12
340.702	1146.12
340.93	1146.12
341.158	1133.12
341.386	1150.12
341.614	1149.12
341.842	1104.12
342.07	1088.12
342.298	1098.12
342.526	1075.12
342.754	1032.12
342.981	1042.12
343.209	1052.12
343.437	1055.12
343.665	1055.12
343.893	1078.12
344.12	1095.12
344.348	1062.12
344.576	1027.12
344.804	1044.12
345.031	1014.12
345.259	1031.12
345.487	994.12
345.714	966.12
345.942	977.12
346.17	992.12
346.397	963.12
346.625	963.12
346.853	989.12
347.08	962.12
347.308	948.12
347.535	995.12
347.763	936.12
347.99	961.12
348.218	936.12
348.445	936.12
348.673	968.12
348.9	936.12
349.128	955.12
349.355	924.12
349.583	945.12
349.81	947.12
350.037	928.12
350.265	947.12
350.492	913.12
350.72	928.12
350.947	902.12
351.174	942.12
351.402	953.12
351.629	936.12
351.856	926.12
352.083	914.12
352.311	919.12
352.538	929.12
352.765	939.12
352.992	935.12
353.22	916.12
353.447	903.12
353.674	927.12
353.901	920.12
354.128	905.12
354.355	926.12
354.583	934.12
354.81	963.12
355.037	942.12
355.264	932.12
355.491	946.12
355.718	954.12
355.945	968.12
356.172	962.12
356.399	959.12
356.626	967.12
356.853	986.12
357.08	952.12
357.307	992.12
357.534	980.12
357.761	963.12
357.988	974.12
358.215	988.12
358.441	979.12
358.668	973.12
358.895	985.12
359.122	978.12
359.349	963.12
359.576	965.12
359.802	954.12
360.029	982.12
360.256	978.12
360.483	976.12
360.709	974.12
360.936	991.12
361.163	1012.12
361.39	990.12
361.616	984.12
361.843	985.12
362.07	981.12
362.296	1006.12
362.523	990.12
362.749	992.12
362.976	980.12
363.203	988.12
363.429	976.12
363.656	982.12
363.882	982.12
364.109	1010.12
364.335	990.12
364.562	970.12
364.788	981.12
365.015	999.12
365.241	1006.12
365.468	1054.12
365.694	1091.12
365.92	1057.12
366.147	1007.12
366.373	1000.12
366.599	1011.12
366.826	990.12
367.052	1004.12
367.278	1024.12
367.505	1006.12
367.731	1017.12
367.957	1010.12
368.184	1020.12
368.41	1039.12
368.636	1028.12
368.862	1028.12
369.089	1030.12
369.315	1010.12
369.541	1028.12
369.767	1039.12
369.993	1014.12
370.219	1025.12
370.445	1041.12
370.672	1050.12
370.898	1056.12
371.124	1036.12
371.35	1096.12
371.576	1076.12
371.802	1054.12
372.028	1026.12
372.254	1053.12
372.48	1062.12
372.706	1106.12
372.932	1086.12
373.158	1091.12
373.384	1070.12
373.61	1077.12
373.835	1088.12
374.061	1089.12
374.287	1105.12
374.513	1118.12
374.739	1123.12
374.965	1153.12
375.191	1142.12
375.416	1135.12
375.642	1118.12
375.868	1100.12
376.094	1098.12
376.319	1088.12
376.545	1109.12
376.771	1083.12
376.997	1060.12
377.222	1080.12
377.448	1054.12
377.674	1049.12
377.899	1034.12
378.125	1078.12
378.35	1092.12
378.576	1044.12
378.802	1074.12
379.027	1091.12
379.253	1116.12
379.478	1159.12
379.704	1270.12
379.929	1658.12
380.155	2407.12
380.38	2472.12
380.606	1697.12
380.831	1325.12
381.057	1186.12
381.282	1123.12
381.507	1102.12
381.733	1081.12
381.958	1075.12
382.184	1055.12
382.409	1043.12
382.634	1069.12
382.86	1033.12
383.085	1066.12
383.31	1046.12
383.535	1073.12
383.761	1051.12
383.986	1061.12
384.211	1090.12
384.436	1073.12
384.662	1099.12
384.887	1085.12
385.112	1057.12
385.337	1080.12
385.562	1112.12
385.787	1091.12
386.013	1096.12
386.238	1111.12
386.463	1083.12
386.688	1100.12
386.913	1064.12
387.138	1100.12
387.363	1103.12
387.588	1077.12
387.813	1059.12
388.038	1065.12
388.263	1093.12
388.488	1067.12
388.713	1114.12
388.938	1092.12
389.163	1081.12
389.387	1086.12
389.612	1088.12
389.837	1070.12
390.062	1108.12
390.287	1104.12
390.512	1112.12
390.736	1114.12
390.961	1136.12
391.186	1122.12
391.411	1156.12
391.636	1170.12
391.86	1147.12
392.085	1167.12
392.31	1147.12
392.534	1104.12
392.759	1115.12
392.984	1113.12
393.208	1121.12
393.433	1131.12
393.658	1089.12
393.882	1074.12
394.107	1098.12
394.331	1111.12
394.556	1116.12
394.78	1114.12
395.005	1147.12
395.229	1135.12
395.454	1126.12
395.678	1140.12
395.903	1174.12
396.127	1134.12
396.352	1141.12
396.576	1117.12
396.801	1136.12
397.025	1147.12
397.249	1114.12
397.474	1129.12
397.698	1168.12
397.922	1145.12
398.147	1154.12
398.371	1173.12
398.595	1171.12
398.82	1210.12
399.044	1256.12
399.268	1318.12
399.492	1398.12
399.717	1481.12
399.941	1476.12
400.165	1361.12
400.389	1344.12
400.613	1314.12
400.837	1282.12
401.062	1248.12
401.286	1245.12
401.51	1217.12
401.734	1186.12
401.958	1202.12
402.182	1224.12
402.406	1219.12
402.63	1218.12
402.854	1241.12
403.078	1219.12
403.302	1233.12
403.526	1225.12
403.75	1266.12
403.974	1250.12
404.198	1269.12
404.422	1234.12
404.645	1282.12
404.869	1247.12
405.093	1296.12
405.317	1215.12
405.541	1241.12
405.765	1292.12
405.988	1240.12
406.212	1251.12
406.436	1264.12
406.66	1303.12
406.883	1311.12
407.107	1337.12
407.331	1342.12
407.555	1365.12
407.778	1360.12
408.002	1352.12
408.226	1306.12
408.449	1291.12
408.673	1293.12
408.896	1263.12
409.12	1264.12
409.344	1292.12
409.567	1250.12
409.791	1235.12
410.014	1248.12
410.238	1242.12
410.461	1270.12
410.685	1278.12
410.908	1233.12
411.132	1225.12
411.355	1175.12
411.578	1207.12
411.802	1194.12
412.025	1186.12
412.249	1214.12
412.472	1156.12
412.695	1194.12
412.919	1209.12
413.142	1176.12
413.365	1211.12
413.589	1180.12
413.812	1166.12
414.035	1203.12
414.258	1179.12
414.482	1197.12
414.705	1196.12
414.928	1186.12
415.151	1193.12
415.374	1165.12
415.597	1163.12
415.821	1149.12
416.044	1129.12
416.267	1129.12
416.49	1151.12
416.713	1122.12
416.936	1163.12
417.159	1138.12
417.382	1108.12
417.605	1115.12
417.828	1154.12
418.051	1137.12
418.274	1156.12
418.497	1167.12
418.72	1180.12
418.943	1173.12
419.166	1193.12
419.389	1306.12
419.611	1180.12
419.834	1207.12
420.057	1200.12
420.28	1176.12
420.503	1156.12
420.726	1175.12
420.948	1148.12
421.171	1171.12
421.394	1165.12
421.617	1130.12
421.839	1140.12
422.062	1150.12
422.285	1113.12
422.507	1170.12
422.73	1188.12
422.953	1165.12
423.175	1156.12
423.398	1179.12
423.621	1161.12
423.843	1164.12
424.066	1156.12
424.288	1140.12
424.511	1159.12
424.733	1164.12
424.956	1135.12
425.178	1160.12
425.401	1156.12
425.623	1130.12
425.846	1135.12
426.068	1105.12
426.291	1088.12
426.513	1097.12
426.735	1127.12
426.958	1123.12
427.18	1080.12
427.402	1084.12
427.625	1111.12
427.847	1093.12
428.069	1090.12
428.292	1074.12
428.514	1078.12
428.736	1083.12
428.958	1062.12
429.181	1046.12
429.403	1012.12
429.625	1077.12
429.847	1052.12
430.069	1081.12
430.292	1103.12
430.514	1142.12
430.736	1102.12
430.958	1052.12
431.18	1042.12
431.402	1083.12
431.624	1049.12
431.846	1045.12
432.068	1047.12
432.29	1042.12
432.512	1037.12
432.734	1031.12
432.956	1039.12
433.178	1072.12
433.4	1046.12
433.622	1082.12
433.844	1083.12
434.066	1083.12
434.287	1063.12
434.509	1064.12
434.731	1078.12
434.953	1047.12
435.175	1119.12
435.397	1092.12
435.618	1070.12
435.84	1048.12
436.062	1062.12
436.284	1067.12
436.505	1060.12
436.727	1059.12
436.949	1063.12
437.17	1059.12
437.392	1042.12
437.614	1066.12
437.835	1012.12
438.057	1004.12
438.278	991.12
438.5	1018.12
438.721	1078.12
438.943	1065.12
439.165	1081.12
439.386	1073.12
439.608	1066.12
439.829	1094.12
440.05	1135.12
440.272	1145.12
440.493	1089.12
440.715	1093.12
440.936	1133.12
441.158	1094.12
441.379	1125.12
441.6	1154.12
441.822	1175.12
442.043	1212.12
442.264	1200.12
442.486	1152.12
442.707	1182.12
442.928	1132.12
443.149	1122.12
443.371	1138.12
443.592	1161.12
443.813	1148.12
444.034	1156.12
444.255	1218.12
444.476	1194.12
444.698	1213.12
444.919	1239.12
445.14	1309.12
445.361	1216.12
445.582	1184.12
445.803	1160.12
446.024	1147.12
446.245	1141.12
446.466	1114.12
446.687	1124.12
446.908	1142.12
447.129	1094.12
447.35	1088.12
447.571	1092.12
447.792	1061.12
448.013	1040.12
448.234	1046.12
448.455	1038.12
448.675	1064.12
448.896	1083.12
449.117	1077.12
449.338	1188.12
449.559	1158.12
449.779	1119.12
450	1052.12
450.221	1026.12
450.442	1017.12
450.662	1016.12
450.883	995.12
451.104	1029.12
451.324	1006.12
451.545	1019.12
451.766	1039.12
451.986	1013.12
452.207	1056.12
452.428	1235.12
452.648	1628.12
452.869	1385.12
453.089	1114.12
453.31	1079.12
453.53	1086.12
453.751	1066.12
453.971	1164.12
454.192	1126.12
454.412	1025.12
454.633	1000.12
454.853	986.12
455.073	978.12
455.294	983.12
455.514	972.12
455.734	972.12
455.955	979.12
456.175	946.12
456.395	965.12
456.616	938.12
456.836	967.12
457.056	975.12
457.276	977.12
457.497	1032.12
457.717	1053.12
457.937	990.12
458.157	985.12
458.377	1020.12
458.598	1012.12
458.818	1027.12
459.038	1009.12
459.258	1032.12
459.478	1048.12
459.698	1046.12
459.918	1099.12
460.138	1098.12
460.358	1151.12
460.578	1143.12
460.798	1145.12
461.018	1165.12
461.238	1119.12
461.458	1168.12
461.678	1191.12
461.898	1183.12
462.118	1147.12
462.338	1189.12
462.558	1193.12
462.777	1238.12
462.997	1280.12
463.217	1333.12
463.437	1350.12
463.657	1331.12
463.876	1334.12
464.096	1264.12
464.316	1243.12
464.536	1240.12
464.755	1211.12
464.975	1191.12
465.195	1154.12
465.414	1161.12
465.634	1116.12
465.854	1080.12
466.073	1103.12
466.293	1035.12
466.512	1055.12
466.732	1059.12
466.951	1122.12
467.171	1173.12
467.391	1162.12
467.61	1062.12
467.829	1064.12
468.049	1052.12
468.268	1051.12
468.488	1028.12
468.707	1033.12
468.927	1032.12
469.146	1056.12
469.365	1082.12
469.585	1025.12
469.804	1093.12
470.023	1074.12
470.243	1097.12
470.462	1112.12
470.681	1171.12
470.901	1232.12
471.12	1362.12
471.339	1390.12
471.558	1216.12
471.777	1114.12
471.997	1086.12
472.216	1046.12
472.435	1050.12
472.654	1028.12
472.873	1042.12
473.092	1040.12
473.311	1051.12
473.53	1067.12
473.749	1088.12
473.968	1086.12
474.187	1050.12
474.406	1050.12
474.625	1054.12
474.844	1022.12
475.063	1049.12
475.282	1018.12
475.501	1045.12
475.72	1052.12
475.939	1115.12
476.158	1090.12
476.377	1124.12
476.596	1116.12
476.814	1135.12
477.033	1078.12
477.252	1122.12
477.471	1141.12
477.69	1177.12
477.908	1192.12
478.127	1245.12
478.346	1160.12
478.564	1198.12
478.783	1186.12
479.002	1211.12
479.22	1229.12
479.439	1271.12
479.658	1208.12
479.876	1228.12
480.095	1202.12
480.313	1237.12
480.532	1255.12
480.751	1245.12
480.969	1247.12
481.188	1225.12
481.406	1228.12
481.624	1249.12
481.843	1238.12
482.061	1221.12
482.28	1237.12
482.498	1219.12
482.717	1216.12
482.935	1250.12
483.153	1285.12
483.372	1313.12
483.59	1303.12
483.808	1312.12
484.027	1322.12
484.245	1379.12
484.463	1487.12
484.681	1616.12
484.9	1485.12
485.118	1418.12
485.336	1422.12
485.554	1438.12
485.772	1472.12
485.99	1658.12
486.209	1734.12
486.427	1532.12
486.645	1426.12
486.863	1412.12
487.081	1322.12
487.299	1312.12
487.517	1307.12
487.735	1343.12
487.953	1360.12
488.171	1366.12
488.389	1352.12
488.607	1329.12
488.825	1296.12
489.043	1283.12
489.261	1266.12
489.479	1285.12
489.696	1298.12
489.914	1269.12
490.132	1311.12
490.35	1324.12
490.568	1316.12
490.786	1354.12
491.003	1334.12
491.221	1354.12
491.439	1394.12
491.657	1371.12
491.874	1385.12
492.092	1432.12
492.31	1470.12
492.527	1424.12
