Data from SnStandardFlinnAPT0064_QswitchEnergy10_LIBS07252019.E.O._I.C._HRD10591_15-26-04-972.txt Node
Date: Thu Jul 25 15:26:04 EDT 2019
User: cochatt
Spectrometer: HR+D1059
Trigger mode: 1
Integration Time (sec): 1.000000E-1
Scans to average: 1
Electric dark correction enabled: true
Nonlinearity correction enabled: false
Boxcar width: 0
XAxis mode: Wavelengths
Number of Pixels in Spectrum: 2048
>>>>>Begin Spectral Data<<<<<
223.165	-4.75
223.4	-4.75
223.635	-4.75
223.869	-30.75
224.104	-9.75
224.338	-11.75
224.573	-12.75
224.808	-27.75
225.042	-17.75
225.277	-9.75
225.511	-1.75
225.746	-14.75
225.98	-1.75
226.215	18.25
226.449	38.25
226.683	28.25
226.918	21.25
227.152	37.25
227.387	42.25
227.621	41.25
227.856	41.25
228.09	39.25
228.324	60.25
228.559	55.25
228.793	57.25
229.027	58.25
229.262	64.25
229.496	69.25
229.73	68.25
229.964	75.25
230.199	65.25
230.433	89.25
230.667	72.25
230.901	90.25
231.136	99.25
231.37	79.25
231.604	74.25
231.838	95.25
232.072	113.25
232.306	106.25
232.541	97.25
232.775	81.25
233.009	100.25
233.243	91.25
233.477	81.25
233.711	101.25
233.945	104.25
234.179	88.25
234.413	85.25
234.647	83.25
234.881	84.25
235.115	100.25
235.349	86.25
235.583	106.25
235.817	122.25
236.051	110.25
236.285	90.25
236.519	90.25
236.753	83.25
236.987	78.25
237.221	64.25
237.455	73.25
237.689	72.25
237.922	81.25
238.156	85.25
238.39	77.25
238.624	73.25
238.858	74.25
239.091	76.25
239.325	76.25
239.559	91.25
239.793	83.25
240.027	88.25
240.26	88.25
240.494	73.25
240.728	78.25
240.961	87.25
241.195	99.25
241.429	78.25
241.662	95.25
241.896	85.25
242.13	95.25
242.363	122.25
242.597	156.25
242.83	127.25
243.064	128.25
243.298	161.25
243.531	155.25
243.765	96.25
243.998	78.25
244.232	82.25
244.465	99.25
244.699	79.25
244.932	75.25
245.166	73.25
245.399	89.25
245.633	74.25
245.866	83.25
246.099	83.25
246.333	73.25
246.566	79.25
246.8	90.25
247.033	77.25
247.266	85.25
247.5	73.25
247.733	79.25
247.966	95.25
248.2	89.25
248.433	107.25
248.666	109.25
248.899	106.25
249.133	88.25
249.366	93.25
249.599	109.25
249.832	115.25
250.066	128.25
250.299	99.25
250.532	90.25
250.765	86.25
250.998	84.25
251.231	74.25
251.465	85.25
251.698	83.25
251.931	85.25
252.164	98.25
252.397	91.25
252.63	93.25
252.863	103.25
253.096	89.25
253.329	90.25
253.562	82.25
253.795	95.25
254.028	90.25
254.261	87.25
254.494	101.25
254.727	115.25
254.96	140.25
255.193	123.25
255.426	92.25
255.659	91.25
255.892	97.25
256.124	97.25
256.357	91.25
256.59	92.25
256.823	102.25
257.056	108.25
257.289	141.25
257.521	177.25
257.754	120.25
257.987	88.25
258.22	86.25
258.452	80.25
258.685	90.25
258.918	94.25
259.151	82.25
259.383	112.25
259.616	135.25
259.849	140.25
260.081	97.25
260.314	88.25
260.547	89.25
260.779	84.25
261.012	99.25
261.244	79.25
261.477	96.25
261.71	82.25
261.942	93.25
262.175	99.25
262.407	89.25
262.64	92.25
262.872	98.25
263.105	85.25
263.337	87.25
263.57	88.25
263.802	92.25
264.035	83.25
264.267	88.25
264.499	93.25
264.732	92.25
264.964	89.25
265.197	89.25
265.429	90.25
265.661	97.25
265.894	113.25
266.126	123.25
266.358	155.25
266.591	141.25
266.823	96.25
267.055	82.25
267.287	84.25
267.52	84.25
267.752	84.25
267.984	75.25
268.216	91.25
268.448	95.25
268.681	80.25
268.913	90.25
269.145	92.25
269.377	85.25
269.609	99.25
269.841	93.25
270.073	98.25
270.306	125.25
270.538	171.25
270.77	298.25
271.002	351.25
271.234	188.25
271.466	112.25
271.698	101.25
271.93	94.25
272.162	86.25
272.394	98.25
272.626	105.25
272.858	84.25
273.09	74.25
273.322	94.25
273.553	81.25
273.785	88.25
274.017	84.25
274.249	85.25
274.481	87.25
274.713	76.25
274.945	92.25
275.176	93.25
275.408	85.25
275.64	90.25
275.872	94.25
276.104	89.25
276.335	96.25
276.567	99.25
276.799	94.25
277.031	86.25
277.262	90.25
277.494	96.25
277.726	124.25
277.957	159.25
278.189	226.25
278.421	226.25
278.652	168.25
278.884	172.25
279.115	128.25
279.347	103.25
279.579	88.25
279.81	92.25
280.042	87.25
280.273	104.25
280.505	103.25
280.736	99.25
280.968	110.25
281.199	159.25
281.431	232.25
281.662	246.25
281.894	154.25
282.125	106.25
282.356	112.25
282.588	98.25
282.819	103.25
283.051	110.25
283.282	116.25
283.513	179.25
283.745	272.25
283.976	480.25
284.207	707.25
284.439	515.25
284.67	226.25
284.901	221.25
285.132	336.25
285.364	345.25
285.595	211.25
285.826	123.25
286.057	228.25
286.288	376.25
286.52	560.25
286.751	441.25
286.982	178.25
287.213	122.25
287.444	99.25
287.675	90.25
287.906	101.25
288.138	92.25
288.369	105.25
288.6	93.25
288.831	93.25
289.062	97.25
289.293	78.25
289.524	92.25
289.755	98.25
289.986	89.25
290.217	105.25
290.448	93.25
290.679	89.25
290.91	123.25
291.141	147.25
291.371	203.25
291.602	243.25
291.833	179.25
292.064	106.25
292.295	107.25
292.526	94.25
292.757	99.25
292.987	88.25
293.218	86.25
293.449	92.25
293.68	87.25
293.91	102.25
294.141	95.25
294.372	93.25
294.603	99.25
294.833	87.25
295.064	78.25
295.295	75.25
295.525	81.25
295.756	95.25
295.987	86.25
296.217	92.25
296.448	108.25
296.679	97.25
296.909	104.25
297.14	96.25
297.37	84.25
297.601	103.25
297.831	96.25
298.062	100.25
298.292	101.25
298.523	100.25
298.753	102.25
298.984	92.25
299.214	103.25
299.445	124.25
299.675	122.25
299.905	117.25
300.136	127.25
300.366	161.25
300.597	229.25
300.827	402.25
301.057	628.25
301.288	540.25
301.518	236.25
301.748	146.25
301.979	146.25
302.209	152.25
302.439	135.25
302.669	167.25
302.9	240.25
303.13	415.25
303.36	764.25
303.59	1069.25
303.82	762.25
304.051	258.25
304.281	154.25
304.511	132.25
304.741	113.25
304.971	101.25
305.201	107.25
305.431	103.25
305.661	98.25
305.891	89.25
306.121	100.25
306.352	113.25
306.582	108.25
306.812	102.25
307.042	109.25
307.272	91.25
307.502	91.25
307.731	78.25
307.961	106.25
308.191	95.25
308.421	93.25
308.651	82.25
308.881	106.25
309.111	106.25
309.341	100.25
309.571	104.25
309.8	119.25
310.03	101.25
310.26	110.25
310.49	110.25
310.72	103.25
310.949	101.25
311.179	118.25
311.409	88.25
311.639	97.25
311.868	116.25
312.098	122.25
312.328	122.25
312.557	129.25
312.787	112.25
313.017	97.25
313.246	107.25
313.476	108.25
313.706	121.25
313.935	146.25
314.165	172.25
314.394	197.25
314.624	166.25
314.853	112.25
315.083	108.25
315.312	117.25
315.542	123.25
315.771	132.25
316.001	136.25
316.23	129.25
316.46	140.25
316.689	172.25
316.919	214.25
317.148	458.25
317.377	817.25
317.607	1330.25
317.836	1238.25
318.065	473.25
318.295	189.25
318.524	148.25
318.753	129.25
318.983	117.25
319.212	118.25
319.441	108.25
319.67	107.25
319.9	115.25
320.129	109.25
320.358	112.25
320.587	108.25
320.816	118.25
321.046	112.25
321.275	130.25
321.504	122.25
321.733	147.25
321.962	144.25
322.191	146.25
322.42	122.25
322.649	129.25
322.878	124.25
323.108	118.25
323.337	106.25
323.566	122.25
323.795	123.25
324.024	130.25
324.253	128.25
324.482	170.25
324.71	210.25
324.939	251.25
325.168	212.25
325.397	180.25
325.626	208.25
325.855	427.25
326.084	826.25
326.313	1434.25
326.542	1367.25
326.77	538.25
326.999	231.25
327.228	198.25
327.457	202.25
327.686	192.25
327.914	141.25
328.143	123.25
328.372	127.25
328.6	112.25
328.829	101.25
329.058	109.25
329.287	117.25
329.515	100.25
329.744	124.25
329.972	113.25
330.201	114.25
330.43	108.25
330.658	108.25
330.887	104.25
331.115	110.25
331.344	123.25
331.572	124.25
331.801	118.25
332.03	126.25
332.258	131.25
332.486	164.25
332.715	273.25
332.943	470.25
333.172	677.25
333.4	622.25
333.629	209.25
333.857	128.25
334.085	116.25
334.314	126.25
334.542	123.25
334.771	122.25
334.999	129.25
335.227	125.25
335.455	104.25
335.684	112.25
335.912	121.25
336.14	118.25
336.369	114.25
336.597	96.25
336.825	110.25
337.053	102.25
337.281	119.25
337.51	116.25
337.738	95.25
337.966	98.25
338.194	102.25
338.422	102.25
338.65	112.25
338.878	118.25
339.106	115.25
339.334	119.25
339.562	121.25
339.79	89.25
340.018	101.25
340.246	113.25
340.474	96.25
340.702	108.25
340.93	115.25
341.158	112.25
341.386	114.25
341.614	116.25
341.842	112.25
342.07	115.25
342.298	118.25
342.526	113.25
342.754	108.25
342.981	118.25
343.209	106.25
343.437	100.25
343.665	98.25
343.893	105.25
344.12	103.25
344.348	110.25
344.576	110.25
344.804	106.25
345.031	105.25
345.259	110.25
345.487	106.25
345.714	102.25
345.942	119.25
346.17	109.25
346.397	99.25
346.625	116.25
346.853	99.25
347.08	97.25
347.308	92.25
347.535	94.25
347.763	111.25
347.99	102.25
348.218	94.25
348.445	99.25
348.673	106.25
348.9	121.25
349.128	136.25
349.355	117.25
349.583	122.25
349.81	118.25
350.037	113.25
350.265	126.25
350.492	97.25
350.72	109.25
350.947	112.25
351.174	106.25
351.402	121.25
351.629	100.25
351.856	110.25
352.083	105.25
352.311	98.25
352.538	106.25
352.765	114.25
352.992	110.25
353.22	112.25
353.447	103.25
353.674	100.25
353.901	93.25
354.128	101.25
354.355	87.25
354.583	103.25
354.81	105.25
355.037	97.25
355.264	105.25
355.491	100.25
355.718	93.25
355.945	98.25
356.172	114.25
356.399	107.25
356.626	107.25
356.853	90.25
357.08	103.25
357.307	121.25
357.534	106.25
357.761	104.25
357.988	113.25
358.215	126.25
358.441	103.25
358.668	119.25
358.895	110.25
359.122	123.25
359.349	113.25
359.576	109.25
359.802	104.25
360.029	104.25
360.256	111.25
360.483	106.25
360.709	106.25
360.936	97.25
361.163	100.25
361.39	98.25
361.616	111.25
361.843	108.25
362.07	113.25
362.296	104.25
362.523	113.25
362.749	115.25
362.976	111.25
363.203	115.25
363.429	91.25
363.656	104.25
363.882	98.25
364.109	110.25
364.335	121.25
364.562	106.25
364.788	105.25
365.015	104.25
365.241	125.25
365.468	169.25
365.694	208.25
365.92	168.25
366.147	119.25
366.373	96.25
366.599	93.25
366.826	102.25
367.052	99.25
367.278	88.25
367.505	105.25
367.731	96.25
367.957	104.25
368.184	121.25
368.41	120.25
368.636	101.25
368.862	118.25
369.089	107.25
369.315	99.25
369.541	114.25
369.767	102.25
369.993	117.25
370.219	116.25
370.445	107.25
370.672	93.25
370.898	100.25
371.124	102.25
371.35	101.25
371.576	116.25
371.802	87.25
372.028	98.25
372.254	112.25
372.48	112.25
372.706	116.25
372.932	114.25
373.158	101.25
373.384	109.25
373.61	125.25
373.835	106.25
374.061	124.25
374.287	104.25
374.513	108.25
374.739	108.25
374.965	123.25
375.191	114.25
375.416	102.25
375.642	99.25
375.868	106.25
376.094	106.25
376.319	101.25
376.545	126.25
376.771	117.25
376.997	96.25
377.222	115.25
377.448	92.25
377.674	105.25
377.899	117.25
378.125	112.25
378.35	121.25
378.576	119.25
378.802	127.25
379.027	115.25
379.253	123.25
379.478	166.25
379.704	285.25
379.929	679.25
380.155	1382.25
380.38	1447.25
380.606	482.25
380.831	173.25
381.057	130.25
381.282	119.25
381.507	108.25
381.733	108.25
381.958	113.25
382.184	121.25
382.409	107.25
382.634	103.25
382.86	115.25
383.085	105.25
383.31	105.25
383.535	104.25
383.761	110.25
383.986	107.25
384.211	112.25
384.436	99.25
384.662	113.25
384.887	114.25
385.112	103.25
385.337	111.25
385.562	104.25
385.787	96.25
386.013	131.25
386.238	113.25
386.463	114.25
386.688	112.25
386.913	87.25
387.138	99.25
387.363	98.25
387.588	107.25
387.813	89.25
388.038	108.25
388.263	105.25
388.488	103.25
388.713	99.25
388.938	98.25
389.163	96.25
389.387	90.25
389.612	102.25
389.837	85.25
390.062	107.25
390.287	101.25
390.512	92.25
390.736	108.25
390.961	96.25
391.186	91.25
391.411	109.25
391.636	107.25
391.86	85.25
392.085	105.25
392.31	102.25
392.534	96.25
392.759	115.25
392.984	109.25
393.208	120.25
393.433	121.25
393.658	135.25
393.882	81.25
394.107	96.25
394.331	90.25
394.556	101.25
394.78	91.25
395.005	100.25
395.229	89.25
395.454	94.25
395.678	93.25
395.903	98.25
396.127	118.25
396.352	111.25
396.576	91.25
396.801	103.25
397.025	120.25
397.249	102.25
397.474	109.25
397.698	85.25
397.922	83.25
398.147	104.25
398.371	102.25
398.595	93.25
398.82	94.25
399.044	94.25
399.268	101.25
399.492	98.25
399.717	94.25
399.941	89.25
400.165	95.25
400.389	106.25
400.613	98.25
400.837	100.25
401.062	98.25
401.286	87.25
401.51	87.25
401.734	87.25
401.958	91.25
402.182	97.25
402.406	101.25
402.63	99.25
402.854	97.25
403.078	96.25
403.302	98.25
403.526	101.25
403.75	105.25
403.974	90.25
404.198	102.25
404.422	86.25
404.645	102.25
404.869	101.25
405.093	93.25
405.317	110.25
405.541	113.25
405.765	125.25
405.988	137.25
406.212	119.25
406.436	109.25
406.66	96.25
406.883	104.25
407.107	110.25
407.331	95.25
407.555	110.25
407.778	111.25
408.002	98.25
408.226	107.25
408.449	90.25
408.673	114.25
408.896	105.25
409.12	101.25
409.344	107.25
409.567	92.25
409.791	101.25
410.014	93.25
410.238	118.25
410.461	118.25
410.685	103.25
410.908	108.25
411.132	97.25
411.355	92.25
411.578	103.25
411.802	102.25
412.025	104.25
412.249	81.25
412.472	93.25
412.695	89.25
412.919	100.25
413.142	107.25
413.365	84.25
413.589	83.25
413.812	101.25
414.035	105.25
414.258	106.25
414.482	113.25
414.705	103.25
414.928	81.25
415.151	107.25
415.374	105.25
415.597	102.25
415.821	94.25
416.044	101.25
416.267	94.25
416.49	93.25
416.713	92.25
416.936	106.25
417.159	100.25
417.382	100.25
417.605	93.25
417.828	78.25
418.051	97.25
418.274	87.25
418.497	99.25
418.72	94.25
418.943	105.25
419.166	91.25
419.389	103.25
419.611	105.25
419.834	95.25
420.057	91.25
420.28	88.25
420.503	112.25
420.726	109.25
420.948	77.25
421.171	97.25
421.394	88.25
421.617	105.25
421.839	94.25
422.062	92.25
422.285	97.25
422.507	105.25
422.73	114.25
422.953	142.25
423.175	98.25
423.398	101.25
423.621	100.25
423.843	97.25
424.066	96.25
424.288	106.25
424.511	103.25
424.733	101.25
424.956	102.25
425.178	102.25
425.401	102.25
425.623	103.25
425.846	93.25
426.068	90.25
426.291	97.25
426.513	115.25
426.735	100.25
426.958	82.25
427.18	113.25
427.402	112.25
427.625	95.25
427.847	83.25
428.069	98.25
428.292	104.25
428.514	101.25
428.736	99.25
428.958	89.25
429.181	105.25
429.403	88.25
429.625	85.25
429.847	102.25
430.069	102.25
430.292	102.25
430.514	89.25
430.736	102.25
430.958	101.25
431.18	97.25
431.402	105.25
431.624	97.25
431.846	96.25
432.068	86.25
432.29	96.25
432.512	97.25
432.734	94.25
432.956	88.25
433.178	116.25
433.4	89.25
433.622	103.25
433.844	100.25
434.066	107.25
434.287	98.25
434.509	96.25
434.731	89.25
434.953	102.25
435.175	102.25
435.397	95.25
435.618	83.25
435.84	79.25
436.062	98.25
436.284	101.25
436.505	92.25
436.727	90.25
436.949	82.25
437.17	93.25
437.392	77.25
437.614	96.25
437.835	98.25
438.057	105.25
438.278	94.25
438.5	101.25
438.721	107.25
438.943	104.25
439.165	120.25
439.386	109.25
439.608	95.25
439.829	115.25
440.05	115.25
440.272	120.25
440.493	97.25
440.715	96.25
440.936	96.25
441.158	107.25
441.379	81.25
441.6	97.25
441.822	99.25
442.043	109.25
442.264	124.25
442.486	113.25
442.707	116.25
442.928	99.25
443.149	96.25
443.371	85.25
443.592	93.25
443.813	102.25
444.034	101.25
444.255	95.25
444.476	109.25
444.698	105.25
444.919	88.25
445.14	224.25
445.361	137.25
445.582	97.25
445.803	100.25
446.024	99.25
446.245	105.25
446.466	110.25
446.687	99.25
446.908	89.25
447.129	98.25
447.35	87.25
447.571	106.25
447.792	91.25
448.013	97.25
448.234	103.25
448.455	94.25
448.675	102.25
448.896	104.25
449.117	117.25
449.338	136.25
449.559	156.25
449.779	122.25
450	113.25
450.221	106.25
450.442	108.25
450.662	112.25
450.883	104.25
451.104	98.25
451.324	101.25
451.545	97.25
451.766	117.25
451.986	130.25
452.207	194.25
452.428	489.25
452.648	1164.25
452.869	668.25
453.089	186.25
453.31	117.25
453.53	120.25
453.751	139.25
453.971	156.25
454.192	156.25
454.412	105.25
454.633	96.25
454.853	106.25
455.073	112.25
455.294	94.25
455.514	101.25
455.734	96.25
455.955	104.25
456.175	103.25
456.395	105.25
456.616	113.25
456.836	113.25
457.056	85.25
457.276	95.25
457.497	104.25
457.717	124.25
457.937	112.25
458.157	102.25
458.377	81.25
458.598	90.25
458.818	100.25
459.038	80.25
459.258	83.25
459.478	97.25
459.698	91.25
459.918	101.25
460.138	89.25
460.358	90.25
460.578	98.25
460.798	100.25
461.018	78.25
461.238	100.25
461.458	98.25
461.678	96.25
461.898	97.25
462.118	95.25
462.338	80.25
462.558	95.25
462.777	104.25
462.997	102.25
463.217	114.25
463.437	130.25
463.657	162.25
463.876	185.25
464.096	120.25
464.316	107.25
464.536	105.25
464.755	80.25
464.975	77.25
465.195	96.25
465.414	87.25
465.634	98.25
465.854	96.25
466.073	96.25
466.293	102.25
466.512	98.25
466.732	102.25
466.951	116.25
467.171	139.25
467.391	123.25
467.61	104.25
467.829	88.25
468.049	98.25
468.268	121.25
468.488	109.25
468.707	79.25
468.927	100.25
469.146	94.25
469.365	104.25
469.585	101.25
469.804	107.25
470.023	97.25
470.243	102.25
470.462	109.25
470.681	107.25
470.901	125.25
471.12	176.25
471.339	207.25
471.558	117.25
471.777	113.25
471.997	98.25
472.216	92.25
472.435	93.25
472.654	79.25
472.873	93.25
473.092	97.25
473.311	98.25
473.53	89.25
473.749	103.25
473.968	120.25
474.187	97.25
474.406	96.25
474.625	85.25
474.844	98.25
475.063	95.25
475.282	93.25
475.501	102.25
475.72	92.25
475.939	96.25
476.158	95.25
476.377	115.25
476.596	108.25
476.814	115.25
477.033	98.25
477.252	82.25
477.471	99.25
477.69	118.25
477.908	112.25
478.127	104.25
478.346	96.25
478.564	93.25
478.783	90.25
479.002	109.25
479.22	104.25
479.439	96.25
479.658	89.25
479.876	89.25
480.095	95.25
480.313	97.25
480.532	104.25
480.751	85.25
480.969	82.25
481.188	76.25
481.406	93.25
481.624	87.25
481.843	98.25
482.061	111.25
482.28	96.25
482.498	95.25
482.717	90.25
482.935	107.25
483.153	101.25
483.372	87.25
483.59	102.25
483.808	95.25
484.027	91.25
484.245	116.25
484.463	168.25
484.681	224.25
484.9	129.25
485.118	93.25
485.336	114.25
485.554	114.25
485.772	104.25
485.99	180.25
486.209	240.25
486.427	150.25
486.645	115.25
486.863	97.25
487.081	98.25
487.299	97.25
487.517	108.25
487.735	98.25
487.953	73.25
488.171	105.25
488.389	93.25
488.607	100.25
488.825	98.25
489.043	101.25
489.261	104.25
489.479	83.25
489.696	95.25
489.914	96.25
490.132	85.25
490.35	105.25
490.568	99.25
490.786	108.25
491.003	93.25
491.221	116.25
491.439	113.25
491.657	98.25
491.874	103.25
492.092	97.25
492.31	103.25
492.527	115.25
492.745	91.25
492.963	101.25
493.18	119.25
493.398	116.25
493.615	102.25
493.833	115.25
494.05	97.25
494.268	115.25
494.485	106.25
494.703	100.25
494.92	109.25
495.138	114.25
495.355	99.25
495.573	105.25
495.79	102.25
496.008	91.25
496.225	98.25
496.442	109.25
496.66	116.25
496.877	152.25
497.094	146.25
497.312	109.25
497.529	101.25
497.746	98.25
497.963	104.25
498.181	112.25
498.398	103.25
498.615	89.25
498.832	120.25
499.049	108.25
499.267	122.25
499.484	150.25
499.701	116.25
499.918	103.25
500.135	101.25
500.352	91.25
500.569	101.25
500.786	104.25
501.003	88.25
501.22	96.25
501.437	108.25
501.654	104.25
501.871	97.25
502.088	102.25
502.305	99.25
502.522	90.25
502.739	108.25
502.956	99.25
503.172	105.25
503.389	108.25
503.606	90.25
503.823	87.25
504.04	101.25
504.256	97.25
504.473	102.25
504.69	110.25
504.907	111.25
505.123	109.25
505.34	112.25
505.557	103.25
505.773	104.25
505.99	101.25
506.207	96.25
506.423	106.25
506.64	115.25
506.856	107.25
507.073	100.25
507.289	87.25
507.506	87.25
507.722	93.25
507.939	94.25
508.155	101.25
508.372	91.25
508.588	89.25
