Data from SnStandardFlinnAPT0064_LampEnergy10_LIBS07252019.E.O._I.C._HRD10591_15-21-21-494.txt Node
Date: Thu Jul 25 15:21:21 EDT 2019
User: cochatt
Spectrometer: HR+D1059
Trigger mode: 1
Integration Time (sec): 1.000000E-1
Scans to average: 1
Electric dark correction enabled: true
Nonlinearity correction enabled: false
Boxcar width: 0
XAxis mode: Wavelengths
Number of Pixels in Spectrum: 2048
>>>>>Begin Spectral Data<<<<<
223.165	-11.38
223.4	-11.38
223.635	-11.38
223.869	-23.38
224.104	-0.38
224.338	-11.38
224.573	-19.38
224.808	-15.38
225.042	-17.38
225.277	-0.38
225.511	2.62
225.746	1.62
225.98	-15.38
226.215	10.62
226.449	12.62
226.683	30.62
226.918	15.62
227.152	40.62
227.387	44.62
227.621	34.62
227.856	45.62
228.09	34.62
228.324	44.62
228.559	63.62
228.793	120.62
229.027	310.62
229.262	333.62
229.496	311.62
229.73	291.62
229.964	317.62
230.199	286.62
230.433	288.62
230.667	302.62
230.901	300.62
231.136	328.62
231.37	344.62
231.604	384.62
231.838	431.62
232.072	522.62
232.306	547.62
232.541	468.62
232.775	409.62
233.009	394.62
233.243	410.62
233.477	440.62
233.711	497.62
233.945	594.62
234.179	521.62
234.413	446.62
234.647	427.62
234.881	477.62
235.115	511.62
235.349	602.62
235.583	782.62
235.817	974.62
236.051	947.62
236.285	644.62
236.519	512.62
236.753	487.62
236.987	494.62
237.221	524.62
237.455	511.62
237.689	468.62
237.922	455.62
238.156	462.62
238.39	472.62
238.624	484.62
238.858	489.62
239.091	485.62
239.325	482.62
239.559	489.62
239.793	489.62
240.027	515.62
240.26	502.62
240.494	552.62
240.728	546.62
240.961	613.62
241.195	644.62
241.429	666.62
241.662	692.62
241.896	754.62
242.13	932.62
242.363	1246.62
242.597	1599.62
242.83	1544.62
243.064	1530.62
243.298	1772.62
243.531	1471.62
243.765	932.62
243.998	758.62
244.232	701.62
244.465	642.62
244.699	639.62
244.932	647.62
245.166	653.62
245.399	677.62
245.633	685.62
245.866	674.62
246.099	677.62
246.333	632.62
246.566	644.62
246.8	648.62
247.033	638.62
247.266	641.62
247.5	651.62
247.733	678.62
247.966	699.62
248.2	766.62
248.433	861.62
248.666	980.62
248.899	908.62
249.133	837.62
249.366	861.62
249.599	930.62
249.832	1056.62
250.066	1051.62
250.299	864.62
250.532	772.62
250.765	734.62
250.998	730.62
251.231	741.62
251.465	711.62
251.698	735.62
251.931	727.62
252.164	740.62
252.397	745.62
252.63	765.62
252.863	796.62
253.096	777.62
253.329	738.62
253.562	753.62
253.795	769.62
254.028	779.62
254.261	820.62
254.494	849.62
254.727	994.62
254.96	1219.62
255.193	1198.62
255.426	952.62
255.659	863.62
255.892	853.62
256.124	847.62
256.357	861.62
256.59	905.62
256.823	967.62
257.056	1084.62
257.289	1352.62
257.521	1472.62
257.754	1197.62
257.987	940.62
258.22	909.62
258.452	898.62
258.685	902.62
258.918	917.62
259.151	977.62
259.383	1082.62
259.616	1229.62
259.849	1280.62
260.081	1060.62
260.314	997.62
260.547	954.62
260.779	921.62
261.012	950.62
261.244	936.62
261.477	948.62
261.71	968.62
261.942	995.62
262.175	1011.62
262.407	1034.62
262.64	1018.62
262.872	1085.62
263.105	1158.62
263.337	1184.62
263.57	1251.62
263.802	1293.62
264.035	1289.62
264.267	1330.62
264.499	1379.62
264.732	1422.62
264.964	1407.62
265.197	1406.62
265.429	1437.62
265.661	1449.62
265.894	1547.62
266.126	1738.62
266.358	1957.62
266.591	1900.62
266.823	1572.62
267.055	1436.62
267.287	1369.62
267.52	1286.62
267.752	1251.62
267.984	1244.62
268.216	1237.62
268.448	1246.62
268.681	1206.62
268.913	1248.62
269.145	1211.62
269.377	1229.62
269.609	1200.62
269.841	1296.62
270.073	1363.62
270.306	1575.62
270.538	2122.62
270.77	3195.62
271.002	3915.62
271.234	2757.62
271.466	1840.62
271.698	1502.62
271.93	1363.62
272.162	1285.62
272.394	1275.62
272.626	1230.62
272.858	1208.62
273.09	1234.62
273.322	1215.62
273.553	1173.62
273.785	1196.62
274.017	1202.62
274.249	1191.62
274.481	1164.62
274.713	1176.62
274.945	1172.62
275.176	1205.62
275.408	1166.62
275.64	1186.62
275.872	1209.62
276.104	1241.62
276.335	1231.62
276.567	1256.62
276.799	1248.62
277.031	1276.62
277.262	1296.62
277.494	1369.62
277.726	1535.62
277.957	1785.62
278.189	2049.62
278.421	1951.62
278.652	1700.62
278.884	1600.62
279.115	1471.62
279.347	1414.62
279.579	1366.62
279.81	1371.62
280.042	1381.62
280.273	1424.62
280.505	1430.62
280.736	1455.62
280.968	1574.62
281.199	1720.62
281.431	2030.62
281.662	2030.62
281.894	1733.62
282.125	1616.62
282.356	1582.62
282.588	1635.62
282.819	1698.62
283.051	1784.62
283.282	1954.62
283.513	2461.62
283.745	3520.62
283.976	5575.62
284.207	7912.62
284.439	7190.62
284.67	4488.62
284.901	3679.62
285.132	3676.62
285.364	3522.62
285.595	2604.62
285.826	2364.62
286.057	2808.62
286.288	3844.62
286.52	5138.62
286.751	4792.62
286.982	2975.62
287.213	2243.62
287.444	1970.62
287.675	1831.62
287.906	1745.62
288.138	1713.62
288.369	1671.62
288.6	1638.62
288.831	1652.62
289.062	1626.62
289.293	1662.62
289.524	1674.62
289.755	1654.62
289.986	1684.62
290.217	1706.62
290.448	1689.62
290.679	1704.62
290.91	1719.62
291.141	1868.62
291.371	2022.62
291.602	2100.62
291.833	1898.62
292.064	1758.62
292.295	1644.62
292.526	1620.62
292.757	1596.62
292.987	1569.62
293.218	1546.62
293.449	1578.62
293.68	1604.62
293.91	1552.62
294.141	1559.62
294.372	1527.62
294.603	1543.62
294.833	1528.62
295.064	1557.62
295.295	1519.62
295.525	1500.62
295.756	1543.62
295.987	1536.62
296.217	1555.62
296.448	1568.62
296.679	1559.62
296.909	1552.62
297.14	1604.62
297.37	1577.62
297.601	1607.62
297.831	1583.62
298.062	1587.62
298.292	1604.62
298.523	1668.62
298.753	1681.62
298.984	1674.62
299.214	1682.62
299.445	1706.62
299.675	1743.62
299.905	1816.62
300.136	1850.62
300.366	2104.62
300.597	2677.62
300.827	3732.62
301.057	5146.62
301.288	5116.62
301.518	3370.62
301.748	2563.62
301.979	2337.62
302.209	2235.62
302.439	2240.62
302.669	2401.62
302.9	2920.62
303.13	4065.62
303.36	6071.62
303.59	8091.62
303.82	6990.62
304.051	4122.62
304.281	2950.62
304.511	2501.62
304.741	2299.62
304.971	2169.62
305.201	2063.62
305.431	1974.62
305.661	1934.62
305.891	1873.62
306.121	1867.62
306.352	1829.62
306.582	1812.62
306.812	1813.62
307.042	1810.62
307.272	1800.62
307.502	1800.62
307.731	1777.62
307.961	1794.62
308.191	1771.62
308.421	1776.62
308.651	1822.62
308.881	1785.62
309.111	1795.62
309.341	1748.62
309.571	1813.62
309.8	1808.62
310.03	1843.62
310.26	1826.62
310.49	1812.62
310.72	1818.62
310.949	1838.62
311.179	1826.62
311.409	1885.62
311.639	1878.62
311.868	1883.62
312.098	1876.62
312.328	1921.62
312.557	1945.62
312.787	1947.62
313.017	1936.62
313.246	1959.62
313.476	1957.62
313.706	2063.62
313.935	2160.62
314.165	2311.62
314.394	2453.62
314.624	2325.62
314.853	2172.62
315.083	2117.62
315.312	2139.62
315.542	2122.62
315.771	2166.62
316.001	2244.62
316.23	2269.62
316.46	2368.62
316.689	2605.62
316.919	3145.62
317.148	4544.62
317.377	7028.62
317.607	10220.62
317.836	10623.62
318.065	6526.62
318.295	4165.62
318.524	3329.62
318.753	2910.62
318.983	2676.62
319.212	2504.62
319.441	2468.62
319.67	2359.62
319.9	2344.62
320.129	2343.62
320.358	2322.62
320.587	2291.62
320.816	2315.62
321.046	2311.62
321.275	2325.62
321.504	2362.62
321.733	2376.62
321.962	2441.62
322.191	2548.62
322.42	2478.62
322.649	2454.62
322.878	2406.62
323.108	2448.62
323.337	2495.62
323.566	2513.62
323.795	2571.62
324.024	2616.62
324.253	2691.62
324.482	2746.62
324.71	2906.62
324.939	3134.62
325.168	3189.62
325.397	3376.62
325.626	3913.62
325.855	5500.62
326.084	8592.62
326.313	12438.62
326.542	13215.62
326.77	8964.62
326.999	5826.62
327.228	4920.62
327.457	4656.62
327.686	4759.62
327.914	5090.62
328.143	5994.62
328.372	7225.62
328.6	7762.62
328.829	6902.62
329.058	5756.62
329.287	4990.62
329.515	4534.62
329.744	4258.62
329.972	4065.62
330.201	3846.62
330.43	3668.62
330.658	3566.62
330.887	3514.62
331.115	3475.62
331.344	3454.62
331.572	3448.62
331.801	3469.62
332.03	3509.62
332.258	3517.62
332.486	3669.62
332.715	4241.62
332.943	5235.62
333.172	6522.62
333.4	6449.62
333.629	4918.62
333.857	4436.62
334.085	4453.62
334.314	4674.62
334.542	5033.62
334.771	6005.62
334.999	7448.62
335.227	9394.62
335.455	10594.62
335.684	9480.62
335.912	7736.62
336.14	6396.62
336.369	5599.62
336.597	5147.62
336.825	4705.62
337.053	4439.62
337.281	4184.62
337.51	3950.62
337.738	3801.62
337.966	3649.62
338.194	3546.62
338.422	3447.62
338.65	3278.62
338.878	3267.62
339.106	3193.62
339.334	3202.62
339.562	3122.62
339.79	3049.62
340.018	3023.62
340.246	3037.62
340.474	2995.62
340.702	2987.62
340.93	2961.62
341.158	3009.62
341.386	2959.62
341.614	2904.62
341.842	2883.62
342.07	2836.62
342.298	2804.62
342.526	2735.62
342.754	2724.62
342.981	2692.62
343.209	2690.62
343.437	2696.62
343.665	2795.62
343.893	2798.62
344.12	2814.62
344.348	2716.62
344.576	2730.62
344.804	2690.62
345.031	2637.62
345.259	2545.62
345.487	2508.62
345.714	2558.62
345.942	2519.62
346.17	2586.62
346.397	2502.62
346.625	2524.62
346.853	2516.62
347.08	2516.62
347.308	2524.62
347.535	2487.62
347.763	2511.62
347.99	2446.62
348.218	2441.62
348.445	2414.62
348.673	2400.62
348.9	2450.62
349.128	2396.62
349.355	2413.62
349.583	2396.62
349.81	2377.62
350.037	2452.62
350.265	2376.62
350.492	2328.62
350.72	2376.62
350.947	2353.62
351.174	2381.62
351.402	2371.62
351.629	2359.62
351.856	2352.62
352.083	2381.62
352.311	2357.62
352.538	2322.62
352.765	2343.62
352.992	2333.62
353.22	2306.62
353.447	2315.62
353.674	2310.62
353.901	2382.62
354.128	2374.62
354.355	2320.62
354.583	2370.62
354.81	2353.62
355.037	2376.62
355.264	2405.62
355.491	2386.62
355.718	2464.62
355.945	2401.62
356.172	2418.62
356.399	2399.62
356.626	2458.62
356.853	2500.62
357.08	2440.62
357.307	2500.62
357.534	2550.62
357.761	2537.62
357.988	2596.62
358.215	2578.62
358.441	2532.62
358.668	2546.62
358.895	2530.62
359.122	2505.62
359.349	2538.62
359.576	2501.62
359.802	2454.62
360.029	2485.62
360.256	2484.62
360.483	2513.62
360.709	2517.62
360.936	2569.62
361.163	2558.62
361.39	2512.62
361.616	2515.62
361.843	2576.62
362.07	2514.62
362.296	2502.62
362.523	2533.62
362.749	2485.62
362.976	2487.62
363.203	2517.62
363.429	2500.62
363.656	2483.62
363.882	2505.62
364.109	2498.62
364.335	2510.62
364.562	2517.62
364.788	2541.62
365.015	2555.62
365.241	2612.62
365.468	2764.62
365.694	2861.62
365.92	2778.62
366.147	2602.62
366.373	2580.62
366.599	2641.62
366.826	2527.62
367.052	2535.62
367.278	2558.62
367.505	2654.62
367.731	2549.62
367.957	2522.62
368.184	2593.62
368.41	2622.62
368.636	2647.62
368.862	2633.62
369.089	2617.62
369.315	2631.62
369.541	2596.62
369.767	2648.62
369.993	2632.62
370.219	2586.62
370.445	2580.62
370.672	2674.62
370.898	2641.62
371.124	2668.62
371.35	2679.62
371.576	2727.62
371.802	2734.62
372.028	2761.62
372.254	2734.62
372.48	2711.62
372.706	2754.62
372.932	2756.62
373.158	2728.62
373.384	2778.62
373.61	2724.62
373.835	2794.62
374.061	2729.62
374.287	2791.62
374.513	2802.62
374.739	2866.62
374.965	2884.62
375.191	2848.62
375.416	2860.62
375.642	2769.62
375.868	2791.62
376.094	2756.62
376.319	2773.62
376.545	2750.62
376.771	2742.62
376.997	2719.62
377.222	2696.62
377.448	2673.62
377.674	2699.62
377.899	2652.62
378.125	2699.62
378.35	2735.62
378.576	2729.62
378.802	2701.62
379.027	2861.62
379.253	2862.62
379.478	3033.62
379.704	3556.62
379.929	5030.62
380.155	7680.62
380.38	8472.62
380.606	5161.62
380.831	3644.62
381.057	3184.62
381.282	2920.62
381.507	2826.62
381.733	2784.62
381.958	2680.62
382.184	2696.62
382.409	2718.62
382.634	2676.62
382.86	2622.62
383.085	2645.62
383.31	2651.62
383.535	2701.62
383.761	2652.62
383.986	2656.62
384.211	2708.62
384.436	2727.62
384.662	2701.62
384.887	2705.62
385.112	2698.62
385.337	2773.62
385.562	2753.62
385.787	2736.62
386.013	2753.62
386.238	2744.62
386.463	2729.62
386.688	2752.62
386.913	2705.62
387.138	2745.62
387.363	2724.62
387.588	2704.62
387.813	2672.62
388.038	2709.62
388.263	2744.62
388.488	2760.62
388.713	2704.62
388.938	2730.62
389.163	2695.62
389.387	2776.62
389.612	2689.62
389.837	2715.62
390.062	2725.62
390.287	2777.62
390.512	2784.62
390.736	2838.62
390.961	2860.62
391.186	2863.62
391.411	2865.62
391.636	2857.62
391.86	2902.62
392.085	2885.62
392.31	2888.62
392.534	2829.62
392.759	2821.62
392.984	2765.62
393.208	2750.62
393.433	2736.62
393.658	2747.62
393.882	2720.62
394.107	2738.62
394.331	2768.62
394.556	2765.62
394.78	2813.62
395.005	2847.62
395.229	2746.62
395.454	2835.62
395.678	2839.62
395.903	2821.62
396.127	2851.62
396.352	2798.62
396.576	2840.62
396.801	2837.62
397.025	2846.62
397.249	2838.62
397.474	2916.62
397.698	2898.62
397.922	2889.62
398.147	2884.62
398.371	2911.62
398.595	2974.62
398.82	3065.62
399.044	3175.62
399.268	3297.62
399.492	3511.62
399.717	3644.62
399.941	3615.62
400.165	3476.62
400.389	3340.62
400.613	3223.62
400.837	3089.62
401.062	3034.62
401.286	2997.62
401.51	3012.62
401.734	3012.62
401.958	3001.62
402.182	3024.62
402.406	2979.62
402.63	3062.62
402.854	3036.62
403.078	3065.62
403.302	3120.62
403.526	3123.62
403.75	3112.62
403.974	3155.62
404.198	3114.62
404.422	3188.62
404.645	3128.62
404.869	3108.62
405.093	3190.62
405.317	3086.62
405.541	3196.62
405.765	3217.62
405.988	3271.62
406.212	3236.62
406.436	3206.62
406.66	3260.62
406.883	3232.62
407.107	3354.62
407.331	3354.62
407.555	3420.62
407.778	3431.62
408.002	3354.62
408.226	3365.62
408.449	3366.62
408.673	3262.62
408.896	3142.62
409.12	3166.62
409.344	3186.62
409.567	3103.62
409.791	3101.62
410.014	3162.62
410.238	3100.62
410.461	3149.62
410.685	3116.62
410.908	3088.62
411.132	3100.62
411.355	2978.62
411.578	3006.62
411.802	3033.62
412.025	2989.62
412.249	3044.62
412.472	3025.62
412.695	2996.62
412.919	2944.62
413.142	2919.62
413.365	2943.62
413.589	3003.62
413.812	2970.62
414.035	2917.62
414.258	2929.62
414.482	2922.62
414.705	2963.62
414.928	2942.62
415.151	2952.62
415.374	2897.62
415.597	2946.62
415.821	2863.62
416.044	2818.62
416.267	2847.62
416.49	2809.62
416.713	2784.62
416.936	2850.62
417.159	2791.62
417.382	2824.62
417.605	2788.62
417.828	2834.62
418.051	2862.62
418.274	2879.62
418.497	2850.62
418.72	2954.62
418.943	2912.62
419.166	3020.62
419.389	3201.62
419.611	3104.62
419.834	2984.62
420.057	2948.62
420.28	2919.62
420.503	2815.62
420.726	2846.62
420.948	2798.62
421.171	2797.62
421.394	2813.62
421.617	2792.62
421.839	2883.62
422.062	2834.62
422.285	2815.62
422.507	2928.62
422.73	2882.62
422.953	2866.62
423.175	2862.62
423.398	2900.62
423.621	2870.62
423.843	2848.62
424.066	2871.62
424.288	2844.62
424.511	2812.62
424.733	2862.62
424.956	2774.62
425.178	2816.62
425.401	2771.62
425.623	2820.62
425.846	2744.62
426.068	2752.62
426.291	2734.62
426.513	2705.62
426.735	2678.62
426.958	2704.62
427.18	2694.62
427.402	2719.62
427.625	2679.62
427.847	2639.62
428.069	2640.62
428.292	2631.62
428.514	2638.62
428.736	2628.62
428.958	2677.62
429.181	2549.62
429.403	2575.62
429.625	2610.62
429.847	2622.62
430.069	2664.62
430.292	2772.62
430.514	2845.62
430.736	2836.62
430.958	2658.62
431.18	2642.62
431.402	2648.62
431.624	2599.62
431.846	2562.62
432.068	2558.62
432.29	2626.62
432.512	2605.62
432.734	2567.62
432.956	2620.62
433.178	2588.62
433.4	2606.62
433.622	2632.62
433.844	2606.62
434.066	2601.62
434.287	2585.62
434.509	2636.62
434.731	2656.62
434.953	2680.62
435.175	2720.62
435.397	2694.62
435.618	2657.62
435.84	2636.62
436.062	2536.62
436.284	2553.62
436.505	2597.62
436.727	2585.62
436.949	2548.62
437.17	2590.62
437.392	2504.62
437.614	2564.62
437.835	2428.62
438.057	2513.62
438.278	2503.62
438.5	2556.62
438.721	2534.62
438.943	2666.62
439.165	2677.62
439.386	2704.62
439.608	2671.62
439.829	2705.62
440.05	2799.62
440.272	2811.62
440.493	2720.62
440.715	2661.62
440.936	2697.62
441.158	2713.62
441.379	2752.62
441.6	2840.62
441.822	2888.62
442.043	3041.62
442.264	3173.62
442.486	2934.62
442.707	2808.62
442.928	2805.62
443.149	2811.62
443.371	2752.62
443.592	2828.62
443.813	2795.62
444.034	2802.62
444.255	2790.62
444.476	2918.62
444.698	2959.62
444.919	2985.62
445.14	3048.62
445.361	2927.62
445.582	2870.62
445.803	2797.62
446.024	2780.62
446.245	2796.62
446.466	2812.62
446.687	2760.62
446.908	2715.62
447.129	2649.62
447.35	2640.62
447.571	2577.62
447.792	2519.62
448.013	2549.62
448.234	2533.62
448.455	2540.62
448.675	2571.62
448.896	2639.62
449.117	2680.62
449.338	2996.62
449.559	3082.62
449.779	2781.62
450	2552.62
450.221	2508.62
450.442	2565.62
450.662	2560.62
450.883	2486.62
451.104	2481.62
451.324	2502.62
451.545	2526.62
451.766	2525.62
451.986	2590.62
452.207	2762.62
452.428	3551.62
452.648	5408.62
452.869	4470.62
453.089	3153.62
453.31	2892.62
453.53	2882.62
453.751	2979.62
453.971	3149.62
454.192	3063.62
454.412	2704.62
454.633	2514.62
454.853	2437.62
455.073	2428.62
455.294	2484.62
455.514	2435.62
455.734	2393.62
455.955	2360.62
456.175	2428.62
456.395	2372.62
456.616	2386.62
456.836	2428.62
457.056	2432.62
457.276	2450.62
457.497	2579.62
457.717	2598.62
457.937	2555.62
458.157	2530.62
458.377	2511.62
458.598	2559.62
458.818	2553.62
459.038	2583.62
459.258	2570.62
459.478	2598.62
459.698	2653.62
459.918	2657.62
460.138	2705.62
460.358	2752.62
460.578	2816.62
460.798	2867.62
461.018	2836.62
461.238	2814.62
461.458	2825.62
461.678	2899.62
461.898	2962.62
462.118	2969.62
462.338	3010.62
462.558	3017.62
462.777	3125.62
462.997	3255.62
463.217	3311.62
463.437	3518.62
463.657	3554.62
463.876	3525.62
464.096	3336.62
464.316	3147.62
464.536	3140.62
464.755	3069.62
464.975	3018.62
465.195	2902.62
465.414	2825.62
465.634	2702.62
465.854	2654.62
466.073	2681.62
466.293	2614.62
466.512	2621.62
466.732	2613.62
466.951	2772.62
467.171	2966.62
467.391	2932.62
467.61	2703.62
467.829	2626.62
468.049	2552.62
468.268	2504.62
468.488	2534.62
468.707	2484.62
468.927	2613.62
469.146	2550.62
469.365	2556.62
469.585	2589.62
469.804	2607.62
470.023	2728.62
470.243	2712.62
470.462	2812.62
470.681	2938.62
470.901	3236.62
471.12	3689.62
471.339	3761.62
471.558	3114.62
471.777	2801.62
471.997	2678.62
472.216	2608.62
472.435	2596.62
472.654	2540.62
472.873	2528.62
473.092	2584.62
473.311	2528.62
473.53	2610.62
473.749	2642.62
473.968	2750.62
474.187	2611.62
474.406	2524.62
474.625	2595.62
474.844	2529.62
475.063	2581.62
475.282	2595.62
475.501	2583.62
475.72	2580.62
475.939	2616.62
476.158	2692.62
476.377	2712.62
476.596	2725.62
476.814	2714.62
477.033	2753.62
477.252	2727.62
477.471	2765.62
477.69	2831.62
477.908	2838.62
478.127	2926.62
478.346	2948.62
478.564	2996.62
478.783	2968.62
479.002	2986.62
479.22	3022.62
479.439	3089.62
479.658	3061.62
479.876	3102.62
480.095	3078.62
480.313	3190.62
480.532	3168.62
480.751	3226.62
480.969	3133.62
481.188	3138.62
481.406	3136.62
481.624	3169.62
481.843	3161.62
482.061	3189.62
482.28	3150.62
482.498	3133.62
482.717	3135.62
482.935	3122.62
483.153	3172.62
483.372	3217.62
483.59	3265.62
483.808	3301.62
484.027	3377.62
484.245	3592.62
484.463	4066.62
484.681	4446.62
484.9	4036.62
485.118	3713.62
485.336	3700.62
485.554	3765.62
485.772	3966.62
485.99	4553.62
486.209	4828.62
486.427	4049.62
486.645	3600.62
486.863	3461.62
487.081	3411.62
487.299	3338.62
487.517	3307.62
487.735	3338.62
