Data from SnStandardFlinnAPT0064_QswitchEnergy10_LIBS07252019.E.O._I.C._HRD10591_15-26-12-973.txt Node
Date: Thu Jul 25 15:26:12 EDT 2019
User: cochatt
Spectrometer: HR+D1059
Trigger mode: 1
Integration Time (sec): 1.000000E-1
Scans to average: 1
Electric dark correction enabled: true
Nonlinearity correction enabled: false
Boxcar width: 0
XAxis mode: Wavelengths
Number of Pixels in Spectrum: 2048
>>>>>Begin Spectral Data<<<<<
223.165	-24.56
223.4	-24.56
223.635	-24.56
223.869	-11.56
224.104	-8.56
224.338	-14.56
224.573	-10.56
224.808	-2.56
225.042	-13.56
225.277	-8.56
225.511	0.44
225.746	6.44
225.98	-5.56
226.215	11.44
226.449	12.44
226.683	2.44
226.918	16.44
227.152	50.44
227.387	29.44
227.621	36.44
227.856	31.44
228.09	51.44
228.324	63.44
228.559	57.44
228.793	62.44
229.027	71.44
229.262	88.44
229.496	45.44
229.73	73.44
229.964	76.44
230.199	67.44
230.433	76.44
230.667	75.44
230.901	80.44
231.136	97.44
231.37	73.44
231.604	81.44
231.838	111.44
232.072	113.44
232.306	131.44
232.541	103.44
232.775	80.44
233.009	101.44
233.243	88.44
233.477	88.44
233.711	92.44
233.945	107.44
234.179	94.44
234.413	87.44
234.647	81.44
234.881	91.44
235.115	88.44
235.349	98.44
235.583	111.44
235.817	112.44
236.051	132.44
236.285	80.44
236.519	87.44
236.753	72.44
236.987	85.44
237.221	75.44
237.455	71.44
237.689	82.44
237.922	75.44
238.156	57.44
238.39	80.44
238.624	79.44
238.858	87.44
239.091	81.44
239.325	80.44
239.559	84.44
239.793	91.44
240.027	76.44
240.26	80.44
240.494	82.44
240.728	85.44
240.961	88.44
241.195	94.44
241.429	85.44
241.662	99.44
241.896	88.44
242.13	80.44
242.363	127.44
242.597	170.44
242.83	137.44
243.064	133.44
243.298	179.44
243.531	159.44
243.765	99.44
243.998	87.44
244.232	84.44
244.465	85.44
244.699	61.44
244.932	43.44
245.166	78.44
245.399	83.44
245.633	78.44
245.866	77.44
246.099	79.44
246.333	84.44
246.566	71.44
246.8	87.44
247.033	73.44
247.266	89.44
247.5	82.44
247.733	82.44
247.966	99.44
248.2	98.44
248.433	117.44
248.666	127.44
248.899	125.44
249.133	90.44
249.366	92.44
249.599	102.44
249.832	127.44
250.066	120.44
250.299	93.44
250.532	78.44
250.765	75.44
250.998	75.44
251.231	87.44
251.465	81.44
251.698	88.44
251.931	77.44
252.164	97.44
252.397	96.44
252.63	96.44
252.863	108.44
253.096	97.44
253.329	87.44
253.562	91.44
253.795	95.44
254.028	91.44
254.261	90.44
254.494	97.44
254.727	108.44
254.96	159.44
255.193	138.44
255.426	73.44
255.659	92.44
255.892	90.44
256.124	92.44
256.357	96.44
256.59	93.44
256.823	93.44
257.056	99.44
257.289	150.44
257.521	177.44
257.754	121.44
257.987	87.44
258.22	96.44
258.452	88.44
258.685	85.44
258.918	67.44
259.151	94.44
259.383	96.44
259.616	121.44
259.849	153.44
260.081	122.44
260.314	86.44
260.547	81.44
260.779	81.44
261.012	86.44
261.244	80.44
261.477	92.44
261.71	88.44
261.942	87.44
262.175	77.44
262.407	90.44
262.64	82.44
262.872	98.44
263.105	93.44
263.337	90.44
263.57	90.44
263.802	95.44
264.035	91.44
264.267	82.44
264.499	86.44
264.732	87.44
264.964	83.44
265.197	76.44
265.429	88.44
265.661	94.44
265.894	85.44
266.126	129.44
266.358	157.44
266.591	144.44
266.823	87.44
267.055	91.44
267.287	91.44
267.52	84.44
267.752	89.44
267.984	80.44
268.216	83.44
268.448	85.44
268.681	100.44
268.913	88.44
269.145	98.44
269.377	85.44
269.609	96.44
269.841	99.44
270.073	93.44
270.306	121.44
270.538	191.44
270.77	334.44
271.002	376.44
271.234	193.44
271.466	119.44
271.698	91.44
271.93	89.44
272.162	96.44
272.394	101.44
272.626	84.44
272.858	79.44
273.09	84.44
273.322	89.44
273.553	83.44
273.785	90.44
274.017	94.44
274.249	90.44
274.481	85.44
274.713	108.44
274.945	95.44
275.176	84.44
275.408	84.44
275.64	98.44
275.872	89.44
276.104	97.44
276.335	110.44
276.567	105.44
276.799	93.44
277.031	107.44
277.262	107.44
277.494	105.44
277.726	125.44
277.957	208.44
278.189	269.44
278.421	241.44
278.652	183.44
278.884	196.44
279.115	139.44
279.347	128.44
279.579	107.44
279.81	81.44
280.042	87.44
280.273	88.44
280.505	107.44
280.736	111.44
280.968	127.44
281.199	190.44
281.431	240.44
281.662	259.44
281.894	146.44
282.125	116.44
282.356	114.44
282.588	111.44
282.819	120.44
283.051	112.44
283.282	143.44
283.513	211.44
283.745	298.44
283.976	541.44
284.207	767.44
284.439	579.44
284.67	287.44
284.901	251.44
285.132	364.44
285.364	378.44
285.595	213.44
285.826	169.44
286.057	258.44
286.288	409.44
286.52	626.44
286.751	491.44
286.982	206.44
287.213	124.44
287.444	115.44
287.675	101.44
287.906	91.44
288.138	90.44
288.369	89.44
288.6	82.44
288.831	105.44
289.062	104.44
289.293	85.44
289.524	92.44
289.755	92.44
289.986	99.44
290.217	84.44
290.448	92.44
290.679	99.44
290.91	144.44
291.141	155.44
291.371	230.44
291.602	307.44
291.833	208.44
292.064	125.44
292.295	96.44
292.526	103.44
292.757	98.44
292.987	104.44
293.218	101.44
293.449	103.44
293.68	101.44
293.91	94.44
294.141	109.44
294.372	96.44
294.603	94.44
294.833	82.44
295.064	96.44
295.295	99.44
295.525	95.44
295.756	95.44
295.987	84.44
296.217	96.44
296.448	89.44
296.679	92.44
296.909	91.44
297.14	95.44
297.37	86.44
297.601	92.44
297.831	111.44
298.062	111.44
298.292	109.44
298.523	98.44
298.753	104.44
298.984	102.44
299.214	110.44
299.445	108.44
299.675	98.44
299.905	130.44
300.136	126.44
300.366	157.44
300.597	265.44
300.827	442.44
301.057	689.44
301.288	641.44
301.518	248.44
301.748	157.44
301.979	118.44
302.209	127.44
302.439	137.44
302.669	159.44
302.9	258.44
303.13	494.44
303.36	894.44
303.59	1185.44
303.82	833.44
304.051	297.44
304.281	143.44
304.511	117.44
304.741	124.44
304.971	111.44
305.201	113.44
305.431	109.44
305.661	105.44
305.891	103.44
306.121	105.44
306.352	105.44
306.582	113.44
306.812	113.44
307.042	111.44
307.272	106.44
307.502	111.44
307.731	93.44
307.961	92.44
308.191	102.44
308.421	99.44
308.651	103.44
308.881	111.44
309.111	86.44
309.341	106.44
309.571	107.44
309.8	118.44
310.03	117.44
310.26	107.44
310.49	122.44
310.72	93.44
310.949	103.44
311.179	108.44
311.409	101.44
311.639	115.44
311.868	106.44
312.098	109.44
312.328	111.44
312.557	101.44
312.787	109.44
313.017	122.44
313.246	111.44
313.476	114.44
313.706	123.44
313.935	152.44
314.165	209.44
314.394	224.44
314.624	186.44
314.853	116.44
315.083	116.44
315.312	140.44
315.542	132.44
315.771	133.44
316.001	125.44
316.23	145.44
316.46	140.44
316.689	179.44
316.919	251.44
317.148	484.44
317.377	901.44
317.607	1471.44
317.836	1407.44
318.065	539.44
318.295	214.44
318.524	147.44
318.753	145.44
318.983	137.44
319.212	116.44
319.441	120.44
319.67	120.44
319.9	114.44
320.129	104.44
320.358	113.44
320.587	119.44
320.816	114.44
321.046	108.44
321.275	131.44
321.504	120.44
321.733	146.44
321.962	159.44
322.191	159.44
322.42	125.44
322.649	102.44
322.878	123.44
323.108	124.44
323.337	116.44
323.566	117.44
323.795	120.44
324.024	140.44
324.253	139.44
324.482	169.44
324.71	240.44
324.939	284.44
325.168	227.44
325.397	184.44
325.626	263.44
325.855	499.44
326.084	909.44
326.313	1575.44
326.542	1567.44
326.77	610.44
326.999	252.44
327.228	212.44
327.457	241.44
327.686	216.44
327.914	159.44
328.143	138.44
328.372	139.44
328.6	123.44
328.829	117.44
329.058	122.44
329.287	113.44
329.515	124.44
329.744	116.44
329.972	121.44
330.201	115.44
330.43	116.44
330.658	119.44
330.887	113.44
331.115	113.44
331.344	116.44
331.572	121.44
331.801	125.44
332.03	139.44
332.258	137.44
332.486	167.44
332.715	279.44
332.943	488.44
333.172	737.44
333.4	661.44
333.629	244.44
333.857	151.44
334.085	128.44
334.314	111.44
334.542	121.44
334.771	99.44
334.999	95.44
335.227	120.44
335.455	131.44
335.684	121.44
335.912	123.44
336.14	108.44
336.369	111.44
336.597	113.44
336.825	106.44
337.053	111.44
337.281	99.44
337.51	111.44
337.738	113.44
337.966	108.44
338.194	120.44
338.422	97.44
338.65	98.44
338.878	113.44
339.106	103.44
339.334	132.44
339.562	106.44
339.79	98.44
340.018	120.44
340.246	112.44
340.474	103.44
340.702	119.44
340.93	117.44
341.158	97.44
341.386	123.44
341.614	135.44
341.842	124.44
342.07	135.44
342.298	113.44
342.526	105.44
342.754	118.44
342.981	113.44
343.209	94.44
343.437	106.44
343.665	108.44
343.893	101.44
344.12	112.44
344.348	112.44
344.576	115.44
344.804	120.44
345.031	113.44
345.259	113.44
345.487	123.44
345.714	114.44
345.942	111.44
346.17	111.44
346.397	123.44
346.625	119.44
346.853	104.44
347.08	106.44
347.308	116.44
347.535	96.44
347.763	119.44
347.99	86.44
348.218	98.44
348.445	100.44
348.673	124.44
348.9	124.44
349.128	132.44
349.355	116.44
349.583	116.44
349.81	104.44
350.037	116.44
350.265	111.44
350.492	105.44
350.72	113.44
350.947	115.44
351.174	127.44
351.402	112.44
351.629	101.44
351.856	104.44
352.083	101.44
352.311	111.44
352.538	110.44
352.765	122.44
352.992	118.44
353.22	100.44
353.447	97.44
353.674	104.44
353.901	115.44
354.128	108.44
354.355	103.44
354.583	98.44
354.81	106.44
355.037	107.44
355.264	86.44
355.491	109.44
355.718	101.44
355.945	95.44
356.172	103.44
356.399	103.44
356.626	101.44
356.853	104.44
357.08	116.44
357.307	109.44
357.534	95.44
357.761	101.44
357.988	119.44
358.215	101.44
358.441	113.44
358.668	105.44
358.895	113.44
359.122	113.44
359.349	123.44
359.576	116.44
359.802	106.44
360.029	125.44
360.256	107.44
360.483	116.44
360.709	103.44
360.936	103.44
361.163	100.44
361.39	112.44
361.616	114.44
361.843	117.44
362.07	113.44
362.296	100.44
362.523	99.44
362.749	111.44
362.976	112.44
363.203	107.44
363.429	108.44
363.656	118.44
363.882	103.44
364.109	120.44
364.335	112.44
364.562	104.44
364.788	125.44
365.015	113.44
365.241	115.44
365.468	195.44
365.694	264.44
365.92	205.44
366.147	118.44
366.373	103.44
366.599	102.44
366.826	100.44
367.052	98.44
367.278	100.44
367.505	106.44
367.731	106.44
367.957	100.44
368.184	114.44
368.41	125.44
368.636	138.44
368.862	119.44
369.089	96.44
369.315	103.44
369.541	115.44
369.767	107.44
369.993	100.44
370.219	115.44
370.445	103.44
370.672	111.44
370.898	99.44
371.124	119.44
371.35	91.44
371.576	113.44
371.802	111.44
372.028	98.44
372.254	113.44
372.48	114.44
372.706	104.44
372.932	108.44
373.158	87.44
373.384	105.44
373.61	116.44
373.835	113.44
374.061	123.44
374.287	101.44
374.513	100.44
374.739	124.44
374.965	98.44
375.191	115.44
375.416	93.44
375.642	101.44
375.868	100.44
376.094	101.44
376.319	111.44
376.545	98.44
376.771	118.44
376.997	102.44
377.222	111.44
377.448	114.44
377.674	97.44
377.899	109.44
378.125	107.44
378.35	98.44
378.576	115.44
378.802	124.44
379.027	126.44
379.253	137.44
379.478	191.44
379.704	308.44
379.929	765.44
380.155	1595.44
380.38	1657.44
380.606	549.44
380.831	196.44
381.057	140.44
381.282	123.44
381.507	129.44
381.733	109.44
381.958	105.44
382.184	111.44
382.409	102.44
382.634	116.44
382.86	120.44
383.085	104.44
383.31	109.44
383.535	107.44
383.761	113.44
383.986	99.44
384.211	110.44
384.436	98.44
384.662	85.44
384.887	109.44
385.112	90.44
385.337	111.44
385.562	108.44
385.787	117.44
386.013	111.44
386.238	102.44
386.463	91.44
386.688	101.44
386.913	102.44
387.138	103.44
387.363	107.44
387.588	107.44
387.813	96.44
388.038	98.44
388.263	109.44
388.488	96.44
388.713	112.44
388.938	100.44
389.163	107.44
389.387	113.44
389.612	104.44
389.837	104.44
390.062	102.44
390.287	108.44
390.512	99.44
390.736	113.44
390.961	91.44
391.186	98.44
391.411	93.44
391.636	92.44
391.86	101.44
392.085	92.44
392.31	121.44
392.534	106.44
392.759	109.44
392.984	101.44
393.208	128.44
393.433	135.44
393.658	130.44
393.882	93.44
394.107	107.44
394.331	101.44
394.556	89.44
394.78	101.44
395.005	99.44
395.229	96.44
395.454	103.44
395.678	96.44
395.903	96.44
396.127	108.44
396.352	108.44
396.576	107.44
396.801	128.44
397.025	117.44
397.249	106.44
397.474	115.44
397.698	101.44
397.922	95.44
398.147	96.44
398.371	94.44
398.595	101.44
398.82	109.44
399.044	97.44
399.268	111.44
399.492	105.44
399.717	94.44
399.941	91.44
400.165	100.44
400.389	81.44
400.613	98.44
400.837	91.44
401.062	107.44
401.286	79.44
401.51	116.44
401.734	100.44
401.958	107.44
402.182	99.44
402.406	104.44
402.63	92.44
402.854	104.44
403.078	92.44
403.302	89.44
403.526	108.44
403.75	103.44
403.974	106.44
404.198	99.44
404.422	112.44
404.645	99.44
404.869	88.44
405.093	99.44
405.317	98.44
405.541	100.44
405.765	139.44
405.988	157.44
406.212	118.44
406.436	103.44
406.66	105.44
406.883	105.44
407.107	93.44
407.331	92.44
407.555	86.44
407.778	103.44
408.002	77.44
408.226	101.44
408.449	99.44
408.673	98.44
408.896	106.44
409.12	103.44
409.344	100.44
409.567	93.44
409.791	89.44
410.014	98.44
410.238	105.44
410.461	130.44
410.685	109.44
410.908	105.44
411.132	114.44
411.355	99.44
411.578	99.44
411.802	105.44
412.025	102.44
412.249	98.44
412.472	106.44
412.695	100.44
412.919	97.44
413.142	92.44
413.365	98.44
413.589	84.44
413.812	110.44
414.035	98.44
414.258	113.44
414.482	95.44
414.705	99.44
414.928	104.44
415.151	106.44
415.374	91.44
415.597	92.44
415.821	115.44
416.044	103.44
416.267	101.44
416.49	96.44
416.713	91.44
416.936	96.44
417.159	98.44
417.382	85.44
417.605	93.44
417.828	93.44
418.051	107.44
418.274	120.44
418.497	105.44
418.72	102.44
418.943	114.44
419.166	101.44
419.389	107.44
419.611	116.44
419.834	117.44
420.057	101.44
420.28	115.44
420.503	97.44
420.726	102.44
420.948	108.44
421.171	100.44
421.394	94.44
421.617	77.44
421.839	93.44
422.062	111.44
422.285	114.44
422.507	115.44
422.73	112.44
422.953	130.44
423.175	122.44
423.398	91.44
423.621	89.44
423.843	103.44
424.066	93.44
424.288	102.44
424.511	104.44
424.733	92.44
424.956	97.44
425.178	91.44
425.401	91.44
425.623	87.44
425.846	107.44
426.068	102.44
426.291	112.44
426.513	87.44
426.735	87.44
426.958	91.44
427.18	103.44
427.402	93.44
427.625	102.44
427.847	103.44
428.069	102.44
428.292	102.44
428.514	113.44
428.736	102.44
428.958	99.44
429.181	90.44
429.403	92.44
429.625	100.44
429.847	111.44
430.069	101.44
430.292	115.44
430.514	98.44
430.736	98.44
430.958	95.44
431.18	77.44
431.402	93.44
431.624	86.44
431.846	100.44
432.068	102.44
432.29	98.44
432.512	97.44
432.734	73.44
432.956	95.44
433.178	101.44
433.4	103.44
433.622	105.44
433.844	101.44
434.066	96.44
434.287	94.44
434.509	101.44
434.731	95.44
434.953	97.44
435.175	89.44
435.397	100.44
435.618	92.44
435.84	95.44
436.062	85.44
436.284	104.44
436.505	104.44
436.727	94.44
436.949	100.44
437.17	90.44
437.392	100.44
437.614	88.44
437.835	98.44
438.057	97.44
438.278	97.44
438.5	95.44
438.721	108.44
438.943	104.44
439.165	117.44
439.386	121.44
439.608	105.44
439.829	112.44
440.05	123.44
440.272	116.44
440.493	109.44
440.715	100.44
440.936	98.44
441.158	90.44
441.379	100.44
441.6	104.44
441.822	105.44
442.043	123.44
442.264	129.44
442.486	119.44
442.707	111.44
442.928	105.44
443.149	89.44
443.371	96.44
443.592	96.44
443.813	101.44
444.034	111.44
444.255	97.44
444.476	112.44
444.698	104.44
444.919	115.44
445.14	247.44
445.361	146.44
445.582	99.44
445.803	92.44
446.024	97.44
446.245	105.44
446.466	103.44
446.687	110.44
446.908	92.44
447.129	77.44
447.35	95.44
447.571	94.44
447.792	96.44
448.013	104.44
448.234	99.44
448.455	93.44
448.675	115.44
448.896	76.44
449.117	107.44
449.338	135.44
449.559	155.44
449.779	109.44
450	93.44
450.221	119.44
450.442	118.44
450.662	105.44
450.883	98.44
451.104	119.44
451.324	111.44
451.545	116.44
451.766	127.44
451.986	141.44
452.207	223.44
452.428	550.44
452.648	1329.44
452.869	763.44
453.089	209.44
453.31	123.44
453.53	129.44
453.751	129.44
453.971	151.44
454.192	144.44
454.412	113.44
454.633	105.44
454.853	90.44
455.073	78.44
455.294	102.44
455.514	87.44
455.734	99.44
455.955	106.44
456.175	94.44
456.395	104.44
456.616	91.44
456.836	114.44
457.056	113.44
457.276	97.44
457.497	115.44
457.717	129.44
457.937	95.44
458.157	91.44
458.377	83.44
458.598	85.44
458.818	96.44
459.038	81.44
459.258	92.44
459.478	84.44
459.698	100.44
459.918	98.44
460.138	97.44
460.358	90.44
460.578	93.44
460.798	86.44
461.018	82.44
461.238	79.44
461.458	107.44
461.678	104.44
461.898	92.44
462.118	105.44
462.338	97.44
462.558	106.44
462.777	101.44
462.997	97.44
463.217	114.44
463.437	138.44
463.657	176.44
463.876	203.44
464.096	129.44
464.316	88.44
464.536	93.44
464.755	101.44
464.975	101.44
465.195	113.44
465.414	107.44
465.634	101.44
465.854	109.44
466.073	103.44
466.293	85.44
466.512	98.44
466.732	104.44
466.951	113.44
467.171	127.44
467.391	142.44
467.61	104.44
467.829	105.44
468.049	112.44
468.268	88.44
468.488	119.44
468.707	88.44
468.927	99.44
469.146	92.44
469.365	98.44
469.585	104.44
469.804	110.44
470.023	117.44
470.243	107.44
470.462	107.44
470.681	111.44
470.901	129.44
471.12	202.44
471.339	204.44
471.558	154.44
471.777	125.44
471.997	112.44
472.216	107.44
472.435	92.44
472.654	98.44
472.873	100.44
473.092	95.44
473.311	102.44
473.53	92.44
473.749	109.44
473.968	106.44
474.187	86.44
474.406	92.44
474.625	112.44
474.844	108.44
475.063	98.44
475.282	88.44
475.501	92.44
475.72	105.44
475.939	87.44
476.158	114.44
476.377	115.44
476.596	117.44
476.814	94.44
477.033	95.44
477.252	92.44
477.471	103.44
477.69	97.44
477.908	99.44
478.127	106.44
478.346	92.44
478.564	92.44
478.783	91.44
479.002	100.44
479.22	104.44
479.439	104.44
479.658	101.44
479.876	102.44
480.095	81.44
480.313	90.44
480.532	102.44
480.751	99.44
480.969	99.44
481.188	97.44
481.406	93.44
481.624	100.44
481.843	117.44
482.061	110.44
482.28	100.44
482.498	94.44
482.717	90.44
482.935	87.44
483.153	103.44
483.372	105.44
483.59	109.44
483.808	111.44
484.027	123.44
484.245	112.44
484.463	181.44
484.681	243.44
484.9	149.44
485.118	123.44
485.336	106.44
485.554	109.44
485.772	121.44
485.99	212.44
486.209	244.44
486.427	168.44
486.645	116.44
486.863	115.44
487.081	106.44
487.299	101.44
487.517	115.44
487.735	98.44
487.953	100.44
488.171	106.44
488.389	112.44
488.607	104.44
488.825	107.44
489.043	106.44
489.261	97.44
489.479	109.44
489.696	100.44
489.914	120.44
490.132	99.44
490.35	99.44
490.568	102.44
490.786	115.44
491.003	115.44
491.221	112.44
491.439	116.44
491.657	108.44
491.874	112.44
492.092	115.44
492.31	123.44
492.527	112.44
492.745	107.44
492.963	100.44
493.18	104.44
493.398	97.44
493.615	107.44
493.833	107.44
494.05	102.44
494.268	99.44
494.485	107.44
494.703	90.44
494.92	115.44
495.138	123.44
495.355	104.44
495.573	114.44
495.79	83.44
496.008	113.44
496.225	102.44
496.442	103.44
496.66	106.44
496.877	152.44
497.094	159.44
497.312	101.44
497.529	105.44
497.746	89.44
497.963	115.44
498.181	105.44
498.398	115.44
498.615	111.44
498.832	113.44
499.049	114.44
499.267	141.44
499.484	154.44
499.701	115.44
499.918	87.44
500.135	96.44
500.352	91.44
500.569	103.44
500.786	108.44
501.003	112.44
501.22	103.44
501.437	101.44
501.654	93.44
501.871	107.44
502.088	98.44
502.305	89.44
502.522	101.44
502.739	92.44
502.956	100.44
503.172	105.44
503.389	104.44
503.606	116.44
503.823	102.44
504.04	98.44
504.256	108.44
504.473	105.44
504.69	100.44
504.907	116.44
505.123	114.44
505.34	120.44
505.557	111.44
505.773	97.44
505.99	106.44
506.207	103.44
506.423	102.44
506.64	109.44
506.856	98.44
507.073	98.44
507.289	96.44
507.506	102.44
507.722	101.44
