Data from SnStandardFlinnAPT0064_LampEnergy10_LIBS07252019.E.O._I.C._HRD10591_15-21-19-493.txt Node
Date: Thu Jul 25 15:21:19 EDT 2019
User: cochatt
Spectrometer: HR+D1059
Trigger mode: 1
Integration Time (sec): 1.000000E-1
Scans to average: 1
Electric dark correction enabled: true
Nonlinearity correction enabled: false
Boxcar width: 0
XAxis mode: Wavelengths
Number of Pixels in Spectrum: 2048
>>>>>Begin Spectral Data<<<<<
223.165	0.88
223.4	0.88
223.635	0.88
223.869	-8.12
224.104	-4.12
224.338	-15.12
224.573	-28.12
224.808	-12.12
225.042	-0.12
225.277	-16.12
225.511	-10.12
225.746	-2.12
225.98	9.88
226.215	20.88
226.449	12.88
226.683	7.88
226.918	15.88
227.152	27.88
227.387	35.88
227.621	17.88
227.856	44.88
228.09	45.88
228.324	52.88
228.559	37.88
228.793	126.88
229.027	306.88
229.262	326.88
229.496	306.88
229.73	294.88
229.964	286.88
230.199	301.88
230.433	301.88
230.667	288.88
230.901	323.88
231.136	317.88
231.37	332.88
231.604	393.88
231.838	417.88
232.072	527.88
232.306	559.88
232.541	457.88
232.775	428.88
233.009	400.88
233.243	417.88
233.477	436.88
233.711	513.88
233.945	596.88
234.179	499.88
234.413	420.88
234.647	424.88
234.881	487.88
235.115	514.88
235.349	589.88
235.583	736.88
235.817	1006.88
236.051	949.88
236.285	646.88
236.519	528.88
236.753	487.88
236.987	514.88
237.221	532.88
237.455	508.88
237.689	451.88
237.922	456.88
238.156	477.88
238.39	500.88
238.624	494.88
238.858	507.88
239.091	487.88
239.325	476.88
239.559	499.88
239.793	500.88
240.027	535.88
240.26	550.88
240.494	550.88
240.728	563.88
240.961	587.88
241.195	630.88
241.429	657.88
241.662	707.88
241.896	773.88
242.13	918.88
242.363	1236.88
242.597	1602.88
242.83	1513.88
243.064	1537.88
243.298	1816.88
243.531	1475.88
243.765	956.88
243.998	748.88
244.232	689.88
244.465	659.88
244.699	652.88
244.932	630.88
245.166	658.88
245.399	681.88
245.633	664.88
245.866	672.88
246.099	667.88
246.333	649.88
246.566	619.88
246.8	644.88
247.033	628.88
247.266	632.88
247.5	672.88
247.733	659.88
247.966	670.88
248.2	783.88
248.433	851.88
248.666	999.88
248.899	932.88
249.133	866.88
249.366	846.88
249.599	968.88
249.832	1082.88
250.066	1095.88
250.299	863.88
250.532	791.88
250.765	778.88
250.998	752.88
251.231	723.88
251.465	731.88
251.698	739.88
251.931	743.88
252.164	732.88
252.397	766.88
252.63	784.88
252.863	777.88
253.096	782.88
253.329	762.88
253.562	741.88
253.795	779.88
254.028	795.88
254.261	807.88
254.494	891.88
254.727	979.88
254.96	1236.88
255.193	1201.88
255.426	945.88
255.659	873.88
255.892	914.88
256.124	862.88
256.357	867.88
256.59	906.88
256.823	964.88
257.056	1142.88
257.289	1336.88
257.521	1483.88
257.754	1156.88
257.987	976.88
258.22	900.88
258.452	938.88
258.685	929.88
258.918	942.88
259.151	1017.88
259.383	1080.88
259.616	1195.88
259.849	1256.88
260.081	1083.88
260.314	972.88
260.547	939.88
260.779	946.88
261.012	974.88
261.244	970.88
261.477	992.88
261.71	962.88
261.942	998.88
262.175	1044.88
262.407	1044.88
262.64	1071.88
262.872	1098.88
263.105	1129.88
263.337	1194.88
263.57	1268.88
263.802	1305.88
264.035	1315.88
264.267	1370.88
264.499	1374.88
264.732	1426.88
264.964	1458.88
265.197	1467.88
265.429	1442.88
265.661	1461.88
265.894	1578.88
266.126	1778.88
266.358	1922.88
266.591	1887.88
266.823	1621.88
267.055	1462.88
267.287	1403.88
267.52	1313.88
267.752	1311.88
267.984	1283.88
268.216	1283.88
268.448	1255.88
268.681	1243.88
268.913	1240.88
269.145	1241.88
269.377	1238.88
269.609	1244.88
269.841	1274.88
270.073	1352.88
270.306	1572.88
270.538	2161.88
270.77	3136.88
271.002	3860.88
271.234	2712.88
271.466	1857.88
271.698	1536.88
271.93	1380.88
272.162	1322.88
272.394	1286.88
272.626	1273.88
272.858	1196.88
273.09	1237.88
273.322	1206.88
273.553	1195.88
273.785	1174.88
274.017	1194.88
274.249	1225.88
274.481	1193.88
274.713	1226.88
274.945	1233.88
275.176	1205.88
275.408	1210.88
275.64	1225.88
275.872	1218.88
276.104	1262.88
276.335	1274.88
276.567	1296.88
276.799	1230.88
277.031	1318.88
277.262	1332.88
277.494	1364.88
277.726	1538.88
277.957	1812.88
278.189	2098.88
278.421	1961.88
278.652	1751.88
278.884	1667.88
279.115	1499.88
279.347	1412.88
279.579	1384.88
279.81	1403.88
280.042	1400.88
280.273	1390.88
280.505	1441.88
280.736	1470.88
280.968	1569.88
281.199	1769.88
281.431	2064.88
281.662	2112.88
281.894	1765.88
282.125	1628.88
282.356	1638.88
282.588	1668.88
282.819	1682.88
283.051	1827.88
283.282	1998.88
283.513	2430.88
283.745	3544.88
283.976	5570.88
284.207	7908.88
284.439	7124.88
284.67	4474.88
284.901	3665.88
285.132	3671.88
285.364	3455.88
285.595	2665.88
285.826	2416.88
286.057	2832.88
286.288	3816.88
286.52	5174.88
286.751	4752.88
286.982	2984.88
287.213	2294.88
287.444	1983.88
287.675	1868.88
287.906	1745.88
288.138	1707.88
288.369	1647.88
288.6	1672.88
288.831	1680.88
289.062	1660.88
289.293	1675.88
289.524	1687.88
289.755	1701.88
289.986	1712.88
290.217	1714.88
290.448	1712.88
290.679	1765.88
290.91	1759.88
291.141	1839.88
291.371	2039.88
291.602	2161.88
291.833	1946.88
292.064	1796.88
292.295	1696.88
292.526	1643.88
292.757	1650.88
292.987	1602.88
293.218	1574.88
293.449	1585.88
293.68	1577.88
293.91	1571.88
294.141	1564.88
294.372	1569.88
294.603	1546.88
294.833	1566.88
295.064	1577.88
295.295	1556.88
295.525	1528.88
295.756	1539.88
295.987	1548.88
296.217	1556.88
296.448	1574.88
296.679	1572.88
296.909	1571.88
297.14	1619.88
297.37	1628.88
297.601	1633.88
297.831	1623.88
298.062	1621.88
298.292	1619.88
298.523	1658.88
298.753	1724.88
298.984	1703.88
299.214	1721.88
299.445	1774.88
299.675	1761.88
299.905	1826.88
300.136	1947.88
300.366	2165.88
300.597	2710.88
300.827	3809.88
301.057	5101.88
301.288	5170.88
301.518	3281.88
301.748	2594.88
301.979	2311.88
302.209	2274.88
302.439	2311.88
302.669	2445.88
302.9	2917.88
303.13	4102.88
303.36	6092.88
303.59	8098.88
303.82	6994.88
304.051	4140.88
304.281	3010.88
304.511	2519.88
304.741	2336.88
304.971	2185.88
305.201	2093.88
305.431	2019.88
305.661	1960.88
305.891	1898.88
306.121	1877.88
306.352	1868.88
306.582	1824.88
306.812	1790.88
307.042	1822.88
307.272	1820.88
307.502	1814.88
307.731	1838.88
307.961	1805.88
308.191	1804.88
308.421	1815.88
308.651	1779.88
308.881	1771.88
309.111	1804.88
309.341	1793.88
309.571	1858.88
309.8	1857.88
310.03	1882.88
310.26	1874.88
310.49	1848.88
310.72	1866.88
310.949	1857.88
311.179	1899.88
311.409	1924.88
311.639	1930.88
311.868	1949.88
312.098	1913.88
312.328	1916.88
312.557	1987.88
312.787	1920.88
313.017	2003.88
313.246	1980.88
313.476	1984.88
313.706	2096.88
313.935	2185.88
314.165	2362.88
314.394	2444.88
314.624	2344.88
314.853	2156.88
315.083	2107.88
315.312	2178.88
315.542	2160.88
315.771	2206.88
316.001	2256.88
316.23	2306.88
316.46	2384.88
316.689	2674.88
316.919	3169.88
317.148	4518.88
317.377	6901.88
317.607	10331.88
317.836	10651.88
318.065	6473.88
318.295	4225.88
318.524	3379.88
318.753	2933.88
318.983	2734.88
319.212	2565.88
319.441	2478.88
319.67	2395.88
319.9	2383.88
320.129	2378.88
320.358	2362.88
320.587	2330.88
320.816	2334.88
321.046	2302.88
321.275	2321.88
321.504	2358.88
321.733	2409.88
321.962	2472.88
322.191	2578.88
322.42	2494.88
322.649	2475.88
322.878	2464.88
323.108	2488.88
323.337	2529.88
323.566	2519.88
323.795	2609.88
324.024	2674.88
324.253	2715.88
324.482	2827.88
324.71	2958.88
324.939	3137.88
325.168	3251.88
325.397	3334.88
325.626	3964.88
325.855	5513.88
326.084	8680.88
326.313	12506.88
326.542	13289.88
326.77	8995.88
326.999	5882.88
327.228	4982.88
327.457	4663.88
327.686	4844.88
327.914	5056.88
328.143	5877.88
328.372	7069.88
328.6	7759.88
328.829	6856.88
329.058	5717.88
329.287	5048.88
329.515	4538.88
329.744	4257.88
329.972	4098.88
330.201	3862.88
330.43	3723.88
330.658	3602.88
330.887	3529.88
331.115	3467.88
331.344	3491.88
331.572	3481.88
331.801	3510.88
332.03	3532.88
332.258	3545.88
332.486	3758.88
332.715	4241.88
332.943	5264.88
333.172	6535.88
333.4	6435.88
333.629	4960.88
333.857	4542.88
334.085	4448.88
334.314	4605.88
334.542	5125.88
334.771	6012.88
334.999	7344.88
335.227	9204.88
335.455	10346.88
335.684	9352.88
335.912	7640.88
336.14	6496.88
336.369	5691.88
336.597	5166.88
336.825	4786.88
337.053	4490.88
337.281	4215.88
337.51	4014.88
337.738	3878.88
337.966	3665.88
338.194	3568.88
338.422	3470.88
338.65	3411.88
338.878	3336.88
339.106	3234.88
339.334	3198.88
339.562	3145.88
339.79	3110.88
340.018	3082.88
340.246	3034.88
340.474	3039.88
340.702	2994.88
340.93	3040.88
341.158	2996.88
341.386	2992.88
341.614	2996.88
341.842	2910.88
342.07	2887.88
342.298	2783.88
342.526	2817.88
342.754	2752.88
342.981	2728.88
343.209	2681.88
343.437	2788.88
343.665	2826.88
343.893	2811.88
344.12	2825.88
344.348	2838.88
344.576	2746.88
344.804	2721.88
345.031	2632.88
345.259	2616.88
345.487	2561.88
345.714	2553.88
345.942	2579.88
346.17	2530.88
346.397	2524.88
346.625	2545.88
346.853	2535.88
347.08	2556.88
347.308	2538.88
347.535	2564.88
347.763	2504.88
347.99	2505.88
348.218	2504.88
348.445	2431.88
348.673	2419.88
348.9	2474.88
349.128	2454.88
349.355	2452.88
349.583	2475.88
349.81	2403.88
350.037	2368.88
350.265	2391.88
350.492	2423.88
350.72	2382.88
350.947	2386.88
351.174	2433.88
351.402	2387.88
351.629	2375.88
351.856	2407.88
352.083	2378.88
352.311	2361.88
352.538	2409.88
352.765	2377.88
352.992	2374.88
353.22	2363.88
353.447	2306.88
353.674	2388.88
353.901	2347.88
354.128	2458.88
354.355	2411.88
354.583	2399.88
354.81	2410.88
355.037	2384.88
355.264	2407.88
355.491	2436.88
355.718	2420.88
355.945	2463.88
356.172	2471.88
356.399	2500.88
356.626	2470.88
356.853	2523.88
357.08	2522.88
357.307	2531.88
357.534	2582.88
357.761	2570.88
357.988	2608.88
358.215	2586.88
358.441	2542.88
358.668	2546.88
358.895	2555.88
359.122	2547.88
359.349	2543.88
359.576	2546.88
359.802	2517.88
360.029	2525.88
360.256	2534.88
360.483	2524.88
360.709	2495.88
360.936	2560.88
361.163	2566.88
361.39	2537.88
361.616	2517.88
361.843	2583.88
362.07	2561.88
362.296	2566.88
362.523	2523.88
362.749	2588.88
362.976	2534.88
363.203	2549.88
363.429	2563.88
363.656	2588.88
363.882	2562.88
364.109	2561.88
364.335	2534.88
364.562	2523.88
364.788	2546.88
365.015	2568.88
365.241	2712.88
365.468	2815.88
365.694	2952.88
365.92	2828.88
366.147	2675.88
366.373	2597.88
366.599	2592.88
366.826	2575.88
367.052	2603.88
367.278	2647.88
367.505	2623.88
367.731	2636.88
367.957	2655.88
368.184	2619.88
368.41	2614.88
368.636	2641.88
368.862	2667.88
369.089	2658.88
369.315	2670.88
369.541	2625.88
369.767	2653.88
369.993	2635.88
370.219	2590.88
370.445	2616.88
370.672	2652.88
370.898	2708.88
371.124	2697.88
371.35	2752.88
371.576	2722.88
371.802	2732.88
372.028	2736.88
372.254	2732.88
372.48	2752.88
372.706	2818.88
372.932	2815.88
373.158	2788.88
373.384	2792.88
373.61	2779.88
373.835	2804.88
374.061	2818.88
374.287	2809.88
374.513	2864.88
374.739	2894.88
374.965	2882.88
375.191	2950.88
375.416	2869.88
375.642	2876.88
375.868	2832.88
376.094	2810.88
376.319	2831.88
376.545	2836.88
376.771	2790.88
376.997	2763.88
377.222	2733.88
377.448	2719.88
377.674	2737.88
377.899	2719.88
378.125	2719.88
378.35	2726.88
378.576	2782.88
378.802	2732.88
379.027	2778.88
379.253	2880.88
379.478	3046.88
379.704	3555.88
379.929	5111.88
380.155	7794.88
380.38	8463.88
380.606	5143.88
380.831	3665.88
381.057	3213.88
381.282	2966.88
381.507	2844.88
381.733	2790.88
381.958	2736.88
382.184	2746.88
382.409	2739.88
382.634	2694.88
382.86	2718.88
383.085	2653.88
383.31	2718.88
383.535	2662.88
383.761	2680.88
383.986	2727.88
384.211	2752.88
384.436	2795.88
384.662	2739.88
384.887	2802.88
385.112	2770.88
385.337	2780.88
385.562	2782.88
385.787	2751.88
386.013	2770.88
386.238	2787.88
386.463	2763.88
386.688	2762.88
386.913	2748.88
387.138	2722.88
387.363	2758.88
387.588	2748.88
387.813	2745.88
388.038	2721.88
388.263	2715.88
388.488	2740.88
388.713	2782.88
388.938	2787.88
389.163	2713.88
389.387	2798.88
389.612	2771.88
389.837	2729.88
390.062	2766.88
390.287	2820.88
390.512	2831.88
390.736	2798.88
390.961	2840.88
391.186	2865.88
391.411	2879.88
391.636	2908.88
391.86	2876.88
392.085	2928.88
392.31	2906.88
392.534	2899.88
392.759	2853.88
392.984	2805.88
393.208	2831.88
393.433	2795.88
393.658	2834.88
393.882	2805.88
394.107	2830.88
394.331	2822.88
394.556	2832.88
394.78	2808.88
395.005	2831.88
395.229	2787.88
395.454	2886.88
395.678	2905.88
395.903	2879.88
396.127	2874.88
396.352	2872.88
396.576	2822.88
396.801	2855.88
397.025	2939.88
397.249	2880.88
397.474	2894.88
397.698	2921.88
397.922	2908.88
398.147	2915.88
398.371	2971.88
398.595	3029.88
398.82	3055.88
399.044	3242.88
399.268	3334.88
399.492	3541.88
399.717	3627.88
399.941	3624.88
400.165	3544.88
400.389	3368.88
400.613	3236.88
400.837	3194.88
401.062	3111.88
401.286	3118.88
401.51	3072.88
401.734	3030.88
401.958	3090.88
402.182	3052.88
402.406	3087.88
402.63	3069.88
402.854	3092.88
403.078	3154.88
403.302	3142.88
403.526	3180.88
403.75	3194.88
403.974	3192.88
404.198	3128.88
404.422	3194.88
404.645	3227.88
404.869	3162.88
405.093	3166.88
405.317	3173.88
405.541	3173.88
405.765	3252.88
405.988	3266.88
406.212	3243.88
406.436	3220.88
406.66	3284.88
406.883	3303.88
407.107	3369.88
407.331	3391.88
407.555	3462.88
407.778	3476.88
408.002	3401.88
408.226	3411.88
408.449	3405.88
408.673	3335.88
408.896	3247.88
409.12	3216.88
409.344	3229.88
409.567	3199.88
409.791	3219.88
410.014	3142.88
410.238	3152.88
410.461	3158.88
410.685	3148.88
410.908	3146.88
411.132	3133.88
411.355	3050.88
411.578	3108.88
411.802	3042.88
412.025	3062.88
412.249	3076.88
412.472	3114.88
412.695	3045.88
412.919	2987.88
413.142	3024.88
413.365	2950.88
413.589	2962.88
413.812	2962.88
414.035	2994.88
414.258	2940.88
414.482	2988.88
414.705	3008.88
414.928	2974.88
415.151	2954.88
415.374	2999.88
415.597	2957.88
415.821	2887.88
416.044	2850.88
416.267	2848.88
416.49	2870.88
416.713	2828.88
416.936	2869.88
417.159	2885.88
417.382	2852.88
417.605	2798.88
417.828	2839.88
418.051	2910.88
418.274	2868.88
418.497	2859.88
418.72	2982.88
418.943	2877.88
419.166	3060.88
419.389	3233.88
419.611	3147.88
419.834	3080.88
420.057	2990.88
420.28	2913.88
420.503	2902.88
420.726	2834.88
420.948	2835.88
421.171	2847.88
421.394	2879.88
421.617	2860.88
421.839	2870.88
422.062	2885.88
422.285	2794.88
422.507	2951.88
422.73	2896.88
422.953	2940.88
423.175	2939.88
423.398	2934.88
423.621	2899.88
423.843	2909.88
424.066	2894.88
424.288	2867.88
424.511	2849.88
424.733	2844.88
424.956	2841.88
425.178	2813.88
425.401	2821.88
425.623	2834.88
425.846	2823.88
426.068	2779.88
426.291	2761.88
426.513	2776.88
426.735	2727.88
426.958	2714.88
427.18	2729.88
427.402	2734.88
427.625	2738.88
427.847	2686.88
428.069	2619.88
428.292	2655.88
428.514	2649.88
428.736	2718.88
428.958	2689.88
429.181	2619.88
429.403	2614.88
429.625	2640.88
429.847	2647.88
430.069	2726.88
430.292	2790.88
430.514	2862.88
430.736	2849.88
430.958	2739.88
431.18	2663.88
431.402	2635.88
431.624	2600.88
431.846	2588.88
432.068	2633.88
432.29	2605.88
432.512	2606.88
432.734	2653.88
432.956	2614.88
433.178	2624.88
433.4	2634.88
433.622	2626.88
433.844	2680.88
434.066	2657.88
434.287	2640.88
434.509	2724.88
434.731	2710.88
434.953	2769.88
435.175	2753.88
435.397	2776.88
435.618	2702.88
435.84	2635.88
436.062	2560.88
436.284	2666.88
436.505	2601.88
436.727	2603.88
436.949	2595.88
437.17	2628.88
437.392	2584.88
437.614	2548.88
437.835	2481.88
438.057	2502.88
438.278	2526.88
438.5	2546.88
438.721	2566.88
438.943	2693.88
439.165	2699.88
439.386	2713.88
439.608	2713.88
439.829	2716.88
440.05	2800.88
440.272	2849.88
440.493	2726.88
440.715	2722.88
440.936	2704.88
441.158	2760.88
441.379	2742.88
441.6	2890.88
441.822	2946.88
442.043	3081.88
442.264	3122.88
442.486	3013.88
442.707	2904.88
442.928	2862.88
443.149	2847.88
443.371	2818.88
443.592	2810.88
443.813	2844.88
444.034	2806.88
444.255	2878.88
444.476	2941.88
444.698	2993.88
444.919	3029.88
445.14	3055.88
445.361	2992.88
445.582	2880.88
445.803	2796.88
446.024	2873.88
446.245	2777.88
446.466	2775.88
446.687	2743.88
446.908	2753.88
447.129	2654.88
447.35	2674.88
447.571	2601.88
447.792	2577.88
448.013	2641.88
448.234	2572.88
448.455	2576.88
448.675	2613.88
448.896	2661.88
449.117	2773.88
449.338	2909.88
449.559	3098.88
449.779	2826.88
450	2600.88
450.221	2578.88
450.442	2523.88
450.662	2489.88
450.883	2516.88
451.104	2545.88
451.324	2525.88
451.545	2509.88
451.766	2547.88
451.986	2572.88
452.207	2850.88
452.428	3593.88
452.648	5388.88
452.869	4483.88
453.089	3138.88
453.31	2960.88
453.53	2953.88
453.751	3037.88
453.971	3158.88
454.192	3080.88
454.412	2731.88
454.633	2548.88
454.853	2523.88
455.073	2450.88
455.294	2426.88
455.514	2435.88
455.734	2418.88
455.955	2354.88
456.175	2396.88
456.395	2420.88
456.616	2422.88
456.836	2475.88
457.056	2508.88
457.276	2456.88
457.497	2552.88
457.717	2651.88
457.937	2602.88
458.157	2536.88
458.377	2524.88
458.598	2569.88
458.818	2621.88
459.038	2656.88
459.258	2593.88
459.478	2649.88
459.698	2657.88
459.918	2707.88
460.138	2699.88
460.358	2827.88
460.578	2873.88
460.798	2857.88
461.018	2854.88
461.238	2846.88
461.458	2922.88
461.678	2922.88
461.898	2967.88
462.118	2964.88
462.338	2994.88
462.558	3067.88
462.777	3112.88
462.997	3218.88
463.217	3346.88
463.437	3492.88
463.657	3604.88
463.876	3539.88
464.096	3347.88
464.316	3176.88
464.536	3135.88
464.755	3071.88
464.975	2999.88
465.195	2903.88
465.414	2853.88
465.634	2734.88
465.854	2704.88
466.073	2653.88
466.293	2678.88
466.512	2654.88
466.732	2692.88
466.951	2823.88
467.171	3039.88
467.391	2982.88
467.61	2714.88
467.829	2616.88
468.049	2596.88
468.268	2562.88
468.488	2584.88
468.707	2524.88
468.927	2593.88
469.146	2606.88
469.365	2609.88
469.585	2574.88
469.804	2664.88
470.023	2730.88
470.243	2694.88
470.462	2831.88
470.681	2989.88
470.901	3346.88
471.12	3775.88
471.339	3712.88
471.558	3136.88
471.777	2887.88
471.997	2772.88
472.216	2725.88
472.435	2638.88
472.654	2567.88
472.873	2570.88
473.092	2588.88
473.311	2584.88
473.53	2642.88
473.749	2697.88
473.968	2787.88
474.187	2615.88
474.406	2590.88
474.625	2598.88
474.844	2586.88
475.063	2555.88
475.282	2623.88
475.501	2584.88
475.72	2642.88
475.939	2644.88
476.158	2701.88
476.377	2742.88
476.596	2775.88
476.814	2716.88
477.033	2765.88
477.252	2759.88
477.471	2804.88
477.69	2866.88
477.908	2930.88
478.127	2995.88
478.346	2973.88
478.564	3000.88
478.783	2964.88
479.002	3028.88
479.22	3089.88
479.439	3107.88
479.658	3059.88
479.876	3096.88
480.095	3130.88
480.313	3212.88
480.532	3218.88
480.751	3232.88
480.969	3205.88
481.188	3155.88
481.406	3141.88
481.624	3155.88
481.843	3178.88
482.061	3187.88
482.28	3174.88
482.498	3147.88
482.717	3101.88
482.935	3150.88
483.153	3204.88
483.372	3256.88
483.59	3254.88
483.808	3334.88
484.027	3414.88
484.245	3551.88
484.463	4054.88
484.681	4472.88
484.9	4060.88
485.118	3814.88
485.336	3704.88
485.554	3865.88
485.772	3991.88
485.99	4562.88
486.209	4869.88
486.427	4114.88
486.645	3632.88
486.863	3518.88
487.081	3454.88
487.299	3404.88
487.517	3371.88
487.735	3409.88
487.953	3379.88
