Data from SnStandardFlinnAPT0064_LampEnergy10_LIBS07252019.E.O._I.C._HRD10591_15-20-44-493.txt Node
Date: Thu Jul 25 15:20:44 EDT 2019
User: cochatt
Spectrometer: HR+D1059
Trigger mode: 1
Integration Time (sec): 1.000000E-1
Scans to average: 1
Electric dark correction enabled: true
Nonlinearity correction enabled: false
Boxcar width: 0
XAxis mode: Wavelengths
Number of Pixels in Spectrum: 2048
>>>>>Begin Spectral Data<<<<<
223.165	-21.12
223.4	-21.12
223.635	-21.12
223.869	-28.12
224.104	-21.12
224.338	-13.12
224.573	-13.12
224.808	-15.12
225.042	-2.12
225.277	-3.12
225.511	-0.12
225.746	8.88
225.98	3.88
226.215	4.88
226.449	26.88
226.683	32.88
226.918	17.88
227.152	21.88
227.387	15.88
227.621	37.88
227.856	35.88
228.09	47.88
228.324	41.88
228.559	46.88
228.793	122.88
229.027	295.88
229.262	335.88
229.496	312.88
229.73	307.88
229.964	302.88
230.199	293.88
230.433	312.88
230.667	327.88
230.901	326.88
231.136	325.88
231.37	362.88
231.604	404.88
231.838	436.88
232.072	534.88
232.306	563.88
232.541	487.88
232.775	419.88
233.009	416.88
233.243	419.88
233.477	456.88
233.711	538.88
233.945	597.88
234.179	512.88
234.413	461.88
234.647	453.88
234.881	471.88
235.115	526.88
235.349	636.88
235.583	782.88
235.817	1033.88
236.051	1030.88
236.285	689.88
236.519	530.88
236.753	506.88
236.987	515.88
237.221	554.88
237.455	513.88
237.689	476.88
237.922	470.88
238.156	478.88
238.39	508.88
238.624	509.88
238.858	516.88
239.091	499.88
239.325	518.88
239.559	494.88
239.793	505.88
240.027	506.88
240.26	526.88
240.494	560.88
240.728	575.88
240.961	635.88
241.195	658.88
241.429	712.88
241.662	718.88
241.896	792.88
242.13	953.88
242.363	1282.88
242.597	1701.88
242.83	1626.88
243.064	1604.88
243.298	1906.88
243.531	1602.88
243.765	1006.88
243.998	794.88
244.232	719.88
244.465	681.88
244.699	659.88
244.932	683.88
245.166	674.88
245.399	667.88
245.633	679.88
245.866	663.88
246.099	677.88
246.333	652.88
246.566	633.88
246.8	650.88
247.033	659.88
247.266	658.88
247.5	671.88
247.733	658.88
247.966	699.88
248.2	768.88
248.433	877.88
248.666	1037.88
248.899	998.88
249.133	881.88
249.366	888.88
249.599	969.88
249.832	1137.88
250.066	1106.88
250.299	864.88
250.532	809.88
250.765	754.88
250.998	754.88
251.231	754.88
251.465	754.88
251.698	740.88
251.931	750.88
252.164	734.88
252.397	755.88
252.63	766.88
252.863	818.88
253.096	773.88
253.329	817.88
253.562	787.88
253.795	798.88
254.028	798.88
254.261	819.88
254.494	891.88
254.727	1075.88
254.96	1278.88
255.193	1244.88
255.426	978.88
255.659	862.88
255.892	881.88
256.124	856.88
256.357	865.88
256.59	919.88
256.823	978.88
257.056	1142.88
257.289	1399.88
257.521	1497.88
257.754	1197.88
257.987	982.88
258.22	940.88
258.452	918.88
258.685	925.88
258.918	927.88
259.151	1009.88
259.383	1075.88
259.616	1223.88
259.849	1299.88
260.081	1130.88
260.314	994.88
260.547	1002.88
260.779	950.88
261.012	928.88
261.244	974.88
261.477	953.88
261.71	993.88
261.942	987.88
262.175	1009.88
262.407	1039.88
262.64	1049.88
262.872	1114.88
263.105	1142.88
263.337	1204.88
263.57	1262.88
263.802	1316.88
264.035	1324.88
264.267	1323.88
264.499	1389.88
264.732	1442.88
264.964	1481.88
265.197	1411.88
265.429	1411.88
265.661	1470.88
265.894	1594.88
266.126	1794.88
266.358	2000.88
266.591	1930.88
266.823	1595.88
267.055	1467.88
267.287	1373.88
267.52	1331.88
267.752	1314.88
267.984	1253.88
268.216	1259.88
268.448	1264.88
268.681	1259.88
268.913	1267.88
269.145	1233.88
269.377	1224.88
269.609	1234.88
269.841	1300.88
270.073	1367.88
270.306	1626.88
270.538	2200.88
270.77	3292.88
271.002	4063.88
271.234	2896.88
271.466	1896.88
271.698	1537.88
271.93	1456.88
272.162	1367.88
272.394	1344.88
272.626	1238.88
272.858	1256.88
273.09	1227.88
273.322	1228.88
273.553	1176.88
273.785	1214.88
274.017	1236.88
274.249	1202.88
274.481	1223.88
274.713	1211.88
274.945	1182.88
275.176	1233.88
275.408	1245.88
275.64	1212.88
275.872	1241.88
276.104	1242.88
276.335	1287.88
276.567	1286.88
276.799	1284.88
277.031	1363.88
277.262	1348.88
277.494	1413.88
277.726	1593.88
277.957	1891.88
278.189	2137.88
278.421	2008.88
278.652	1751.88
278.884	1654.88
279.115	1530.88
279.347	1429.88
279.579	1390.88
279.81	1400.88
280.042	1416.88
280.273	1460.88
280.505	1492.88
280.736	1505.88
280.968	1598.88
281.199	1791.88
281.431	2046.88
281.662	2114.88
281.894	1811.88
282.125	1624.88
282.356	1675.88
282.588	1674.88
282.819	1746.88
283.051	1835.88
283.282	2014.88
283.513	2560.88
283.745	3699.88
283.976	5870.88
284.207	8430.88
284.439	7632.88
284.67	4686.88
284.901	3809.88
285.132	3846.88
285.364	3648.88
285.595	2768.88
285.826	2507.88
286.057	2942.88
286.288	4006.88
286.52	5400.88
286.751	5001.88
286.982	3111.88
287.213	2304.88
287.444	2030.88
287.675	1852.88
287.906	1826.88
288.138	1752.88
288.369	1721.88
288.6	1692.88
288.831	1695.88
289.062	1638.88
289.293	1684.88
289.524	1714.88
289.755	1701.88
289.986	1736.88
290.217	1712.88
290.448	1740.88
290.679	1730.88
290.91	1776.88
291.141	1889.88
291.371	2052.88
291.602	2139.88
291.833	1974.88
292.064	1774.88
292.295	1723.88
292.526	1692.88
292.757	1645.88
292.987	1618.88
293.218	1598.88
293.449	1627.88
293.68	1600.88
293.91	1627.88
294.141	1559.88
294.372	1580.88
294.603	1575.88
294.833	1591.88
295.064	1555.88
295.295	1566.88
295.525	1595.88
295.756	1546.88
295.987	1568.88
296.217	1566.88
296.448	1602.88
296.679	1599.88
296.909	1562.88
297.14	1602.88
297.37	1635.88
297.601	1632.88
297.831	1646.88
298.062	1662.88
298.292	1643.88
298.523	1703.88
298.753	1702.88
298.984	1689.88
299.214	1739.88
299.445	1751.88
299.675	1768.88
299.905	1861.88
300.136	1961.88
300.366	2186.88
300.597	2784.88
300.827	3990.88
301.057	5371.88
301.288	5379.88
301.518	3431.88
301.748	2610.88
301.979	2399.88
302.209	2322.88
302.439	2286.88
302.669	2534.88
302.9	3047.88
303.13	4235.88
303.36	6406.88
303.59	8491.88
303.82	7453.88
304.051	4292.88
304.281	3094.88
304.511	2571.88
304.741	2381.88
304.971	2218.88
305.201	2077.88
305.431	2016.88
305.661	1973.88
305.891	1933.88
306.121	1903.88
306.352	1911.88
306.582	1863.88
306.812	1864.88
307.042	1869.88
307.272	1835.88
307.502	1816.88
307.731	1827.88
307.961	1851.88
308.191	1811.88
308.421	1843.88
308.651	1824.88
308.881	1781.88
309.111	1816.88
309.341	1810.88
309.571	1876.88
309.8	1834.88
310.03	1861.88
310.26	1854.88
310.49	1889.88
310.72	1883.88
310.949	1899.88
311.179	1912.88
311.409	1914.88
311.639	1919.88
311.868	1953.88
312.098	1952.88
312.328	1960.88
312.557	1988.88
312.787	1984.88
313.017	2003.88
313.246	2064.88
313.476	2079.88
313.706	2093.88
313.935	2190.88
314.165	2378.88
314.394	2500.88
314.624	2384.88
314.853	2163.88
315.083	2168.88
315.312	2164.88
315.542	2228.88
315.771	2232.88
316.001	2274.88
316.23	2320.88
316.46	2405.88
316.689	2651.88
316.919	3273.88
317.148	4691.88
317.377	7382.88
317.607	10870.88
317.836	11256.88
318.065	6774.88
318.295	4312.88
318.524	3423.88
318.753	3014.88
318.983	2757.88
319.212	2575.88
319.441	2505.88
319.67	2468.88
319.9	2424.88
320.129	2394.88
320.358	2362.88
320.587	2353.88
320.816	2325.88
321.046	2391.88
321.275	2371.88
321.504	2390.88
321.733	2431.88
321.962	2522.88
322.191	2584.88
322.42	2523.88
322.649	2552.88
322.878	2492.88
323.108	2495.88
323.337	2549.88
323.566	2548.88
323.795	2664.88
324.024	2707.88
324.253	2706.88
324.482	2883.88
324.71	3040.88
324.939	3204.88
325.168	3283.88
325.397	3406.88
325.626	4110.88
325.855	5755.88
326.084	9113.88
326.313	13070.88
326.542	13779.88
326.77	9362.88
326.999	6014.88
327.228	5025.88
327.457	4865.88
327.686	4935.88
327.914	5259.88
328.143	6128.88
328.372	7338.88
328.6	8144.88
328.829	7217.88
329.058	5914.88
329.287	5136.88
329.515	4714.88
329.744	4321.88
329.972	4137.88
330.201	3945.88
330.43	3798.88
330.658	3632.88
330.887	3620.88
331.115	3526.88
331.344	3530.88
331.572	3555.88
331.801	3538.88
332.03	3563.88
332.258	3626.88
332.486	3846.88
332.715	4325.88
332.943	5296.88
333.172	6782.88
333.4	6727.88
333.629	5105.88
333.857	4596.88
334.085	4562.88
334.314	4806.88
334.542	5245.88
334.771	6174.88
334.999	7719.88
335.227	9643.88
335.455	10850.88
335.684	9768.88
335.912	7998.88
336.14	6630.88
336.369	5817.88
336.597	5399.88
336.825	4965.88
337.053	4610.88
337.281	4304.88
337.51	4102.88
337.738	3869.88
337.966	3753.88
338.194	3598.88
338.422	3494.88
338.65	3395.88
338.878	3296.88
339.106	3307.88
339.334	3251.88
339.562	3166.88
339.79	3094.88
340.018	3088.88
340.246	3032.88
340.474	3026.88
340.702	3053.88
340.93	3024.88
341.158	3008.88
341.386	3002.88
341.614	2960.88
341.842	2903.88
342.07	2906.88
342.298	2831.88
342.526	2768.88
342.754	2723.88
342.981	2712.88
343.209	2750.88
343.437	2749.88
343.665	2847.88
343.893	2874.88
344.12	2874.88
344.348	2743.88
344.576	2754.88
344.804	2715.88
345.031	2672.88
345.259	2614.88
345.487	2626.88
345.714	2582.88
345.942	2557.88
346.17	2596.88
346.397	2561.88
346.625	2548.88
346.853	2550.88
347.08	2523.88
347.308	2564.88
347.535	2595.88
347.763	2599.88
347.99	2519.88
348.218	2547.88
348.445	2482.88
348.673	2485.88
348.9	2464.88
349.128	2469.88
349.355	2451.88
349.583	2432.88
349.81	2456.88
350.037	2402.88
350.265	2387.88
350.492	2402.88
350.72	2411.88
350.947	2414.88
351.174	2449.88
351.402	2415.88
351.629	2425.88
351.856	2409.88
352.083	2421.88
352.311	2399.88
352.538	2416.88
352.765	2404.88
352.992	2418.88
353.22	2404.88
353.447	2415.88
353.674	2382.88
353.901	2392.88
354.128	2434.88
354.355	2390.88
354.583	2409.88
354.81	2456.88
355.037	2406.88
355.264	2437.88
355.491	2468.88
355.718	2449.88
355.945	2435.88
356.172	2508.88
356.399	2455.88
356.626	2495.88
356.853	2521.88
357.08	2529.88
357.307	2579.88
357.534	2620.88
357.761	2640.88
357.988	2611.88
358.215	2606.88
358.441	2563.88
358.668	2522.88
358.895	2566.88
359.122	2547.88
359.349	2574.88
359.576	2533.88
359.802	2545.88
360.029	2542.88
360.256	2573.88
360.483	2559.88
360.709	2548.88
360.936	2573.88
361.163	2545.88
361.39	2564.88
361.616	2546.88
361.843	2583.88
362.07	2549.88
362.296	2600.88
362.523	2611.88
362.749	2537.88
362.976	2546.88
363.203	2572.88
363.429	2552.88
363.656	2561.88
363.882	2535.88
364.109	2583.88
364.335	2515.88
364.562	2564.88
364.788	2572.88
365.015	2607.88
365.241	2661.88
365.468	2840.88
365.694	2968.88
365.92	2853.88
366.147	2598.88
366.373	2614.88
366.599	2612.88
366.826	2638.88
367.052	2563.88
367.278	2609.88
367.505	2614.88
367.731	2628.88
367.957	2628.88
368.184	2626.88
368.41	2706.88
368.636	2661.88
368.862	2661.88
369.089	2659.88
369.315	2677.88
369.541	2654.88
369.767	2672.88
369.993	2640.88
370.219	2652.88
370.445	2653.88
370.672	2682.88
370.898	2651.88
371.124	2712.88
371.35	2759.88
371.576	2714.88
371.802	2748.88
372.028	2757.88
372.254	2707.88
372.48	2796.88
372.706	2818.88
372.932	2809.88
373.158	2806.88
373.384	2806.88
373.61	2799.88
373.835	2838.88
374.061	2812.88
374.287	2804.88
374.513	2844.88
374.739	2943.88
374.965	2900.88
375.191	2868.88
375.416	2867.88
375.642	2858.88
375.868	2855.88
376.094	2868.88
376.319	2786.88
376.545	2821.88
376.771	2734.88
376.997	2755.88
377.222	2772.88
377.448	2782.88
377.674	2775.88
377.899	2745.88
378.125	2766.88
378.35	2738.88
378.576	2771.88
378.802	2782.88
379.027	2816.88
379.253	2931.88
379.478	3120.88
379.704	3620.88
379.929	5260.88
380.155	8122.88
380.38	8852.88
380.606	5392.88
380.831	3718.88
381.057	3246.88
381.282	2977.88
381.507	2908.88
381.733	2857.88
381.958	2766.88
382.184	2712.88
382.409	2693.88
382.634	2721.88
382.86	2667.88
383.085	2680.88
383.31	2675.88
383.535	2705.88
383.761	2701.88
383.986	2698.88
384.211	2729.88
384.436	2770.88
384.662	2812.88
384.887	2824.88
385.112	2788.88
385.337	2801.88
385.562	2775.88
385.787	2800.88
386.013	2782.88
386.238	2816.88
386.463	2774.88
386.688	2819.88
386.913	2759.88
387.138	2762.88
387.363	2758.88
387.588	2753.88
387.813	2785.88
388.038	2724.88
388.263	2699.88
388.488	2788.88
388.713	2822.88
388.938	2759.88
389.163	2788.88
389.387	2778.88
389.612	2735.88
389.837	2810.88
390.062	2747.88
390.287	2794.88
390.512	2832.88
390.736	2859.88
390.961	2880.88
391.186	2900.88
391.411	2863.88
391.636	2879.88
391.86	2941.88
392.085	2938.88
392.31	2908.88
392.534	2885.88
392.759	2864.88
392.984	2768.88
393.208	2867.88
393.433	2869.88
393.658	2788.88
393.882	2827.88
394.107	2801.88
394.331	2831.88
394.556	2823.88
394.78	2896.88
395.005	2847.88
395.229	2820.88
395.454	2926.88
395.678	2902.88
395.903	2901.88
396.127	2882.88
396.352	2860.88
396.576	2846.88
396.801	2885.88
397.025	2914.88
397.249	2902.88
397.474	2933.88
397.698	2909.88
397.922	2937.88
398.147	2920.88
398.371	2972.88
398.595	3033.88
398.82	3076.88
399.044	3208.88
399.268	3362.88
399.492	3590.88
399.717	3698.88
399.941	3646.88
400.165	3526.88
400.389	3361.88
400.613	3254.88
400.837	3194.88
401.062	3147.88
401.286	3102.88
401.51	3051.88
401.734	3011.88
401.958	3012.88
402.182	3055.88
402.406	3003.88
402.63	3101.88
402.854	3090.88
403.078	3122.88
403.302	3157.88
403.526	3142.88
403.75	3177.88
403.974	3218.88
404.198	3142.88
404.422	3156.88
404.645	3178.88
404.869	3202.88
405.093	3138.88
405.317	3184.88
405.541	3258.88
405.765	3287.88
405.988	3309.88
406.212	3269.88
406.436	3290.88
406.66	3314.88
406.883	3217.88
407.107	3374.88
407.331	3443.88
407.555	3434.88
407.778	3489.88
408.002	3435.88
408.226	3395.88
408.449	3403.88
408.673	3337.88
408.896	3247.88
409.12	3238.88
409.344	3245.88
409.567	3195.88
409.791	3159.88
410.014	3172.88
410.238	3155.88
410.461	3176.88
410.685	3137.88
410.908	3176.88
411.132	3088.88
411.355	3048.88
411.578	3000.88
411.802	3029.88
412.025	3017.88
412.249	3050.88
412.472	3084.88
412.695	3011.88
412.919	3048.88
413.142	3006.88
413.365	2998.88
413.589	3047.88
413.812	2980.88
414.035	3006.88
414.258	3035.88
414.482	3018.88
414.705	3054.88
414.928	3010.88
415.151	2983.88
415.374	2968.88
415.597	2928.88
415.821	2876.88
416.044	2878.88
416.267	2904.88
416.49	2873.88
416.713	2784.88
416.936	2929.88
417.159	2824.88
417.382	2808.88
417.605	2866.88
417.828	2880.88
418.051	2915.88
418.274	2954.88
418.497	2881.88
418.72	2961.88
418.943	2919.88
419.166	3079.88
419.389	3248.88
419.611	3150.88
419.834	3085.88
420.057	3017.88
420.28	2919.88
420.503	2891.88
420.726	2888.88
420.948	2832.88
421.171	2887.88
421.394	2850.88
421.617	2862.88
421.839	2892.88
422.062	2889.88
422.285	2822.88
422.507	2902.88
422.73	2918.88
422.953	2947.88
423.175	2990.88
423.398	2942.88
423.621	2850.88
423.843	2865.88
424.066	2906.88
424.288	2876.88
424.511	2853.88
424.733	2891.88
424.956	2851.88
425.178	2834.88
425.401	2857.88
425.623	2848.88
425.846	2772.88
426.068	2787.88
426.291	2734.88
426.513	2784.88
426.735	2734.88
426.958	2774.88
427.18	2691.88
427.402	2797.88
427.625	2770.88
427.847	2690.88
428.069	2693.88
428.292	2715.88
428.514	2697.88
428.736	2640.88
428.958	2706.88
429.181	2586.88
429.403	2656.88
429.625	2640.88
429.847	2672.88
430.069	2705.88
430.292	2823.88
430.514	2936.88
430.736	2914.88
430.958	2742.88
431.18	2619.88
431.402	2691.88
431.624	2600.88
431.846	2634.88
432.068	2609.88
432.29	2640.88
432.512	2634.88
432.734	2677.88
432.956	2630.88
433.178	2684.88
433.4	2626.88
433.622	2630.88
433.844	2641.88
434.066	2651.88
434.287	2635.88
434.509	2692.88
434.731	2761.88
434.953	2787.88
435.175	2790.88
435.397	2770.88
435.618	2675.88
435.84	2660.88
436.062	2670.88
436.284	2640.88
436.505	2641.88
436.727	2619.88
436.949	2635.88
437.17	2578.88
437.392	2576.88
437.614	2594.88
437.835	2515.88
438.057	2549.88
438.278	2548.88
438.5	2516.88
438.721	2627.88
438.943	2724.88
439.165	2713.88
439.386	2734.88
439.608	2729.88
439.829	2746.88
440.05	2875.88
440.272	2935.88
440.493	2737.88
440.715	2703.88
440.936	2790.88
441.158	2755.88
441.379	2822.88
441.6	2870.88
441.822	2937.88
442.043	3139.88
442.264	3235.88
442.486	2969.88
442.707	2863.88
442.928	2834.88
443.149	2825.88
443.371	2772.88
443.592	2817.88
443.813	2837.88
444.034	2832.88
444.255	2877.88
444.476	2968.88
444.698	2996.88
444.919	3007.88
445.14	3137.88
445.361	2992.88
445.582	2826.88
445.803	2832.88
446.024	2840.88
446.245	2808.88
446.466	2818.88
446.687	2762.88
446.908	2754.88
447.129	2667.88
447.35	2708.88
447.571	2650.88
447.792	2582.88
448.013	2618.88
448.234	2579.88
448.455	2610.88
448.675	2675.88
448.896	2721.88
449.117	2791.88
449.338	3007.88
449.559	3234.88
449.779	2896.88
450	2673.88
450.221	2580.88
450.442	2574.88
450.662	2554.88
450.883	2520.88
451.104	2534.88
451.324	2584.88
451.545	2521.88
451.766	2566.88
451.986	2590.88
452.207	2849.88
452.428	3702.88
452.648	5562.88
452.869	4614.88
453.089	3237.88
453.31	3013.88
453.53	2996.88
453.751	3088.88
453.971	3257.88
454.192	3151.88
454.412	2701.88
454.633	2525.88
454.853	2504.88
455.073	2452.88
455.294	2464.88
455.514	2426.88
455.734	2398.88
455.955	2438.88
456.175	2432.88
456.395	2404.88
456.616	2400.88
456.836	2468.88
457.056	2467.88
457.276	2465.88
457.497	2589.88
457.717	2701.88
457.937	2566.88
458.157	2529.88
458.377	2584.88
458.598	2587.88
458.818	2632.88
459.038	2573.88
459.258	2598.88
459.478	2661.88
459.698	2694.88
459.918	2665.88
460.138	2696.88
460.358	2825.88
460.578	2814.88
460.798	2848.88
461.018	2901.88
461.238	2859.88
461.458	2892.88
461.678	2946.88
461.898	3030.88
462.118	2982.88
462.338	3078.88
462.558	3122.88
462.777	3142.88
462.997	3287.88
463.217	3391.88
463.437	3537.88
463.657	3654.88
463.876	3545.88
464.096	3362.88
464.316	3190.88
464.536	3179.88
464.755	3123.88
464.975	3028.88
465.195	2907.88
465.414	2864.88
465.634	2774.88
465.854	2723.88
466.073	2719.88
466.293	2715.88
466.512	2693.88
466.732	2726.88
466.951	2828.88
467.171	3057.88
467.391	2961.88
467.61	2706.88
467.829	2643.88
468.049	2632.88
468.268	2585.88
468.488	2576.88
468.707	2593.88
468.927	2568.88
469.146	2593.88
469.365	2628.88
469.585	2658.88
469.804	2703.88
470.023	2759.88
470.243	2788.88
470.462	2860.88
470.681	3041.88
470.901	3335.88
471.12	3856.88
471.339	3851.88
471.558	3203.88
471.777	2932.88
471.997	2782.88
472.216	2714.88
472.435	2671.88
472.654	2626.88
472.873	2576.88
473.092	2659.88
473.311	2629.88
473.53	2611.88
473.749	2742.88
473.968	2822.88
474.187	2706.88
474.406	2622.88
474.625	2655.88
474.844	2671.88
475.063	2612.88
475.282	2642.88
475.501	2637.88
475.72	2706.88
475.939	2657.88
476.158	2718.88
476.377	2807.88
476.596	2753.88
476.814	2761.88
477.033	2758.88
477.252	2785.88
477.471	2830.88
477.69	2911.88
477.908	2904.88
478.127	2982.88
478.346	3009.88
478.564	3029.88
478.783	3057.88
479.002	3062.88
479.22	3088.88
479.439	3081.88
479.658	3104.88
479.876	3129.88
480.095	3199.88
480.313	3209.88
480.532	3277.88
480.751	3186.88
480.969	3167.88
481.188	3155.88
481.406	3124.88
481.624	3178.88
481.843	3174.88
482.061	3161.88
482.28	3166.88
482.498	3250.88
482.717	3168.88
482.935	3242.88
483.153	3218.88
483.372	3313.88
483.59	3337.88
483.808	3365.88
484.027	3472.88
484.245	3650.88
484.463	4142.88
484.681	4564.88
484.9	4217.88
485.118	3861.88
485.336	3742.88
485.554	3849.88
485.772	4081.88
485.99	4680.88
486.209	5003.88
486.427	4176.88
486.645	3745.88
486.863	3595.88
487.081	3448.88
487.299	3450.88
487.517	3427.88
487.735	3400.88
