Data from SnStandardFlinnAPT0064_LampEnergy10_LIBS07252019.E.O._I.C._HRD10591_15-19-59-494.txt Node
Date: Thu Jul 25 15:19:59 EDT 2019
User: cochatt
Spectrometer: HR+D1059
Trigger mode: 1
Integration Time (sec): 1.000000E-1
Scans to average: 1
Electric dark correction enabled: true
Nonlinearity correction enabled: false
Boxcar width: 0
XAxis mode: Wavelengths
Number of Pixels in Spectrum: 2048
>>>>>Begin Spectral Data<<<<<
223.165	-11.31
223.4	-11.31
223.635	-11.31
223.869	-16.31
224.104	-25.31
224.338	-20.31
224.573	-29.31
224.808	-10.31
225.042	-6.31
225.277	-16.31
225.511	8.69
225.746	7.69
225.98	13.69
226.215	16.69
226.449	16.69
226.683	25.69
226.918	17.69
227.152	28.69
227.387	41.69
227.621	25.69
227.856	55.69
228.09	39.69
228.324	64.69
228.559	58.69
228.793	121.69
229.027	319.69
229.262	356.69
229.496	325.69
229.73	310.69
229.964	313.69
230.199	312.69
230.433	306.69
230.667	336.69
230.901	340.69
231.136	321.69
231.37	364.69
231.604	393.69
231.838	445.69
232.072	529.69
232.306	602.69
232.541	490.69
232.775	457.69
233.009	436.69
233.243	461.69
233.477	488.69
233.711	538.69
233.945	620.69
234.179	541.69
234.413	481.69
234.647	458.69
234.881	488.69
235.115	537.69
235.349	650.69
235.583	816.69
235.817	1092.69
236.051	1064.69
236.285	694.69
236.519	541.69
236.753	520.69
236.987	527.69
237.221	563.69
237.455	540.69
237.689	491.69
237.922	472.69
238.156	482.69
238.39	506.69
238.624	495.69
238.858	500.69
239.091	465.69
239.325	502.69
239.559	510.69
239.793	524.69
240.027	527.69
240.26	571.69
240.494	575.69
240.728	615.69
240.961	640.69
241.195	686.69
241.429	714.69
241.662	745.69
241.896	809.69
242.13	989.69
242.363	1343.69
242.597	1759.69
242.83	1661.69
243.064	1627.69
243.298	1890.69
243.531	1579.69
243.765	993.69
243.998	811.69
244.232	710.69
244.465	666.69
244.699	669.69
244.932	677.69
245.166	676.69
245.399	683.69
245.633	676.69
245.866	724.69
246.099	685.69
246.333	682.69
246.566	652.69
246.8	648.69
247.033	646.69
247.266	668.69
247.5	678.69
247.733	682.69
247.966	721.69
248.2	776.69
248.433	884.69
248.666	1022.69
248.899	990.69
249.133	876.69
249.366	886.69
249.599	992.69
249.832	1141.69
250.066	1158.69
250.299	901.69
250.532	815.69
250.765	761.69
250.998	762.69
251.231	743.69
251.465	726.69
251.698	722.69
251.931	733.69
252.164	782.69
252.397	782.69
252.63	790.69
252.863	836.69
253.096	798.69
253.329	782.69
253.562	787.69
253.795	790.69
254.028	811.69
254.261	847.69
254.494	898.69
254.727	1038.69
254.96	1319.69
255.193	1302.69
255.426	981.69
255.659	853.69
255.892	882.69
256.124	880.69
256.357	898.69
256.59	932.69
256.823	995.69
257.056	1171.69
257.289	1437.69
257.521	1551.69
257.754	1231.69
257.987	1019.69
258.22	952.69
258.452	958.69
258.685	933.69
258.918	992.69
259.151	1037.69
259.383	1142.69
259.616	1271.69
259.849	1325.69
260.081	1162.69
260.314	1016.69
260.547	979.69
260.779	938.69
261.012	982.69
261.244	981.69
261.477	977.69
261.71	1002.69
261.942	1027.69
262.175	1016.69
262.407	1037.69
262.64	1056.69
262.872	1082.69
263.105	1150.69
263.337	1205.69
263.57	1270.69
263.802	1316.69
264.035	1341.69
264.267	1353.69
264.499	1372.69
264.732	1406.69
264.964	1460.69
265.197	1411.69
265.429	1449.69
265.661	1446.69
265.894	1574.69
266.126	1800.69
266.358	1990.69
266.591	1970.69
266.823	1629.69
267.055	1477.69
267.287	1394.69
267.52	1363.69
267.752	1343.69
267.984	1300.69
268.216	1250.69
268.448	1259.69
268.681	1239.69
268.913	1242.69
269.145	1250.69
269.377	1242.69
269.609	1257.69
269.841	1306.69
270.073	1406.69
270.306	1651.69
270.538	2216.69
270.77	3360.69
271.002	4219.69
271.234	2972.69
271.466	1956.69
271.698	1605.69
271.93	1426.69
272.162	1371.69
272.394	1354.69
272.626	1277.69
272.858	1245.69
273.09	1260.69
273.322	1258.69
273.553	1205.69
273.785	1193.69
274.017	1236.69
274.249	1250.69
274.481	1258.69
274.713	1224.69
274.945	1242.69
275.176	1232.69
275.408	1246.69
275.64	1253.69
275.872	1278.69
276.104	1271.69
276.335	1299.69
276.567	1303.69
276.799	1336.69
277.031	1343.69
277.262	1349.69
277.494	1447.69
277.726	1572.69
277.957	1868.69
278.189	2213.69
278.421	2031.69
278.652	1848.69
278.884	1763.69
279.115	1522.69
279.347	1509.69
279.579	1444.69
279.81	1399.69
280.042	1384.69
280.273	1449.69
280.505	1504.69
280.736	1556.69
280.968	1627.69
281.199	1854.69
281.431	2144.69
281.662	2178.69
281.894	1809.69
282.125	1657.69
282.356	1682.69
282.588	1691.69
282.819	1747.69
283.051	1871.69
283.282	2083.69
283.513	2600.69
283.745	3773.69
283.976	5944.69
284.207	8472.69
284.439	7686.69
284.67	4812.69
284.901	3951.69
285.132	3928.69
285.364	3771.69
285.595	2831.69
285.826	2574.69
286.057	3023.69
286.288	4092.69
286.52	5535.69
286.751	5176.69
286.982	3174.69
287.213	2381.69
287.444	2093.69
287.675	1917.69
287.906	1842.69
288.138	1796.69
288.369	1758.69
288.6	1754.69
288.831	1700.69
289.062	1692.69
289.293	1687.69
289.524	1721.69
289.755	1736.69
289.986	1742.69
290.217	1763.69
290.448	1744.69
290.679	1726.69
290.91	1826.69
291.141	1937.69
291.371	2092.69
291.602	2175.69
291.833	1990.69
292.064	1758.69
292.295	1726.69
292.526	1689.69
292.757	1681.69
292.987	1635.69
293.218	1567.69
293.449	1626.69
293.68	1619.69
293.91	1613.69
294.141	1610.69
294.372	1622.69
294.603	1582.69
294.833	1605.69
295.064	1590.69
295.295	1593.69
295.525	1582.69
295.756	1586.69
295.987	1594.69
296.217	1594.69
296.448	1603.69
296.679	1596.69
296.909	1627.69
297.14	1647.69
297.37	1611.69
297.601	1659.69
297.831	1702.69
298.062	1632.69
298.292	1698.69
298.523	1706.69
298.753	1725.69
298.984	1744.69
299.214	1739.69
299.445	1763.69
299.675	1821.69
299.905	1881.69
300.136	1938.69
300.366	2201.69
300.597	2888.69
300.827	4087.69
301.057	5481.69
301.288	5514.69
301.518	3562.69
301.748	2717.69
301.979	2422.69
302.209	2362.69
302.439	2361.69
302.669	2533.69
302.9	3076.69
303.13	4296.69
303.36	6543.69
303.59	8755.69
303.82	7557.69
304.051	4503.69
304.281	3191.69
304.511	2619.69
304.741	2422.69
304.971	2220.69
305.201	2142.69
305.431	2036.69
305.661	1970.69
305.891	1913.69
306.121	1901.69
306.352	1888.69
306.582	1860.69
306.812	1872.69
307.042	1892.69
307.272	1858.69
307.502	1891.69
307.731	1827.69
307.961	1826.69
308.191	1829.69
308.421	1818.69
308.651	1852.69
308.881	1818.69
309.111	1814.69
309.341	1833.69
309.571	1872.69
309.8	1927.69
310.03	1867.69
310.26	1869.69
310.49	1875.69
310.72	1894.69
310.949	1853.69
311.179	1894.69
311.409	1962.69
311.639	1978.69
311.868	1962.69
312.098	1955.69
312.328	2005.69
312.557	1993.69
312.787	2026.69
313.017	1998.69
313.246	1984.69
313.476	2050.69
313.706	2100.69
313.935	2257.69
314.165	2402.69
314.394	2526.69
314.624	2408.69
314.853	2206.69
315.083	2220.69
315.312	2212.69
315.542	2192.69
315.771	2260.69
316.001	2295.69
316.23	2388.69
316.46	2494.69
316.689	2746.69
316.919	3274.69
317.148	4779.69
317.377	7392.69
317.607	10956.69
317.836	11479.69
318.065	7087.69
318.295	4500.69
318.524	3606.69
318.753	3076.69
318.983	2847.69
319.212	2612.69
319.441	2546.69
319.67	2537.69
319.9	2440.69
320.129	2413.69
320.358	2389.69
320.587	2333.69
320.816	2387.69
321.046	2412.69
321.275	2385.69
321.504	2429.69
321.733	2449.69
321.962	2538.69
322.191	2533.69
322.42	2531.69
322.649	2477.69
322.878	2477.69
323.108	2527.69
323.337	2557.69
323.566	2598.69
323.795	2686.69
324.024	2692.69
324.253	2822.69
324.482	2924.69
324.71	3077.69
324.939	3331.69
325.168	3376.69
325.397	3535.69
325.626	4180.69
325.855	5793.69
326.084	9210.69
326.313	13231.69
326.542	13904.69
326.77	9563.69
326.999	6297.69
327.228	5201.69
327.457	4968.69
327.686	5012.69
327.914	5388.69
328.143	6304.69
328.372	7543.69
328.6	8218.69
328.829	7302.69
329.058	6098.69
329.287	5266.69
329.515	4779.69
329.744	4409.69
329.972	4192.69
330.201	3947.69
330.43	3761.69
330.658	3650.69
330.887	3642.69
331.115	3542.69
331.344	3571.69
331.572	3570.69
331.801	3546.69
332.03	3533.69
332.258	3631.69
332.486	3850.69
332.715	4429.69
332.943	5477.69
333.172	6879.69
333.4	6842.69
333.629	5199.69
333.857	4678.69
334.085	4574.69
334.314	4811.69
334.542	5318.69
334.771	6237.69
334.999	7788.69
335.227	9766.69
335.455	10981.69
335.684	9793.69
335.912	8042.69
336.14	6771.69
336.369	5981.69
336.597	5410.69
336.825	4950.69
337.053	4708.69
337.281	4303.69
337.51	4054.69
337.738	3925.69
337.966	3738.69
338.194	3655.69
338.422	3548.69
338.65	3442.69
338.878	3392.69
339.106	3240.69
339.334	3230.69
339.562	3188.69
339.79	3084.69
340.018	3085.69
340.246	3081.69
340.474	3095.69
340.702	3084.69
340.93	3080.69
341.158	3085.69
341.386	3044.69
341.614	2992.69
341.842	2935.69
342.07	2887.69
342.298	2829.69
342.526	2826.69
342.754	2762.69
342.981	2751.69
343.209	2748.69
343.437	2741.69
343.665	2751.69
343.893	2799.69
344.12	2838.69
344.348	2808.69
344.576	2761.69
344.804	2702.69
345.031	2687.69
345.259	2620.69
345.487	2612.69
345.714	2627.69
345.942	2549.69
346.17	2616.69
346.397	2610.69
346.625	2573.69
346.853	2569.69
347.08	2542.69
347.308	2586.69
347.535	2546.69
347.763	2501.69
347.99	2562.69
348.218	2510.69
348.445	2502.69
348.673	2493.69
348.9	2541.69
349.128	2487.69
349.355	2424.69
349.583	2474.69
349.81	2458.69
350.037	2376.69
350.265	2446.69
350.492	2446.69
350.72	2390.69
350.947	2424.69
351.174	2371.69
351.402	2426.69
351.629	2456.69
351.856	2392.69
352.083	2411.69
352.311	2393.69
352.538	2389.69
352.765	2371.69
352.992	2372.69
353.22	2432.69
353.447	2424.69
353.674	2375.69
353.901	2411.69
354.128	2391.69
354.355	2409.69
354.583	2440.69
354.81	2434.69
355.037	2468.69
355.264	2464.69
355.491	2446.69
355.718	2483.69
355.945	2448.69
356.172	2514.69
356.399	2519.69
356.626	2504.69
356.853	2518.69
357.08	2519.69
357.307	2582.69
357.534	2584.69
357.761	2586.69
357.988	2613.69
358.215	2644.69
358.441	2578.69
358.668	2541.69
358.895	2560.69
359.122	2587.69
359.349	2594.69
359.576	2536.69
359.802	2566.69
360.029	2551.69
360.256	2524.69
360.483	2596.69
360.709	2486.69
360.936	2629.69
361.163	2551.69
361.39	2536.69
361.616	2538.69
361.843	2611.69
362.07	2653.69
362.296	2587.69
362.523	2594.69
362.749	2592.69
362.976	2570.69
363.203	2530.69
363.429	2489.69
363.656	2557.69
363.882	2558.69
364.109	2545.69
364.335	2532.69
364.562	2588.69
364.788	2556.69
365.015	2622.69
365.241	2711.69
365.468	2866.69
365.694	2994.69
365.92	2851.69
366.147	2678.69
366.373	2644.69
366.599	2605.69
366.826	2590.69
367.052	2599.69
367.278	2675.69
367.505	2629.69
367.731	2607.69
367.957	2636.69
368.184	2679.69
368.41	2646.69
368.636	2726.69
368.862	2710.69
369.089	2698.69
369.315	2660.69
369.541	2718.69
369.767	2646.69
369.993	2653.69
370.219	2618.69
370.445	2650.69
370.672	2694.69
370.898	2698.69
371.124	2739.69
371.35	2718.69
371.576	2738.69
371.802	2782.69
372.028	2772.69
372.254	2740.69
372.48	2771.69
372.706	2742.69
372.932	2835.69
373.158	2807.69
373.384	2768.69
373.61	2813.69
373.835	2766.69
374.061	2786.69
374.287	2823.69
374.513	2861.69
374.739	2895.69
374.965	2931.69
375.191	2931.69
375.416	2891.69
375.642	2871.69
375.868	2882.69
376.094	2795.69
376.319	2755.69
376.545	2810.69
376.771	2736.69
376.997	2731.69
377.222	2720.69
377.448	2703.69
377.674	2754.69
377.899	2744.69
378.125	2744.69
378.35	2767.69
378.576	2720.69
378.802	2762.69
379.027	2858.69
379.253	2907.69
379.478	3124.69
379.704	3695.69
379.929	5339.69
380.155	8199.69
380.38	9083.69
380.606	5494.69
380.831	3817.69
381.057	3302.69
381.282	3060.69
381.507	2882.69
381.733	2809.69
381.958	2783.69
382.184	2750.69
382.409	2781.69
382.634	2735.69
382.86	2711.69
383.085	2701.69
383.31	2657.69
383.535	2686.69
383.761	2694.69
383.986	2726.69
384.211	2792.69
384.436	2783.69
384.662	2767.69
384.887	2827.69
385.112	2774.69
385.337	2813.69
385.562	2822.69
385.787	2834.69
386.013	2791.69
386.238	2795.69
386.463	2792.69
386.688	2845.69
386.913	2777.69
387.138	2774.69
387.363	2769.69
387.588	2800.69
387.813	2752.69
388.038	2762.69
388.263	2695.69
388.488	2734.69
388.713	2763.69
388.938	2795.69
389.163	2754.69
389.387	2742.69
389.612	2745.69
389.837	2755.69
390.062	2775.69
390.287	2795.69
390.512	2851.69
390.736	2855.69
390.961	2910.69
391.186	2909.69
391.411	2923.69
391.636	2921.69
391.86	2859.69
392.085	2930.69
392.31	2902.69
392.534	2867.69
392.759	2870.69
392.984	2813.69
393.208	2858.69
393.433	2922.69
393.658	2942.69
393.882	2794.69
394.107	2811.69
394.331	2876.69
394.556	2821.69
394.78	2888.69
395.005	2889.69
395.229	2838.69
395.454	2944.69
395.678	2885.69
395.903	2905.69
396.127	2912.69
396.352	2881.69
396.576	2911.69
396.801	2874.69
397.025	2939.69
397.249	2909.69
397.474	2973.69
397.698	2886.69
397.922	2931.69
398.147	2966.69
398.371	2954.69
398.595	3024.69
398.82	2991.69
399.044	3189.69
399.268	3350.69
399.492	3508.69
399.717	3627.69
399.941	3606.69
400.165	3526.69
400.389	3397.69
400.613	3168.69
400.837	3158.69
401.062	3133.69
401.286	3058.69
401.51	3058.69
401.734	3051.69
401.958	3078.69
402.182	3041.69
402.406	3032.69
402.63	3094.69
402.854	3117.69
403.078	3078.69
403.302	3111.69
403.526	3165.69
403.75	3164.69
403.974	3174.69
404.198	3160.69
404.422	3214.69
404.645	3142.69
404.869	3147.69
405.093	3186.69
405.317	3157.69
405.541	3231.69
405.765	3276.69
405.988	3314.69
406.212	3270.69
406.436	3238.69
406.66	3358.69
406.883	3305.69
407.107	3437.69
407.331	3420.69
407.555	3470.69
407.778	3432.69
408.002	3334.69
408.226	3407.69
408.449	3434.69
408.673	3275.69
408.896	3238.69
409.12	3228.69
409.344	3204.69
409.567	3190.69
409.791	3175.69
410.014	3170.69
410.238	3138.69
410.461	3173.69
410.685	3125.69
410.908	3111.69
411.132	3180.69
411.355	3019.69
411.578	3015.69
411.802	3015.69
412.025	3018.69
412.249	3061.69
412.472	3104.69
412.695	2988.69
412.919	2973.69
413.142	3018.69
413.365	2984.69
413.589	3024.69
413.812	2984.69
414.035	3002.69
414.258	3065.69
414.482	2982.69
414.705	2988.69
414.928	3032.69
415.151	3003.69
415.374	3000.69
415.597	2965.69
415.821	2875.69
416.044	2868.69
416.267	2847.69
416.49	2874.69
416.713	2823.69
416.936	2886.69
417.159	2806.69
417.382	2825.69
417.605	2823.69
417.828	2852.69
418.051	2890.69
418.274	2889.69
418.497	2889.69
418.72	2974.69
418.943	2960.69
419.166	3077.69
419.389	3180.69
419.611	3161.69
419.834	3059.69
420.057	3002.69
420.28	2968.69
420.503	2876.69
420.726	2896.69
420.948	2863.69
421.171	2867.69
421.394	2889.69
421.617	2871.69
421.839	2876.69
422.062	2884.69
422.285	2876.69
422.507	2964.69
422.73	2960.69
422.953	3027.69
423.175	2947.69
423.398	2961.69
423.621	2855.69
423.843	2886.69
424.066	2888.69
424.288	2889.69
424.511	2931.69
424.733	2870.69
424.956	2851.69
425.178	2799.69
425.401	2843.69
425.623	2858.69
425.846	2803.69
426.068	2774.69
426.291	2751.69
426.513	2747.69
426.735	2713.69
426.958	2707.69
427.18	2708.69
427.402	2768.69
427.625	2735.69
427.847	2656.69
428.069	2633.69
428.292	2684.69
428.514	2685.69
428.736	2637.69
428.958	2671.69
429.181	2631.69
429.403	2567.69
429.625	2597.69
429.847	2658.69
430.069	2704.69
430.292	2806.69
430.514	2890.69
430.736	2891.69
430.958	2702.69
431.18	2643.69
431.402	2612.69
431.624	2612.69
431.846	2631.69
432.068	2626.69
432.29	2676.69
432.512	2644.69
432.734	2680.69
432.956	2616.69
433.178	2636.69
433.4	2631.69
433.622	2636.69
433.844	2672.69
434.066	2649.69
434.287	2647.69
434.509	2668.69
434.731	2745.69
434.953	2771.69
435.175	2783.69
435.397	2765.69
435.618	2710.69
435.84	2661.69
436.062	2598.69
436.284	2602.69
436.505	2573.69
436.727	2638.69
436.949	2631.69
437.17	2579.69
437.392	2563.69
437.614	2575.69
437.835	2520.69
438.057	2631.69
438.278	2534.69
438.5	2600.69
438.721	2622.69
438.943	2731.69
439.165	2794.69
439.386	2749.69
439.608	2716.69
439.829	2742.69
440.05	2883.69
440.272	2890.69
440.493	2720.69
440.715	2716.69
440.936	2724.69
441.158	2760.69
441.379	2779.69
441.6	2902.69
441.822	2924.69
442.043	3086.69
442.264	3196.69
442.486	2974.69
442.707	2805.69
442.928	2823.69
443.149	2796.69
443.371	2766.69
443.592	2804.69
443.813	2824.69
444.034	2876.69
444.255	2877.69
444.476	2958.69
444.698	2985.69
444.919	3024.69
445.14	3091.69
445.361	2905.69
445.582	2879.69
445.803	2808.69
446.024	2819.69
446.245	2820.69
446.466	2833.69
446.687	2818.69
446.908	2720.69
447.129	2692.69
447.35	2642.69
447.571	2686.69
447.792	2605.69
448.013	2586.69
448.234	2596.69
448.455	2624.69
448.675	2684.69
448.896	2715.69
449.117	2768.69
449.338	3034.69
449.559	3214.69
449.779	2869.69
450	2686.69
450.221	2575.69
450.442	2516.69
450.662	2603.69
450.883	2533.69
451.104	2605.69
451.324	2572.69
451.545	2612.69
451.766	2588.69
451.986	2611.69
452.207	2863.69
452.428	3720.69
452.648	5684.69
452.869	4685.69
453.089	3207.69
453.31	3054.69
453.53	3025.69
453.751	3067.69
453.971	3290.69
454.192	3174.69
454.412	2778.69
454.633	2580.69
454.853	2531.69
455.073	2495.69
455.294	2478.69
455.514	2438.69
455.734	2399.69
455.955	2439.69
456.175	2438.69
456.395	2435.69
456.616	2431.69
456.836	2454.69
457.056	2506.69
457.276	2468.69
457.497	2670.69
457.717	2628.69
457.937	2621.69
458.157	2566.69
458.377	2536.69
458.598	2608.69
458.818	2598.69
459.038	2624.69
459.258	2638.69
459.478	2640.69
459.698	2655.69
459.918	2693.69
460.138	2754.69
460.358	2835.69
460.578	2786.69
460.798	2890.69
461.018	2861.69
461.238	2884.69
461.458	2887.69
461.678	2949.69
461.898	3018.69
462.118	2973.69
462.338	3098.69
462.558	3056.69
462.777	3155.69
462.997	3229.69
463.217	3378.69
463.437	3499.69
463.657	3625.69
463.876	3609.69
464.096	3422.69
464.316	3240.69
464.536	3182.69
464.755	3091.69
464.975	3016.69
465.195	2885.69
465.414	2847.69
465.634	2778.69
465.854	2699.69
466.073	2694.69
466.293	2654.69
466.512	2642.69
466.732	2709.69
466.951	2805.69
467.171	3064.69
467.391	2995.69
467.61	2746.69
467.829	2608.69
468.049	2586.69
468.268	2594.69
468.488	2604.69
468.707	2591.69
468.927	2644.69
469.146	2583.69
469.365	2630.69
469.585	2655.69
469.804	2680.69
470.023	2746.69
470.243	2820.69
470.462	2914.69
470.681	3074.69
470.901	3378.69
471.12	3821.69
471.339	3868.69
471.558	3198.69
471.777	2891.69
471.997	2740.69
472.216	2727.69
472.435	2696.69
472.654	2612.69
472.873	2625.69
473.092	2677.69
473.311	2647.69
473.53	2629.69
473.749	2757.69
473.968	2812.69
474.187	2669.69
474.406	2610.69
474.625	2658.69
474.844	2614.69
475.063	2647.69
475.282	2598.69
475.501	2626.69
475.72	2696.69
475.939	2723.69
476.158	2734.69
476.377	2783.69
476.596	2738.69
476.814	2767.69
477.033	2750.69
477.252	2796.69
477.471	2819.69
477.69	2959.69
477.908	2931.69
478.127	2943.69
478.346	2974.69
478.564	3006.69
478.783	3012.69
479.002	3069.69
479.22	3155.69
479.439	3102.69
479.658	3087.69
479.876	3158.69
480.095	3182.69
480.313	3199.69
480.532	3224.69
480.751	3213.69
480.969	3238.69
481.188	3210.69
481.406	3146.69
481.624	3197.69
481.843	3174.69
482.061	3245.69
482.28	3158.69
482.498	3140.69
482.717	3123.69
482.935	3189.69
483.153	3230.69
483.372	3298.69
483.59	3360.69
483.808	3379.69
484.027	3499.69
484.245	3665.69
484.463	4138.69
484.681	4673.69
484.9	4216.69
485.118	3908.69
485.336	3849.69
485.554	3898.69
485.772	4136.69
485.99	4658.69
486.209	5019.69
486.427	4199.69
486.645	3706.69
486.863	3585.69
487.081	3488.69
487.299	3414.69
487.517	3421.69
487.735	3373.69
