Data from SnStandardFlinnAPT0064_LampEnergy10_LIBS07252019.E.O._I.C._HRD10591_15-19-27-493.txt Node
Date: Thu Jul 25 15:19:27 EDT 2019
User: cochatt
Spectrometer: HR+D1059
Trigger mode: 1
Integration Time (sec): 1.000000E-1
Scans to average: 1
Electric dark correction enabled: true
Nonlinearity correction enabled: false
Boxcar width: 0
XAxis mode: Wavelengths
Number of Pixels in Spectrum: 2048
>>>>>Begin Spectral Data<<<<<
223.165	-8
223.4	-8
223.635	-8
223.869	-20
224.104	-13
224.338	-20
224.573	-7
224.808	-8
225.042	-17
225.277	2
225.511	5
225.746	-4
225.98	4
226.215	16
226.449	14
226.683	6
226.918	13
227.152	37
227.387	40
227.621	24
227.856	47
228.09	52
228.324	44
228.559	44
228.793	109
229.027	318
229.262	357
229.496	331
229.73	315
229.964	305
230.199	307
230.433	309
230.667	328
230.901	315
231.136	340
231.37	373
231.604	393
231.838	473
232.072	561
232.306	591
232.541	516
232.775	449
233.009	435
233.243	452
233.477	468
233.711	570
233.945	620
234.179	539
234.413	481
234.647	475
234.881	515
235.115	539
235.349	652
235.583	858
235.817	1077
236.051	1068
236.285	722
236.519	563
236.753	521
236.987	526
237.221	549
237.455	533
237.689	495
237.922	483
238.156	512
238.39	523
238.624	529
238.858	499
239.091	539
239.325	503
239.559	520
239.793	511
240.027	552
240.26	554
240.494	586
240.728	617
240.961	653
241.195	669
241.429	735
241.662	753
241.896	853
242.13	1028
242.363	1353
242.597	1788
242.83	1704
243.064	1711
243.298	2011
243.531	1632
243.765	1052
243.998	835
244.232	731
244.465	714
244.699	682
244.932	669
245.166	681
245.399	702
245.633	709
245.866	717
246.099	694
246.333	672
246.566	659
246.8	654
247.033	643
247.266	683
247.5	671
247.733	671
247.966	746
248.2	795
248.433	890
248.666	1064
248.899	997
249.133	876
249.366	928
249.599	1016
249.832	1145
250.066	1161
250.299	899
250.532	808
250.765	779
250.998	766
251.231	748
251.465	736
251.698	772
251.931	773
252.164	736
252.397	785
252.63	805
252.863	817
253.096	796
253.329	813
253.562	825
253.795	834
254.028	811
254.261	846
254.494	895
254.727	1099
254.96	1347
255.193	1292
255.426	981
255.659	921
255.892	887
256.124	873
256.357	934
256.59	959
256.823	1000
257.056	1169
257.289	1434
257.521	1595
257.754	1262
257.987	991
258.22	977
258.452	915
258.685	936
258.918	967
259.151	1025
259.383	1112
259.616	1271
259.849	1316
260.081	1125
260.314	1024
260.547	961
260.779	932
261.012	949
261.244	983
261.477	966
261.71	1017
261.942	1002
262.175	1008
262.407	1027
262.64	1055
262.872	1078
263.105	1102
263.337	1201
263.57	1245
263.802	1291
264.035	1257
264.267	1327
264.499	1363
264.732	1409
264.964	1427
265.197	1408
265.429	1432
265.661	1445
265.894	1542
266.126	1775
266.358	1993
266.591	1939
266.823	1603
267.055	1451
267.287	1364
267.52	1315
267.752	1259
267.984	1264
268.216	1290
268.448	1231
268.681	1208
268.913	1224
269.145	1225
269.377	1246
269.609	1257
269.841	1311
270.073	1425
270.306	1665
270.538	2264
270.77	3507
271.002	4281
271.234	3071
271.466	2013
271.698	1593
271.93	1445
272.162	1371
272.394	1307
272.626	1304
272.858	1268
273.09	1235
273.322	1236
273.553	1205
273.785	1180
274.017	1207
274.249	1226
274.481	1223
274.713	1230
274.945	1211
275.176	1227
275.408	1257
275.64	1239
275.872	1247
276.104	1263
276.335	1275
276.567	1263
276.799	1276
277.031	1304
277.262	1382
277.494	1454
277.726	1677
277.957	1948
278.189	2231
278.421	2092
278.652	1847
278.884	1741
279.115	1548
279.347	1457
279.579	1445
279.81	1419
280.042	1437
280.273	1455
280.505	1475
280.736	1538
280.968	1667
281.199	1871
281.431	2159
281.662	2273
281.894	1883
282.125	1677
282.356	1692
282.588	1736
282.819	1767
283.051	1920
283.282	2107
283.513	2663
283.745	3847
283.976	6222
284.207	8760
284.439	8046
284.67	4975
284.901	4108
285.132	4134
285.364	3992
285.595	3002
285.826	2617
286.057	3052
286.288	4212
286.52	5674
286.751	5412
286.982	3395
287.213	2463
287.444	2128
287.675	1953
287.906	1851
288.138	1804
288.369	1761
288.6	1707
288.831	1704
289.062	1723
289.293	1692
289.524	1725
289.755	1741
289.986	1715
290.217	1719
290.448	1765
290.679	1723
290.91	1847
291.141	1967
291.371	2113
291.602	2152
291.833	1952
292.064	1800
292.295	1727
292.526	1653
292.757	1671
292.987	1632
293.218	1565
293.449	1640
293.68	1615
293.91	1616
294.141	1570
294.372	1581
294.603	1589
294.833	1563
295.064	1584
295.295	1575
295.525	1571
295.756	1599
295.987	1581
296.217	1611
296.448	1588
296.679	1571
296.909	1567
297.14	1606
297.37	1676
297.601	1662
297.831	1654
298.062	1610
298.292	1667
298.523	1708
298.753	1709
298.984	1755
299.214	1762
299.445	1792
299.675	1797
299.905	1900
300.136	1971
300.366	2221
300.597	2915
300.827	4111
301.057	5693
301.288	5730
301.518	3717
301.748	2772
301.979	2477
302.209	2412
302.439	2450
302.669	2613
302.9	3156
303.13	4427
303.36	6665
303.59	8993
303.82	7846
304.051	4735
304.281	3304
304.511	2713
304.741	2490
304.971	2299
305.201	2177
305.431	2049
305.661	1994
305.891	1956
306.121	1945
306.352	1926
306.582	1899
306.812	1828
307.042	1882
307.272	1863
307.502	1874
307.731	1859
307.961	1844
308.191	1797
308.421	1805
308.651	1822
308.881	1827
309.111	1813
309.341	1833
309.571	1861
309.8	1871
310.03	1843
310.26	1853
310.49	1844
310.72	1890
310.949	1863
311.179	1911
311.409	1876
311.639	1915
311.868	1923
312.098	1965
312.328	1955
312.557	2015
312.787	1937
313.017	1962
313.246	1989
313.476	1999
313.706	2097
313.935	2288
314.165	2424
314.394	2581
314.624	2471
314.853	2205
315.083	2202
315.312	2189
315.542	2237
315.771	2301
316.001	2317
316.23	2407
316.46	2495
316.689	2751
316.919	3404
317.148	4947
317.377	7669
317.607	11274
317.836	11816
318.065	7371
318.295	4779
318.524	3744
318.753	3148
318.983	2913
319.212	2680
319.441	2575
319.67	2559
319.9	2455
320.129	2465
320.358	2424
320.587	2401
320.816	2382
321.046	2417
321.275	2405
321.504	2442
321.733	2431
321.962	2496
322.191	2642
322.42	2543
322.649	2537
322.878	2533
323.108	2549
323.337	2562
323.566	2638
323.795	2643
324.024	2717
324.253	2793
324.482	2944
324.71	3097
324.939	3298
325.168	3384
325.397	3532
325.626	4268
325.855	5992
326.084	9359
326.313	13439
326.542	14192
326.77	10060
326.999	6575
327.228	5420
327.457	5019
327.686	4978
327.914	5375
328.143	6292
328.372	7398
328.6	8007
328.829	7147
329.058	5984
329.287	5174
329.515	4788
329.744	4305
329.972	4109
330.201	3969
330.43	3801
330.658	3704
330.887	3593
331.115	3521
331.344	3503
331.572	3526
331.801	3522
332.03	3590
332.258	3657
332.486	3834
332.715	4371
332.943	5575
333.172	7068
333.4	7025
333.629	5207
333.857	4600
334.085	4592
334.314	4764
334.542	5226
334.771	6143
334.999	7667
335.227	9573
335.455	10698
335.684	9639
335.912	7772
336.14	6619
336.369	5860
336.597	5348
336.825	4870
337.053	4556
337.281	4279
337.51	4019
337.738	3920
337.966	3749
338.194	3649
338.422	3482
338.65	3371
338.878	3306
339.106	3263
339.334	3177
339.562	3159
339.79	3073
340.018	3076
340.246	3052
340.474	3038
340.702	3001
340.93	2997
341.158	3002
341.386	2987
341.614	3012
341.842	2873
342.07	2844
342.298	2798
342.526	2742
342.754	2719
342.981	2756
343.209	2681
343.437	2732
343.665	2733
343.893	2776
344.12	2829
344.348	2751
344.576	2683
344.804	2716
345.031	2573
345.259	2621
345.487	2612
345.714	2500
345.942	2506
346.17	2532
346.397	2494
346.625	2517
346.853	2529
347.08	2490
347.308	2504
347.535	2533
347.763	2478
347.99	2511
348.218	2463
348.445	2435
348.673	2480
348.9	2468
349.128	2447
349.355	2443
349.583	2431
349.81	2373
350.037	2397
350.265	2375
350.492	2376
350.72	2414
350.947	2396
351.174	2423
351.402	2397
351.629	2395
351.856	2425
352.083	2395
352.311	2383
352.538	2372
352.765	2404
352.992	2347
353.22	2322
353.447	2371
353.674	2309
353.901	2375
354.128	2372
354.355	2351
354.583	2380
354.81	2365
355.037	2412
355.264	2433
355.491	2419
355.718	2419
355.945	2443
356.172	2454
356.399	2473
356.626	2471
356.853	2527
357.08	2514
357.307	2500
357.534	2532
357.761	2535
357.988	2585
358.215	2519
358.441	2531
358.668	2553
358.895	2495
359.122	2497
359.349	2512
359.576	2516
359.802	2522
360.029	2490
360.256	2500
360.483	2561
360.709	2508
360.936	2591
361.163	2584
361.39	2549
361.616	2509
361.843	2574
362.07	2577
362.296	2593
362.523	2603
362.749	2536
362.976	2515
363.203	2547
363.429	2484
363.656	2515
363.882	2520
364.109	2547
364.335	2508
364.562	2467
364.788	2536
365.015	2568
365.241	2645
365.468	2833
365.694	2964
365.92	2848
366.147	2662
366.373	2600
366.599	2545
366.826	2597
367.052	2579
367.278	2581
367.505	2610
367.731	2622
367.957	2576
368.184	2601
368.41	2641
368.636	2630
368.862	2577
369.089	2653
369.315	2575
369.541	2601
369.767	2615
369.993	2607
370.219	2619
370.445	2607
370.672	2631
370.898	2630
371.124	2620
371.35	2669
371.576	2684
371.802	2732
372.028	2730
372.254	2709
372.48	2722
372.706	2730
372.932	2768
373.158	2715
373.384	2795
373.61	2748
373.835	2774
374.061	2807
374.287	2762
374.513	2759
374.739	2871
374.965	2828
375.191	2828
375.416	2851
375.642	2787
375.868	2826
376.094	2775
376.319	2808
376.545	2748
376.771	2699
376.997	2733
377.222	2691
377.448	2684
377.674	2712
377.899	2678
378.125	2700
378.35	2674
378.576	2714
378.802	2749
379.027	2792
379.253	2912
379.478	3066
379.704	3700
379.929	5443
380.155	8517
380.38	9353
380.606	5747
380.831	3929
381.057	3366
381.282	3061
381.507	2943
381.733	2815
381.958	2757
382.184	2727
382.409	2721
382.634	2657
382.86	2663
383.085	2697
383.31	2682
383.535	2709
383.761	2666
383.986	2694
384.211	2695
384.436	2696
384.662	2724
384.887	2767
385.112	2738
385.337	2730
385.562	2784
385.787	2746
386.013	2765
386.238	2749
386.463	2796
386.688	2748
386.913	2685
387.138	2753
387.363	2755
387.588	2724
387.813	2713
388.038	2711
388.263	2724
388.488	2732
388.713	2759
388.938	2749
389.163	2650
389.387	2702
389.612	2690
389.837	2723
390.062	2758
390.287	2805
390.512	2743
390.736	2811
390.961	2829
391.186	2837
391.411	2859
391.636	2892
391.86	2923
392.085	2878
392.31	2850
392.534	2868
392.759	2852
392.984	2800
393.208	2861
393.433	2880
393.658	2846
393.882	2766
394.107	2784
394.331	2820
394.556	2785
394.78	2812
395.005	2828
395.229	2764
395.454	2873
395.678	2885
395.903	2865
396.127	2883
396.352	2798
396.576	2810
396.801	2869
397.025	2908
397.249	2899
397.474	2894
397.698	2927
397.922	2935
398.147	2896
398.371	2967
398.595	2997
398.82	3096
399.044	3205
399.268	3303
399.492	3453
399.717	3611
399.941	3587
400.165	3485
400.389	3377
400.613	3176
400.837	3105
401.062	3087
401.286	3051
401.51	3019
401.734	2991
401.958	3028
402.182	3039
402.406	2993
402.63	3023
402.854	3062
403.078	3049
403.302	3095
403.526	3139
403.75	3086
403.974	3119
404.198	3108
404.422	3103
404.645	3121
404.869	3123
405.093	3110
405.317	3105
405.541	3149
405.765	3208
405.988	3241
406.212	3236
406.436	3145
406.66	3209
406.883	3229
407.107	3294
407.331	3359
407.555	3426
407.778	3425
408.002	3339
408.226	3363
408.449	3382
408.673	3242
408.896	3181
409.12	3147
409.344	3144
409.567	3081
409.791	3117
410.014	3145
410.238	3111
410.461	3153
410.685	3121
410.908	3081
411.132	3026
411.355	2991
411.578	3077
411.802	2996
412.025	3005
412.249	2997
412.472	3069
412.695	2971
412.919	2974
413.142	2947
413.365	2979
413.589	3009
413.812	2916
414.035	2977
414.258	2995
414.482	2961
414.705	3041
414.928	2976
415.151	2943
415.374	2921
415.597	2859
415.821	2847
416.044	2833
416.267	2849
416.49	2856
416.713	2811
416.936	2837
417.159	2810
417.382	2819
417.605	2826
417.828	2791
418.051	2810
418.274	2871
418.497	2886
418.72	2915
418.943	2885
419.166	3003
419.389	3204
419.611	3155
419.834	3036
420.057	2984
420.28	2890
420.503	2865
420.726	2835
420.948	2833
421.171	2857
421.394	2896
421.617	2823
421.839	2811
422.062	2897
422.285	2803
422.507	2873
422.73	2912
422.953	2952
423.175	2975
423.398	2900
423.621	2852
423.843	2865
424.066	2853
424.288	2851
424.511	2870
424.733	2870
424.956	2795
425.178	2789
425.401	2826
425.623	2793
425.846	2762
426.068	2733
426.291	2720
426.513	2754
426.735	2748
426.958	2704
427.18	2668
427.402	2702
427.625	2736
427.847	2616
428.069	2633
428.292	2674
428.514	2680
428.736	2637
428.958	2691
429.181	2584
429.403	2593
429.625	2605
429.847	2675
430.069	2704
430.292	2792
430.514	2887
430.736	2887
430.958	2699
431.18	2625
431.402	2640
431.624	2581
431.846	2639
432.068	2539
432.29	2642
432.512	2582
432.734	2587
432.956	2566
433.178	2594
433.4	2620
433.622	2621
433.844	2670
434.066	2652
434.287	2643
434.509	2668
434.731	2646
434.953	2725
435.175	2675
435.397	2739
435.618	2696
435.84	2655
436.062	2559
436.284	2656
436.505	2592
436.727	2618
436.949	2655
437.17	2596
437.392	2587
437.614	2548
437.835	2488
438.057	2555
438.278	2510
438.5	2557
438.721	2650
438.943	2676
439.165	2770
439.386	2740
439.608	2739
439.829	2792
440.05	2840
440.272	2934
440.493	2732
440.715	2719
440.936	2754
441.158	2741
441.379	2762
441.6	2855
441.822	2935
442.043	3093
442.264	3209
442.486	3005
442.707	2907
442.928	2858
443.149	2775
443.371	2837
443.592	2783
443.813	2779
444.034	2876
444.255	2889
444.476	2860
444.698	2957
444.919	2997
445.14	2995
445.361	2940
445.582	2851
445.803	2850
446.024	2773
446.245	2787
446.466	2771
446.687	2691
446.908	2751
447.129	2651
447.35	2647
447.571	2627
447.792	2579
448.013	2619
448.234	2559
448.455	2584
448.675	2689
448.896	2684
449.117	2823
449.338	3045
449.559	3189
449.779	2846
450	2642
450.221	2605
450.442	2587
450.662	2567
450.883	2554
451.104	2543
451.324	2525
451.545	2489
451.766	2548
451.986	2648
452.207	2781
452.428	3756
452.648	5966
452.869	4885
453.089	3338
453.31	3119
453.53	3082
453.751	3126
453.971	3273
454.192	3164
454.412	2743
454.633	2636
454.853	2538
455.073	2487
455.294	2465
455.514	2427
455.734	2461
455.955	2425
456.175	2457
456.395	2364
456.616	2411
456.836	2489
457.056	2509
457.276	2508
457.497	2655
457.717	2660
457.937	2568
458.157	2555
458.377	2530
458.598	2599
458.818	2578
459.038	2593
459.258	2597
459.478	2599
459.698	2664
459.918	2701
460.138	2713
460.358	2815
460.578	2841
460.798	2787
461.018	2833
461.238	2854
461.458	2886
461.678	2926
461.898	2986
462.118	2952
462.338	3025
462.558	3065
462.777	3101
462.997	3170
463.217	3361
463.437	3499
463.657	3559
463.876	3598
464.096	3339
464.316	3217
464.536	3160
464.755	3126
464.975	3064
465.195	2959
465.414	2850
465.634	2700
465.854	2747
466.073	2691
466.293	2676
466.512	2701
466.732	2705
466.951	2860
467.171	3074
467.391	2993
467.61	2739
467.829	2643
468.049	2607
468.268	2585
468.488	2547
468.707	2601
468.927	2581
469.146	2584
469.365	2667
469.585	2661
469.804	2672
470.023	2746
470.243	2835
470.462	2891
470.681	3037
470.901	3407
471.12	3900
471.339	3817
471.558	3195
471.777	2939
471.997	2812
472.216	2706
472.435	2660
472.654	2604
472.873	2585
473.092	2610
473.311	2607
473.53	2600
473.749	2758
473.968	2764
474.187	2643
474.406	2583
474.625	2650
474.844	2641
475.063	2657
475.282	2662
475.501	2656
475.72	2634
475.939	2680
476.158	2718
476.377	2729
476.596	2740
476.814	2780
477.033	2743
477.252	2840
477.471	2895
477.69	2933
477.908	2947
478.127	2938
478.346	2940
478.564	3018
478.783	2984
479.002	3049
479.22	3149
479.439	3092
479.658	3115
479.876	3171
480.095	3166
480.313	3249
480.532	3247
480.751	3251
480.969	3178
481.188	3147
481.406	3167
481.624	3191
481.843	3236
482.061	3238
482.28	3205
482.498	3184
482.717	3145
482.935	3212
483.153	3233
483.372	3291
483.59	3335
483.808	3368
484.027	3491
484.245	3665
484.463	4172
484.681	4680
484.9	4275
485.118	3917
485.336	3810
485.554	3955
485.772	4146
485.99	4698
486.209	5005
486.427	4196
486.645	3719
486.863	3585
487.081	3509
487.299	3393
487.517	3399
487.735	3430
487.953	3434
488.171	3387
488.389	3343
488.607	3317
488.825	3294
489.043	3232
489.261	3223
489.479	3196
489.696	3276
489.914	3277
490.132	3305
490.35	3325
490.568	3280
490.786	3322
491.003	3363
491.221	3445
491.439	3431
491.657	3400
491.874	3425
492.092	3420
492.31	3443
492.527	3434
492.745	3425
492.963	3379
493.18	3410
493.398	3403
493.615	3405
493.833	3402
494.05	3370
494.268	3389
494.485	3459
494.703	3423
494.92	3495
495.138	3419
495.355	3425
495.573	3453
495.79	3443
496.008	3476
496.225	3505
496.442	3609
496.66	3730
496.877	3927
497.094	3903
497.312	3700
497.529	3699
497.746	3777
497.963	3838
498.181	3913
498.398	3953
498.615	4106
498.832	4271
499.049	4468
499.267	4845
499.484	5098
499.701	5018
499.918	5179
500.135	5434
500.352	5723
500.569	5778
500.786	5617
501.003	5511
501.22	5252
501.437	4981
501.654	4724
501.871	4508
502.088	4339
502.305	4172
502.522	4045
502.739	3903
502.956	3841
503.172	3804
503.389	3735
503.606	3635
503.823	3591
504.04	3605
504.256	3584
504.473	3604
504.69	3544
504.907	3462
505.123	3464
505.34	3319
505.557	3248
505.773	3251
505.99	3229
506.207	3099
506.423	3098
506.64	3139
506.856	3064
507.073	3051
507.289	3031
507.506	3026
507.722	3043
507.939	2979
508.155	2972
508.372	2922
508.588	2951
508.805	2957
509.021	2931
509.238	2993
509.454	3199
509.67	3364
509.887	3201
510.103	3021
510.319	2943
510.536	2949
510.752	2947
510.968	2932
511.184	2882
511.401	2892
511.617	2831
511.833	2805
512.049	2767
512.265	2819
512.481	2852
512.698	2833
512.914	2833
513.13	2878
513.346	2815
513.562	2838
513.778	2885
513.994	2916
514.21	3019
514.426	3255
514.642	3320
514.858	3003
515.074	2967
515.29	2871
515.506	2911
515.721	2996
515.937	2971
516.153	2938
516.369	2966
516.585	2981
516.801	3066
517.016	3117
517.232	3131
517.448	3172
517.664	3224
517.879	3233
518.095	3185
518.311	3183
518.527	3140
518.742	3137
518.958	3214
519.173	3253
519.389	3136
519.605	3011
519.82	2958
520.036	2888
520.251	2828
520.467	2829
520.682	2790
520.898	2829
521.113	2772
521.329	2775
521.544	2756
521.76	2757
521.975	2780
522.19	2777
522.406	2769
522.621	2701
522.836	2733
523.052	2722
523.267	2687
523.482	2737
523.698	2721
523.913	2668
524.128	2706
524.343	2739
524.559	2674
524.774	2704
524.989	2671
525.204	2721
525.419	2675
525.634	2707
525.849	2721
526.064	2712
526.28	2699
526.495	2707
526.71	2721
526.925	2748
527.14	2721
527.355	2748
527.57	2791
527.785	2747
527.999	2741
528.214	2818
528.429	2870
528.644	2817
528.859	2906
529.074	2845
529.289	2900
529.503	2927
529.718	2890
529.933	2871
530.148	2871
530.363	2912
530.577	2908
530.792	2981
531.007	2900
531.221	2947
531.436	2973
531.651	3008
531.865	3053
532.08	3079
532.295	3209
532.509	3460
532.724	3450
532.938	3518
533.153	3644
533.367	3819
533.582	4062
533.796	4024
534.011	3854
534.225	3663
534.44	3524
534.654	3465
534.868	3352
535.083	3300
535.297	3292
535.511	3203
535.726	3103
535.94	3123
536.154	3063
536.369	2965
536.583	3010
536.797	2975
537.011	2875
537.225	2838
537.44	2887
537.654	2841
537.868	2788
538.082	2755
538.296	2752
538.51	2760
538.724	2715
538.938	2713
539.153	2713
539.367	2696
539.581	2667
539.795	2599
540.009	2627
540.222	2629
540.436	2636
540.65	2638
540.864	2669
541.078	2748
541.292	2873
541.506	3347
541.72	3628
541.934	3130
542.147	2924
542.361	2805
