Data from SnStandardFlinnAPT0064_LampEnergy10_LIBS07252019.E.O._I.C._HRD10591_15-21-05-493.txt Node
Date: Thu Jul 25 15:21:05 EDT 2019
User: cochatt
Spectrometer: HR+D1059
Trigger mode: 1
Integration Time (sec): 1.000000E-1
Scans to average: 1
Electric dark correction enabled: true
Nonlinearity correction enabled: false
Boxcar width: 0
XAxis mode: Wavelengths
Number of Pixels in Spectrum: 2048
>>>>>Begin Spectral Data<<<<<
223.165	-23.25
223.4	-23.25
223.635	-23.25
223.869	-28.25
224.104	-27.25
224.338	-10.25
224.573	-21.25
224.808	-5.25
225.042	13.75
225.277	-13.25
225.511	6.75
225.746	3.75
225.98	0.75
226.215	5.75
226.449	18.75
226.683	25.75
226.918	23.75
227.152	29.75
227.387	30.75
227.621	38.75
227.856	37.75
228.09	57.75
228.324	47.75
228.559	47.75
228.793	124.75
229.027	303.75
229.262	325.75
229.496	320.75
229.73	291.75
229.964	314.75
230.199	292.75
230.433	313.75
230.667	319.75
230.901	329.75
231.136	338.75
231.37	365.75
231.604	381.75
231.838	447.75
232.072	519.75
232.306	545.75
232.541	464.75
232.775	422.75
233.009	396.75
233.243	417.75
233.477	465.75
233.711	506.75
233.945	581.75
234.179	521.75
234.413	434.75
234.647	441.75
234.881	459.75
235.115	514.75
235.349	599.75
235.583	763.75
235.817	988.75
236.051	970.75
236.285	660.75
236.519	521.75
236.753	503.75
236.987	491.75
237.221	530.75
237.455	524.75
237.689	474.75
237.922	454.75
238.156	474.75
238.39	487.75
238.624	482.75
238.858	498.75
239.091	482.75
239.325	501.75
239.559	496.75
239.793	514.75
240.027	535.75
240.26	554.75
240.494	567.75
240.728	570.75
240.961	598.75
241.195	653.75
241.429	659.75
241.662	683.75
241.896	767.75
242.13	941.75
242.363	1237.75
242.597	1585.75
242.83	1495.75
243.064	1521.75
243.298	1744.75
243.531	1484.75
243.765	969.75
243.998	767.75
244.232	697.75
244.465	637.75
244.699	640.75
244.932	651.75
245.166	668.75
245.399	673.75
245.633	687.75
245.866	699.75
246.099	648.75
246.333	633.75
246.566	638.75
246.8	634.75
247.033	659.75
247.266	638.75
247.5	646.75
247.733	653.75
247.966	689.75
248.2	742.75
248.433	864.75
248.666	975.75
248.899	922.75
249.133	865.75
249.366	875.75
249.599	962.75
249.832	1096.75
250.066	1054.75
250.299	863.75
250.532	768.75
250.765	756.75
250.998	748.75
251.231	738.75
251.465	729.75
251.698	740.75
251.931	747.75
252.164	732.75
252.397	772.75
252.63	778.75
252.863	793.75
253.096	769.75
253.329	749.75
253.562	766.75
253.795	785.75
254.028	799.75
254.261	841.75
254.494	860.75
254.727	1011.75
254.96	1219.75
255.193	1210.75
255.426	966.75
255.659	865.75
255.892	843.75
256.124	837.75
256.357	887.75
256.59	890.75
256.823	980.75
257.056	1107.75
257.289	1355.75
257.521	1480.75
257.754	1181.75
257.987	993.75
258.22	929.75
258.452	910.75
258.685	907.75
258.918	966.75
259.151	977.75
259.383	1095.75
259.616	1201.75
259.849	1242.75
260.081	1101.75
260.314	1005.75
260.547	927.75
260.779	930.75
261.012	944.75
261.244	960.75
261.477	949.75
261.71	982.75
261.942	978.75
262.175	1043.75
262.407	1045.75
262.64	1057.75
262.872	1083.75
263.105	1143.75
263.337	1203.75
263.57	1274.75
263.802	1296.75
264.035	1301.75
264.267	1357.75
264.499	1402.75
264.732	1411.75
264.964	1421.75
265.197	1442.75
265.429	1442.75
265.661	1449.75
265.894	1590.75
266.126	1761.75
266.358	1935.75
266.591	1901.75
266.823	1615.75
267.055	1469.75
267.287	1457.75
267.52	1351.75
267.752	1329.75
267.984	1254.75
268.216	1275.75
268.448	1247.75
268.681	1277.75
268.913	1237.75
269.145	1218.75
269.377	1271.75
269.609	1263.75
269.841	1305.75
270.073	1374.75
270.306	1594.75
270.538	2109.75
270.77	3136.75
271.002	3837.75
271.234	2733.75
271.466	1871.75
271.698	1532.75
271.93	1423.75
272.162	1320.75
272.394	1286.75
272.626	1279.75
272.858	1219.75
273.09	1226.75
273.322	1207.75
273.553	1207.75
273.785	1206.75
274.017	1184.75
274.249	1204.75
274.481	1237.75
274.713	1206.75
274.945	1222.75
275.176	1230.75
275.408	1218.75
275.64	1224.75
275.872	1239.75
276.104	1252.75
276.335	1256.75
276.567	1282.75
276.799	1285.75
277.031	1287.75
277.262	1316.75
277.494	1415.75
277.726	1607.75
277.957	1866.75
278.189	2081.75
278.421	1958.75
278.652	1749.75
278.884	1675.75
279.115	1498.75
279.347	1411.75
279.579	1409.75
279.81	1377.75
280.042	1375.75
280.273	1417.75
280.505	1457.75
280.736	1525.75
280.968	1566.75
281.199	1784.75
281.431	2018.75
281.662	2081.75
281.894	1806.75
282.125	1674.75
282.356	1621.75
282.588	1631.75
282.819	1709.75
283.051	1844.75
283.282	2029.75
283.513	2463.75
283.745	3433.75
283.976	5530.75
284.207	7865.75
284.439	7158.75
284.67	4546.75
284.901	3731.75
285.132	3703.75
285.364	3597.75
285.595	2709.75
285.826	2414.75
286.057	2781.75
286.288	3779.75
286.52	5070.75
286.751	4824.75
286.982	3047.75
287.213	2250.75
287.444	1995.75
287.675	1836.75
287.906	1792.75
288.138	1761.75
288.369	1685.75
288.6	1700.75
288.831	1689.75
289.062	1657.75
289.293	1642.75
289.524	1701.75
289.755	1739.75
289.986	1691.75
290.217	1734.75
290.448	1721.75
290.679	1744.75
290.91	1754.75
291.141	1878.75
291.371	2031.75
291.602	2109.75
291.833	1899.75
292.064	1770.75
292.295	1700.75
292.526	1678.75
292.757	1635.75
292.987	1621.75
293.218	1575.75
293.449	1603.75
293.68	1582.75
293.91	1557.75
294.141	1522.75
294.372	1573.75
294.603	1569.75
294.833	1561.75
295.064	1574.75
295.295	1568.75
295.525	1517.75
295.756	1603.75
295.987	1566.75
296.217	1583.75
296.448	1577.75
296.679	1611.75
296.909	1587.75
297.14	1642.75
297.37	1631.75
297.601	1653.75
297.831	1605.75
298.062	1647.75
298.292	1659.75
298.523	1694.75
298.753	1697.75
298.984	1705.75
299.214	1750.75
299.445	1783.75
299.675	1771.75
299.905	1815.75
300.136	1903.75
300.366	2150.75
300.597	2727.75
300.827	3772.75
301.057	5136.75
301.288	5125.75
301.518	3319.75
301.748	2563.75
301.979	2362.75
302.209	2291.75
302.439	2321.75
302.669	2467.75
302.9	2917.75
303.13	4117.75
303.36	5989.75
303.59	8026.75
303.82	6868.75
304.051	4247.75
304.281	3023.75
304.511	2543.75
304.741	2359.75
304.971	2161.75
305.201	2100.75
305.431	1983.75
305.661	1922.75
305.891	1904.75
306.121	1916.75
306.352	1893.75
306.582	1866.75
306.812	1804.75
307.042	1889.75
307.272	1818.75
307.502	1809.75
307.731	1815.75
307.961	1769.75
308.191	1798.75
308.421	1803.75
308.651	1849.75
308.881	1773.75
309.111	1809.75
309.341	1821.75
309.571	1843.75
309.8	1865.75
310.03	1837.75
310.26	1810.75
310.49	1823.75
310.72	1845.75
310.949	1862.75
311.179	1902.75
311.409	1943.75
311.639	1883.75
311.868	1929.75
312.098	1905.75
312.328	1929.75
312.557	1974.75
312.787	1990.75
313.017	1995.75
313.246	2001.75
313.476	1992.75
313.706	2094.75
313.935	2226.75
314.165	2347.75
314.394	2529.75
314.624	2366.75
314.853	2213.75
315.083	2213.75
315.312	2174.75
315.542	2208.75
315.771	2205.75
316.001	2249.75
316.23	2334.75
316.46	2420.75
316.689	2657.75
316.919	3149.75
317.148	4609.75
317.377	6919.75
317.607	10136.75
317.836	10531.75
318.065	6525.75
318.295	4296.75
318.524	3432.75
318.753	2963.75
318.983	2749.75
319.212	2581.75
319.441	2506.75
319.67	2477.75
319.9	2388.75
320.129	2351.75
320.358	2367.75
320.587	2314.75
320.816	2366.75
321.046	2346.75
321.275	2379.75
321.504	2328.75
321.733	2415.75
321.962	2472.75
322.191	2536.75
322.42	2514.75
322.649	2498.75
322.878	2523.75
323.108	2491.75
323.337	2564.75
323.566	2531.75
323.795	2651.75
324.024	2615.75
324.253	2692.75
324.482	2831.75
324.71	2965.75
324.939	3233.75
325.168	3271.75
325.397	3382.75
325.626	3971.75
325.855	5489.75
326.084	8583.75
326.313	12398.75
326.542	13181.75
326.77	8925.75
326.999	5873.75
327.228	4989.75
327.457	4681.75
327.686	4803.75
327.914	5110.75
328.143	5901.75
328.372	7059.75
328.6	7601.75
328.829	6874.75
329.058	5752.75
329.287	5080.75
329.515	4657.75
329.744	4320.75
329.972	4086.75
330.201	3930.75
330.43	3725.75
330.658	3692.75
330.887	3581.75
331.115	3530.75
331.344	3542.75
331.572	3472.75
331.801	3501.75
332.03	3509.75
332.258	3582.75
332.486	3772.75
332.715	4312.75
332.943	5281.75
333.172	6533.75
333.4	6461.75
333.629	4970.75
333.857	4568.75
334.085	4470.75
334.314	4729.75
334.542	5139.75
334.771	6034.75
334.999	7346.75
335.227	9157.75
335.455	10338.75
335.684	9302.75
335.912	7609.75
336.14	6462.75
336.369	5733.75
336.597	5254.75
336.825	4772.75
337.053	4517.75
337.281	4244.75
337.51	4043.75
337.738	3853.75
337.966	3740.75
338.194	3547.75
338.422	3495.75
338.65	3429.75
338.878	3369.75
339.106	3353.75
339.334	3194.75
339.562	3151.75
339.79	3049.75
340.018	3108.75
340.246	3079.75
340.474	3026.75
340.702	3043.75
340.93	3051.75
341.158	3023.75
341.386	3035.75
341.614	2952.75
341.842	2890.75
342.07	2871.75
342.298	2774.75
342.526	2799.75
342.754	2745.75
342.981	2723.75
343.209	2760.75
343.437	2753.75
343.665	2825.75
343.893	2775.75
344.12	2789.75
344.348	2742.75
344.576	2733.75
344.804	2719.75
345.031	2621.75
345.259	2634.75
345.487	2617.75
345.714	2585.75
345.942	2532.75
346.17	2559.75
346.397	2542.75
346.625	2526.75
346.853	2490.75
347.08	2533.75
347.308	2510.75
347.535	2511.75
347.763	2511.75
347.99	2511.75
348.218	2470.75
348.445	2523.75
348.673	2437.75
348.9	2464.75
349.128	2462.75
349.355	2485.75
349.583	2421.75
349.81	2411.75
350.037	2394.75
350.265	2409.75
350.492	2445.75
350.72	2423.75
350.947	2382.75
351.174	2427.75
351.402	2419.75
351.629	2434.75
351.856	2379.75
352.083	2445.75
352.311	2378.75
352.538	2383.75
352.765	2391.75
352.992	2379.75
353.22	2329.75
353.447	2395.75
353.674	2386.75
353.901	2380.75
354.128	2445.75
354.355	2408.75
354.583	2413.75
354.81	2430.75
355.037	2471.75
355.264	2416.75
355.491	2466.75
355.718	2470.75
355.945	2450.75
356.172	2456.75
356.399	2439.75
356.626	2487.75
356.853	2541.75
357.08	2518.75
357.307	2519.75
357.534	2611.75
357.761	2591.75
357.988	2600.75
358.215	2557.75
358.441	2525.75
358.668	2537.75
358.895	2510.75
359.122	2546.75
359.349	2521.75
359.576	2598.75
359.802	2585.75
360.029	2543.75
360.256	2514.75
360.483	2581.75
360.709	2545.75
360.936	2558.75
361.163	2576.75
361.39	2568.75
361.616	2594.75
361.843	2580.75
362.07	2561.75
362.296	2599.75
362.523	2559.75
362.749	2569.75
362.976	2563.75
363.203	2529.75
363.429	2530.75
363.656	2575.75
363.882	2548.75
364.109	2550.75
364.335	2580.75
364.562	2527.75
364.788	2531.75
365.015	2581.75
365.241	2659.75
365.468	2805.75
365.694	2949.75
365.92	2825.75
366.147	2618.75
366.373	2647.75
366.599	2612.75
366.826	2614.75
367.052	2598.75
367.278	2618.75
367.505	2617.75
367.731	2582.75
367.957	2602.75
368.184	2569.75
368.41	2709.75
368.636	2638.75
368.862	2644.75
369.089	2638.75
369.315	2647.75
369.541	2636.75
369.767	2654.75
369.993	2651.75
370.219	2628.75
370.445	2613.75
370.672	2684.75
370.898	2643.75
371.124	2661.75
371.35	2719.75
371.576	2741.75
371.802	2751.75
372.028	2779.75
372.254	2712.75
372.48	2718.75
372.706	2814.75
372.932	2777.75
373.158	2811.75
373.384	2818.75
373.61	2786.75
373.835	2818.75
374.061	2793.75
374.287	2839.75
374.513	2821.75
374.739	2877.75
374.965	2907.75
375.191	2906.75
375.416	2904.75
375.642	2857.75
375.868	2869.75
376.094	2804.75
376.319	2802.75
376.545	2773.75
376.771	2750.75
376.997	2706.75
377.222	2772.75
377.448	2724.75
377.674	2784.75
377.899	2752.75
378.125	2703.75
378.35	2750.75
378.576	2717.75
378.802	2785.75
379.027	2821.75
379.253	2875.75
379.478	3072.75
379.704	3608.75
379.929	5106.75
380.155	7829.75
380.38	8567.75
380.606	5254.75
380.831	3630.75
381.057	3197.75
381.282	2993.75
381.507	2885.75
381.733	2817.75
381.958	2745.75
382.184	2776.75
382.409	2743.75
382.634	2705.75
382.86	2653.75
383.085	2717.75
383.31	2672.75
383.535	2706.75
383.761	2661.75
383.986	2720.75
384.211	2770.75
384.436	2748.75
384.662	2810.75
384.887	2806.75
385.112	2746.75
385.337	2808.75
385.562	2791.75
385.787	2760.75
386.013	2744.75
386.238	2752.75
386.463	2761.75
386.688	2819.75
386.913	2775.75
387.138	2753.75
387.363	2776.75
387.588	2784.75
387.813	2828.75
388.038	2761.75
388.263	2706.75
388.488	2765.75
388.713	2742.75
388.938	2789.75
389.163	2788.75
389.387	2832.75
389.612	2764.75
389.837	2795.75
390.062	2767.75
390.287	2856.75
390.512	2773.75
390.736	2863.75
390.961	2863.75
391.186	2873.75
391.411	2923.75
391.636	2934.75
391.86	2906.75
392.085	2946.75
392.31	2853.75
392.534	2887.75
392.759	2836.75
392.984	2791.75
393.208	2847.75
393.433	2805.75
393.658	2790.75
393.882	2771.75
394.107	2861.75
394.331	2862.75
394.556	2813.75
394.78	2870.75
395.005	2863.75
395.229	2792.75
395.454	2925.75
395.678	2889.75
395.903	2907.75
396.127	2899.75
396.352	2866.75
396.576	2811.75
396.801	2850.75
397.025	2890.75
397.249	2941.75
397.474	2923.75
397.698	2879.75
397.922	2961.75
398.147	2919.75
398.371	3026.75
398.595	3007.75
398.82	3137.75
399.044	3217.75
399.268	3364.75
399.492	3538.75
399.717	3651.75
399.941	3720.75
400.165	3492.75
400.389	3402.75
400.613	3240.75
400.837	3162.75
401.062	3115.75
401.286	3071.75
401.51	3084.75
401.734	3030.75
401.958	3128.75
402.182	3060.75
402.406	3042.75
402.63	3108.75
402.854	3106.75
403.078	3063.75
403.302	3141.75
403.526	3169.75
403.75	3126.75
403.974	3189.75
404.198	3209.75
404.422	3203.75
404.645	3200.75
404.869	3147.75
405.093	3201.75
405.317	3158.75
405.541	3223.75
405.765	3257.75
405.988	3307.75
406.212	3257.75
406.436	3254.75
406.66	3338.75
406.883	3291.75
407.107	3374.75
407.331	3467.75
407.555	3541.75
407.778	3461.75
408.002	3387.75
408.226	3381.75
408.449	3392.75
408.673	3357.75
408.896	3281.75
409.12	3199.75
409.344	3238.75
409.567	3142.75
409.791	3177.75
410.014	3130.75
410.238	3121.75
410.461	3130.75
410.685	3087.75
410.908	3133.75
411.132	3202.75
411.355	3062.75
411.578	3094.75
411.802	3028.75
412.025	3047.75
412.249	3039.75
412.472	3059.75
412.695	3001.75
412.919	2981.75
413.142	2952.75
413.365	3025.75
413.589	3027.75
413.812	2976.75
414.035	3012.75
414.258	3026.75
414.482	3021.75
414.705	2997.75
414.928	3002.75
415.151	2995.75
415.374	2945.75
415.597	2981.75
415.821	2874.75
416.044	2871.75
416.267	2817.75
416.49	2838.75
416.713	2823.75
416.936	2864.75
417.159	2806.75
417.382	2851.75
417.605	2826.75
417.828	2837.75
418.051	2902.75
418.274	2857.75
418.497	2904.75
418.72	2967.75
418.943	2919.75
419.166	3048.75
419.389	3223.75
419.611	3160.75
419.834	3030.75
420.057	3032.75
420.28	2925.75
420.503	2809.75
420.726	2875.75
420.948	2896.75
421.171	2885.75
421.394	2961.75
421.617	2846.75
421.839	2897.75
422.062	2888.75
422.285	2855.75
422.507	2907.75
422.73	2973.75
422.953	2970.75
423.175	2964.75
423.398	3033.75
423.621	2888.75
423.843	2884.75
424.066	2914.75
424.288	2825.75
424.511	2863.75
424.733	2809.75
424.956	2847.75
425.178	2865.75
425.401	2830.75
425.623	2843.75
425.846	2768.75
426.068	2781.75
426.291	2804.75
426.513	2737.75
426.735	2739.75
426.958	2760.75
427.18	2691.75
427.402	2727.75
427.625	2738.75
427.847	2728.75
428.069	2644.75
428.292	2697.75
428.514	2640.75
428.736	2698.75
428.958	2698.75
429.181	2606.75
429.403	2582.75
429.625	2631.75
429.847	2681.75
430.069	2724.75
430.292	2798.75
430.514	2869.75
430.736	2865.75
430.958	2675.75
431.18	2650.75
431.402	2651.75
431.624	2645.75
431.846	2631.75
432.068	2615.75
432.29	2623.75
432.512	2614.75
432.734	2718.75
432.956	2627.75
433.178	2615.75
433.4	2652.75
433.622	2673.75
433.844	2614.75
434.066	2634.75
434.287	2701.75
434.509	2743.75
434.731	2822.75
434.953	2740.75
435.175	2778.75
435.397	2797.75
435.618	2667.75
435.84	2646.75
436.062	2631.75
436.284	2641.75
436.505	2600.75
436.727	2624.75
436.949	2617.75
437.17	2615.75
437.392	2587.75
437.614	2595.75
437.835	2553.75
438.057	2528.75
438.278	2530.75
438.5	2552.75
438.721	2605.75
438.943	2709.75
439.165	2718.75
439.386	2742.75
439.608	2749.75
439.829	2756.75
440.05	2785.75
440.272	2852.75
440.493	2766.75
440.715	2730.75
440.936	2748.75
441.158	2733.75
441.379	2744.75
441.6	2875.75
441.822	2882.75
442.043	3058.75
442.264	3176.75
442.486	2913.75
442.707	2913.75
442.928	2805.75
443.149	2841.75
443.371	2781.75
443.592	2829.75
443.813	2871.75
444.034	2859.75
444.255	2902.75
444.476	2919.75
444.698	2987.75
444.919	3030.75
445.14	3108.75
445.361	2989.75
445.582	2882.75
445.803	2888.75
446.024	2760.75
446.245	2795.75
446.466	2767.75
446.687	2744.75
446.908	2737.75
447.129	2679.75
447.35	2672.75
447.571	2638.75
447.792	2575.75
448.013	2619.75
448.234	2573.75
448.455	2574.75
448.675	2626.75
448.896	2722.75
449.117	2759.75
449.338	3017.75
449.559	3106.75
449.779	2794.75
450	2599.75
450.221	2594.75
450.442	2548.75
450.662	2559.75
450.883	2505.75
451.104	2523.75
451.324	2530.75
451.545	2511.75
451.766	2575.75
451.986	2620.75
452.207	2774.75
452.428	3613.75
452.648	5470.75
452.869	4563.75
453.089	3205.75
453.31	2995.75
453.53	2977.75
453.751	3028.75
453.971	3156.75
454.192	3081.75
454.412	2736.75
454.633	2559.75
454.853	2569.75
455.073	2441.75
455.294	2458.75
455.514	2437.75
455.734	2423.75
455.955	2411.75
456.175	2401.75
456.395	2423.75
456.616	2434.75
456.836	2455.75
457.056	2449.75
457.276	2512.75
457.497	2640.75
457.717	2643.75
457.937	2611.75
458.157	2599.75
458.377	2579.75
458.598	2572.75
458.818	2581.75
459.038	2594.75
459.258	2559.75
459.478	2671.75
459.698	2691.75
459.918	2707.75
460.138	2721.75
460.358	2798.75
460.578	2833.75
460.798	2909.75
461.018	2872.75
461.238	2862.75
461.458	2891.75
461.678	2906.75
461.898	2993.75
462.118	2995.75
462.338	3020.75
462.558	3129.75
462.777	3149.75
462.997	3245.75
463.217	3334.75
463.437	3471.75
463.657	3554.75
463.876	3463.75
464.096	3356.75
464.316	3203.75
464.536	3126.75
464.755	3089.75
464.975	3015.75
465.195	2924.75
465.414	2811.75
465.634	2748.75
465.854	2726.75
466.073	2714.75
466.293	2654.75
466.512	2650.75
466.732	2694.75
466.951	2824.75
467.171	3000.75
467.391	2945.75
467.61	2710.75
467.829	2619.75
468.049	2635.75
468.268	2570.75
468.488	2568.75
468.707	2565.75
468.927	2570.75
469.146	2550.75
469.365	2581.75
469.585	2623.75
469.804	2689.75
470.023	2717.75
470.243	2795.75
470.462	2862.75
470.681	2943.75
470.901	3299.75
471.12	3697.75
471.339	3724.75
471.558	3136.75
471.777	2909.75
471.997	2750.75
472.216	2677.75
472.435	2719.75
472.654	2653.75
472.873	2602.75
473.092	2563.75
473.311	2614.75
473.53	2633.75
473.749	2735.75
473.968	2782.75
474.187	2638.75
474.406	2598.75
474.625	2628.75
474.844	2595.75
475.063	2616.75
475.282	2620.75
475.501	2627.75
475.72	2674.75
475.939	2705.75
476.158	2737.75
476.377	2762.75
476.596	2773.75
476.814	2729.75
477.033	2735.75
477.252	2785.75
477.471	2835.75
477.69	2865.75
477.908	2915.75
478.127	2953.75
478.346	3001.75
478.564	2995.75
478.783	3071.75
479.002	3093.75
479.22	3083.75
479.439	3136.75
479.658	3092.75
479.876	3142.75
480.095	3136.75
480.313	3217.75
480.532	3211.75
480.751	3230.75
480.969	3191.75
481.188	3171.75
481.406	3149.75
481.624	3121.75
481.843	3209.75
482.061	3203.75
482.28	3152.75
482.498	3141.75
482.717	3117.75
482.935	3188.75
483.153	3207.75
483.372	3219.75
483.59	3302.75
483.808	3363.75
484.027	3477.75
484.245	3629.75
484.463	3961.75
484.681	4450.75
484.9	4072.75
485.118	3809.75
485.336	3729.75
485.554	3813.75
485.772	4055.75
485.99	4485.75
486.209	4795.75
486.427	4086.75
486.645	3673.75
486.863	3564.75
487.081	3455.75
487.299	3380.75
487.517	3317.75
487.735	3431.75
