Data from SnStandardFlinnAPT0064_LampEnergy5.5_LIBS07252019.E.O._I.C._HRD10591_15-16-56-492.txt Node
Date: Thu Jul 25 15:16:56 EDT 2019
User: cochatt
Spectrometer: HR+D1059
Trigger mode: 1
Integration Time (sec): 1.000000E-1
Scans to average: 1
Electric dark correction enabled: true
Nonlinearity correction enabled: false
Boxcar width: 0
XAxis mode: Wavelengths
Number of Pixels in Spectrum: 2048
>>>>>Begin Spectral Data<<<<<
223.165	-14.56
223.4	-14.56
223.635	-14.56
223.869	-22.56
224.104	-12.56
224.338	-29.56
224.573	-17.56
224.808	1.44
225.042	-4.56
225.277	-0.56
225.511	-3.56
225.746	11.44
225.98	7.44
226.215	18.44
226.449	7.44
226.683	11.44
226.918	38.44
227.152	9.44
227.387	42.44
227.621	53.44
227.856	35.44
228.09	56.44
228.324	61.44
228.559	62.44
228.793	78.44
229.027	151.44
229.262	161.44
229.496	161.44
229.73	158.44
229.964	133.44
230.199	155.44
230.433	160.44
230.667	167.44
230.901	177.44
231.136	159.44
231.37	195.44
231.604	208.44
231.838	226.44
232.072	233.44
232.306	240.44
232.541	233.44
232.775	217.44
233.009	201.44
233.243	207.44
233.477	218.44
233.711	241.44
233.945	276.44
234.179	240.44
234.413	222.44
234.647	222.44
234.881	236.44
235.115	244.44
235.349	273.44
235.583	353.44
235.817	442.44
236.051	433.44
236.285	295.44
236.519	241.44
236.753	232.44
236.987	238.44
237.221	233.44
237.455	239.44
237.689	213.44
237.922	219.44
238.156	234.44
238.39	238.44
238.624	259.44
238.858	225.44
239.091	231.44
239.325	222.44
239.559	235.44
239.793	261.44
240.027	257.44
240.26	257.44
240.494	269.44
240.728	261.44
240.961	256.44
241.195	281.44
241.429	312.44
241.662	339.44
241.896	344.44
242.13	408.44
242.363	526.44
242.597	651.44
242.83	644.44
243.064	641.44
243.298	754.44
243.531	634.44
243.765	393.44
243.998	340.44
244.232	306.44
244.465	307.44
244.699	279.44
244.932	288.44
245.166	307.44
245.399	295.44
245.633	303.44
245.866	303.44
246.099	288.44
246.333	303.44
246.566	269.44
246.8	290.44
247.033	291.44
247.266	282.44
247.5	305.44
247.733	295.44
247.966	298.44
248.2	329.44
248.433	370.44
248.666	401.44
248.899	406.44
249.133	376.44
249.366	389.44
249.599	390.44
249.832	449.44
250.066	435.44
250.299	384.44
250.532	361.44
250.765	345.44
250.998	346.44
251.231	340.44
251.465	341.44
251.698	324.44
251.931	307.44
252.164	354.44
252.397	341.44
252.63	326.44
252.863	374.44
253.096	363.44
253.329	345.44
253.562	351.44
253.795	385.44
254.028	366.44
254.261	372.44
254.494	390.44
254.727	444.44
254.96	535.44
255.193	525.44
255.426	408.44
255.659	395.44
255.892	390.44
256.124	385.44
256.357	395.44
256.59	410.44
256.823	416.44
257.056	455.44
257.289	554.44
257.521	617.44
257.754	493.44
257.987	423.44
258.22	407.44
258.452	403.44
258.685	411.44
258.918	408.44
259.151	420.44
259.383	477.44
259.616	502.44
259.849	533.44
260.081	477.44
260.314	420.44
260.547	417.44
260.779	436.44
261.012	421.44
261.244	405.44
261.477	439.44
261.71	446.44
261.942	450.44
262.175	447.44
262.407	454.44
262.64	461.44
262.872	498.44
263.105	511.44
263.337	555.44
263.57	555.44
263.802	577.44
264.035	572.44
264.267	581.44
264.499	610.44
264.732	630.44
264.964	621.44
265.197	626.44
265.429	635.44
265.661	630.44
265.894	695.44
266.126	724.44
266.358	825.44
266.591	793.44
266.823	693.44
267.055	611.44
267.287	616.44
267.52	593.44
267.752	590.44
267.984	567.44
268.216	558.44
268.448	552.44
268.681	534.44
268.913	538.44
269.145	563.44
269.377	547.44
269.609	567.44
269.841	584.44
270.073	589.44
270.306	660.44
270.538	897.44
270.77	1321.44
271.002	1572.44
271.234	1131.44
271.466	749.44
271.698	635.44
271.93	594.44
272.162	579.44
272.394	553.44
272.626	539.44
272.858	528.44
273.09	551.44
273.322	551.44
273.553	535.44
273.785	536.44
274.017	541.44
274.249	523.44
274.481	523.44
274.713	504.44
274.945	560.44
275.176	510.44
275.408	533.44
275.64	547.44
275.872	517.44
276.104	549.44
276.335	570.44
276.567	563.44
276.799	526.44
277.031	574.44
277.262	591.44
277.494	598.44
277.726	668.44
277.957	727.44
278.189	829.44
278.421	805.44
278.652	710.44
278.884	693.44
279.115	626.44
279.347	609.44
279.579	595.44
279.81	620.44
280.042	589.44
280.273	595.44
280.505	602.44
280.736	632.44
280.968	703.44
281.199	729.44
281.431	794.44
281.662	803.44
281.894	755.44
282.125	699.44
282.356	695.44
282.588	687.44
282.819	689.44
283.051	760.44
283.282	861.44
283.513	992.44
283.745	1472.44
283.976	2330.44
284.207	3301.44
284.439	2855.44
284.67	1722.44
284.901	1408.44
285.132	1404.44
285.364	1340.44
285.595	1059.44
285.826	961.44
286.057	1139.44
286.288	1565.44
286.52	2035.44
286.751	1921.44
286.982	1201.44
287.213	878.44
287.444	821.44
287.675	758.44
287.906	732.44
288.138	714.44
288.369	734.44
288.6	724.44
288.831	686.44
289.062	713.44
289.293	701.44
289.524	722.44
289.755	697.44
289.986	718.44
290.217	731.44
290.448	715.44
290.679	732.44
290.91	736.44
291.141	775.44
291.371	807.44
291.602	827.44
291.833	779.44
292.064	739.44
292.295	712.44
292.526	699.44
292.757	684.44
292.987	692.44
293.218	682.44
293.449	693.44
293.68	663.44
293.91	697.44
294.141	678.44
294.372	660.44
294.603	655.44
294.833	695.44
295.064	670.44
295.295	675.44
295.525	643.44
295.756	646.44
295.987	663.44
296.217	667.44
296.448	684.44
296.679	665.44
296.909	683.44
297.14	686.44
297.37	690.44
297.601	695.44
297.831	683.44
298.062	687.44
298.292	723.44
298.523	709.44
298.753	720.44
298.984	726.44
299.214	734.44
299.445	705.44
299.675	733.44
299.905	761.44
300.136	785.44
300.366	885.44
300.597	1141.44
300.827	1553.44
301.057	2105.44
301.288	2037.44
301.518	1299.44
301.748	984.44
301.979	934.44
302.209	922.44
302.439	938.44
302.669	966.44
302.9	1151.44
303.13	1617.44
303.36	2366.44
303.59	3259.44
303.82	2771.44
304.051	1608.44
304.281	1217.44
304.511	982.44
304.741	919.44
304.971	866.44
305.201	838.44
305.431	818.44
305.661	805.44
305.891	793.44
306.121	790.44
306.352	800.44
306.582	762.44
306.812	773.44
307.042	784.44
307.272	797.44
307.502	790.44
307.731	777.44
307.961	753.44
308.191	735.44
308.421	769.44
308.651	773.44
308.881	754.44
309.111	775.44
309.341	735.44
309.571	767.44
309.8	797.44
310.03	781.44
310.26	769.44
310.49	801.44
310.72	797.44
310.949	828.44
311.179	796.44
311.409	818.44
311.639	812.44
311.868	829.44
312.098	805.44
312.328	811.44
312.557	846.44
312.787	835.44
313.017	847.44
313.246	846.44
313.476	864.44
313.706	868.44
313.935	903.44
314.165	949.44
314.394	999.44
314.624	955.44
314.853	894.44
315.083	917.44
315.312	888.44
315.542	931.44
315.771	897.44
316.001	919.44
316.23	949.44
316.46	988.44
316.689	1043.44
316.919	1261.44
317.148	1835.44
317.377	2882.44
317.607	4243.44
317.836	4329.44
318.065	2463.44
318.295	1624.44
318.524	1267.44
318.753	1161.44
318.983	1098.44
319.212	1048.44
319.441	1014.44
319.67	985.44
319.9	995.44
320.129	978.44
320.358	969.44
320.587	949.44
320.816	970.44
321.046	965.44
321.275	958.44
321.504	965.44
321.733	987.44
321.962	1017.44
322.191	1037.44
322.42	1066.44
322.649	1001.44
322.878	1025.44
323.108	1016.44
323.337	1053.44
323.566	1041.44
323.795	1038.44
324.024	1097.44
324.253	1103.44
324.482	1126.44
324.71	1204.44
324.939	1269.44
325.168	1297.44
325.397	1323.44
325.626	1594.44
325.855	2211.44
326.084	3451.44
326.313	5226.44
326.542	5462.44
326.77	3428.44
326.999	2233.44
327.228	1836.44
327.457	1760.44
327.686	1811.44
327.914	1928.44
328.143	2194.44
328.372	2494.44
328.6	2693.44
328.829	2531.44
329.058	2217.44
329.287	1951.44
329.515	1847.44
329.744	1691.44
329.972	1614.44
330.201	1541.44
330.43	1512.44
330.658	1479.44
330.887	1430.44
331.115	1406.44
331.344	1392.44
331.572	1404.44
331.801	1429.44
332.03	1442.44
332.258	1420.44
332.486	1507.44
332.715	1712.44
332.943	2050.44
333.172	2546.44
333.4	2455.44
333.629	1937.44
333.857	1766.44
334.085	1739.44
334.314	1863.44
334.542	1977.44
334.771	2272.44
334.999	2627.44
335.227	3258.44
335.455	3635.44
335.684	3414.44
335.912	2927.44
336.14	2463.44
336.369	2190.44
336.597	2025.44
336.825	1915.44
337.053	1807.44
337.281	1718.44
337.51	1579.44
337.738	1551.44
337.966	1531.44
338.194	1466.44
338.422	1408.44
338.65	1378.44
338.878	1380.44
339.106	1363.44
339.334	1301.44
339.562	1258.44
339.79	1294.44
340.018	1271.44
340.246	1261.44
340.474	1263.44
340.702	1253.44
340.93	1238.44
341.158	1240.44
341.386	1247.44
341.614	1228.44
341.842	1213.44
342.07	1167.44
342.298	1161.44
342.526	1168.44
342.754	1147.44
342.981	1137.44
343.209	1150.44
343.437	1159.44
343.665	1175.44
343.893	1166.44
344.12	1218.44
344.348	1179.44
344.576	1175.44
344.804	1149.44
345.031	1126.44
345.259	1088.44
345.487	1093.44
345.714	1069.44
345.942	1059.44
346.17	1093.44
346.397	1077.44
346.625	1055.44
346.853	1038.44
347.08	1084.44
347.308	1052.44
347.535	1079.44
347.763	1076.44
347.99	1051.44
348.218	1030.44
348.445	1033.44
348.673	1038.44
348.9	1000.44
349.128	1034.44
349.355	1011.44
349.583	1025.44
349.81	1037.44
350.037	987.44
350.265	1022.44
350.492	1019.44
350.72	1023.44
350.947	1034.44
351.174	1028.44
351.402	1003.44
351.629	1007.44
351.856	1015.44
352.083	1030.44
352.311	1029.44
352.538	1003.44
352.765	1021.44
352.992	1024.44
353.22	1006.44
353.447	1003.44
353.674	976.44
353.901	1013.44
354.128	1021.44
354.355	1023.44
354.583	975.44
354.81	1001.44
355.037	1023.44
355.264	1014.44
355.491	1003.44
355.718	1003.44
355.945	1035.44
356.172	1053.44
356.399	1045.44
356.626	1045.44
356.853	1050.44
357.08	1074.44
357.307	1047.44
357.534	1099.44
357.761	1080.44
357.988	1077.44
358.215	1073.44
358.441	1094.44
358.668	1060.44
358.895	1053.44
359.122	1067.44
359.349	1077.44
359.576	1101.44
359.802	1090.44
360.029	1089.44
360.256	1068.44
360.483	1079.44
360.709	1084.44
360.936	1087.44
361.163	1087.44
361.39	1062.44
361.616	1097.44
361.843	1085.44
362.07	1103.44
362.296	1081.44
362.523	1069.44
362.749	1090.44
362.976	1062.44
363.203	1080.44
363.429	1054.44
363.656	1089.44
363.882	1111.44
364.109	1086.44
364.335	1060.44
364.562	1084.44
364.788	1057.44
365.015	1103.44
365.241	1121.44
365.468	1146.44
365.694	1189.44
365.92	1149.44
366.147	1086.44
366.373	1109.44
366.599	1088.44
366.826	1116.44
367.052	1084.44
367.278	1118.44
367.505	1101.44
367.731	1122.44
367.957	1106.44
368.184	1093.44
368.41	1135.44
368.636	1114.44
368.862	1134.44
369.089	1141.44
369.315	1107.44
369.541	1145.44
369.767	1122.44
369.993	1125.44
370.219	1100.44
370.445	1128.44
370.672	1132.44
370.898	1142.44
371.124	1126.44
371.35	1145.44
371.576	1141.44
371.802	1148.44
372.028	1177.44
372.254	1194.44
372.48	1167.44
372.706	1194.44
372.932	1203.44
373.158	1185.44
373.384	1198.44
373.61	1171.44
373.835	1201.44
374.061	1162.44
374.287	1196.44
374.513	1204.44
374.739	1216.44
374.965	1227.44
375.191	1205.44
375.416	1215.44
375.642	1178.44
375.868	1219.44
376.094	1165.44
376.319	1157.44
376.545	1186.44
376.771	1165.44
376.997	1133.44
377.222	1167.44
377.448	1156.44
377.674	1166.44
377.899	1133.44
378.125	1146.44
378.35	1157.44
378.576	1132.44
378.802	1175.44
379.027	1178.44
379.253	1197.44
379.478	1253.44
379.704	1467.44
379.929	2070.44
380.155	3084.44
380.38	3262.44
380.606	2061.44
380.831	1493.44
381.057	1318.44
381.282	1242.44
381.507	1197.44
381.733	1181.44
381.958	1161.44
382.184	1167.44
382.409	1164.44
382.634	1130.44
382.86	1158.44
383.085	1138.44
383.31	1154.44
383.535	1142.44
383.761	1145.44
383.986	1158.44
384.211	1180.44
384.436	1150.44
384.662	1171.44
384.887	1163.44
385.112	1142.44
385.337	1213.44
385.562	1194.44
385.787	1173.44
386.013	1191.44
386.238	1208.44
386.463	1167.44
386.688	1213.44
386.913	1205.44
387.138	1172.44
387.363	1185.44
387.588	1193.44
387.813	1179.44
388.038	1198.44
388.263	1211.44
388.488	1178.44
388.713	1237.44
388.938	1193.44
389.163	1177.44
389.387	1189.44
389.612	1173.44
389.837	1190.44
390.062	1187.44
390.287	1190.44
390.512	1226.44
390.736	1205.44
390.961	1235.44
391.186	1242.44
391.411	1249.44
391.636	1238.44
391.86	1266.44
392.085	1250.44
392.31	1245.44
392.534	1262.44
392.759	1243.44
392.984	1229.44
393.208	1254.44
393.433	1238.44
393.658	1253.44
393.882	1215.44
394.107	1214.44
394.331	1214.44
394.556	1202.44
394.78	1206.44
395.005	1220.44
395.229	1204.44
395.454	1259.44
395.678	1229.44
395.903	1218.44
396.127	1232.44
396.352	1201.44
396.576	1241.44
396.801	1262.44
397.025	1254.44
397.249	1230.44
397.474	1275.44
397.698	1216.44
397.922	1326.44
398.147	1276.44
398.371	1284.44
398.595	1338.44
398.82	1342.44
399.044	1410.44
399.268	1446.44
399.492	1530.44
399.717	1571.44
399.941	1519.44
400.165	1514.44
400.389	1482.44
400.613	1415.44
400.837	1365.44
401.062	1341.44
401.286	1329.44
401.51	1339.44
401.734	1290.44
401.958	1330.44
402.182	1306.44
402.406	1329.44
402.63	1345.44
402.854	1311.44
403.078	1334.44
403.302	1347.44
403.526	1370.44
403.75	1375.44
403.974	1388.44
404.198	1357.44
404.422	1362.44
404.645	1355.44
404.869	1358.44
405.093	1350.44
405.317	1359.44
405.541	1362.44
405.765	1373.44
405.988	1409.44
406.212	1429.44
406.436	1371.44
406.66	1386.44
406.883	1418.44
407.107	1439.44
407.331	1448.44
407.555	1472.44
407.778	1487.44
408.002	1442.44
408.226	1431.44
408.449	1450.44
408.673	1395.44
408.896	1399.44
409.12	1388.44
409.344	1375.44
409.567	1333.44
409.791	1363.44
410.014	1348.44
410.238	1351.44
410.461	1342.44
410.685	1334.44
410.908	1323.44
411.132	1305.44
411.355	1335.44
411.578	1330.44
411.802	1339.44
412.025	1321.44
412.249	1300.44
412.472	1309.44
412.695	1306.44
412.919	1275.44
413.142	1324.44
413.365	1279.44
413.589	1315.44
413.812	1262.44
414.035	1276.44
414.258	1295.44
414.482	1266.44
414.705	1279.44
414.928	1312.44
415.151	1308.44
415.374	1258.44
415.597	1310.44
415.821	1235.44
416.044	1237.44
416.267	1268.44
416.49	1241.44
416.713	1263.44
416.936	1262.44
417.159	1195.44
417.382	1222.44
417.605	1191.44
417.828	1219.44
418.051	1253.44
418.274	1266.44
418.497	1265.44
418.72	1287.44
418.943	1254.44
419.166	1309.44
419.389	1413.44
419.611	1347.44
419.834	1319.44
420.057	1265.44
420.28	1261.44
420.503	1244.44
420.726	1242.44
420.948	1207.44
421.171	1249.44
421.394	1251.44
421.617	1237.44
421.839	1255.44
422.062	1247.44
422.285	1250.44
422.507	1284.44
422.73	1292.44
422.953	1308.44
423.175	1292.44
423.398	1270.44
423.621	1247.44
423.843	1269.44
424.066	1256.44
424.288	1258.44
424.511	1245.44
424.733	1273.44
424.956	1247.44
425.178	1231.44
425.401	1207.44
425.623	1235.44
425.846	1206.44
426.068	1223.44
426.291	1172.44
426.513	1208.44
426.735	1213.44
426.958	1179.44
427.18	1155.44
427.402	1217.44
427.625	1177.44
427.847	1173.44
428.069	1177.44
428.292	1153.44
428.514	1176.44
428.736	1159.44
428.958	1147.44
429.181	1149.44
429.403	1153.44
429.625	1157.44
429.847	1137.44
430.069	1161.44
430.292	1179.44
430.514	1208.44
430.736	1217.44
430.958	1156.44
431.18	1155.44
431.402	1185.44
431.624	1095.44
431.846	1110.44
432.068	1115.44
432.29	1131.44
432.512	1135.44
432.734	1156.44
432.956	1147.44
433.178	1180.44
433.4	1126.44
433.622	1153.44
433.844	1151.44
434.066	1159.44
434.287	1155.44
434.509	1154.44
434.731	1151.44
434.953	1185.44
435.175	1198.44
435.397	1164.44
435.618	1198.44
435.84	1162.44
436.062	1138.44
436.284	1168.44
436.505	1144.44
436.727	1165.44
436.949	1149.44
437.17	1142.44
437.392	1131.44
437.614	1104.44
437.835	1104.44
438.057	1097.44
438.278	1091.44
438.5	1111.44
438.721	1123.44
438.943	1161.44
439.165	1165.44
439.386	1183.44
439.608	1204.44
439.829	1186.44
440.05	1231.44
440.272	1225.44
440.493	1172.44
440.715	1192.44
440.936	1187.44
441.158	1209.44
441.379	1242.44
441.6	1285.44
441.822	1290.44
442.043	1331.44
442.264	1359.44
442.486	1259.44
442.707	1265.44
442.928	1209.44
443.149	1235.44
443.371	1210.44
443.592	1242.44
443.813	1241.44
444.034	1254.44
444.255	1273.44
444.476	1307.44
444.698	1295.44
444.919	1336.44
445.14	1407.44
445.361	1340.44
445.582	1292.44
445.803	1259.44
446.024	1237.44
446.245	1230.44
446.466	1234.44
446.687	1221.44
446.908	1231.44
447.129	1191.44
447.35	1185.44
447.571	1163.44
447.792	1125.44
448.013	1145.44
448.234	1128.44
448.455	1133.44
448.675	1154.44
448.896	1168.44
449.117	1192.44
449.338	1314.44
449.559	1367.44
449.779	1233.44
450	1115.44
450.221	1100.44
450.442	1101.44
450.662	1111.44
450.883	1085.44
451.104	1069.44
451.324	1096.44
451.545	1110.44
451.766	1113.44
451.986	1129.44
452.207	1188.44
452.428	1403.44
452.648	2015.44
452.869	1715.44
453.089	1267.44
453.31	1230.44
453.53	1183.44
453.751	1249.44
453.971	1295.44
454.192	1303.44
454.412	1132.44
454.633	1081.44
454.853	1080.44
455.073	1062.44
455.294	1067.44
455.514	1043.44
455.734	1047.44
455.955	1039.44
456.175	1044.44
456.395	1045.44
456.616	1032.44
456.836	1064.44
457.056	1058.44
457.276	1083.44
457.497	1118.44
457.717	1125.44
457.937	1129.44
458.157	1103.44
458.377	1109.44
458.598	1121.44
458.818	1122.44
459.038	1121.44
459.258	1122.44
459.478	1137.44
459.698	1169.44
459.918	1167.44
460.138	1186.44
460.358	1185.44
460.578	1230.44
460.798	1251.44
461.018	1221.44
461.238	1256.44
461.458	1252.44
461.678	1249.44
461.898	1277.44
462.118	1301.44
462.338	1322.44
462.558	1317.44
462.777	1350.44
462.997	1385.44
463.217	1463.44
463.437	1457.44
463.657	1486.44
463.876	1471.44
464.096	1431.44
464.316	1331.44
464.536	1366.44
464.755	1323.44
464.975	1301.44
465.195	1283.44
465.414	1219.44
465.634	1194.44
465.854	1153.44
466.073	1170.44
466.293	1145.44
466.512	1153.44
466.732	1183.44
466.951	1195.44
467.171	1316.44
467.391	1259.44
467.61	1175.44
467.829	1144.44
468.049	1129.44
468.268	1113.44
468.488	1124.44
468.707	1094.44
468.927	1139.44
469.146	1139.44
469.365	1139.44
469.585	1128.44
469.804	1171.44
470.023	1197.44
470.243	1219.44
470.462	1228.44
470.681	1283.44
470.901	1394.44
471.12	1612.44
471.339	1595.44
471.558	1338.44
471.777	1222.44
471.997	1195.44
472.216	1154.44
472.435	1113.44
472.654	1109.44
472.873	1117.44
473.092	1105.44
473.311	1137.44
473.53	1142.44
473.749	1148.44
473.968	1183.44
474.187	1150.44
474.406	1129.44
474.625	1110.44
474.844	1151.44
475.063	1152.44
475.282	1139.44
475.501	1153.44
475.72	1137.44
475.939	1142.44
476.158	1206.44
476.377	1208.44
476.596	1178.44
476.814	1163.44
477.033	1211.44
477.252	1195.44
477.471	1228.44
477.69	1238.44
477.908	1232.44
478.127	1285.44
478.346	1248.44
478.564	1305.44
478.783	1348.44
479.002	1333.44
479.22	1337.44
479.439	1362.44
479.658	1325.44
479.876	1316.44
480.095	1341.44
480.313	1365.44
480.532	1391.44
480.751	1380.44
480.969	1339.44
481.188	1329.44
481.406	1276.44
481.624	1332.44
481.843	1338.44
482.061	1364.44
482.28	1367.44
482.498	1358.44
482.717	1331.44
482.935	1361.44
483.153	1409.44
483.372	1387.44
483.59	1382.44
483.808	1410.44
484.027	1441.44
484.245	1498.44
484.463	1703.44
484.681	1880.44
484.9	1709.44
485.118	1603.44
485.336	1544.44
485.554	1572.44
485.772	1670.44
485.99	1868.44
486.209	2052.44
486.427	1705.44
486.645	1559.44
486.863	1513.44
487.081	1475.44
487.299	1467.44
487.517	1442.44
487.735	1484.44
487.953	1529.44
488.171	1476.44
488.389	1441.44
488.607	1420.44
488.825	1458.44
489.043	1348.44
489.261	1358.44
489.479	1415.44
489.696	1429.44
489.914	1425.44
490.132	1382.44
490.35	1423.44
490.568	1433.44
490.786	1445.44
491.003	1478.44
