Data from SnStandardFlinnAPT0064_QswitchEnergy10_LIBS07252019.E.O._I.C._HRD10591_15-26-50-973.txt Node
Date: Thu Jul 25 15:26:50 EDT 2019
User: cochatt
Spectrometer: HR+D1059
Trigger mode: 1
Integration Time (sec): 1.000000E-1
Scans to average: 1
Electric dark correction enabled: true
Nonlinearity correction enabled: false
Boxcar width: 0
XAxis mode: Wavelengths
Number of Pixels in Spectrum: 2048
>>>>>Begin Spectral Data<<<<<
223.165	-21.69
223.4	-21.69
223.635	-21.69
223.869	-20.69
224.104	-14.69
224.338	-27.69
224.573	-23.69
224.808	-14.69
225.042	-9.69
225.277	0.31
225.511	1.31
225.746	15.31
225.98	22.31
226.215	14.31
226.449	17.31
226.683	23.31
226.918	13.31
227.152	25.31
227.387	24.31
227.621	36.31
227.856	53.31
228.09	50.31
228.324	51.31
228.559	43.31
228.793	64.31
229.027	72.31
229.262	79.31
229.496	64.31
229.73	75.31
229.964	67.31
230.199	66.31
230.433	85.31
230.667	83.31
230.901	83.31
231.136	82.31
231.37	84.31
231.604	90.31
231.838	99.31
232.072	118.31
232.306	114.31
232.541	96.31
232.775	92.31
233.009	87.31
233.243	74.31
233.477	75.31
233.711	94.31
233.945	96.31
234.179	94.31
234.413	76.31
234.647	75.31
234.881	91.31
235.115	79.31
235.349	88.31
235.583	114.31
235.817	144.31
236.051	117.31
236.285	84.31
236.519	80.31
236.753	80.31
236.987	78.31
237.221	74.31
237.455	77.31
237.689	72.31
237.922	76.31
238.156	68.31
238.39	82.31
238.624	82.31
238.858	82.31
239.091	91.31
239.325	71.31
239.559	88.31
239.793	66.31
240.027	81.31
240.26	90.31
240.494	81.31
240.728	87.31
240.961	94.31
241.195	74.31
241.429	85.31
241.662	94.31
241.896	87.31
242.13	106.31
242.363	133.31
242.597	158.31
242.83	145.31
243.064	135.31
243.298	165.31
243.531	143.31
243.765	92.31
243.998	85.31
244.232	79.31
244.465	77.31
244.699	87.31
244.932	87.31
245.166	77.31
245.399	83.31
245.633	73.31
245.866	86.31
246.099	94.31
246.333	72.31
246.566	86.31
246.8	89.31
247.033	68.31
247.266	71.31
247.5	72.31
247.733	79.31
247.966	76.31
248.2	81.31
248.433	117.31
248.666	136.31
248.899	129.31
249.133	97.31
249.366	115.31
249.599	122.31
249.832	133.31
250.066	131.31
250.299	85.31
250.532	83.31
250.765	78.31
250.998	84.31
251.231	65.31
251.465	78.31
251.698	91.31
251.931	84.31
252.164	79.31
252.397	86.31
252.63	84.31
252.863	87.31
253.096	90.31
253.329	106.31
253.562	91.31
253.795	88.31
254.028	88.31
254.261	90.31
254.494	103.31
254.727	118.31
254.96	158.31
255.193	120.31
255.426	79.31
255.659	84.31
255.892	98.31
256.124	94.31
256.357	100.31
256.59	107.31
256.823	88.31
257.056	102.31
257.289	140.31
257.521	175.31
257.754	143.31
257.987	86.31
258.22	65.31
258.452	90.31
258.685	84.31
258.918	88.31
259.151	88.31
259.383	111.31
259.616	136.31
259.849	141.31
260.081	92.31
260.314	74.31
260.547	90.31
260.779	94.31
261.012	73.31
261.244	90.31
261.477	82.31
261.71	92.31
261.942	76.31
262.175	83.31
262.407	82.31
262.64	88.31
262.872	76.31
263.105	94.31
263.337	82.31
263.57	87.31
263.802	89.31
264.035	87.31
264.267	80.31
264.499	82.31
264.732	89.31
264.964	91.31
265.197	78.31
265.429	89.31
265.661	98.31
265.894	97.31
266.126	115.31
266.358	153.31
266.591	148.31
266.823	90.31
267.055	93.31
267.287	80.31
267.52	93.31
267.752	96.31
267.984	91.31
268.216	87.31
268.448	111.31
268.681	94.31
268.913	94.31
269.145	83.31
269.377	86.31
269.609	86.31
269.841	93.31
270.073	96.31
270.306	134.31
270.538	190.31
270.77	305.31
271.002	386.31
271.234	204.31
271.466	100.31
271.698	92.31
271.93	105.31
272.162	94.31
272.394	80.31
272.626	91.31
272.858	90.31
273.09	95.31
273.322	80.31
273.553	86.31
273.785	86.31
274.017	81.31
274.249	90.31
274.481	95.31
274.713	96.31
274.945	88.31
275.176	83.31
275.408	96.31
275.64	85.31
275.872	88.31
276.104	92.31
276.335	102.31
276.567	102.31
276.799	92.31
277.031	89.31
277.262	95.31
277.494	103.31
277.726	131.31
277.957	201.31
278.189	264.31
278.421	228.31
278.652	188.31
278.884	194.31
279.115	131.31
279.347	115.31
279.579	104.31
279.81	87.31
280.042	92.31
280.273	95.31
280.505	110.31
280.736	128.31
280.968	119.31
281.199	153.31
281.431	243.31
281.662	260.31
281.894	164.31
282.125	106.31
282.356	113.31
282.588	112.31
282.819	106.31
283.051	124.31
283.282	147.31
283.513	184.31
283.745	308.31
283.976	545.31
284.207	811.31
284.439	618.31
284.67	263.31
284.901	266.31
285.132	352.31
285.364	386.31
285.595	227.31
285.826	173.31
286.057	242.31
286.288	404.31
286.52	640.31
286.751	501.31
286.982	186.31
287.213	128.31
287.444	100.31
287.675	90.31
287.906	104.31
288.138	94.31
288.369	92.31
288.6	90.31
288.831	104.31
289.062	86.31
289.293	91.31
289.524	95.31
289.755	111.31
289.986	94.31
290.217	94.31
290.448	100.31
290.679	99.31
290.91	116.31
291.141	167.31
291.371	218.31
291.602	273.31
291.833	192.31
292.064	110.31
292.295	100.31
292.526	78.31
292.757	91.31
292.987	105.31
293.218	100.31
293.449	88.31
293.68	84.31
293.91	78.31
294.141	102.31
294.372	81.31
294.603	78.31
294.833	91.31
295.064	89.31
295.295	94.31
295.525	95.31
295.756	104.31
295.987	100.31
296.217	94.31
296.448	84.31
296.679	91.31
296.909	104.31
297.14	105.31
297.37	96.31
297.601	97.31
297.831	89.31
298.062	80.31
298.292	105.31
298.523	99.31
298.753	92.31
298.984	100.31
299.214	96.31
299.445	115.31
299.675	108.31
299.905	106.31
300.136	127.31
300.366	175.31
300.597	288.31
300.827	444.31
301.057	697.31
301.288	625.31
301.518	234.31
301.748	138.31
301.979	119.31
302.209	126.31
302.439	140.31
302.669	167.31
302.9	251.31
303.13	474.31
303.36	883.31
303.59	1200.31
303.82	842.31
304.051	276.31
304.281	150.31
304.511	110.31
304.741	112.31
304.971	118.31
305.201	108.31
305.431	102.31
305.661	95.31
305.891	86.31
306.121	100.31
306.352	104.31
306.582	116.31
306.812	92.31
307.042	123.31
307.272	96.31
307.502	96.31
307.731	94.31
307.961	91.31
308.191	91.31
308.421	90.31
308.651	92.31
308.881	110.31
309.111	104.31
309.341	89.31
309.571	96.31
309.8	112.31
310.03	105.31
310.26	116.31
310.49	122.31
310.72	119.31
310.949	98.31
311.179	98.31
311.409	113.31
311.639	91.31
311.868	113.31
312.098	120.31
312.328	128.31
312.557	127.31
312.787	103.31
313.017	105.31
313.246	119.31
313.476	109.31
313.706	131.31
313.935	148.31
314.165	181.31
314.394	230.31
314.624	164.31
314.853	140.31
315.083	132.31
315.312	111.31
315.542	112.31
315.771	119.31
316.001	122.31
316.23	131.31
316.46	154.31
316.689	176.31
316.919	259.31
317.148	489.31
317.377	904.31
317.607	1531.31
317.836	1402.31
318.065	539.31
318.295	205.31
318.524	139.31
318.753	132.31
318.983	129.31
319.212	118.31
319.441	115.31
319.67	118.31
319.9	117.31
320.129	105.31
320.358	115.31
320.587	118.31
320.816	118.31
321.046	106.31
321.275	114.31
321.504	124.31
321.733	120.31
321.962	155.31
322.191	160.31
322.42	140.31
322.649	115.31
322.878	132.31
323.108	140.31
323.337	118.31
323.566	124.31
323.795	127.31
324.024	118.31
324.253	146.31
324.482	180.31
324.71	218.31
324.939	268.31
325.168	235.31
325.397	183.31
325.626	254.31
325.855	487.31
326.084	922.31
326.313	1560.31
326.542	1611.31
326.77	615.31
326.999	268.31
327.228	210.31
327.457	228.31
327.686	211.31
327.914	133.31
328.143	134.31
328.372	127.31
328.6	120.31
328.829	120.31
329.058	114.31
329.287	114.31
329.515	117.31
329.744	115.31
329.972	113.31
330.201	102.31
330.43	119.31
330.658	100.31
330.887	118.31
331.115	119.31
331.344	120.31
331.572	124.31
331.801	112.31
332.03	123.31
332.258	136.31
332.486	168.31
332.715	300.31
332.943	515.31
333.172	782.31
333.4	676.31
333.629	235.31
333.857	144.31
334.085	114.31
334.314	115.31
334.542	119.31
334.771	120.31
334.999	129.31
335.227	117.31
335.455	118.31
335.684	120.31
335.912	130.31
336.14	122.31
336.369	106.31
336.597	100.31
336.825	95.31
337.053	98.31
337.281	105.31
337.51	117.31
337.738	119.31
337.966	113.31
338.194	106.31
338.422	122.31
338.65	130.31
338.878	106.31
339.106	114.31
339.334	114.31
339.562	109.31
339.79	124.31
340.018	107.31
340.246	114.31
340.474	121.31
340.702	111.31
340.93	111.31
341.158	106.31
341.386	97.31
341.614	111.31
341.842	116.31
342.07	115.31
342.298	103.31
342.526	106.31
342.754	105.31
342.981	116.31
343.209	122.31
343.437	126.31
343.665	112.31
343.893	94.31
344.12	110.31
344.348	100.31
344.576	98.31
344.804	105.31
345.031	107.31
345.259	108.31
345.487	106.31
345.714	106.31
345.942	98.31
346.17	109.31
346.397	96.31
346.625	106.31
346.853	89.31
347.08	84.31
347.308	101.31
347.535	111.31
347.763	116.31
347.99	79.31
348.218	94.31
348.445	111.31
348.673	115.31
348.9	123.31
349.128	105.31
349.355	118.31
349.583	124.31
349.81	107.31
350.037	96.31
350.265	98.31
350.492	99.31
350.72	130.31
350.947	104.31
351.174	111.31
351.402	103.31
351.629	98.31
351.856	111.31
352.083	114.31
352.311	108.31
352.538	105.31
352.765	111.31
352.992	103.31
353.22	90.31
353.447	98.31
353.674	100.31
353.901	103.31
354.128	84.31
354.355	81.31
354.583	92.31
354.81	112.31
355.037	100.31
355.264	98.31
355.491	81.31
355.718	86.31
355.945	98.31
356.172	98.31
356.399	101.31
356.626	104.31
356.853	121.31
357.08	114.31
357.307	96.31
357.534	99.31
357.761	100.31
357.988	94.31
358.215	111.31
358.441	106.31
358.668	110.31
358.895	118.31
359.122	110.31
359.349	111.31
359.576	102.31
359.802	103.31
360.029	113.31
360.256	105.31
360.483	96.31
360.709	104.31
360.936	112.31
361.163	119.31
361.39	114.31
361.616	94.31
361.843	119.31
362.07	102.31
362.296	122.31
362.523	109.31
362.749	99.31
362.976	103.31
363.203	102.31
363.429	107.31
363.656	97.31
363.882	110.31
364.109	96.31
364.335	97.31
364.562	91.31
364.788	110.31
365.015	107.31
365.241	130.31
365.468	180.31
365.694	237.31
365.92	202.31
366.147	119.31
366.373	98.31
366.599	96.31
366.826	98.31
367.052	101.31
367.278	104.31
367.505	98.31
367.731	99.31
367.957	88.31
368.184	104.31
368.41	109.31
368.636	126.31
368.862	103.31
369.089	97.31
369.315	99.31
369.541	104.31
369.767	99.31
369.993	114.31
370.219	98.31
370.445	112.31
370.672	107.31
370.898	93.31
371.124	112.31
371.35	109.31
371.576	109.31
371.802	112.31
372.028	99.31
372.254	107.31
372.48	110.31
372.706	110.31
372.932	105.31
373.158	104.31
373.384	111.31
373.61	101.31
373.835	112.31
374.061	105.31
374.287	110.31
374.513	105.31
374.739	95.31
374.965	103.31
375.191	95.31
375.416	105.31
375.642	117.31
375.868	100.31
376.094	95.31
376.319	99.31
376.545	89.31
376.771	113.31
376.997	123.31
377.222	104.31
377.448	103.31
377.674	106.31
377.899	108.31
378.125	110.31
378.35	104.31
378.576	111.31
378.802	101.31
379.027	114.31
379.253	141.31
379.478	176.31
379.704	299.31
379.929	758.31
380.155	1503.31
380.38	1626.31
380.606	528.31
380.831	194.31
381.057	156.31
381.282	130.31
381.507	104.31
381.733	114.31
381.958	118.31
382.184	102.31
382.409	105.31
382.634	97.31
382.86	94.31
383.085	111.31
383.31	104.31
383.535	88.31
383.761	111.31
383.986	97.31
384.211	99.31
384.436	106.31
384.662	110.31
384.887	102.31
385.112	107.31
385.337	92.31
385.562	115.31
385.787	108.31
386.013	103.31
386.238	99.31
386.463	98.31
386.688	100.31
386.913	112.31
387.138	96.31
387.363	100.31
387.588	110.31
387.813	118.31
388.038	105.31
388.263	91.31
388.488	104.31
388.713	92.31
388.938	103.31
389.163	84.31
389.387	103.31
389.612	95.31
389.837	87.31
390.062	102.31
390.287	98.31
390.512	83.31
390.736	95.31
390.961	103.31
391.186	92.31
391.411	108.31
391.636	103.31
391.86	94.31
392.085	100.31
392.31	98.31
392.534	99.31
392.759	104.31
392.984	101.31
393.208	119.31
393.433	135.31
393.658	127.31
393.882	99.31
394.107	89.31
394.331	91.31
394.556	97.31
394.78	92.31
395.005	98.31
395.229	104.31
395.454	99.31
395.678	104.31
395.903	100.31
396.127	100.31
396.352	112.31
396.576	108.31
396.801	112.31
397.025	104.31
397.249	100.31
397.474	108.31
397.698	93.31
397.922	91.31
398.147	87.31
398.371	97.31
398.595	109.31
398.82	104.31
399.044	94.31
399.268	99.31
399.492	97.31
399.717	102.31
399.941	95.31
400.165	96.31
400.389	95.31
400.613	102.31
400.837	100.31
401.062	97.31
401.286	96.31
401.51	98.31
401.734	92.31
401.958	89.31
402.182	98.31
402.406	91.31
402.63	101.31
402.854	95.31
403.078	94.31
403.302	93.31
403.526	81.31
403.75	107.31
403.974	84.31
404.198	96.31
404.422	98.31
404.645	89.31
404.869	96.31
405.093	100.31
405.317	95.31
405.541	96.31
405.765	118.31
405.988	126.31
406.212	115.31
406.436	103.31
406.66	95.31
406.883	98.31
407.107	104.31
407.331	107.31
407.555	97.31
407.778	106.31
408.002	108.31
408.226	102.31
408.449	106.31
408.673	102.31
408.896	94.31
409.12	95.31
409.344	88.31
409.567	93.31
409.791	102.31
410.014	89.31
410.238	102.31
410.461	100.31
410.685	85.31
410.908	87.31
411.132	104.31
411.355	95.31
411.578	102.31
411.802	105.31
412.025	102.31
412.249	95.31
412.472	90.31
412.695	98.31
412.919	93.31
413.142	100.31
413.365	95.31
413.589	85.31
413.812	105.31
414.035	99.31
414.258	99.31
414.482	85.31
414.705	116.31
414.928	107.31
415.151	90.31
415.374	97.31
415.597	78.31
415.821	112.31
416.044	92.31
416.267	87.31
416.49	102.31
416.713	90.31
416.936	99.31
417.159	87.31
417.382	90.31
417.605	103.31
417.828	90.31
418.051	95.31
418.274	88.31
418.497	98.31
418.72	101.31
418.943	107.31
419.166	111.31
419.389	99.31
419.611	90.31
419.834	106.31
420.057	104.31
420.28	91.31
420.503	108.31
420.726	102.31
420.948	84.31
421.171	79.31
421.394	88.31
421.617	90.31
421.839	100.31
422.062	81.31
422.285	84.31
422.507	103.31
422.73	122.31
422.953	138.31
423.175	114.31
423.398	88.31
423.621	109.31
423.843	104.31
424.066	96.31
424.288	97.31
424.511	102.31
424.733	105.31
424.956	85.31
425.178	93.31
425.401	103.31
425.623	87.31
425.846	100.31
426.068	92.31
426.291	93.31
426.513	87.31
426.735	87.31
426.958	100.31
427.18	102.31
427.402	81.31
427.625	80.31
427.847	91.31
428.069	94.31
428.292	98.31
428.514	97.31
428.736	96.31
428.958	84.31
429.181	92.31
429.403	94.31
429.625	80.31
429.847	95.31
430.069	97.31
430.292	114.31
430.514	104.31
430.736	102.31
430.958	97.31
431.18	106.31
431.402	99.31
431.624	104.31
431.846	91.31
432.068	86.31
432.29	75.31
432.512	90.31
432.734	94.31
432.956	91.31
433.178	100.31
433.4	96.31
433.622	98.31
433.844	100.31
434.066	95.31
434.287	91.31
434.509	91.31
434.731	96.31
434.953	90.31
435.175	91.31
435.397	89.31
435.618	100.31
435.84	93.31
436.062	83.31
436.284	99.31
436.505	104.31
436.727	95.31
436.949	85.31
437.17	84.31
437.392	87.31
437.614	97.31
437.835	96.31
438.057	91.31
438.278	90.31
438.5	94.31
438.721	103.31
438.943	102.31
439.165	122.31
439.386	108.31
439.608	96.31
439.829	90.31
440.05	121.31
440.272	128.31
440.493	91.31
440.715	87.31
440.936	95.31
441.158	100.31
441.379	100.31
441.6	105.31
441.822	103.31
442.043	116.31
442.264	132.31
442.486	123.31
442.707	104.31
442.928	104.31
443.149	108.31
443.371	92.31
443.592	85.31
443.813	85.31
444.034	93.31
444.255	91.31
444.476	88.31
444.698	86.31
444.919	95.31
445.14	217.31
445.361	150.31
445.582	100.31
445.803	94.31
446.024	105.31
446.245	95.31
446.466	115.31
446.687	124.31
446.908	103.31
447.129	98.31
447.35	84.31
447.571	92.31
447.792	108.31
448.013	86.31
448.234	113.31
448.455	99.31
448.675	103.31
448.896	89.31
449.117	110.31
449.338	118.31
449.559	145.31
449.779	119.31
450	118.31
450.221	110.31
450.442	119.31
450.662	119.31
450.883	112.31
451.104	89.31
451.324	107.31
451.545	115.31
451.766	102.31
451.986	140.31
452.207	195.31
452.428	524.31
452.648	1301.31
452.869	744.31
453.089	185.31
453.31	119.31
453.53	129.31
453.751	151.31
453.971	171.31
454.192	162.31
454.412	102.31
454.633	98.31
454.853	109.31
455.073	97.31
455.294	99.31
455.514	85.31
455.734	88.31
455.955	84.31
456.175	94.31
456.395	85.31
456.616	105.31
456.836	93.31
457.056	104.31
457.276	114.31
457.497	99.31
457.717	124.31
457.937	95.31
458.157	94.31
458.377	92.31
458.598	94.31
458.818	79.31
459.038	78.31
459.258	88.31
459.478	91.31
459.698	84.31
459.918	77.31
460.138	105.31
460.358	111.31
460.578	105.31
460.798	81.31
461.018	82.31
461.238	96.31
461.458	93.31
461.678	89.31
461.898	101.31
462.118	100.31
462.338	104.31
462.558	115.31
462.777	97.31
462.997	94.31
463.217	100.31
463.437	107.31
463.657	192.31
463.876	202.31
464.096	122.31
464.316	105.31
464.536	100.31
464.755	88.31
464.975	94.31
465.195	92.31
465.414	94.31
465.634	93.31
465.854	82.31
466.073	107.31
466.293	74.31
466.512	98.31
466.732	103.31
466.951	128.31
467.171	137.31
467.391	131.31
467.61	91.31
467.829	117.31
468.049	100.31
468.268	104.31
468.488	107.31
468.707	95.31
468.927	102.31
469.146	88.31
469.365	87.31
469.585	96.31
469.804	99.31
470.023	108.31
470.243	110.31
470.462	108.31
470.681	100.31
470.901	124.31
471.12	198.31
471.339	223.31
471.558	132.31
471.777	126.31
471.997	107.31
472.216	114.31
472.435	92.31
472.654	97.31
472.873	83.31
473.092	96.31
473.311	108.31
473.53	102.31
473.749	99.31
473.968	94.31
474.187	96.31
474.406	98.31
474.625	98.31
474.844	107.31
475.063	97.31
475.282	92.31
475.501	84.31
475.72	98.31
475.939	100.31
476.158	91.31
476.377	109.31
476.596	104.31
476.814	97.31
477.033	94.31
477.252	107.31
477.471	105.31
477.69	112.31
477.908	110.31
478.127	96.31
478.346	93.31
478.564	102.31
478.783	100.31
479.002	99.31
479.22	101.31
479.439	95.31
479.658	90.31
479.876	81.31
480.095	97.31
480.313	86.31
480.532	90.31
480.751	95.31
480.969	91.31
481.188	89.31
481.406	94.31
481.624	90.31
481.843	117.31
482.061	113.31
482.28	106.31
482.498	100.31
482.717	98.31
482.935	90.31
483.153	96.31
483.372	108.31
483.59	106.31
483.808	111.31
484.027	116.31
484.245	103.31
484.463	182.31
484.681	242.31
484.9	157.31
485.118	110.31
485.336	106.31
485.554	110.31
485.772	136.31
485.99	189.31
486.209	268.31
486.427	175.31
486.645	115.31
486.863	105.31
487.081	116.31
487.299	85.31
487.517	100.31
487.735	101.31
487.953	100.31
488.171	106.31
488.389	89.31
488.607	95.31
488.825	109.31
489.043	95.31
489.261	104.31
489.479	115.31
489.696	96.31
489.914	103.31
490.132	108.31
490.35	100.31
490.568	100.31
490.786	107.31
491.003	95.31
491.221	116.31
491.439	99.31
491.657	96.31
491.874	98.31
492.092	105.31
492.31	106.31
492.527	102.31
492.745	101.31
492.963	111.31
493.18	103.31
493.398	95.31
493.615	114.31
493.833	96.31
494.05	98.31
494.268	113.31
494.485	102.31
494.703	107.31
494.92	101.31
495.138	102.31
495.355	104.31
495.573	121.31
495.79	102.31
496.008	88.31
496.225	93.31
496.442	97.31
496.66	111.31
496.877	148.31
497.094	159.31
497.312	114.31
497.529	96.31
497.746	102.31
497.963	96.31
498.181	111.31
498.398	100.31
498.615	100.31
498.832	110.31
499.049	114.31
499.267	122.31
499.484	163.31
499.701	112.31
499.918	80.31
500.135	105.31
500.352	97.31
500.569	102.31
500.786	98.31
501.003	104.31
501.22	99.31
501.437	96.31
501.654	92.31
501.871	110.31
502.088	108.31
502.305	96.31
502.522	106.31
502.739	110.31
502.956	103.31
503.172	100.31
503.389	97.31
503.606	104.31
503.823	98.31
504.04	95.31
504.256	101.31
504.473	101.31
504.69	99.31
504.907	114.31
505.123	110.31
505.34	105.31
505.557	105.31
505.773	86.31
505.99	95.31
506.207	98.31
506.423	100.31
506.64	103.31
506.856	114.31
507.073	112.31
507.289	102.31
507.506	109.31
507.722	100.31
507.939	88.31
508.155	82.31
508.372	97.31
508.588	112.31
508.805	110.31
509.021	92.31
509.238	112.31
