Data from SnStandardFlinnAPT0064_LampEnergy5.5_LIBS07252019.E.O._I.C._HRD10591_15-14-58-493.txt Node
Date: Thu Jul 25 15:14:58 EDT 2019
User: cochatt
Spectrometer: HR+D1059
Trigger mode: 1
Integration Time (sec): 1.000000E-1
Scans to average: 1
Electric dark correction enabled: true
Nonlinearity correction enabled: false
Boxcar width: 0
XAxis mode: Wavelengths
Number of Pixels in Spectrum: 2048
>>>>>Begin Spectral Data<<<<<
223.165	-18.06
223.4	-18.06
223.635	-18.06
223.869	-18.06
224.104	-17.06
224.338	-15.06
224.573	-25.06
224.808	-34.06
225.042	-14.06
225.277	4.94
225.511	4.94
225.746	14.94
225.98	12.94
226.215	6.94
226.449	21.94
226.683	15.94
226.918	29.94
227.152	28.94
227.387	25.94
227.621	40.94
227.856	22.94
228.09	51.94
228.324	40.94
228.559	45.94
228.793	67.94
229.027	148.94
229.262	147.94
229.496	134.94
229.73	140.94
229.964	151.94
230.199	145.94
230.433	147.94
230.667	161.94
230.901	155.94
231.136	165.94
231.37	173.94
231.604	203.94
231.838	191.94
232.072	216.94
232.306	225.94
232.541	192.94
232.775	181.94
233.009	193.94
233.243	205.94
233.477	207.94
233.711	243.94
233.945	248.94
234.179	220.94
234.413	218.94
234.647	220.94
234.881	225.94
235.115	226.94
235.349	270.94
235.583	317.94
235.817	393.94
236.051	381.94
236.285	269.94
236.519	218.94
236.753	210.94
236.987	206.94
237.221	230.94
237.455	227.94
237.689	216.94
237.922	218.94
238.156	205.94
238.39	205.94
238.624	221.94
238.858	215.94
239.091	201.94
239.325	223.94
239.559	224.94
239.793	217.94
240.027	241.94
240.26	246.94
240.494	243.94
240.728	264.94
240.961	255.94
241.195	257.94
241.429	281.94
241.662	285.94
241.896	326.94
242.13	349.94
242.363	433.94
242.597	535.94
242.83	533.94
243.064	554.94
243.298	613.94
243.531	525.94
243.765	349.94
243.998	307.94
244.232	281.94
244.465	271.94
244.699	278.94
244.932	264.94
245.166	284.94
245.399	278.94
245.633	280.94
245.866	292.94
246.099	295.94
246.333	280.94
246.566	273.94
246.8	294.94
247.033	269.94
247.266	273.94
247.5	281.94
247.733	294.94
247.966	294.94
248.2	319.94
248.433	322.94
248.666	386.94
248.899	372.94
249.133	329.94
249.366	340.94
249.599	391.94
249.832	397.94
250.066	400.94
250.299	359.94
250.532	327.94
250.765	326.94
250.998	314.94
251.231	308.94
251.465	313.94
251.698	320.94
251.931	319.94
252.164	321.94
252.397	313.94
252.63	346.94
252.863	320.94
253.096	328.94
253.329	312.94
253.562	322.94
253.795	314.94
254.028	339.94
254.261	341.94
254.494	368.94
254.727	403.94
254.96	449.94
255.193	458.94
255.426	361.94
255.659	355.94
255.892	360.94
256.124	349.94
256.357	363.94
256.59	363.94
256.823	382.94
257.056	425.94
257.289	477.94
257.521	521.94
257.754	455.94
257.987	377.94
258.22	383.94
258.452	363.94
258.685	389.94
258.918	382.94
259.151	411.94
259.383	425.94
259.616	442.94
259.849	468.94
260.081	438.94
260.314	415.94
260.547	393.94
260.779	400.94
261.012	412.94
261.244	410.94
261.477	436.94
261.71	417.94
261.942	429.94
262.175	441.94
262.407	447.94
262.64	455.94
262.872	482.94
263.105	482.94
263.337	527.94
263.57	535.94
263.802	541.94
264.035	530.94
264.267	567.94
264.499	560.94
264.732	620.94
264.964	599.94
265.197	561.94
265.429	599.94
265.661	618.94
265.894	644.94
266.126	721.94
266.358	764.94
266.591	719.94
266.823	649.94
267.055	602.94
267.287	579.94
267.52	545.94
267.752	548.94
267.984	529.94
268.216	525.94
268.448	546.94
268.681	533.94
268.913	521.94
269.145	513.94
269.377	503.94
269.609	510.94
269.841	511.94
270.073	544.94
270.306	622.94
270.538	801.94
270.77	1097.94
271.002	1316.94
271.234	954.94
271.466	695.94
271.698	603.94
271.93	555.94
272.162	521.94
272.394	515.94
272.626	514.94
272.858	506.94
273.09	498.94
273.322	511.94
273.553	515.94
273.785	506.94
274.017	502.94
274.249	509.94
274.481	500.94
274.713	510.94
274.945	481.94
275.176	515.94
275.408	498.94
275.64	471.94
275.872	505.94
276.104	517.94
276.335	519.94
276.567	513.94
276.799	522.94
277.031	544.94
277.262	537.94
277.494	544.94
277.726	582.94
277.957	634.94
278.189	722.94
278.421	682.94
278.652	641.94
278.884	637.94
279.115	575.94
279.347	548.94
279.579	536.94
279.81	554.94
280.042	561.94
280.273	582.94
280.505	558.94
280.736	600.94
280.968	614.94
281.199	640.94
281.431	704.94
281.662	724.94
281.894	635.94
282.125	628.94
282.356	623.94
282.588	643.94
282.819	660.94
283.051	707.94
283.282	773.94
283.513	903.94
283.745	1217.94
283.976	1925.94
284.207	2660.94
284.439	2363.94
284.67	1477.94
284.901	1247.94
285.132	1178.94
285.364	1145.94
285.595	953.94
285.826	866.94
286.057	1010.94
286.288	1309.94
286.52	1697.94
286.751	1565.94
286.982	1065.94
287.213	849.94
287.444	741.94
287.675	718.94
287.906	686.94
288.138	654.94
288.369	674.94
288.6	665.94
288.831	670.94
289.062	652.94
289.293	676.94
289.524	678.94
289.755	665.94
289.986	699.94
290.217	685.94
290.448	666.94
290.679	670.94
290.91	674.94
291.141	690.94
291.371	713.94
291.602	754.94
291.833	691.94
292.064	646.94
292.295	636.94
292.526	638.94
292.757	645.94
292.987	653.94
293.218	621.94
293.449	622.94
293.68	624.94
293.91	618.94
294.141	635.94
294.372	623.94
294.603	629.94
294.833	603.94
295.064	597.94
295.295	613.94
295.525	605.94
295.756	625.94
295.987	614.94
296.217	627.94
296.448	641.94
296.679	637.94
296.909	639.94
297.14	622.94
297.37	623.94
297.601	659.94
297.831	627.94
298.062	646.94
298.292	665.94
298.523	687.94
298.753	656.94
298.984	682.94
299.214	686.94
299.445	684.94
299.675	694.94
299.905	704.94
300.136	726.94
300.366	813.94
300.597	953.94
300.827	1245.94
301.057	1649.94
301.288	1689.94
301.518	1165.94
301.748	912.94
301.979	850.94
302.209	853.94
302.439	841.94
302.669	883.94
302.9	1047.94
303.13	1351.94
303.36	1949.94
303.59	2538.94
303.82	2240.94
304.051	1373.94
304.281	1041.94
304.511	901.94
304.741	837.94
304.971	820.94
305.201	791.94
305.431	754.94
305.661	758.94
305.891	784.94
306.121	727.94
306.352	723.94
306.582	710.94
306.812	709.94
307.042	719.94
307.272	742.94
307.502	711.94
307.731	728.94
307.961	719.94
308.191	727.94
308.421	732.94
308.651	720.94
308.881	685.94
309.111	737.94
309.341	711.94
309.571	725.94
309.8	731.94
310.03	727.94
310.26	744.94
310.49	720.94
310.72	762.94
310.949	759.94
311.179	739.94
311.409	740.94
311.639	752.94
311.868	770.94
312.098	767.94
312.328	785.94
312.557	749.94
312.787	766.94
313.017	793.94
313.246	794.94
313.476	760.94
313.706	815.94
313.935	838.94
314.165	856.94
314.394	907.94
314.624	847.94
314.853	829.94
315.083	829.94
315.312	842.94
315.542	842.94
315.771	861.94
316.001	873.94
316.23	894.94
316.46	912.94
316.689	950.94
316.919	1115.94
317.148	1573.94
317.377	2296.94
317.607	3379.94
317.836	3448.94
318.065	2146.94
318.295	1444.94
318.524	1219.94
318.753	1067.94
318.983	998.94
319.212	959.94
319.441	937.94
319.67	914.94
319.9	897.94
320.129	936.94
320.358	898.94
320.587	941.94
320.816	907.94
321.046	921.94
321.275	885.94
321.504	894.94
321.733	925.94
321.962	915.94
322.191	963.94
322.42	955.94
322.649	942.94
322.878	930.94
323.108	967.94
323.337	937.94
323.566	964.94
323.795	1021.94
324.024	1025.94
324.253	1047.94
324.482	1068.94
324.71	1114.94
324.939	1165.94
325.168	1170.94
325.397	1219.94
325.626	1399.94
325.855	1871.94
326.084	2826.94
326.313	4207.94
326.542	4378.94
326.77	2908.94
326.999	2020.94
327.228	1687.94
327.457	1629.94
327.686	1669.94
327.914	1751.94
328.143	2026.94
328.372	2274.94
328.6	2441.94
328.829	2287.94
329.058	2045.94
329.287	1821.94
329.515	1695.94
329.744	1584.94
329.972	1492.94
330.201	1446.94
330.43	1382.94
330.658	1361.94
330.887	1325.94
331.115	1313.94
331.344	1295.94
331.572	1320.94
331.801	1308.94
332.03	1307.94
332.258	1341.94
332.486	1416.94
332.715	1524.94
332.943	1805.94
333.172	2156.94
333.4	2144.94
333.629	1725.94
333.857	1662.94
334.085	1629.94
334.314	1713.94
334.542	1862.94
334.771	2066.94
334.999	2466.94
335.227	2946.94
335.455	3265.94
335.684	3052.94
335.912	2641.94
336.14	2329.94
336.369	2093.94
336.597	1936.94
336.825	1768.94
337.053	1669.94
337.281	1596.94
337.51	1494.94
337.738	1482.94
337.966	1401.94
338.194	1358.94
338.422	1289.94
338.65	1303.94
338.878	1263.94
339.106	1248.94
339.334	1241.94
339.562	1221.94
339.79	1208.94
340.018	1195.94
340.246	1174.94
340.474	1188.94
340.702	1152.94
340.93	1170.94
341.158	1162.94
341.386	1159.94
341.614	1153.94
341.842	1145.94
342.07	1125.94
342.298	1121.94
342.526	1084.94
342.754	1063.94
342.981	1071.94
343.209	1066.94
343.437	1063.94
343.665	1103.94
343.893	1111.94
344.12	1108.94
344.348	1083.94
344.576	1098.94
344.804	1043.94
345.031	1043.94
345.259	1037.94
345.487	1017.94
345.714	994.94
345.942	1000.94
346.17	1000.94
346.397	984.94
346.625	961.94
346.853	1019.94
347.08	988.94
347.308	975.94
347.535	977.94
347.763	978.94
347.99	987.94
348.218	969.94
348.445	969.94
348.673	964.94
348.9	983.94
349.128	982.94
349.355	955.94
349.583	957.94
349.81	970.94
350.037	951.94
350.265	945.94
350.492	947.94
350.72	960.94
350.947	977.94
351.174	967.94
351.402	965.94
351.629	936.94
351.856	969.94
352.083	933.94
352.311	949.94
352.538	930.94
352.765	967.94
352.992	955.94
353.22	944.94
353.447	941.94
353.674	936.94
353.901	928.94
354.128	970.94
354.355	953.94
354.583	943.94
354.81	942.94
355.037	951.94
355.264	974.94
355.491	957.94
355.718	949.94
355.945	990.94
356.172	961.94
356.399	1001.94
356.626	993.94
356.853	993.94
357.08	968.94
357.307	1023.94
357.534	1053.94
357.761	989.94
357.988	965.94
358.215	984.94
358.441	981.94
358.668	989.94
358.895	1008.94
359.122	995.94
359.349	994.94
359.576	1003.94
359.802	1011.94
360.029	1018.94
360.256	999.94
360.483	1009.94
360.709	983.94
360.936	994.94
361.163	1003.94
361.39	1007.94
361.616	1007.94
361.843	1006.94
362.07	1035.94
362.296	1035.94
362.523	1011.94
362.749	1024.94
362.976	1000.94
363.203	1023.94
363.429	998.94
363.656	999.94
363.882	992.94
364.109	998.94
364.335	968.94
364.562	990.94
364.788	1008.94
365.015	1007.94
365.241	1021.94
365.468	1077.94
365.694	1069.94
365.92	1076.94
366.147	1050.94
366.373	1014.94
366.599	1025.94
366.826	1015.94
367.052	1050.94
367.278	1086.94
367.505	1062.94
367.731	1023.94
367.957	1043.94
368.184	1032.94
368.41	1057.94
368.636	1080.94
368.862	1024.94
369.089	1009.94
369.315	1061.94
369.541	1085.94
369.767	1070.94
369.993	1081.94
370.219	1026.94
370.445	1074.94
370.672	1058.94
370.898	1037.94
371.124	1069.94
371.35	1099.94
371.576	1073.94
371.802	1083.94
372.028	1077.94
372.254	1081.94
372.48	1080.94
372.706	1101.94
372.932	1105.94
373.158	1088.94
373.384	1102.94
373.61	1135.94
373.835	1105.94
374.061	1107.94
374.287	1103.94
374.513	1095.94
374.739	1159.94
374.965	1186.94
375.191	1158.94
375.416	1154.94
375.642	1127.94
375.868	1128.94
376.094	1110.94
376.319	1106.94
376.545	1077.94
376.771	1086.94
376.997	1078.94
377.222	1098.94
377.448	1095.94
377.674	1082.94
377.899	1091.94
378.125	1097.94
378.35	1089.94
378.576	1068.94
378.802	1075.94
379.027	1084.94
379.253	1124.94
379.478	1161.94
379.704	1315.94
379.929	1725.94
380.155	2477.94
380.38	2663.94
380.606	1748.94
380.831	1337.94
381.057	1213.94
381.282	1155.94
381.507	1103.94
381.733	1122.94
381.958	1078.94
382.184	1078.94
382.409	1078.94
382.634	1080.94
382.86	1081.94
383.085	1066.94
383.31	1066.94
383.535	1073.94
383.761	1075.94
383.986	1093.94
384.211	1066.94
384.436	1084.94
384.662	1110.94
384.887	1114.94
385.112	1125.94
385.337	1115.94
385.562	1119.94
385.787	1101.94
386.013	1115.94
386.238	1131.94
386.463	1111.94
386.688	1127.94
386.913	1105.94
387.138	1128.94
387.363	1110.94
387.588	1129.94
387.813	1104.94
388.038	1081.94
388.263	1128.94
388.488	1135.94
388.713	1112.94
388.938	1138.94
389.163	1115.94
389.387	1103.94
389.612	1103.94
389.837	1077.94
390.062	1083.94
390.287	1132.94
390.512	1112.94
390.736	1135.94
390.961	1162.94
391.186	1153.94
391.411	1143.94
391.636	1189.94
391.86	1194.94
392.085	1200.94
392.31	1149.94
392.534	1154.94
392.759	1159.94
392.984	1148.94
393.208	1116.94
393.433	1113.94
393.658	1106.94
393.882	1125.94
394.107	1102.94
394.331	1133.94
394.556	1125.94
394.78	1143.94
395.005	1137.94
395.229	1122.94
395.454	1177.94
395.678	1160.94
395.903	1161.94
396.127	1148.94
396.352	1128.94
396.576	1162.94
396.801	1143.94
397.025	1140.94
397.249	1160.94
397.474	1177.94
397.698	1175.94
397.922	1219.94
398.147	1147.94
398.371	1207.94
398.595	1239.94
398.82	1242.94
399.044	1315.94
399.268	1343.94
399.492	1425.94
399.717	1506.94
399.941	1505.94
400.165	1430.94
400.389	1389.94
400.613	1298.94
400.837	1275.94
401.062	1251.94
401.286	1262.94
401.51	1258.94
401.734	1243.94
401.958	1216.94
402.182	1253.94
402.406	1207.94
402.63	1271.94
402.854	1261.94
403.078	1281.94
403.302	1277.94
403.526	1257.94
403.75	1314.94
403.974	1283.94
404.198	1298.94
404.422	1276.94
404.645	1270.94
404.869	1298.94
405.093	1289.94
405.317	1298.94
405.541	1316.94
405.765	1316.94
405.988	1281.94
406.212	1277.94
406.436	1301.94
406.66	1328.94
406.883	1313.94
407.107	1370.94
407.331	1407.94
407.555	1398.94
407.778	1388.94
408.002	1334.94
408.226	1351.94
408.449	1353.94
408.673	1305.94
408.896	1317.94
409.12	1343.94
409.344	1305.94
409.567	1291.94
409.791	1317.94
410.014	1272.94
410.238	1239.94
410.461	1255.94
410.685	1274.94
410.908	1289.94
411.132	1239.94
411.355	1231.94
411.578	1233.94
411.802	1248.94
412.025	1210.94
412.249	1215.94
412.472	1215.94
412.695	1205.94
412.919	1209.94
413.142	1247.94
413.365	1216.94
413.589	1204.94
413.812	1231.94
414.035	1198.94
414.258	1209.94
414.482	1226.94
414.705	1217.94
414.928	1217.94
415.151	1191.94
415.374	1193.94
415.597	1198.94
415.821	1179.94
416.044	1181.94
416.267	1163.94
416.49	1178.94
416.713	1173.94
416.936	1163.94
417.159	1155.94
417.382	1158.94
417.605	1160.94
417.828	1178.94
418.051	1159.94
418.274	1191.94
418.497	1180.94
418.72	1188.94
418.943	1151.94
419.166	1229.94
419.389	1285.94
419.611	1302.94
419.834	1244.94
420.057	1228.94
420.28	1191.94
420.503	1189.94
420.726	1159.94
420.948	1176.94
421.171	1163.94
421.394	1170.94
421.617	1182.94
421.839	1168.94
422.062	1173.94
422.285	1173.94
422.507	1161.94
422.73	1218.94
422.953	1203.94
423.175	1208.94
423.398	1197.94
423.621	1193.94
423.843	1199.94
424.066	1175.94
424.288	1192.94
424.511	1203.94
424.733	1197.94
424.956	1177.94
425.178	1169.94
425.401	1150.94
425.623	1181.94
425.846	1153.94
426.068	1144.94
426.291	1132.94
426.513	1140.94
426.735	1129.94
426.958	1133.94
427.18	1118.94
427.402	1121.94
427.625	1098.94
427.847	1090.94
428.069	1059.94
428.292	1103.94
428.514	1098.94
428.736	1098.94
428.958	1083.94
429.181	1089.94
429.403	1086.94
429.625	1089.94
429.847	1069.94
430.069	1119.94
430.292	1118.94
430.514	1119.94
430.736	1168.94
430.958	1120.94
431.18	1086.94
431.402	1107.94
431.624	1090.94
431.846	1079.94
432.068	1027.94
432.29	1074.94
432.512	1062.94
432.734	1069.94
432.956	1055.94
433.178	1056.94
433.4	1101.94
433.622	1105.94
433.844	1087.94
434.066	1091.94
434.287	1082.94
434.509	1095.94
434.731	1097.94
434.953	1145.94
435.175	1142.94
435.397	1115.94
435.618	1097.94
435.84	1086.94
436.062	1058.94
436.284	1077.94
436.505	1078.94
436.727	1073.94
436.949	1076.94
437.17	1070.94
437.392	1054.94
437.614	1063.94
437.835	1018.94
438.057	1015.94
438.278	1036.94
438.5	1072.94
438.721	1069.94
438.943	1096.94
439.165	1126.94
439.386	1100.94
439.608	1120.94
439.829	1099.94
440.05	1149.94
440.272	1152.94
440.493	1129.94
440.715	1133.94
440.936	1139.94
441.158	1125.94
441.379	1144.94
441.6	1177.94
441.822	1182.94
442.043	1299.94
442.264	1236.94
442.486	1226.94
442.707	1200.94
442.928	1163.94
443.149	1161.94
443.371	1180.94
443.592	1143.94
443.813	1162.94
444.034	1164.94
444.255	1211.94
444.476	1260.94
444.698	1215.94
444.919	1262.94
445.14	1309.94
445.361	1244.94
445.582	1224.94
445.803	1195.94
446.024	1159.94
446.245	1170.94
446.466	1177.94
446.687	1141.94
446.908	1118.94
447.129	1123.94
447.35	1121.94
447.571	1082.94
447.792	1086.94
448.013	1049.94
448.234	1031.94
448.455	1069.94
448.675	1087.94
448.896	1085.94
449.117	1120.94
449.338	1183.94
449.559	1221.94
449.779	1126.94
450	1030.94
450.221	1055.94
450.442	1050.94
450.662	1015.94
450.883	1034.94
451.104	1047.94
451.324	1031.94
451.545	1004.94
451.766	1044.94
451.986	1040.94
452.207	1091.94
452.428	1334.94
452.648	1694.94
452.869	1481.94
453.089	1149.94
453.31	1137.94
453.53	1104.94
453.751	1138.94
453.971	1190.94
454.192	1195.94
454.412	1077.94
454.633	1021.94
454.853	1006.94
455.073	991.94
455.294	986.94
455.514	976.94
455.734	983.94
455.955	1008.94
456.175	1002.94
456.395	1003.94
456.616	981.94
456.836	1006.94
457.056	1007.94
457.276	990.94
457.497	1058.94
457.717	1046.94
457.937	1026.94
458.157	1011.94
458.377	1061.94
458.598	1053.94
458.818	1082.94
459.038	1025.94
459.258	1053.94
459.478	1074.94
459.698	1067.94
459.918	1118.94
460.138	1120.94
460.358	1163.94
460.578	1110.94
460.798	1171.94
461.018	1190.94
461.238	1160.94
461.458	1183.94
461.678	1155.94
461.898	1210.94
462.118	1234.94
462.338	1235.94
462.558	1273.94
462.777	1258.94
462.997	1342.94
463.217	1371.94
463.437	1361.94
463.657	1382.94
463.876	1370.94
464.096	1352.94
464.316	1269.94
464.536	1308.94
464.755	1247.94
464.975	1247.94
465.195	1180.94
465.414	1167.94
465.634	1158.94
465.854	1090.94
466.073	1113.94
466.293	1089.94
466.512	1074.94
466.732	1118.94
466.951	1121.94
467.171	1158.94
467.391	1170.94
467.61	1109.94
467.829	1086.94
468.049	1055.94
468.268	1055.94
468.488	1056.94
468.707	1041.94
468.927	1048.94
469.146	1050.94
469.365	1065.94
469.585	1064.94
469.804	1089.94
470.023	1119.94
470.243	1124.94
470.462	1157.94
470.681	1190.94
470.901	1283.94
471.12	1440.94
471.339	1437.94
471.558	1245.94
471.777	1173.94
471.997	1112.94
472.216	1118.94
472.435	1073.94
472.654	1060.94
472.873	1017.94
473.092	1054.94
473.311	1080.94
473.53	1114.94
473.749	1101.94
473.968	1115.94
474.187	1085.94
474.406	1100.94
474.625	1099.94
474.844	1071.94
475.063	1075.94
475.282	1073.94
475.501	1078.94
475.72	1079.94
475.939	1094.94
476.158	1124.94
476.377	1153.94
476.596	1103.94
476.814	1122.94
477.033	1096.94
477.252	1150.94
477.471	1160.94
477.69	1197.94
477.908	1190.94
478.127	1194.94
478.346	1206.94
478.564	1220.94
478.783	1251.94
479.002	1266.94
479.22	1251.94
479.439	1261.94
479.658	1249.94
479.876	1279.94
480.095	1261.94
480.313	1308.94
480.532	1310.94
480.751	1273.94
480.969	1280.94
481.188	1235.94
481.406	1232.94
481.624	1250.94
481.843	1227.94
482.061	1287.94
482.28	1249.94
482.498	1267.94
482.717	1257.94
482.935	1299.94
483.153	1318.94
483.372	1309.94
483.59	1355.94
483.808	1350.94
484.027	1382.94
484.245	1399.94
484.463	1550.94
484.681	1683.94
484.9	1573.94
485.118	1513.94
485.336	1458.94
485.554	1465.94
485.772	1552.94
485.99	1675.94
486.209	1813.94
486.427	1578.94
486.645	1433.94
486.863	1408.94
487.081	1367.94
487.299	1372.94
487.517	1349.94
487.735	1408.94
487.953	1407.94
488.171	1360.94
488.389	1353.94
488.607	1354.94
488.825	1317.94
489.043	1305.94
489.261	1337.94
489.479	1302.94
489.696	1320.94
489.914	1309.94
490.132	1334.94
490.35	1355.94
490.568	1375.94
490.786	1384.94
491.003	1380.94
491.221	1423.94
491.439	1402.94
491.657	1420.94
491.874	1429.94
