Data from SnStandardFlinnAPT0064_LampEnergy5.5_LIBS07252019.E.O._I.C._HRD10591_15-15-11-491.txt Node
Date: Thu Jul 25 15:15:11 EDT 2019
User: cochatt
Spectrometer: HR+D1059
Trigger mode: 1
Integration Time (sec): 1.000000E-1
Scans to average: 1
Electric dark correction enabled: true
Nonlinearity correction enabled: false
Boxcar width: 0
XAxis mode: Wavelengths
Number of Pixels in Spectrum: 2048
>>>>>Begin Spectral Data<<<<<
223.165	-8.12
223.4	-8.12
223.635	-8.12
223.869	-20.12
224.104	-29.12
224.338	-17.12
224.573	-18.12
224.808	-19.12
225.042	-5.12
225.277	0.88
225.511	1.88
225.746	10.88
225.98	7.88
226.215	17.88
226.449	4.88
226.683	21.88
226.918	16.88
227.152	33.88
227.387	37.88
227.621	33.88
227.856	42.88
228.09	52.88
228.324	40.88
228.559	50.88
228.793	86.88
229.027	142.88
229.262	164.88
229.496	144.88
229.73	131.88
229.964	137.88
230.199	138.88
230.433	155.88
230.667	162.88
230.901	150.88
231.136	157.88
231.37	179.88
231.604	181.88
231.838	182.88
232.072	230.88
232.306	230.88
232.541	210.88
232.775	192.88
233.009	188.88
233.243	204.88
233.477	199.88
233.711	235.88
233.945	239.88
234.179	220.88
234.413	210.88
234.647	207.88
234.881	203.88
235.115	223.88
235.349	263.88
235.583	310.88
235.817	370.88
236.051	370.88
236.285	269.88
236.519	229.88
236.753	220.88
236.987	220.88
237.221	211.88
237.455	214.88
237.689	215.88
237.922	206.88
238.156	223.88
238.39	225.88
238.624	229.88
238.858	223.88
239.091	206.88
239.325	224.88
239.559	228.88
239.793	244.88
240.027	229.88
240.26	247.88
240.494	243.88
240.728	254.88
240.961	267.88
241.195	256.88
241.429	275.88
241.662	303.88
241.896	314.88
242.13	347.88
242.363	442.88
242.597	542.88
242.83	562.88
243.064	534.88
243.298	632.88
243.531	527.88
243.765	376.88
243.998	325.88
244.232	292.88
244.465	282.88
244.699	291.88
244.932	278.88
245.166	283.88
245.399	286.88
245.633	289.88
245.866	281.88
246.099	280.88
246.333	286.88
246.566	286.88
246.8	280.88
247.033	268.88
247.266	273.88
247.5	294.88
247.733	298.88
247.966	297.88
248.2	324.88
248.433	360.88
248.666	377.88
248.899	357.88
249.133	330.88
249.366	337.88
249.599	372.88
249.832	400.88
250.066	410.88
250.299	353.88
250.532	322.88
250.765	318.88
250.998	320.88
251.231	336.88
251.465	344.88
251.698	321.88
251.931	295.88
252.164	312.88
252.397	325.88
252.63	358.88
252.863	338.88
253.096	335.88
253.329	341.88
253.562	328.88
253.795	339.88
254.028	338.88
254.261	326.88
254.494	353.88
254.727	404.88
254.96	472.88
255.193	468.88
255.426	392.88
255.659	355.88
255.892	366.88
256.124	358.88
256.357	382.88
256.59	373.88
256.823	380.88
257.056	414.88
257.289	485.88
257.521	525.88
257.754	450.88
257.987	378.88
258.22	376.88
258.452	403.88
258.685	391.88
258.918	401.88
259.151	399.88
259.383	440.88
259.616	468.88
259.849	460.88
260.081	432.88
260.314	421.88
260.547	385.88
260.779	391.88
261.012	415.88
261.244	412.88
261.477	421.88
261.71	419.88
261.942	444.88
262.175	430.88
262.407	430.88
262.64	466.88
262.872	470.88
263.105	484.88
263.337	523.88
263.57	526.88
263.802	531.88
264.035	562.88
264.267	558.88
264.499	554.88
264.732	602.88
264.964	632.88
265.197	622.88
265.429	605.88
265.661	624.88
265.894	637.88
266.126	729.88
266.358	756.88
266.591	752.88
266.823	658.88
267.055	616.88
267.287	587.88
267.52	562.88
267.752	555.88
267.984	536.88
268.216	537.88
268.448	532.88
268.681	553.88
268.913	524.88
269.145	518.88
269.377	508.88
269.609	520.88
269.841	531.88
270.073	550.88
270.306	613.88
270.538	766.88
270.77	1089.88
271.002	1340.88
271.234	998.88
271.466	707.88
271.698	598.88
271.93	583.88
272.162	539.88
272.394	538.88
272.626	531.88
272.858	506.88
273.09	510.88
273.322	515.88
273.553	507.88
273.785	519.88
274.017	504.88
274.249	500.88
274.481	520.88
274.713	528.88
274.945	502.88
275.176	521.88
275.408	518.88
275.64	528.88
275.872	488.88
276.104	529.88
276.335	556.88
276.567	539.88
276.799	537.88
277.031	546.88
277.262	554.88
277.494	569.88
277.726	607.88
277.957	684.88
278.189	743.88
278.421	692.88
278.652	636.88
278.884	609.88
279.115	592.88
279.347	573.88
279.579	563.88
279.81	566.88
280.042	564.88
280.273	570.88
280.505	574.88
280.736	610.88
280.968	614.88
281.199	670.88
281.431	724.88
281.662	737.88
281.894	649.88
282.125	633.88
282.356	661.88
282.588	630.88
282.819	643.88
283.051	686.88
283.282	773.88
283.513	916.88
283.745	1259.88
283.976	1946.88
284.207	2655.88
284.439	2375.88
284.67	1524.88
284.901	1234.88
285.132	1200.88
285.364	1119.88
285.595	919.88
285.826	880.88
286.057	1020.88
286.288	1302.88
286.52	1744.88
286.751	1598.88
286.982	1059.88
287.213	818.88
287.444	764.88
287.675	725.88
287.906	720.88
288.138	699.88
288.369	711.88
288.6	698.88
288.831	693.88
289.062	687.88
289.293	681.88
289.524	665.88
289.755	676.88
289.986	697.88
290.217	686.88
290.448	684.88
290.679	674.88
290.91	712.88
291.141	702.88
291.371	746.88
291.602	761.88
291.833	737.88
292.064	698.88
292.295	670.88
292.526	674.88
292.757	647.88
292.987	631.88
293.218	656.88
293.449	667.88
293.68	661.88
293.91	633.88
294.141	647.88
294.372	638.88
294.603	653.88
294.833	639.88
295.064	660.88
295.295	641.88
295.525	665.88
295.756	629.88
295.987	639.88
296.217	643.88
296.448	634.88
296.679	622.88
296.909	646.88
297.14	640.88
297.37	671.88
297.601	659.88
297.831	650.88
298.062	639.88
298.292	658.88
298.523	688.88
298.753	668.88
298.984	671.88
299.214	690.88
299.445	704.88
299.675	699.88
299.905	747.88
300.136	745.88
300.366	800.88
300.597	982.88
300.827	1300.88
301.057	1646.88
301.288	1707.88
301.518	1180.88
301.748	937.88
301.979	882.88
302.209	852.88
302.439	866.88
302.669	870.88
302.9	1042.88
303.13	1372.88
303.36	1977.88
303.59	2499.88
303.82	2262.88
304.051	1426.88
304.281	1067.88
304.511	928.88
304.741	888.88
304.971	826.88
305.201	803.88
305.431	794.88
305.661	760.88
305.891	752.88
306.121	754.88
306.352	771.88
306.582	776.88
306.812	749.88
307.042	760.88
307.272	742.88
307.502	739.88
307.731	741.88
307.961	728.88
308.191	777.88
308.421	738.88
308.651	754.88
308.881	739.88
309.111	736.88
309.341	730.88
309.571	754.88
309.8	767.88
310.03	744.88
310.26	751.88
310.49	772.88
310.72	784.88
310.949	750.88
311.179	768.88
311.409	770.88
311.639	803.88
311.868	785.88
312.098	807.88
312.328	766.88
312.557	780.88
312.787	783.88
313.017	798.88
313.246	803.88
313.476	801.88
313.706	826.88
313.935	846.88
314.165	868.88
314.394	907.88
314.624	876.88
314.853	843.88
315.083	841.88
315.312	840.88
315.542	843.88
315.771	863.88
316.001	885.88
316.23	892.88
316.46	939.88
316.689	1000.88
316.919	1164.88
317.148	1578.88
317.377	2289.88
317.607	3343.88
317.836	3476.88
318.065	2150.88
318.295	1443.88
318.524	1218.88
318.753	1096.88
318.983	1015.88
319.212	992.88
319.441	918.88
319.67	952.88
319.9	947.88
320.129	943.88
320.358	918.88
320.587	923.88
320.816	949.88
321.046	934.88
321.275	924.88
321.504	944.88
321.733	971.88
321.962	962.88
322.191	976.88
322.42	976.88
322.649	988.88
322.878	996.88
323.108	968.88
323.337	1025.88
323.566	1040.88
323.795	1034.88
324.024	1043.88
324.253	1066.88
324.482	1074.88
324.71	1111.88
324.939	1179.88
325.168	1211.88
325.397	1248.88
325.626	1445.88
325.855	1912.88
326.084	2858.88
326.313	4167.88
326.542	4418.88
326.77	2880.88
326.999	2046.88
327.228	1744.88
327.457	1679.88
327.686	1688.88
327.914	1821.88
328.143	2036.88
328.372	2355.88
328.6	2554.88
328.829	2426.88
329.058	2080.88
329.287	1940.88
329.515	1745.88
329.744	1646.88
329.972	1567.88
330.201	1518.88
330.43	1483.88
330.658	1422.88
330.887	1412.88
331.115	1359.88
331.344	1345.88
331.572	1340.88
331.801	1338.88
332.03	1322.88
332.258	1364.88
332.486	1438.88
332.715	1572.88
332.943	1831.88
333.172	2189.88
333.4	2144.88
333.629	1786.88
333.857	1675.88
334.085	1698.88
334.314	1740.88
334.542	1908.88
334.771	2161.88
334.999	2542.88
335.227	3128.88
335.455	3386.88
335.684	3178.88
335.912	2788.88
336.14	2384.88
336.369	2188.88
336.597	1994.88
336.825	1846.88
337.053	1735.88
337.281	1612.88
337.51	1571.88
337.738	1490.88
337.966	1426.88
338.194	1405.88
338.422	1386.88
338.65	1334.88
338.878	1350.88
339.106	1296.88
339.334	1268.88
339.562	1243.88
339.79	1219.88
340.018	1192.88
340.246	1225.88
340.474	1207.88
340.702	1218.88
340.93	1186.88
341.158	1158.88
341.386	1171.88
341.614	1194.88
341.842	1190.88
342.07	1160.88
342.298	1142.88
342.526	1123.88
342.754	1124.88
342.981	1094.88
343.209	1103.88
343.437	1140.88
343.665	1136.88
343.893	1134.88
344.12	1157.88
344.348	1096.88
344.576	1110.88
344.804	1083.88
345.031	1049.88
345.259	1077.88
345.487	1042.88
345.714	1029.88
345.942	1030.88
346.17	1046.88
346.397	1017.88
346.625	1051.88
346.853	1013.88
347.08	1036.88
347.308	1029.88
347.535	1024.88
347.763	1021.88
347.99	1013.88
348.218	987.88
348.445	975.88
348.673	993.88
348.9	1017.88
349.128	995.88
349.355	1010.88
349.583	1001.88
349.81	971.88
350.037	976.88
350.265	969.88
350.492	972.88
350.72	985.88
350.947	974.88
351.174	994.88
351.402	987.88
351.629	965.88
351.856	954.88
352.083	965.88
352.311	959.88
352.538	942.88
352.765	995.88
352.992	976.88
353.22	966.88
353.447	958.88
353.674	991.88
353.901	993.88
354.128	998.88
354.355	966.88
354.583	994.88
354.81	983.88
355.037	989.88
355.264	1000.88
355.491	995.88
355.718	971.88
355.945	1008.88
356.172	1002.88
356.399	967.88
356.626	990.88
356.853	1008.88
357.08	1034.88
357.307	1010.88
357.534	1032.88
357.761	1037.88
357.988	1041.88
358.215	1044.88
358.441	1039.88
358.668	1010.88
358.895	1048.88
359.122	1040.88
359.349	1020.88
359.576	1027.88
359.802	1036.88
360.029	1033.88
360.256	1062.88
360.483	1042.88
360.709	1042.88
360.936	1039.88
361.163	1060.88
361.39	1052.88
361.616	1034.88
361.843	1054.88
362.07	1057.88
362.296	1051.88
362.523	1052.88
362.749	1040.88
362.976	1062.88
363.203	1032.88
363.429	1024.88
363.656	1069.88
363.882	1010.88
364.109	1013.88
364.335	1039.88
364.562	1052.88
364.788	1027.88
365.015	1057.88
365.241	1062.88
365.468	1078.88
365.694	1135.88
365.92	1108.88
366.147	1072.88
366.373	1067.88
366.599	1078.88
366.826	1079.88
367.052	1058.88
367.278	1080.88
367.505	1067.88
367.731	1080.88
367.957	1069.88
368.184	1054.88
368.41	1092.88
368.636	1089.88
368.862	1062.88
369.089	1111.88
369.315	1085.88
369.541	1080.88
369.767	1077.88
369.993	1051.88
370.219	1099.88
370.445	1108.88
370.672	1109.88
370.898	1114.88
371.124	1108.88
371.35	1119.88
371.576	1126.88
371.802	1107.88
372.028	1111.88
372.254	1107.88
372.48	1124.88
372.706	1149.88
372.932	1141.88
373.158	1122.88
373.384	1147.88
373.61	1150.88
373.835	1162.88
374.061	1138.88
374.287	1169.88
374.513	1161.88
374.739	1195.88
374.965	1177.88
375.191	1172.88
375.416	1155.88
375.642	1158.88
375.868	1143.88
376.094	1129.88
376.319	1152.88
376.545	1144.88
376.771	1137.88
376.997	1124.88
377.222	1163.88
377.448	1090.88
377.674	1122.88
377.899	1131.88
378.125	1127.88
378.35	1124.88
378.576	1120.88
378.802	1129.88
379.027	1149.88
379.253	1171.88
379.478	1183.88
379.704	1344.88
379.929	1763.88
380.155	2458.88
380.38	2655.88
380.606	1810.88
380.831	1363.88
381.057	1245.88
381.282	1178.88
381.507	1154.88
381.733	1130.88
381.958	1123.88
382.184	1099.88
382.409	1091.88
382.634	1114.88
382.86	1132.88
383.085	1111.88
383.31	1109.88
383.535	1118.88
383.761	1095.88
383.986	1119.88
384.211	1113.88
384.436	1141.88
384.662	1137.88
384.887	1164.88
385.112	1144.88
385.337	1141.88
385.562	1137.88
385.787	1156.88
386.013	1170.88
386.238	1127.88
386.463	1160.88
386.688	1143.88
386.913	1134.88
387.138	1138.88
387.363	1115.88
387.588	1142.88
387.813	1144.88
388.038	1152.88
388.263	1155.88
388.488	1146.88
388.713	1134.88
388.938	1145.88
389.163	1137.88
389.387	1181.88
389.612	1158.88
389.837	1180.88
390.062	1160.88
390.287	1131.88
390.512	1164.88
390.736	1175.88
390.961	1209.88
391.186	1184.88
391.411	1177.88
391.636	1200.88
391.86	1194.88
392.085	1209.88
392.31	1242.88
392.534	1174.88
392.759	1178.88
392.984	1179.88
393.208	1154.88
393.433	1142.88
393.658	1147.88
393.882	1153.88
394.107	1162.88
394.331	1172.88
394.556	1158.88
394.78	1159.88
395.005	1181.88
395.229	1170.88
395.454	1210.88
395.678	1224.88
395.903	1202.88
396.127	1183.88
396.352	1202.88
396.576	1184.88
396.801	1167.88
397.025	1222.88
397.249	1209.88
397.474	1227.88
397.698	1217.88
397.922	1230.88
398.147	1212.88
398.371	1251.88
398.595	1284.88
398.82	1260.88
399.044	1332.88
399.268	1400.88
399.492	1480.88
399.717	1582.88
399.941	1555.88
400.165	1450.88
400.389	1389.88
400.613	1371.88
400.837	1312.88
401.062	1306.88
401.286	1288.88
401.51	1311.88
401.734	1267.88
401.958	1296.88
402.182	1283.88
402.406	1300.88
402.63	1310.88
402.854	1306.88
403.078	1299.88
403.302	1319.88
403.526	1351.88
403.75	1311.88
403.974	1334.88
404.198	1342.88
404.422	1316.88
404.645	1317.88
404.869	1286.88
405.093	1336.88
405.317	1304.88
405.541	1340.88
405.765	1318.88
405.988	1313.88
406.212	1353.88
406.436	1355.88
406.66	1364.88
406.883	1357.88
407.107	1400.88
407.331	1432.88
407.555	1461.88
407.778	1446.88
408.002	1392.88
408.226	1374.88
408.449	1398.88
408.673	1381.88
408.896	1350.88
409.12	1343.88
409.344	1355.88
409.567	1354.88
409.791	1319.88
410.014	1326.88
410.238	1322.88
410.461	1322.88
410.685	1285.88
410.908	1306.88
411.132	1307.88
411.355	1270.88
411.578	1305.88
411.802	1280.88
412.025	1248.88
412.249	1276.88
412.472	1290.88
412.695	1279.88
412.919	1269.88
413.142	1233.88
413.365	1228.88
413.589	1256.88
413.812	1228.88
414.035	1254.88
414.258	1227.88
414.482	1248.88
414.705	1261.88
414.928	1240.88
415.151	1256.88
415.374	1242.88
415.597	1223.88
415.821	1210.88
416.044	1188.88
416.267	1208.88
416.49	1209.88
416.713	1200.88
416.936	1241.88
417.159	1191.88
417.382	1170.88
417.605	1201.88
417.828	1186.88
418.051	1220.88
418.274	1202.88
418.497	1193.88
418.72	1224.88
418.943	1219.88
419.166	1278.88
419.389	1338.88
419.611	1313.88
419.834	1301.88
420.057	1252.88
420.28	1248.88
420.503	1229.88
420.726	1206.88
420.948	1218.88
421.171	1206.88
421.394	1176.88
421.617	1225.88
421.839	1202.88
422.062	1216.88
422.285	1190.88
422.507	1232.88
422.73	1217.88
422.953	1206.88
423.175	1268.88
423.398	1252.88
423.621	1200.88
423.843	1247.88
424.066	1236.88
424.288	1229.88
424.511	1226.88
424.733	1227.88
424.956	1192.88
425.178	1191.88
425.401	1203.88
425.623	1213.88
425.846	1192.88
426.068	1180.88
426.291	1178.88
426.513	1175.88
426.735	1173.88
426.958	1139.88
427.18	1134.88
427.402	1189.88
427.625	1148.88
427.847	1118.88
428.069	1106.88
428.292	1147.88
428.514	1134.88
428.736	1112.88
428.958	1137.88
429.181	1114.88
429.403	1104.88
429.625	1111.88
429.847	1145.88
430.069	1149.88
430.292	1172.88
430.514	1163.88
430.736	1166.88
430.958	1115.88
431.18	1130.88
431.402	1111.88
431.624	1104.88
431.846	1083.88
432.068	1087.88
432.29	1097.88
432.512	1117.88
432.734	1134.88
432.956	1131.88
433.178	1104.88
433.4	1103.88
433.622	1128.88
433.844	1142.88
434.066	1152.88
434.287	1106.88
434.509	1113.88
434.731	1143.88
434.953	1177.88
435.175	1165.88
435.397	1178.88
435.618	1135.88
435.84	1107.88
436.062	1124.88
436.284	1131.88
436.505	1144.88
436.727	1116.88
436.949	1136.88
437.17	1091.88
437.392	1096.88
437.614	1088.88
437.835	1067.88
438.057	1064.88
438.278	1058.88
438.5	1091.88
438.721	1113.88
438.943	1085.88
439.165	1161.88
439.386	1170.88
439.608	1161.88
439.829	1145.88
440.05	1167.88
440.272	1220.88
440.493	1150.88
440.715	1174.88
440.936	1147.88
441.158	1169.88
441.379	1196.88
441.6	1236.88
441.822	1234.88
442.043	1262.88
442.264	1306.88
442.486	1216.88
442.707	1216.88
442.928	1220.88
443.149	1215.88
443.371	1195.88
443.592	1186.88
443.813	1232.88
444.034	1191.88
444.255	1231.88
444.476	1249.88
444.698	1270.88
444.919	1282.88
445.14	1365.88
445.361	1298.88
445.582	1238.88
445.803	1212.88
446.024	1184.88
446.245	1210.88
446.466	1185.88
446.687	1193.88
446.908	1198.88
447.129	1140.88
447.35	1129.88
447.571	1125.88
447.792	1116.88
448.013	1114.88
448.234	1099.88
448.455	1108.88
448.675	1110.88
448.896	1116.88
449.117	1122.88
449.338	1216.88
449.559	1248.88
449.779	1152.88
450	1090.88
450.221	1063.88
450.442	1105.88
450.662	1056.88
450.883	1044.88
451.104	1096.88
451.324	1083.88
451.545	1071.88
451.766	1050.88
451.986	1052.88
452.207	1126.88
452.428	1305.88
452.648	1695.88
452.869	1523.88
453.089	1211.88
453.31	1142.88
453.53	1140.88
453.751	1141.88
453.971	1176.88
454.192	1213.88
454.412	1067.88
454.633	1061.88
454.853	1053.88
455.073	1033.88
455.294	1025.88
455.514	1030.88
455.734	1017.88
455.955	977.88
456.175	1024.88
456.395	1016.88
456.616	1010.88
456.836	1032.88
457.056	1051.88
457.276	1030.88
457.497	1070.88
457.717	1112.88
457.937	1061.88
458.157	1058.88
458.377	1066.88
458.598	1092.88
458.818	1114.88
459.038	1061.88
459.258	1077.88
459.478	1097.88
459.698	1122.88
459.918	1139.88
460.138	1180.88
460.358	1181.88
460.578	1184.88
460.798	1204.88
461.018	1209.88
461.238	1225.88
461.458	1230.88
461.678	1214.88
461.898	1255.88
462.118	1245.88
462.338	1257.88
462.558	1300.88
462.777	1247.88
462.997	1336.88
463.217	1424.88
463.437	1415.88
463.657	1398.88
463.876	1368.88
464.096	1351.88
464.316	1301.88
464.536	1304.88
464.755	1268.88
464.975	1242.88
465.195	1218.88
465.414	1150.88
465.634	1148.88
465.854	1154.88
466.073	1134.88
466.293	1116.88
466.512	1101.88
466.732	1102.88
466.951	1153.88
467.171	1210.88
467.391	1210.88
467.61	1144.88
467.829	1123.88
468.049	1078.88
468.268	1094.88
468.488	1127.88
468.707	1125.88
468.927	1096.88
469.146	1093.88
469.365	1104.88
469.585	1128.88
469.804	1091.88
470.023	1134.88
470.243	1160.88
470.462	1182.88
470.681	1224.88
470.901	1317.88
471.12	1462.88
471.339	1478.88
471.558	1304.88
471.777	1168.88
471.997	1138.88
472.216	1129.88
472.435	1100.88
472.654	1064.88
472.873	1073.88
473.092	1093.88
473.311	1096.88
473.53	1064.88
473.749	1109.88
473.968	1166.88
474.187	1114.88
474.406	1098.88
474.625	1104.88
474.844	1077.88
475.063	1106.88
475.282	1060.88
475.501	1082.88
475.72	1080.88
475.939	1103.88
476.158	1170.88
476.377	1149.88
476.596	1128.88
476.814	1127.88
477.033	1152.88
477.252	1162.88
477.471	1215.88
477.69	1208.88
477.908	1256.88
478.127	1251.88
478.346	1233.88
478.564	1260.88
478.783	1276.88
479.002	1331.88
479.22	1315.88
479.439	1321.88
479.658	1271.88
479.876	1298.88
480.095	1259.88
480.313	1329.88
480.532	1350.88
480.751	1334.88
480.969	1312.88
481.188	1294.88
481.406	1259.88
481.624	1304.88
481.843	1294.88
482.061	1288.88
482.28	1310.88
482.498	1312.88
482.717	1278.88
482.935	1335.88
483.153	1360.88
483.372	1376.88
483.59	1347.88
483.808	1378.88
484.027	1386.88
484.245	1425.88
484.463	1538.88
484.681	1730.88
484.9	1550.88
485.118	1514.88
485.336	1510.88
485.554	1494.88
485.772	1566.88
485.99	1722.88
486.209	1842.88
486.427	1590.88
486.645	1471.88
486.863	1468.88
487.081	1414.88
487.299	1401.88
487.517	1386.88
487.735	1406.88
487.953	1458.88
488.171	1414.88
488.389	1402.88
488.607	1350.88
488.825	1363.88
489.043	1336.88
489.261	1326.88
489.479	1337.88
489.696	1346.88
489.914	1376.88
490.132	1369.88
490.35	1397.88
490.568	1405.88
490.786	1400.88
491.003	1450.88
491.221	1456.88
491.439	1451.88
