Data from SnStandardFlinnAPT0064_LampEnergy10_LIBS07252019.E.O._I.C._HRD10591_15-19-51-493.txt Node
Date: Thu Jul 25 15:19:51 EDT 2019
User: cochatt
Spectrometer: HR+D1059
Trigger mode: 1
Integration Time (sec): 1.000000E-1
Scans to average: 1
Electric dark correction enabled: true
Nonlinearity correction enabled: false
Boxcar width: 0
XAxis mode: Wavelengths
Number of Pixels in Spectrum: 2048
>>>>>Begin Spectral Data<<<<<
223.165	-1.62
223.4	-1.62
223.635	-1.62
223.869	-29.62
224.104	-23.62
224.338	-21.62
224.573	-7.62
224.808	-14.62
225.042	-2.62
225.277	4.38
225.511	6.38
225.746	-2.62
225.98	6.38
226.215	12.38
226.449	9.38
226.683	15.38
226.918	25.38
227.152	24.38
227.387	33.38
227.621	36.38
227.856	37.38
228.09	32.38
228.324	48.38
228.559	39.38
228.793	117.38
229.027	326.38
229.262	356.38
229.496	328.38
229.73	293.38
229.964	328.38
230.199	309.38
230.433	313.38
230.667	317.38
230.901	336.38
231.136	348.38
231.37	365.38
231.604	409.38
231.838	473.38
232.072	539.38
232.306	589.38
232.541	491.38
232.775	441.38
233.009	438.38
233.243	448.38
233.477	488.38
233.711	556.38
233.945	623.38
234.179	532.38
234.413	469.38
234.647	468.38
234.881	497.38
235.115	553.38
235.349	636.38
235.583	807.38
235.817	1060.38
236.051	1019.38
236.285	699.38
236.519	553.38
236.753	520.38
236.987	534.38
237.221	564.38
237.455	556.38
237.689	492.38
237.922	478.38
238.156	502.38
238.39	492.38
238.624	500.38
238.858	493.38
239.091	493.38
239.325	511.38
239.559	516.38
239.793	519.38
240.027	533.38
240.26	542.38
240.494	576.38
240.728	579.38
240.961	638.38
241.195	661.38
241.429	710.38
241.662	743.38
241.896	829.38
242.13	984.38
242.363	1333.38
242.597	1649.38
242.83	1622.38
243.064	1592.38
243.298	1917.38
243.531	1524.38
243.765	1015.38
243.998	820.38
244.232	751.38
244.465	688.38
244.699	683.38
244.932	663.38
245.166	690.38
245.399	711.38
245.633	699.38
245.866	687.38
246.099	705.38
246.333	670.38
246.566	658.38
246.8	663.38
247.033	652.38
247.266	667.38
247.5	651.38
247.733	709.38
247.966	737.38
248.2	795.38
248.433	888.38
248.666	1038.38
248.899	983.38
249.133	886.38
249.366	886.38
249.599	990.38
249.832	1175.38
250.066	1143.38
250.299	897.38
250.532	800.38
250.765	764.38
250.998	751.38
251.231	759.38
251.465	747.38
251.698	748.38
251.931	777.38
252.164	781.38
252.397	784.38
252.63	808.38
252.863	813.38
253.096	806.38
253.329	796.38
253.562	815.38
253.795	811.38
254.028	806.38
254.261	847.38
254.494	879.38
254.727	1015.38
254.96	1248.38
255.193	1253.38
255.426	1012.38
255.659	891.38
255.892	871.38
256.124	893.38
256.357	901.38
256.59	931.38
256.823	1019.38
257.056	1160.38
257.289	1416.38
257.521	1568.38
257.754	1228.38
257.987	1017.38
258.22	937.38
258.452	946.38
258.685	956.38
258.918	960.38
259.151	1039.38
259.383	1104.38
259.616	1249.38
259.849	1315.38
260.081	1143.38
260.314	1006.38
260.547	975.38
260.779	964.38
261.012	955.38
261.244	980.38
261.477	952.38
261.71	1033.38
261.942	1010.38
262.175	1041.38
262.407	1069.38
262.64	1060.38
262.872	1089.38
263.105	1136.38
263.337	1188.38
263.57	1255.38
263.802	1316.38
264.035	1323.38
264.267	1344.38
264.499	1371.38
264.732	1406.38
264.964	1435.38
265.197	1446.38
265.429	1403.38
265.661	1457.38
265.894	1547.38
266.126	1765.38
266.358	2001.38
266.591	1910.38
266.823	1643.38
267.055	1439.38
267.287	1390.38
267.52	1323.38
267.752	1269.38
267.984	1295.38
268.216	1284.38
268.448	1238.38
268.681	1249.38
268.913	1231.38
269.145	1248.38
269.377	1281.38
269.609	1264.38
269.841	1327.38
270.073	1418.38
270.306	1605.38
270.538	2247.38
270.77	3262.38
271.002	4021.38
271.234	2922.38
271.466	1949.38
271.698	1600.38
271.93	1458.38
272.162	1379.38
272.394	1329.38
272.626	1299.38
272.858	1244.38
273.09	1238.38
273.322	1247.38
273.553	1241.38
273.785	1199.38
274.017	1209.38
274.249	1241.38
274.481	1215.38
274.713	1217.38
274.945	1214.38
275.176	1228.38
275.408	1232.38
275.64	1208.38
275.872	1232.38
276.104	1282.38
276.335	1287.38
276.567	1317.38
276.799	1313.38
277.031	1306.38
277.262	1361.38
277.494	1462.38
277.726	1599.38
277.957	1952.38
278.189	2197.38
278.421	2051.38
278.652	1827.38
278.884	1732.38
279.115	1503.38
279.347	1464.38
279.579	1433.38
279.81	1409.38
280.042	1411.38
280.273	1430.38
280.505	1523.38
280.736	1516.38
280.968	1630.38
281.199	1827.38
281.431	2148.38
281.662	2169.38
281.894	1842.38
282.125	1681.38
282.356	1702.38
282.588	1741.38
282.819	1774.38
283.051	1879.38
283.282	2059.38
283.513	2557.38
283.745	3744.38
283.976	5820.38
284.207	8144.38
284.439	7627.38
284.67	4861.38
284.901	3985.38
285.132	4006.38
285.364	3827.38
285.595	2815.38
285.826	2555.38
286.057	2984.38
286.288	3967.38
286.52	5411.38
286.751	5050.38
286.982	3276.38
287.213	2432.38
287.444	2061.38
287.675	1967.38
287.906	1871.38
288.138	1795.38
288.369	1753.38
288.6	1744.38
288.831	1745.38
289.062	1713.38
289.293	1731.38
289.524	1744.38
289.755	1717.38
289.986	1742.38
290.217	1751.38
290.448	1749.38
290.679	1771.38
290.91	1813.38
291.141	1915.38
291.371	2119.38
291.602	2210.38
291.833	2003.38
292.064	1792.38
292.295	1714.38
292.526	1704.38
292.757	1642.38
292.987	1622.38
293.218	1591.38
293.449	1601.38
293.68	1647.38
293.91	1571.38
294.141	1606.38
294.372	1591.38
294.603	1566.38
294.833	1579.38
295.064	1592.38
295.295	1585.38
295.525	1558.38
295.756	1572.38
295.987	1606.38
296.217	1605.38
296.448	1565.38
296.679	1591.38
296.909	1625.38
297.14	1612.38
297.37	1646.38
297.601	1681.38
297.831	1652.38
298.062	1647.38
298.292	1662.38
298.523	1704.38
298.753	1740.38
298.984	1778.38
299.214	1792.38
299.445	1790.38
299.675	1827.38
299.905	1899.38
300.136	1974.38
300.366	2244.38
300.597	2781.38
300.827	3960.38
301.057	5473.38
301.288	5499.38
301.518	3583.38
301.748	2684.38
301.979	2485.38
302.209	2392.38
302.439	2399.38
302.669	2513.38
302.9	3055.38
303.13	4288.38
303.36	6388.38
303.59	8608.38
303.82	7493.38
304.051	4537.38
304.281	3221.38
304.511	2672.38
304.741	2408.38
304.971	2278.38
305.201	2130.38
305.431	2070.38
305.661	2003.38
305.891	1952.38
306.121	1925.38
306.352	1928.38
306.582	1842.38
306.812	1898.38
307.042	1909.38
307.272	1848.38
307.502	1821.38
307.731	1797.38
307.961	1841.38
308.191	1803.38
308.421	1828.38
308.651	1853.38
308.881	1818.38
309.111	1840.38
309.341	1828.38
309.571	1842.38
309.8	1881.38
310.03	1908.38
310.26	1891.38
310.49	1885.38
310.72	1927.38
310.949	1909.38
311.179	1934.38
311.409	1917.38
311.639	1970.38
311.868	1967.38
312.098	1976.38
312.328	1960.38
312.557	1989.38
312.787	2010.38
313.017	2033.38
313.246	2005.38
313.476	2036.38
313.706	2094.38
313.935	2224.38
314.165	2413.38
314.394	2600.38
314.624	2433.38
314.853	2191.38
315.083	2146.38
315.312	2179.38
315.542	2231.38
315.771	2235.38
316.001	2309.38
316.23	2394.38
316.46	2520.38
316.689	2760.38
316.919	3372.38
317.148	4710.38
317.377	7251.38
317.607	10626.38
317.836	11142.38
318.065	7041.38
318.295	4600.38
318.524	3640.38
318.753	3156.38
318.983	2867.38
319.212	2706.38
319.441	2589.38
319.67	2475.38
319.9	2449.38
320.129	2436.38
320.358	2398.38
320.587	2362.38
320.816	2398.38
321.046	2387.38
321.275	2419.38
321.504	2419.38
321.733	2461.38
321.962	2550.38
322.191	2587.38
322.42	2541.38
322.649	2543.38
322.878	2543.38
323.108	2503.38
323.337	2613.38
323.566	2613.38
323.795	2705.38
324.024	2691.38
324.253	2816.38
324.482	2934.38
324.71	3087.38
324.939	3303.38
325.168	3387.38
325.397	3518.38
325.626	4189.38
325.855	5857.38
326.084	9031.38
326.313	12948.38
326.542	13692.38
326.77	9547.38
326.999	6363.38
327.228	5217.38
327.457	4943.38
327.686	5039.38
327.914	5285.38
328.143	6300.38
328.372	7491.38
328.6	8028.38
328.829	7259.38
329.058	6076.38
329.287	5308.38
329.515	4769.38
329.744	4427.38
329.972	4128.38
330.201	4003.38
330.43	3815.38
330.658	3703.38
330.887	3678.38
331.115	3653.38
331.344	3565.38
331.572	3517.38
331.801	3576.38
332.03	3585.38
332.258	3600.38
332.486	3845.38
332.715	4470.38
332.943	5455.38
333.172	6876.38
333.4	6827.38
333.629	5207.38
333.857	4631.38
334.085	4630.38
334.314	4743.38
334.542	5265.38
334.771	6256.38
334.999	7718.38
335.227	9716.38
335.455	10875.38
335.684	9697.38
335.912	8079.38
336.14	6759.38
336.369	5822.38
336.597	5405.38
336.825	4941.38
337.053	4635.38
337.281	4376.38
337.51	4108.38
337.738	3925.38
337.966	3791.38
338.194	3700.38
338.422	3515.38
338.65	3435.38
338.878	3348.38
339.106	3312.38
339.334	3273.38
339.562	3164.38
339.79	3131.38
340.018	3117.38
340.246	3047.38
340.474	3037.38
340.702	3054.38
340.93	3077.38
341.158	3105.38
341.386	3022.38
341.614	3000.38
341.842	2945.38
342.07	2900.38
342.298	2827.38
342.526	2769.38
342.754	2780.38
342.981	2734.38
343.209	2733.38
343.437	2782.38
343.665	2746.38
343.893	2828.38
344.12	2874.38
344.348	2802.38
344.576	2748.38
344.804	2760.38
345.031	2672.38
345.259	2652.38
345.487	2603.38
345.714	2565.38
345.942	2587.38
346.17	2582.38
346.397	2564.38
346.625	2582.38
346.853	2526.38
347.08	2484.38
347.308	2564.38
347.535	2560.38
347.763	2527.38
347.99	2502.38
348.218	2500.38
348.445	2505.38
348.673	2487.38
348.9	2464.38
349.128	2483.38
349.355	2468.38
349.583	2450.38
349.81	2481.38
350.037	2456.38
350.265	2372.38
350.492	2411.38
350.72	2401.38
350.947	2400.38
351.174	2482.38
351.402	2463.38
351.629	2441.38
351.856	2445.38
352.083	2349.38
352.311	2413.38
352.538	2405.38
352.765	2410.38
352.992	2375.38
353.22	2338.38
353.447	2424.38
353.674	2425.38
353.901	2394.38
354.128	2435.38
354.355	2408.38
354.583	2393.38
354.81	2418.38
355.037	2484.38
355.264	2426.38
355.491	2420.38
355.718	2469.38
355.945	2489.38
356.172	2440.38
356.399	2455.38
356.626	2493.38
356.853	2531.38
357.08	2536.38
357.307	2564.38
357.534	2600.38
357.761	2593.38
357.988	2633.38
358.215	2583.38
358.441	2595.38
358.668	2580.38
358.895	2584.38
359.122	2540.38
359.349	2543.38
359.576	2615.38
359.802	2552.38
360.029	2512.38
360.256	2536.38
360.483	2561.38
360.709	2568.38
360.936	2560.38
361.163	2579.38
361.39	2527.38
361.616	2593.38
361.843	2531.38
362.07	2597.38
362.296	2602.38
362.523	2587.38
362.749	2539.38
362.976	2590.38
363.203	2514.38
363.429	2512.38
363.656	2579.38
363.882	2530.38
364.109	2557.38
364.335	2491.38
364.562	2547.38
364.788	2581.38
365.015	2622.38
365.241	2715.38
365.468	2822.38
365.694	2974.38
365.92	2901.38
366.147	2637.38
366.373	2646.38
366.599	2599.38
366.826	2610.38
367.052	2616.38
367.278	2627.38
367.505	2645.38
367.731	2669.38
367.957	2607.38
368.184	2657.38
368.41	2674.38
368.636	2695.38
368.862	2639.38
369.089	2655.38
369.315	2623.38
369.541	2666.38
369.767	2657.38
369.993	2665.38
370.219	2631.38
370.445	2627.38
370.672	2686.38
370.898	2686.38
371.124	2686.38
371.35	2675.38
371.576	2724.38
371.802	2747.38
372.028	2784.38
372.254	2775.38
372.48	2745.38
372.706	2828.38
372.932	2815.38
373.158	2773.38
373.384	2803.38
373.61	2795.38
373.835	2802.38
374.061	2812.38
374.287	2856.38
374.513	2845.38
374.739	2884.38
374.965	2911.38
375.191	2929.38
375.416	2926.38
375.642	2854.38
375.868	2830.38
376.094	2782.38
376.319	2815.38
376.545	2798.38
376.771	2745.38
376.997	2780.38
377.222	2719.38
377.448	2741.38
377.674	2710.38
377.899	2719.38
378.125	2694.38
378.35	2732.38
378.576	2746.38
378.802	2742.38
379.027	2840.38
379.253	2881.38
379.478	3117.38
379.704	3636.38
379.929	5289.38
380.155	8154.38
380.38	8942.38
380.606	5587.38
380.831	3857.38
381.057	3374.38
381.282	3007.38
381.507	2888.38
381.733	2846.38
381.958	2722.38
382.184	2778.38
382.409	2769.38
382.634	2708.38
382.86	2691.38
383.085	2678.38
383.31	2715.38
383.535	2741.38
383.761	2693.38
383.986	2681.38
384.211	2755.38
384.436	2781.38
384.662	2795.38
384.887	2805.38
385.112	2746.38
385.337	2797.38
385.562	2838.38
385.787	2753.38
386.013	2768.38
386.238	2826.38
386.463	2827.38
386.688	2846.38
386.913	2736.38
387.138	2781.38
387.363	2783.38
387.588	2754.38
387.813	2770.38
388.038	2780.38
388.263	2767.38
388.488	2816.38
388.713	2797.38
388.938	2756.38
389.163	2743.38
389.387	2790.38
389.612	2719.38
389.837	2784.38
390.062	2795.38
390.287	2787.38
390.512	2776.38
390.736	2837.38
390.961	2877.38
391.186	2876.38
391.411	2886.38
391.636	2860.38
391.86	2903.38
392.085	2897.38
392.31	2902.38
392.534	2879.38
392.759	2855.38
392.984	2847.38
393.208	2846.38
393.433	2863.38
393.658	2840.38
393.882	2775.38
394.107	2800.38
394.331	2819.38
394.556	2818.38
394.78	2843.38
395.005	2824.38
395.229	2836.38
395.454	2914.38
395.678	2911.38
395.903	2910.38
396.127	2888.38
396.352	2866.38
396.576	2881.38
396.801	2881.38
397.025	2917.38
397.249	2907.38
397.474	2944.38
397.698	2925.38
397.922	2971.38
398.147	2935.38
398.371	2960.38
398.595	3012.38
398.82	3129.38
399.044	3235.38
399.268	3317.38
399.492	3542.38
399.717	3695.38
399.941	3649.38
400.165	3525.38
400.389	3423.38
400.613	3270.38
400.837	3156.38
401.062	3105.38
401.286	3055.38
401.51	3054.38
401.734	3023.38
401.958	3072.38
402.182	3030.38
402.406	3067.38
402.63	3085.38
402.854	3108.38
403.078	3088.38
403.302	3138.38
403.526	3135.38
403.75	3173.38
403.974	3237.38
404.198	3180.38
404.422	3223.38
404.645	3165.38
404.869	3115.38
405.093	3147.38
405.317	3163.38
405.541	3194.38
405.765	3246.38
405.988	3357.38
406.212	3264.38
406.436	3221.38
406.66	3373.38
406.883	3269.38
407.107	3409.38
407.331	3435.38
407.555	3476.38
407.778	3447.38
408.002	3448.38
408.226	3352.38
408.449	3445.38
408.673	3339.38
408.896	3238.38
409.12	3201.38
409.344	3282.38
409.567	3133.38
409.791	3187.38
410.014	3228.38
410.238	3113.38
410.461	3108.38
410.685	3148.38
410.908	3109.38
411.132	3145.38
411.355	3095.38
411.578	3089.38
411.802	3067.38
412.025	3035.38
412.249	3059.38
412.472	3053.38
412.695	3015.38
412.919	3059.38
413.142	3015.38
413.365	3016.38
413.589	2993.38
413.812	2981.38
414.035	2979.38
414.258	3004.38
414.482	2961.38
414.705	3039.38
414.928	2983.38
415.151	3004.38
415.374	2994.38
415.597	2964.38
415.821	2910.38
416.044	2834.38
416.267	2914.38
416.49	2872.38
416.713	2875.38
416.936	2917.38
417.159	2872.38
417.382	2856.38
417.605	2812.38
417.828	2829.38
418.051	2829.38
418.274	2959.38
418.497	2946.38
418.72	2967.38
418.943	2920.38
419.166	3067.38
419.389	3231.38
419.611	3156.38
419.834	3096.38
420.057	2959.38
420.28	2920.38
420.503	2895.38
420.726	2918.38
420.948	2871.38
421.171	2888.38
421.394	2943.38
421.617	2861.38
421.839	2902.38
422.062	2888.38
422.285	2870.38
422.507	2984.38
422.73	2995.38
422.953	2963.38
423.175	2991.38
423.398	3027.38
423.621	2909.38
423.843	2891.38
424.066	2824.38
424.288	2861.38
424.511	2897.38
424.733	2829.38
424.956	2846.38
425.178	2878.38
425.401	2875.38
425.623	2902.38
425.846	2759.38
426.068	2786.38
426.291	2749.38
426.513	2780.38
426.735	2750.38
426.958	2756.38
427.18	2711.38
427.402	2772.38
427.625	2720.38
427.847	2650.38
428.069	2681.38
428.292	2730.38
428.514	2713.38
428.736	2649.38
428.958	2721.38
429.181	2708.38
429.403	2603.38
429.625	2667.38
429.847	2678.38
430.069	2683.38
430.292	2843.38
430.514	2902.38
430.736	2873.38
430.958	2723.38
431.18	2663.38
431.402	2652.38
431.624	2585.38
431.846	2632.38
432.068	2616.38
432.29	2668.38
432.512	2597.38
432.734	2678.38
432.956	2653.38
433.178	2679.38
433.4	2685.38
433.622	2701.38
433.844	2719.38
434.066	2702.38
434.287	2664.38
434.509	2706.38
434.731	2779.38
434.953	2760.38
435.175	2763.38
435.397	2779.38
435.618	2708.38
435.84	2673.38
436.062	2656.38
436.284	2697.38
436.505	2631.38
436.727	2650.38
436.949	2619.38
437.17	2663.38
437.392	2590.38
437.614	2605.38
437.835	2615.38
438.057	2564.38
438.278	2528.38
438.5	2595.38
438.721	2655.38
438.943	2750.38
439.165	2766.38
439.386	2760.38
439.608	2736.38
439.829	2730.38
440.05	2842.38
440.272	2874.38
440.493	2767.38
440.715	2792.38
440.936	2765.38
441.158	2748.38
441.379	2772.38
441.6	2860.38
441.822	2931.38
442.043	3088.38
442.264	3221.38
442.486	3017.38
442.707	2883.38
442.928	2856.38
443.149	2852.38
443.371	2813.38
443.592	2800.38
443.813	2838.38
444.034	2817.38
444.255	2869.38
444.476	2971.38
444.698	2973.38
444.919	2980.38
445.14	3099.38
445.361	2977.38
445.582	2893.38
445.803	2891.38
446.024	2829.38
446.245	2860.38
446.466	2820.38
446.687	2772.38
446.908	2769.38
447.129	2679.38
447.35	2672.38
447.571	2688.38
447.792	2636.38
448.013	2617.38
448.234	2544.38
448.455	2622.38
448.675	2635.38
448.896	2723.38
449.117	2819.38
449.338	3080.38
449.559	3108.38
449.779	2813.38
450	2625.38
450.221	2626.38
450.442	2592.38
450.662	2587.38
450.883	2548.38
451.104	2588.38
451.324	2567.38
451.545	2539.38
451.766	2573.38
451.986	2623.38
452.207	2877.38
452.428	3695.38
452.648	5742.38
452.869	4823.38
453.089	3260.38
453.31	3031.38
453.53	3045.38
453.751	3105.38
453.971	3212.38
454.192	3151.38
454.412	2722.38
454.633	2603.38
454.853	2551.38
455.073	2440.38
455.294	2459.38
455.514	2431.38
455.734	2409.38
455.955	2414.38
456.175	2457.38
456.395	2411.38
456.616	2451.38
456.836	2516.38
457.056	2489.38
457.276	2499.38
457.497	2645.38
457.717	2726.38
457.937	2593.38
458.157	2595.38
458.377	2572.38
458.598	2580.38
458.818	2598.38
459.038	2620.38
459.258	2641.38
459.478	2676.38
459.698	2700.38
459.918	2678.38
460.138	2727.38
460.358	2795.38
460.578	2856.38
460.798	2847.38
461.018	2914.38
461.238	2927.38
461.458	2956.38
461.678	2958.38
461.898	2982.38
462.118	2995.38
462.338	3076.38
462.558	3109.38
462.777	3174.38
462.997	3300.38
463.217	3401.38
463.437	3511.38
463.657	3585.38
463.876	3547.38
464.096	3418.38
464.316	3279.38
464.536	3192.38
464.755	3107.38
464.975	2989.38
465.195	2939.38
465.414	2833.38
465.634	2796.38
465.854	2727.38
466.073	2776.38
466.293	2742.38
466.512	2712.38
466.732	2746.38
466.951	2837.38
467.171	3007.38
467.391	2991.38
467.61	2741.38
467.829	2663.38
468.049	2649.38
468.268	2633.38
468.488	2597.38
468.707	2599.38
468.927	2636.38
469.146	2573.38
469.365	2663.38
469.585	2663.38
469.804	2700.38
470.023	2807.38
470.243	2779.38
470.462	2912.38
470.681	3095.38
470.901	3389.38
471.12	3824.38
471.339	3758.38
471.558	3227.38
471.777	2923.38
471.997	2816.38
472.216	2760.38
472.435	2654.38
472.654	2644.38
472.873	2595.38
473.092	2671.38
473.311	2593.38
473.53	2645.38
473.749	2759.38
473.968	2854.38
474.187	2665.38
474.406	2610.38
474.625	2615.38
474.844	2617.38
475.063	2634.38
475.282	2642.38
475.501	2649.38
475.72	2663.38
475.939	2708.38
476.158	2734.38
476.377	2776.38
476.596	2787.38
476.814	2784.38
477.033	2786.38
477.252	2833.38
477.471	2854.38
477.69	2868.38
477.908	2915.38
478.127	3028.38
478.346	2975.38
478.564	3034.38
478.783	3066.38
479.002	3145.38
479.22	3132.38
479.439	3183.38
479.658	3193.38
479.876	3148.38
480.095	3176.38
480.313	3270.38
480.532	3279.38
480.751	3277.38
480.969	3197.38
481.188	3223.38
481.406	3166.38
481.624	3174.38
481.843	3192.38
482.061	3240.38
482.28	3209.38
482.498	3167.38
482.717	3179.38
482.935	3234.38
483.153	3259.38
483.372	3298.38
483.59	3335.38
483.808	3393.38
484.027	3507.38
484.245	3669.38
484.463	4199.38
484.681	4558.38
484.9	4214.38
485.118	3900.38
485.336	3843.38
485.554	3919.38
485.772	4087.38
485.99	4618.38
486.209	4820.38
486.427	4231.38
486.645	3792.38
486.863	3608.38
487.081	3461.38
487.299	3415.38
487.517	3359.38
487.735	3412.38
