Data from SnStandardFlinnAPT0064_LampEnergy5.5_LIBS07252019.E.O._I.C._HRD10591_15-17-10-491.txt Node
Date: Thu Jul 25 15:17:10 EDT 2019
User: cochatt
Spectrometer: HR+D1059
Trigger mode: 1
Integration Time (sec): 1.000000E-1
Scans to average: 1
Electric dark correction enabled: true
Nonlinearity correction enabled: false
Boxcar width: 0
XAxis mode: Wavelengths
Number of Pixels in Spectrum: 2048
>>>>>Begin Spectral Data<<<<<
223.165	-17.5
223.4	-17.5
223.635	-17.5
223.869	-21.5
224.104	-25.5
224.338	-17.5
224.573	-24.5
224.808	-0.5
225.042	-23.5
225.277	-4.5
225.511	-1.5
225.746	3.5
225.98	16.5
226.215	16.5
226.449	19.5
226.683	27.5
226.918	19.5
227.152	33.5
227.387	35.5
227.621	45.5
227.856	35.5
228.09	53.5
228.324	49.5
228.559	54.5
228.793	76.5
229.027	147.5
229.262	156.5
229.496	159.5
229.73	154.5
229.964	165.5
230.199	155.5
230.433	164.5
230.667	147.5
230.901	152.5
231.136	156.5
231.37	167.5
231.604	176.5
231.838	201.5
232.072	222.5
232.306	242.5
232.541	223.5
232.775	203.5
233.009	191.5
233.243	214.5
233.477	211.5
233.711	227.5
233.945	267.5
234.179	247.5
234.413	232.5
234.647	231.5
234.881	224.5
235.115	245.5
235.349	294.5
235.583	335.5
235.817	435.5
236.051	442.5
236.285	306.5
236.519	246.5
236.753	245.5
236.987	225.5
237.221	231.5
237.455	232.5
237.689	214.5
237.922	237.5
238.156	223.5
238.39	247.5
238.624	237.5
238.858	230.5
239.091	226.5
239.325	246.5
239.559	232.5
239.793	228.5
240.027	242.5
240.26	245.5
240.494	253.5
240.728	253.5
240.961	273.5
241.195	290.5
241.429	322.5
241.662	305.5
241.896	350.5
242.13	397.5
242.363	525.5
242.597	641.5
242.83	666.5
243.064	645.5
243.298	757.5
243.531	645.5
243.765	397.5
243.998	345.5
244.232	298.5
244.465	283.5
244.699	303.5
244.932	278.5
245.166	305.5
245.399	288.5
245.633	305.5
245.866	306.5
246.099	306.5
246.333	295.5
246.566	285.5
246.8	281.5
247.033	277.5
247.266	288.5
247.5	309.5
247.733	299.5
247.966	309.5
248.2	349.5
248.433	361.5
248.666	425.5
248.899	405.5
249.133	340.5
249.366	382.5
249.599	407.5
249.832	453.5
250.066	452.5
250.299	375.5
250.532	345.5
250.765	328.5
250.998	343.5
251.231	334.5
251.465	339.5
251.698	328.5
251.931	329.5
252.164	321.5
252.397	316.5
252.63	352.5
252.863	365.5
253.096	347.5
253.329	330.5
253.562	347.5
253.795	339.5
254.028	343.5
254.261	360.5
254.494	370.5
254.727	457.5
254.96	545.5
255.193	505.5
255.426	431.5
255.659	373.5
255.892	382.5
256.124	381.5
256.357	394.5
256.59	387.5
256.823	412.5
257.056	443.5
257.289	545.5
257.521	592.5
257.754	515.5
257.987	419.5
258.22	407.5
258.452	387.5
258.685	410.5
258.918	417.5
259.151	434.5
259.383	452.5
259.616	476.5
259.849	514.5
260.081	450.5
260.314	417.5
260.547	434.5
260.779	419.5
261.012	402.5
261.244	439.5
261.477	426.5
261.71	443.5
261.942	429.5
262.175	467.5
262.407	485.5
262.64	470.5
262.872	484.5
263.105	482.5
263.337	545.5
263.57	554.5
263.802	573.5
264.035	551.5
264.267	589.5
264.499	579.5
264.732	630.5
264.964	629.5
265.197	609.5
265.429	637.5
265.661	609.5
265.894	675.5
266.126	739.5
266.358	850.5
266.591	800.5
266.823	671.5
267.055	622.5
267.287	599.5
267.52	573.5
267.752	566.5
267.984	550.5
268.216	577.5
268.448	553.5
268.681	542.5
268.913	554.5
269.145	550.5
269.377	554.5
269.609	544.5
269.841	562.5
270.073	570.5
270.306	669.5
270.538	893.5
270.77	1284.5
271.002	1595.5
271.234	1115.5
271.466	745.5
271.698	624.5
271.93	573.5
272.162	565.5
272.394	561.5
272.626	544.5
272.858	542.5
273.09	528.5
273.322	549.5
273.553	507.5
273.785	528.5
274.017	531.5
274.249	533.5
274.481	515.5
274.713	525.5
274.945	522.5
275.176	517.5
275.408	528.5
275.64	511.5
275.872	529.5
276.104	547.5
276.335	542.5
276.567	554.5
276.799	564.5
277.031	552.5
277.262	554.5
277.494	577.5
277.726	622.5
277.957	723.5
278.189	822.5
278.421	791.5
278.652	691.5
278.884	669.5
279.115	619.5
279.347	607.5
279.579	579.5
279.81	625.5
280.042	593.5
280.273	594.5
280.505	617.5
280.736	639.5
280.968	645.5
281.199	698.5
281.431	781.5
281.662	803.5
281.894	741.5
282.125	693.5
282.356	687.5
282.588	663.5
282.819	713.5
283.051	738.5
283.282	787.5
283.513	1027.5
283.745	1434.5
283.976	2337.5
284.207	3270.5
284.439	2924.5
284.67	1696.5
284.901	1399.5
285.132	1399.5
285.364	1334.5
285.595	1047.5
285.826	968.5
286.057	1175.5
286.288	1576.5
286.52	2141.5
286.751	1947.5
286.982	1175.5
287.213	898.5
287.444	789.5
287.675	749.5
287.906	713.5
288.138	717.5
288.369	698.5
288.6	716.5
288.831	685.5
289.062	693.5
289.293	713.5
289.524	720.5
289.755	707.5
289.986	735.5
290.217	714.5
290.448	709.5
290.679	731.5
290.91	735.5
291.141	746.5
291.371	794.5
291.602	834.5
291.833	767.5
292.064	718.5
292.295	705.5
292.526	691.5
292.757	677.5
292.987	694.5
293.218	665.5
293.449	667.5
293.68	672.5
293.91	661.5
294.141	656.5
294.372	655.5
294.603	663.5
294.833	683.5
295.064	688.5
295.295	651.5
295.525	663.5
295.756	664.5
295.987	673.5
296.217	659.5
296.448	673.5
296.679	638.5
296.909	683.5
297.14	667.5
297.37	690.5
297.601	708.5
297.831	690.5
298.062	665.5
298.292	672.5
298.523	692.5
298.753	722.5
298.984	692.5
299.214	731.5
299.445	707.5
299.675	735.5
299.905	756.5
300.136	771.5
300.366	882.5
300.597	1107.5
300.827	1556.5
301.057	2109.5
301.288	2075.5
301.518	1331.5
301.748	1018.5
301.979	926.5
302.209	921.5
302.439	907.5
302.669	955.5
302.9	1192.5
303.13	1599.5
303.36	2349.5
303.59	3250.5
303.82	2762.5
304.051	1617.5
304.281	1155.5
304.511	997.5
304.741	922.5
304.971	866.5
305.201	805.5
305.431	828.5
305.661	793.5
305.891	801.5
306.121	781.5
306.352	781.5
306.582	754.5
306.812	787.5
307.042	776.5
307.272	787.5
307.502	781.5
307.731	758.5
307.961	767.5
308.191	750.5
308.421	737.5
308.651	769.5
308.881	759.5
309.111	759.5
309.341	756.5
309.571	790.5
309.8	776.5
310.03	771.5
310.26	777.5
310.49	797.5
310.72	789.5
310.949	779.5
311.179	779.5
311.409	798.5
311.639	799.5
311.868	785.5
312.098	804.5
312.328	824.5
312.557	806.5
312.787	811.5
313.017	840.5
313.246	848.5
313.476	843.5
313.706	863.5
313.935	888.5
314.165	960.5
314.394	979.5
314.624	936.5
314.853	879.5
315.083	869.5
315.312	898.5
315.542	920.5
315.771	909.5
316.001	928.5
316.23	970.5
316.46	965.5
316.689	1070.5
316.919	1283.5
317.148	1861.5
317.377	2897.5
317.607	4279.5
317.836	4439.5
318.065	2489.5
318.295	1625.5
318.524	1288.5
318.753	1147.5
318.983	1079.5
319.212	1043.5
319.441	1042.5
319.67	992.5
319.9	957.5
320.129	961.5
320.358	961.5
320.587	971.5
320.816	963.5
321.046	957.5
321.275	974.5
321.504	978.5
321.733	984.5
321.962	1009.5
322.191	1052.5
322.42	1024.5
322.649	994.5
322.878	996.5
323.108	1015.5
323.337	1071.5
323.566	1060.5
323.795	1054.5
324.024	1078.5
324.253	1103.5
324.482	1141.5
324.71	1205.5
324.939	1238.5
325.168	1292.5
325.397	1355.5
325.626	1585.5
325.855	2191.5
326.084	3425.5
326.313	5185.5
326.542	5572.5
326.77	3379.5
326.999	2242.5
327.228	1871.5
327.457	1751.5
327.686	1798.5
327.914	1917.5
328.143	2159.5
328.372	2470.5
328.6	2667.5
328.829	2479.5
329.058	2165.5
329.287	1940.5
329.515	1790.5
329.744	1703.5
329.972	1585.5
330.201	1531.5
330.43	1505.5
330.658	1459.5
330.887	1400.5
331.115	1371.5
331.344	1373.5
331.572	1383.5
331.801	1373.5
332.03	1415.5
332.258	1420.5
332.486	1489.5
332.715	1681.5
332.943	2080.5
333.172	2520.5
333.4	2502.5
333.629	1925.5
333.857	1737.5
334.085	1754.5
334.314	1811.5
334.542	1983.5
334.771	2229.5
334.999	2690.5
335.227	3251.5
335.455	3630.5
335.684	3336.5
335.912	2851.5
336.14	2468.5
336.369	2186.5
336.597	2029.5
336.825	1883.5
337.053	1770.5
337.281	1649.5
337.51	1574.5
337.738	1528.5
337.966	1465.5
338.194	1462.5
338.422	1415.5
338.65	1365.5
338.878	1377.5
339.106	1291.5
339.334	1307.5
339.562	1266.5
339.79	1233.5
340.018	1254.5
340.246	1226.5
340.474	1230.5
340.702	1265.5
340.93	1217.5
341.158	1226.5
341.386	1239.5
341.614	1230.5
341.842	1203.5
342.07	1165.5
342.298	1185.5
342.526	1153.5
342.754	1110.5
342.981	1133.5
343.209	1130.5
343.437	1163.5
343.665	1167.5
343.893	1171.5
344.12	1169.5
344.348	1151.5
344.576	1131.5
344.804	1128.5
345.031	1105.5
345.259	1093.5
345.487	1059.5
345.714	1085.5
345.942	1064.5
346.17	1085.5
346.397	1043.5
346.625	1071.5
346.853	1075.5
347.08	1046.5
347.308	1061.5
347.535	1036.5
347.763	1042.5
347.99	1047.5
348.218	1035.5
348.445	1036.5
348.673	1047.5
348.9	1019.5
349.128	1034.5
349.355	1039.5
349.583	1026.5
349.81	1025.5
350.037	1041.5
350.265	1031.5
350.492	1030.5
350.72	1005.5
350.947	1033.5
351.174	996.5
351.402	1035.5
351.629	1001.5
351.856	1019.5
352.083	1001.5
352.311	1028.5
352.538	982.5
352.765	1015.5
352.992	1008.5
353.22	970.5
353.447	1011.5
353.674	1000.5
353.901	986.5
354.128	993.5
354.355	1013.5
354.583	1017.5
354.81	999.5
355.037	1032.5
355.264	1048.5
355.491	1018.5
355.718	1007.5
355.945	1013.5
356.172	999.5
356.399	1027.5
356.626	1021.5
356.853	1039.5
357.08	1031.5
357.307	1050.5
357.534	1043.5
357.761	1057.5
357.988	1088.5
358.215	1052.5
358.441	1059.5
358.668	1051.5
358.895	1051.5
359.122	1081.5
359.349	1054.5
359.576	1058.5
359.802	1082.5
360.029	1076.5
360.256	1055.5
360.483	1059.5
360.709	1062.5
360.936	1069.5
361.163	1092.5
361.39	1053.5
361.616	1065.5
361.843	1042.5
362.07	1093.5
362.296	1069.5
362.523	1035.5
362.749	1091.5
362.976	1053.5
363.203	1087.5
363.429	1075.5
363.656	1052.5
363.882	1079.5
364.109	1057.5
364.335	1062.5
364.562	1048.5
364.788	1062.5
365.015	1087.5
365.241	1105.5
365.468	1143.5
365.694	1194.5
365.92	1162.5
366.147	1097.5
366.373	1089.5
366.599	1103.5
366.826	1093.5
367.052	1086.5
367.278	1094.5
367.505	1121.5
367.731	1096.5
367.957	1079.5
368.184	1099.5
368.41	1106.5
368.636	1119.5
368.862	1108.5
369.089	1111.5
369.315	1099.5
369.541	1085.5
369.767	1103.5
369.993	1096.5
370.219	1092.5
370.445	1110.5
370.672	1131.5
370.898	1095.5
371.124	1122.5
371.35	1132.5
371.576	1140.5
371.802	1161.5
372.028	1168.5
372.254	1137.5
372.48	1155.5
372.706	1147.5
372.932	1144.5
373.158	1158.5
373.384	1190.5
373.61	1169.5
373.835	1171.5
374.061	1177.5
374.287	1180.5
374.513	1199.5
374.739	1218.5
374.965	1200.5
375.191	1237.5
375.416	1222.5
375.642	1158.5
375.868	1175.5
376.094	1190.5
376.319	1142.5
376.545	1157.5
376.771	1173.5
376.997	1146.5
377.222	1163.5
377.448	1155.5
377.674	1157.5
377.899	1145.5
378.125	1133.5
378.35	1117.5
378.576	1147.5
378.802	1171.5
379.027	1183.5
379.253	1217.5
379.478	1269.5
379.704	1483.5
379.929	2086.5
380.155	3163.5
380.38	3356.5
380.606	2037.5
380.831	1476.5
381.057	1295.5
381.282	1233.5
381.507	1159.5
381.733	1197.5
381.958	1157.5
382.184	1145.5
382.409	1178.5
382.634	1158.5
382.86	1136.5
383.085	1149.5
383.31	1158.5
383.535	1123.5
383.761	1145.5
383.986	1134.5
384.211	1153.5
384.436	1162.5
384.662	1141.5
384.887	1183.5
385.112	1173.5
385.337	1174.5
385.562	1153.5
385.787	1205.5
386.013	1168.5
386.238	1164.5
386.463	1157.5
386.688	1171.5
386.913	1183.5
387.138	1189.5
387.363	1167.5
387.588	1193.5
387.813	1163.5
388.038	1136.5
388.263	1170.5
388.488	1161.5
388.713	1181.5
388.938	1183.5
389.163	1188.5
389.387	1181.5
389.612	1155.5
389.837	1164.5
390.062	1178.5
390.287	1170.5
390.512	1237.5
390.736	1182.5
390.961	1208.5
391.186	1193.5
391.411	1236.5
391.636	1211.5
391.86	1232.5
392.085	1245.5
392.31	1223.5
392.534	1242.5
392.759	1235.5
392.984	1218.5
393.208	1197.5
393.433	1221.5
393.658	1255.5
393.882	1169.5
394.107	1201.5
394.331	1201.5
394.556	1193.5
394.78	1215.5
395.005	1215.5
395.229	1207.5
395.454	1219.5
395.678	1231.5
395.903	1218.5
396.127	1201.5
396.352	1226.5
396.576	1209.5
396.801	1239.5
397.025	1245.5
397.249	1219.5
397.474	1253.5
397.698	1263.5
397.922	1292.5
398.147	1261.5
398.371	1275.5
398.595	1307.5
398.82	1310.5
399.044	1367.5
399.268	1433.5
399.492	1513.5
399.717	1581.5
399.941	1538.5
400.165	1479.5
400.389	1422.5
400.613	1411.5
400.837	1347.5
401.062	1337.5
401.286	1337.5
401.51	1296.5
401.734	1279.5
401.958	1327.5
402.182	1285.5
402.406	1287.5
402.63	1271.5
402.854	1321.5
403.078	1297.5
403.302	1341.5
403.526	1342.5
403.75	1360.5
403.974	1362.5
404.198	1331.5
404.422	1359.5
404.645	1380.5
404.869	1375.5
405.093	1357.5
405.317	1339.5
405.541	1343.5
405.765	1343.5
405.988	1391.5
406.212	1358.5
406.436	1355.5
406.66	1407.5
406.883	1384.5
407.107	1426.5
407.331	1457.5
407.555	1480.5
407.778	1479.5
408.002	1448.5
408.226	1444.5
408.449	1409.5
408.673	1380.5
408.896	1379.5
409.12	1341.5
409.344	1346.5
409.567	1316.5
409.791	1349.5
410.014	1338.5
410.238	1327.5
410.461	1319.5
410.685	1341.5
410.908	1339.5
411.132	1373.5
411.355	1286.5
411.578	1305.5
411.802	1301.5
412.025	1289.5
412.249	1292.5
412.472	1345.5
412.695	1295.5
412.919	1256.5
413.142	1291.5
413.365	1296.5
413.589	1304.5
413.812	1254.5
414.035	1301.5
414.258	1285.5
414.482	1274.5
414.705	1300.5
414.928	1267.5
415.151	1258.5
415.374	1261.5
415.597	1265.5
415.821	1230.5
416.044	1227.5
416.267	1234.5
416.49	1226.5
416.713	1227.5
416.936	1241.5
417.159	1257.5
417.382	1216.5
417.605	1217.5
417.828	1242.5
418.051	1219.5
418.274	1238.5
418.497	1231.5
418.72	1258.5
418.943	1231.5
419.166	1309.5
419.389	1364.5
419.611	1362.5
419.834	1323.5
420.057	1255.5
420.28	1256.5
420.503	1229.5
420.726	1202.5
420.948	1226.5
421.171	1230.5
421.394	1259.5
421.617	1224.5
421.839	1234.5
422.062	1249.5
422.285	1227.5
422.507	1247.5
422.73	1256.5
422.953	1263.5
423.175	1325.5
423.398	1316.5
423.621	1205.5
423.843	1259.5
424.066	1261.5
424.288	1240.5
424.511	1262.5
424.733	1254.5
424.956	1245.5
425.178	1226.5
425.401	1221.5
425.623	1238.5
425.846	1193.5
426.068	1206.5
426.291	1186.5
426.513	1211.5
426.735	1181.5
426.958	1163.5
427.18	1157.5
427.402	1145.5
427.625	1164.5
427.847	1141.5
428.069	1151.5
428.292	1154.5
428.514	1141.5
428.736	1173.5
428.958	1160.5
429.181	1139.5
429.403	1112.5
429.625	1147.5
429.847	1155.5
430.069	1190.5
430.292	1183.5
430.514	1241.5
430.736	1209.5
430.958	1164.5
431.18	1147.5
431.402	1143.5
431.624	1130.5
431.846	1109.5
432.068	1098.5
432.29	1123.5
432.512	1093.5
432.734	1130.5
432.956	1160.5
433.178	1164.5
433.4	1139.5
433.622	1139.5
433.844	1175.5
434.066	1146.5
434.287	1119.5
434.509	1120.5
434.731	1163.5
434.953	1157.5
435.175	1159.5
435.397	1183.5
435.618	1163.5
435.84	1138.5
436.062	1143.5
436.284	1129.5
436.505	1111.5
436.727	1102.5
436.949	1145.5
437.17	1143.5
437.392	1112.5
437.614	1126.5
437.835	1047.5
438.057	1053.5
438.278	1082.5
438.5	1098.5
438.721	1137.5
438.943	1180.5
439.165	1177.5
439.386	1186.5
439.608	1175.5
439.829	1150.5
440.05	1192.5
440.272	1228.5
440.493	1183.5
440.715	1181.5
440.936	1163.5
441.158	1188.5
441.379	1219.5
441.6	1261.5
441.822	1266.5
442.043	1326.5
442.264	1363.5
442.486	1292.5
442.707	1213.5
442.928	1267.5
443.149	1226.5
443.371	1221.5
443.592	1228.5
443.813	1224.5
444.034	1210.5
444.255	1271.5
444.476	1287.5
444.698	1293.5
444.919	1341.5
445.14	1415.5
445.361	1293.5
445.582	1206.5
445.803	1240.5
446.024	1231.5
446.245	1233.5
446.466	1263.5
446.687	1213.5
446.908	1209.5
447.129	1155.5
447.35	1179.5
447.571	1157.5
447.792	1140.5
448.013	1153.5
448.234	1136.5
448.455	1130.5
448.675	1161.5
448.896	1148.5
449.117	1197.5
449.338	1281.5
449.559	1339.5
449.779	1205.5
450	1141.5
450.221	1100.5
450.442	1107.5
450.662	1089.5
450.883	1104.5
451.104	1080.5
451.324	1097.5
451.545	1062.5
451.766	1109.5
451.986	1117.5
452.207	1179.5
452.428	1455.5
452.648	1995.5
452.869	1727.5
453.089	1257.5
453.31	1190.5
453.53	1219.5
453.751	1261.5
453.971	1315.5
454.192	1304.5
454.412	1141.5
454.633	1094.5
454.853	1082.5
455.073	1078.5
455.294	1047.5
455.514	1054.5
455.734	1019.5
455.955	1046.5
456.175	1035.5
456.395	1049.5
456.616	1044.5
456.836	1015.5
457.056	1076.5
457.276	1063.5
457.497	1085.5
457.717	1087.5
457.937	1082.5
458.157	1102.5
458.377	1100.5
458.598	1105.5
458.818	1104.5
459.038	1105.5
459.258	1107.5
459.478	1136.5
459.698	1155.5
459.918	1178.5
460.138	1170.5
460.358	1206.5
460.578	1199.5
460.798	1215.5
461.018	1227.5
461.238	1238.5
461.458	1239.5
461.678	1250.5
461.898	1277.5
462.118	1287.5
462.338	1270.5
462.558	1316.5
462.777	1341.5
462.997	1400.5
463.217	1393.5
463.437	1454.5
463.657	1501.5
463.876	1475.5
464.096	1431.5
464.316	1349.5
464.536	1344.5
464.755	1290.5
464.975	1275.5
465.195	1251.5
465.414	1198.5
465.634	1186.5
465.854	1192.5
466.073	1173.5
466.293	1130.5
466.512	1157.5
466.732	1159.5
466.951	1201.5
467.171	1275.5
467.391	1264.5
467.61	1145.5
467.829	1145.5
468.049	1147.5
468.268	1093.5
468.488	1120.5
468.707	1107.5
468.927	1123.5
469.146	1123.5
469.365	1123.5
469.585	1110.5
469.804	1153.5
470.023	1157.5
470.243	1181.5
470.462	1232.5
470.681	1291.5
470.901	1364.5
471.12	1613.5
471.339	1626.5
471.558	1327.5
471.777	1235.5
471.997	1175.5
472.216	1163.5
472.435	1149.5
472.654	1112.5
472.873	1093.5
473.092	1101.5
473.311	1101.5
473.53	1131.5
473.749	1125.5
473.968	1166.5
474.187	1129.5
474.406	1145.5
474.625	1099.5
474.844	1126.5
475.063	1124.5
475.282	1143.5
475.501	1118.5
475.72	1155.5
475.939	1137.5
476.158	1155.5
476.377	1169.5
476.596	1157.5
476.814	1172.5
477.033	1169.5
477.252	1158.5
477.471	1229.5
477.69	1256.5
477.908	1239.5
478.127	1262.5
478.346	1275.5
478.564	1285.5
478.783	1280.5
479.002	1352.5
479.22	1334.5
479.439	1333.5
479.658	1335.5
479.876	1329.5
480.095	1341.5
480.313	1358.5
480.532	1369.5
480.751	1351.5
480.969	1362.5
481.188	1339.5
481.406	1321.5
481.624	1297.5
481.843	1331.5
482.061	1351.5
482.28	1359.5
482.498	1299.5
482.717	1307.5
482.935	1346.5
483.153	1373.5
483.372	1375.5
483.59	1361.5
483.808	1433.5
484.027	1419.5
484.245	1500.5
484.463	1704.5
484.681	1882.5
484.9	1734.5
485.118	1610.5
485.336	1560.5
485.554	1538.5
485.772	1615.5
485.99	1893.5
486.209	2092.5
486.427	1695.5
486.645	1539.5
486.863	1493.5
487.081	1465.5
487.299	1411.5
487.517	1434.5
487.735	1434.5
487.953	1478.5
488.171	1452.5
488.389	1444.5
488.607	1390.5
488.825	1370.5
489.043	1382.5
489.261	1385.5
489.479	1382.5
489.696	1399.5
489.914	1397.5
490.132	1426.5
490.35	1447.5
490.568	1437.5
490.786	1451.5
491.003	1453.5
491.221	1469.5
491.439	1465.5
491.657	1465.5
491.874	1502.5
492.092	1523.5
492.31	1517.5
492.527	1541.5
492.745	1482.5
492.963	1486.5
493.18	1494.5
493.398	1505.5
493.615	1489.5
493.833	1495.5
494.05	1496.5
494.268	1490.5
494.485	1487.5
494.703	1454.5
494.92	1512.5
495.138	1504.5
495.355	1484.5
495.573	1479.5
495.79	1479.5
496.008	1497.5
496.225	1505.5
496.442	1545.5
496.66	1562.5
496.877	1629.5
497.094	1639.5
497.312	1579.5
497.529	1616.5
497.746	1611.5
497.963	1583.5
498.181	1669.5
498.398	1686.5
498.615	1757.5
498.832	1820.5
499.049	1845.5
499.267	2038.5
499.484	2121.5
499.701	2152.5
499.918	2189.5
500.135	2340.5
500.352	2465.5
500.569	2492.5
500.786	2461.5
501.003	2400.5
501.22	2234.5
501.437	2124.5
501.654	2053.5
501.871	1931.5
502.088	1851.5
502.305	1769.5
502.522	1772.5
502.739	1761.5
502.956	1657.5
503.172	1635.5
503.389	1581.5
503.606	1519.5
503.823	1492.5
504.04	1517.5
504.256	1501.5
504.473	1561.5
504.69	1512.5
504.907	1469.5
505.123	1464.5
505.34	1427.5
505.557	1409.5
505.773	1385.5
505.99	1370.5
506.207	1331.5
506.423	1331.5
506.64	1353.5
506.856	1286.5
507.073	1343.5
507.289	1286.5
