Data from SnStandardFlinnAPT0064_LampEnergy5.5_LIBS07252019.E.O._I.C._HRD10591_15-16-09-492.txt Node
Date: Thu Jul 25 15:16:09 EDT 2019
User: cochatt
Spectrometer: HR+D1059
Trigger mode: 1
Integration Time (sec): 1.000000E-1
Scans to average: 1
Electric dark correction enabled: true
Nonlinearity correction enabled: false
Boxcar width: 0
XAxis mode: Wavelengths
Number of Pixels in Spectrum: 2048
>>>>>Begin Spectral Data<<<<<
223.165	-18.38
223.4	-18.38
223.635	-18.38
223.869	-27.38
224.104	-8.38
224.338	-7.38
224.573	-22.38
224.808	-8.38
225.042	-13.38
225.277	-2.38
225.511	4.62
225.746	-2.38
225.98	19.62
226.215	4.62
226.449	19.62
226.683	14.62
226.918	14.62
227.152	32.62
227.387	39.62
227.621	29.62
227.856	52.62
228.09	38.62
228.324	58.62
228.559	47.62
228.793	82.62
229.027	133.62
229.262	165.62
229.496	152.62
229.73	156.62
229.964	150.62
230.199	160.62
230.433	157.62
230.667	163.62
230.901	164.62
231.136	163.62
231.37	184.62
231.604	162.62
231.838	214.62
232.072	224.62
232.306	253.62
232.541	211.62
232.775	182.62
233.009	184.62
233.243	215.62
233.477	216.62
233.711	222.62
233.945	273.62
234.179	211.62
234.413	210.62
234.647	228.62
234.881	225.62
235.115	231.62
235.349	280.62
235.583	328.62
235.817	408.62
236.051	404.62
236.285	290.62
236.519	223.62
236.753	228.62
236.987	253.62
237.221	258.62
237.455	225.62
237.689	219.62
237.922	230.62
238.156	225.62
238.39	227.62
238.624	220.62
238.858	215.62
239.091	242.62
239.325	220.62
239.559	222.62
239.793	230.62
240.027	241.62
240.26	228.62
240.494	234.62
240.728	252.62
240.961	265.62
241.195	291.62
241.429	286.62
241.662	306.62
241.896	337.62
242.13	389.62
242.363	461.62
242.597	586.62
242.83	585.62
243.064	599.62
243.298	706.62
243.531	580.62
243.765	404.62
243.998	322.62
244.232	282.62
244.465	294.62
244.699	283.62
244.932	296.62
245.166	290.62
245.399	308.62
245.633	311.62
245.866	304.62
246.099	288.62
246.333	276.62
246.566	289.62
246.8	305.62
247.033	304.62
247.266	284.62
247.5	290.62
247.733	305.62
247.966	310.62
248.2	312.62
248.433	367.62
248.666	400.62
248.899	397.62
249.133	355.62
249.366	373.62
249.599	380.62
249.832	422.62
250.066	452.62
250.299	373.62
250.532	356.62
250.765	314.62
250.998	328.62
251.231	319.62
251.465	329.62
251.698	323.62
251.931	322.62
252.164	324.62
252.397	345.62
252.63	347.62
252.863	349.62
253.096	349.62
253.329	339.62
253.562	352.62
253.795	358.62
254.028	350.62
254.261	358.62
254.494	397.62
254.727	419.62
254.96	487.62
255.193	486.62
255.426	409.62
255.659	364.62
255.892	362.62
256.124	351.62
256.357	374.62
256.59	390.62
256.823	413.62
257.056	465.62
257.289	536.62
257.521	537.62
257.754	483.62
257.987	414.62
258.22	394.62
258.452	399.62
258.685	423.62
258.918	403.62
259.151	427.62
259.383	456.62
259.616	492.62
259.849	520.62
260.081	458.62
260.314	406.62
260.547	408.62
260.779	417.62
261.012	428.62
261.244	434.62
261.477	409.62
261.71	439.62
261.942	431.62
262.175	455.62
262.407	470.62
262.64	477.62
262.872	489.62
263.105	498.62
263.337	528.62
263.57	540.62
263.802	552.62
264.035	565.62
264.267	601.62
264.499	592.62
264.732	622.62
264.964	629.62
265.197	625.62
265.429	616.62
265.661	620.62
265.894	679.62
266.126	741.62
266.358	774.62
266.591	780.62
266.823	674.62
267.055	632.62
267.287	589.62
267.52	595.62
267.752	568.62
267.984	580.62
268.216	551.62
268.448	537.62
268.681	540.62
268.913	531.62
269.145	526.62
269.377	546.62
269.609	553.62
269.841	563.62
270.073	579.62
270.306	645.62
270.538	862.62
270.77	1221.62
271.002	1456.62
271.234	1044.62
271.466	731.62
271.698	599.62
271.93	574.62
272.162	586.62
272.394	549.62
272.626	522.62
272.858	508.62
273.09	526.62
273.322	537.62
273.553	520.62
273.785	533.62
274.017	510.62
274.249	508.62
274.481	521.62
274.713	519.62
274.945	533.62
275.176	540.62
275.408	513.62
275.64	517.62
275.872	525.62
276.104	556.62
276.335	554.62
276.567	556.62
276.799	561.62
277.031	566.62
277.262	567.62
277.494	606.62
277.726	627.62
277.957	714.62
278.189	812.62
278.421	752.62
278.652	684.62
278.884	658.62
279.115	620.62
279.347	584.62
279.579	603.62
279.81	608.62
280.042	587.62
280.273	611.62
280.505	629.62
280.736	607.62
280.968	658.62
281.199	704.62
281.431	778.62
281.662	770.62
281.894	702.62
282.125	653.62
282.356	693.62
282.588	680.62
282.819	692.62
283.051	720.62
283.282	786.62
283.513	928.62
283.745	1407.62
283.976	2077.62
284.207	2988.62
284.439	2696.62
284.67	1654.62
284.901	1347.62
285.132	1304.62
285.364	1246.62
285.595	1006.62
285.826	950.62
286.057	1102.62
286.288	1435.62
286.52	1918.62
286.751	1750.62
286.982	1152.62
287.213	903.62
287.444	771.62
287.675	722.62
287.906	736.62
288.138	704.62
288.369	706.62
288.6	716.62
288.831	704.62
289.062	697.62
289.293	704.62
289.524	730.62
289.755	736.62
289.986	720.62
290.217	712.62
290.448	729.62
290.679	757.62
290.91	716.62
291.141	734.62
291.371	773.62
291.602	777.62
291.833	750.62
292.064	720.62
292.295	692.62
292.526	676.62
292.757	684.62
292.987	692.62
293.218	679.62
293.449	665.62
293.68	675.62
293.91	667.62
294.141	667.62
294.372	650.62
294.603	646.62
294.833	647.62
295.064	661.62
295.295	660.62
295.525	631.62
295.756	670.62
295.987	656.62
296.217	681.62
296.448	674.62
296.679	668.62
296.909	671.62
297.14	662.62
297.37	698.62
297.601	702.62
297.831	694.62
298.062	672.62
298.292	687.62
298.523	690.62
298.753	703.62
298.984	703.62
299.214	716.62
299.445	701.62
299.675	713.62
299.905	778.62
300.136	784.62
300.366	880.62
300.597	1064.62
300.827	1434.62
301.057	1877.62
301.288	1893.62
301.518	1285.62
301.748	1006.62
301.979	905.62
302.209	896.62
302.439	904.62
302.669	963.62
302.9	1117.62
303.13	1509.62
303.36	2169.62
303.59	2855.62
303.82	2522.62
304.051	1578.62
304.281	1142.62
304.511	998.62
304.741	913.62
304.971	882.62
305.201	814.62
305.431	798.62
305.661	786.62
305.891	800.62
306.121	782.62
306.352	805.62
306.582	772.62
306.812	776.62
307.042	765.62
307.272	764.62
307.502	754.62
307.731	757.62
307.961	775.62
308.191	737.62
308.421	772.62
308.651	751.62
308.881	771.62
309.111	766.62
309.341	752.62
309.571	768.62
309.8	802.62
310.03	790.62
310.26	777.62
310.49	778.62
310.72	793.62
310.949	792.62
311.179	785.62
311.409	799.62
311.639	804.62
311.868	805.62
312.098	800.62
312.328	816.62
312.557	824.62
312.787	825.62
313.017	814.62
313.246	830.62
313.476	847.62
313.706	842.62
313.935	894.62
314.165	925.62
314.394	925.62
314.624	919.62
314.853	873.62
315.083	895.62
315.312	898.62
315.542	901.62
315.771	928.62
316.001	910.62
316.23	935.62
316.46	976.62
316.689	1074.62
316.919	1210.62
317.148	1738.62
317.377	2604.62
317.607	3786.62
317.836	3878.62
318.065	2360.62
318.295	1536.62
318.524	1281.62
318.753	1126.62
318.983	1081.62
319.212	1052.62
319.441	1012.62
319.67	969.62
319.9	971.62
320.129	980.62
320.358	960.62
320.587	961.62
320.816	967.62
321.046	967.62
321.275	991.62
321.504	959.62
321.733	984.62
321.962	1009.62
322.191	1022.62
322.42	1046.62
322.649	1030.62
322.878	1000.62
323.108	1000.62
323.337	1033.62
323.566	1011.62
323.795	1049.62
324.024	1073.62
324.253	1063.62
324.482	1134.62
324.71	1180.62
324.939	1227.62
325.168	1290.62
325.397	1287.62
325.626	1541.62
325.855	2052.62
326.084	3217.62
326.313	4670.62
326.542	5011.62
326.77	3224.62
326.999	2187.62
327.228	1822.62
327.457	1735.62
327.686	1765.62
327.914	1843.62
328.143	2110.62
328.372	2436.62
328.6	2609.62
328.829	2439.62
329.058	2132.62
329.287	1926.62
329.515	1760.62
329.744	1638.62
329.972	1589.62
330.201	1503.62
330.43	1491.62
330.658	1416.62
330.887	1413.62
331.115	1422.62
331.344	1396.62
331.572	1412.62
331.801	1408.62
332.03	1382.62
332.258	1430.62
332.486	1478.62
332.715	1633.62
332.943	1936.62
333.172	2338.62
333.4	2332.62
333.629	1879.62
333.857	1724.62
334.085	1733.62
334.314	1801.62
334.542	1952.62
334.771	2201.62
334.999	2626.62
335.227	3098.62
335.455	3458.62
335.684	3225.62
335.912	2788.62
336.14	2422.62
336.369	2196.62
336.597	2033.62
336.825	1880.62
337.053	1775.62
337.281	1673.62
337.51	1627.62
337.738	1520.62
337.966	1457.62
338.194	1392.62
338.422	1417.62
338.65	1360.62
338.878	1370.62
339.106	1342.62
339.334	1332.62
339.562	1294.62
339.79	1262.62
340.018	1266.62
340.246	1228.62
340.474	1232.62
340.702	1257.62
340.93	1226.62
341.158	1201.62
341.386	1189.62
341.614	1218.62
341.842	1194.62
342.07	1178.62
342.298	1151.62
342.526	1142.62
342.754	1148.62
342.981	1123.62
343.209	1124.62
343.437	1148.62
343.665	1157.62
343.893	1178.62
344.12	1183.62
344.348	1158.62
344.576	1119.62
344.804	1144.62
345.031	1109.62
345.259	1091.62
345.487	1094.62
345.714	1090.62
345.942	1061.62
346.17	1074.62
346.397	1075.62
346.625	1089.62
346.853	1033.62
347.08	1020.62
347.308	1063.62
347.535	1050.62
347.763	1043.62
347.99	1042.62
348.218	1044.62
348.445	1056.62
348.673	997.62
348.9	1029.62
349.128	1010.62
349.355	995.62
349.583	994.62
349.81	1022.62
350.037	1034.62
350.265	996.62
350.492	1026.62
350.72	1024.62
350.947	1011.62
351.174	1028.62
351.402	986.62
351.629	1018.62
351.856	1020.62
352.083	994.62
352.311	994.62
352.538	976.62
352.765	982.62
352.992	984.62
353.22	976.62
353.447	986.62
353.674	975.62
353.901	1016.62
354.128	1000.62
354.355	988.62
354.583	1026.62
354.81	1026.62
355.037	1028.62
355.264	1025.62
355.491	1045.62
355.718	1009.62
355.945	1041.62
356.172	990.62
356.399	1072.62
356.626	1053.62
356.853	1052.62
357.08	1054.62
357.307	1060.62
357.534	1034.62
357.761	1018.62
357.988	1048.62
358.215	1059.62
358.441	1053.62
358.668	1077.62
358.895	1063.62
359.122	1054.62
359.349	1077.62
359.576	1059.62
359.802	1081.62
360.029	1060.62
360.256	1058.62
360.483	1084.62
360.709	1030.62
360.936	1073.62
361.163	1074.62
361.39	1061.62
361.616	1064.62
361.843	1084.62
362.07	1090.62
362.296	1058.62
362.523	1030.62
362.749	1081.62
362.976	1055.62
363.203	1044.62
363.429	1062.62
363.656	1079.62
363.882	1057.62
364.109	1060.62
364.335	1064.62
364.562	1072.62
364.788	1057.62
365.015	1066.62
365.241	1099.62
365.468	1118.62
365.694	1169.62
365.92	1126.62
366.147	1079.62
366.373	1071.62
366.599	1058.62
366.826	1108.62
367.052	1098.62
367.278	1123.62
367.505	1109.62
367.731	1091.62
367.957	1090.62
368.184	1126.62
368.41	1110.62
368.636	1128.62
368.862	1104.62
369.089	1110.62
369.315	1111.62
369.541	1108.62
369.767	1079.62
369.993	1108.62
370.219	1129.62
370.445	1111.62
370.672	1129.62
370.898	1108.62
371.124	1113.62
371.35	1159.62
371.576	1140.62
371.802	1143.62
372.028	1156.62
372.254	1170.62
372.48	1175.62
372.706	1187.62
372.932	1145.62
373.158	1179.62
373.384	1174.62
373.61	1205.62
373.835	1183.62
374.061	1169.62
374.287	1197.62
374.513	1209.62
374.739	1187.62
374.965	1220.62
375.191	1232.62
375.416	1236.62
375.642	1213.62
375.868	1184.62
376.094	1185.62
376.319	1191.62
376.545	1154.62
376.771	1162.62
376.997	1160.62
377.222	1137.62
377.448	1176.62
377.674	1158.62
377.899	1148.62
378.125	1158.62
378.35	1156.62
378.576	1115.62
378.802	1157.62
379.027	1208.62
379.253	1212.62
379.478	1221.62
379.704	1405.62
379.929	1972.62
380.155	2818.62
380.38	2949.62
380.606	1943.62
380.831	1416.62
381.057	1290.62
381.282	1220.62
381.507	1167.62
381.733	1163.62
381.958	1144.62
382.184	1136.62
382.409	1140.62
382.634	1144.62
382.86	1149.62
383.085	1146.62
383.31	1140.62
383.535	1128.62
383.761	1128.62
383.986	1125.62
384.211	1176.62
384.436	1168.62
384.662	1174.62
384.887	1156.62
385.112	1169.62
385.337	1184.62
385.562	1176.62
385.787	1185.62
386.013	1176.62
386.238	1185.62
386.463	1185.62
386.688	1178.62
386.913	1162.62
387.138	1156.62
387.363	1175.62
387.588	1143.62
387.813	1195.62
388.038	1199.62
388.263	1194.62
388.488	1180.62
388.713	1226.62
388.938	1167.62
389.163	1159.62
389.387	1197.62
389.612	1174.62
389.837	1184.62
390.062	1204.62
390.287	1199.62
390.512	1209.62
390.736	1186.62
390.961	1216.62
391.186	1199.62
391.411	1233.62
391.636	1225.62
391.86	1264.62
392.085	1208.62
392.31	1251.62
392.534	1216.62
392.759	1222.62
392.984	1225.62
393.208	1205.62
393.433	1272.62
393.658	1250.62
393.882	1222.62
394.107	1198.62
394.331	1184.62
394.556	1214.62
394.78	1200.62
395.005	1237.62
395.229	1227.62
395.454	1247.62
395.678	1216.62
395.903	1230.62
396.127	1208.62
396.352	1195.62
396.576	1240.62
396.801	1257.62
397.025	1272.62
397.249	1255.62
397.474	1231.62
397.698	1224.62
397.922	1249.62
398.147	1242.62
398.371	1251.62
398.595	1285.62
398.82	1309.62
399.044	1373.62
399.268	1428.62
399.492	1501.62
399.717	1580.62
399.941	1553.62
400.165	1478.62
400.389	1423.62
400.613	1388.62
400.837	1350.62
401.062	1373.62
401.286	1300.62
401.51	1318.62
401.734	1271.62
401.958	1294.62
402.182	1293.62
402.406	1297.62
402.63	1328.62
402.854	1346.62
403.078	1340.62
403.302	1382.62
403.526	1342.62
403.75	1359.62
403.974	1336.62
404.198	1353.62
404.422	1349.62
404.645	1362.62
404.869	1351.62
405.093	1381.62
405.317	1333.62
405.541	1397.62
405.765	1393.62
405.988	1384.62
406.212	1364.62
406.436	1390.62
406.66	1424.62
406.883	1391.62
407.107	1417.62
407.331	1471.62
407.555	1472.62
407.778	1446.62
408.002	1431.62
408.226	1444.62
408.449	1419.62
408.673	1438.62
408.896	1400.62
409.12	1376.62
409.344	1359.62
409.567	1367.62
409.791	1368.62
410.014	1311.62
410.238	1354.62
410.461	1347.62
410.685	1332.62
410.908	1356.62
411.132	1358.62
411.355	1288.62
411.578	1292.62
411.802	1281.62
412.025	1278.62
412.249	1316.62
412.472	1304.62
412.695	1310.62
412.919	1281.62
413.142	1303.62
413.365	1294.62
413.589	1294.62
413.812	1286.62
414.035	1279.62
414.258	1305.62
414.482	1290.62
414.705	1312.62
414.928	1299.62
415.151	1292.62
415.374	1264.62
415.597	1268.62
415.821	1235.62
416.044	1213.62
416.267	1232.62
416.49	1235.62
416.713	1251.62
416.936	1270.62
417.159	1242.62
417.382	1207.62
417.605	1244.62
417.828	1236.62
418.051	1229.62
418.274	1265.62
418.497	1237.62
418.72	1277.62
418.943	1267.62
419.166	1276.62
419.389	1406.62
419.611	1354.62
419.834	1304.62
420.057	1308.62
420.28	1248.62
420.503	1262.62
420.726	1216.62
420.948	1206.62
421.171	1254.62
421.394	1225.62
421.617	1254.62
421.839	1275.62
422.062	1278.62
422.285	1251.62
422.507	1297.62
422.73	1300.62
422.953	1255.62
423.175	1268.62
423.398	1268.62
423.621	1242.62
423.843	1236.62
424.066	1238.62
424.288	1256.62
424.511	1209.62
424.733	1242.62
424.956	1213.62
425.178	1257.62
425.401	1252.62
425.623	1231.62
425.846	1174.62
426.068	1237.62
426.291	1189.62
426.513	1201.62
426.735	1173.62
426.958	1164.62
427.18	1187.62
427.402	1204.62
427.625	1191.62
427.847	1138.62
428.069	1154.62
428.292	1194.62
428.514	1153.62
428.736	1158.62
428.958	1154.62
429.181	1150.62
429.403	1131.62
429.625	1141.62
429.847	1159.62
430.069	1144.62
430.292	1181.62
430.514	1218.62
430.736	1188.62
430.958	1171.62
431.18	1135.62
431.402	1142.62
431.624	1117.62
431.846	1144.62
432.068	1104.62
432.29	1130.62
432.512	1116.62
432.734	1154.62
432.956	1160.62
433.178	1164.62
433.4	1150.62
433.622	1137.62
433.844	1142.62
434.066	1122.62
434.287	1132.62
434.509	1136.62
434.731	1200.62
434.953	1187.62
435.175	1185.62
435.397	1185.62
435.618	1144.62
435.84	1132.62
436.062	1100.62
436.284	1172.62
436.505	1153.62
436.727	1153.62
436.949	1132.62
437.17	1148.62
437.392	1108.62
437.614	1089.62
437.835	1096.62
438.057	1105.62
438.278	1098.62
438.5	1092.62
438.721	1120.62
438.943	1162.62
439.165	1168.62
439.386	1162.62
439.608	1189.62
439.829	1204.62
440.05	1191.62
440.272	1226.62
440.493	1172.62
440.715	1201.62
440.936	1215.62
441.158	1196.62
441.379	1216.62
441.6	1240.62
441.822	1272.62
442.043	1304.62
442.264	1344.62
442.486	1286.62
442.707	1248.62
442.928	1231.62
443.149	1191.62
443.371	1221.62
443.592	1207.62
443.813	1232.62
444.034	1273.62
444.255	1266.62
444.476	1276.62
444.698	1275.62
444.919	1304.62
445.14	1369.62
445.361	1299.62
445.582	1296.62
445.803	1235.62
446.024	1205.62
446.245	1236.62
446.466	1234.62
446.687	1220.62
446.908	1190.62
447.129	1169.62
447.35	1220.62
447.571	1152.62
447.792	1136.62
448.013	1121.62
448.234	1128.62
448.455	1161.62
448.675	1137.62
448.896	1138.62
449.117	1200.62
449.338	1254.62
449.559	1294.62
449.779	1217.62
450	1136.62
450.221	1106.62
450.442	1104.62
450.662	1111.62
450.883	1117.62
451.104	1104.62
451.324	1107.62
451.545	1106.62
451.766	1092.62
451.986	1108.62
452.207	1119.62
452.428	1375.62
452.648	1861.62
452.869	1631.62
453.089	1268.62
453.31	1205.62
453.53	1207.62
453.751	1231.62
453.971	1283.62
454.192	1251.62
454.412	1106.62
454.633	1081.62
454.853	1080.62
455.073	1046.62
455.294	1036.62
455.514	1053.62
455.734	1048.62
455.955	1030.62
456.175	1031.62
456.395	1036.62
456.616	1038.62
456.836	1051.62
457.056	1065.62
457.276	1055.62
457.497	1134.62
457.717	1102.62
457.937	1089.62
458.157	1107.62
458.377	1069.62
458.598	1114.62
458.818	1095.62
459.038	1095.62
459.258	1121.62
459.478	1120.62
459.698	1113.62
459.918	1133.62
460.138	1168.62
460.358	1237.62
460.578	1224.62
460.798	1225.62
461.018	1227.62
461.238	1240.62
461.458	1212.62
461.678	1262.62
461.898	1278.62
462.118	1277.62
462.338	1289.62
462.558	1336.62
462.777	1340.62
462.997	1430.62
463.217	1434.62
463.437	1438.62
463.657	1486.62
463.876	1430.62
464.096	1393.62
464.316	1354.62
464.536	1341.62
464.755	1325.62
464.975	1292.62
465.195	1249.62
465.414	1240.62
465.634	1174.62
465.854	1162.62
466.073	1143.62
466.293	1120.62
466.512	1144.62
466.732	1164.62
466.951	1213.62
467.171	1268.62
467.391	1246.62
467.61	1176.62
467.829	1116.62
468.049	1156.62
468.268	1125.62
468.488	1107.62
468.707	1113.62
468.927	1152.62
469.146	1088.62
469.365	1123.62
469.585	1124.62
469.804	1138.62
470.023	1185.62
470.243	1169.62
470.462	1217.62
470.681	1264.62
470.901	1351.62
471.12	1537.62
471.339	1523.62
471.558	1332.62
471.777	1220.62
471.997	1180.62
472.216	1151.62
472.435	1148.62
472.654	1133.62
472.873	1094.62
473.092	1092.62
473.311	1098.62
473.53	1141.62
473.749	1142.62
473.968	1200.62
474.187	1136.62
474.406	1100.62
474.625	1110.62
474.844	1128.62
475.063	1153.62
475.282	1137.62
475.501	1152.62
475.72	1132.62
475.939	1131.62
476.158	1210.62
476.377	1207.62
476.596	1168.62
476.814	1181.62
477.033	1187.62
477.252	1204.62
477.471	1201.62
477.69	1238.62
477.908	1258.62
478.127	1304.62
478.346	1272.62
478.564	1306.62
478.783	1309.62
479.002	1334.62
479.22	1329.62
479.439	1358.62
479.658	1328.62
479.876	1335.62
480.095	1340.62
480.313	1358.62
480.532	1366.62
480.751	1384.62
480.969	1379.62
481.188	1332.62
481.406	1315.62
481.624	1290.62
481.843	1320.62
482.061	1324.62
482.28	1346.62
482.498	1329.62
482.717	1329.62
482.935	1337.62
483.153	1390.62
483.372	1401.62
483.59	1409.62
483.808	1398.62
484.027	1423.62
484.245	1483.62
484.463	1618.62
484.681	1821.62
484.9	1640.62
485.118	1610.62
485.336	1545.62
485.554	1596.62
485.772	1630.62
485.99	1859.62
486.209	1919.62
486.427	1689.62
486.645	1481.62
486.863	1486.62
487.081	1456.62
487.299	1417.62
487.517	1426.62
487.735	1425.62
487.953	1459.62
488.171	1459.62
488.389	1475.62
488.607	1419.62
488.825	1420.62
489.043	1377.62
489.261	1384.62
489.479	1385.62
489.696	1385.62
489.914	1397.62
490.132	1394.62
490.35	1428.62
490.568	1444.62
490.786	1450.62
491.003	1431.62
