Data from SnStandardFlinnAPT0064_LampEnergy10_LIBS07252019.E.O._I.C._HRD10591_15-20-41-493.txt Node
Date: Thu Jul 25 15:20:41 EDT 2019
User: cochatt
Spectrometer: HR+D1059
Trigger mode: 1
Integration Time (sec): 1.000000E-1
Scans to average: 1
Electric dark correction enabled: true
Nonlinearity correction enabled: false
Boxcar width: 0
XAxis mode: Wavelengths
Number of Pixels in Spectrum: 2048
>>>>>Begin Spectral Data<<<<<
223.165	-2.5
223.4	-2.5
223.635	-2.5
223.869	-24.5
224.104	-12.5
224.338	-20.5
224.573	-26.5
224.808	-9.5
225.042	-3.5
225.277	-3.5
225.511	-3.5
225.746	8.5
225.98	5.5
226.215	3.5
226.449	7.5
226.683	29.5
226.918	29.5
227.152	22.5
227.387	24.5
227.621	32.5
227.856	47.5
228.09	48.5
228.324	53.5
228.559	55.5
228.793	131.5
229.027	301.5
229.262	339.5
229.496	315.5
229.73	315.5
229.964	310.5
230.199	315.5
230.433	311.5
230.667	318.5
230.901	327.5
231.136	340.5
231.37	355.5
231.604	383.5
231.838	432.5
232.072	538.5
232.306	580.5
232.541	498.5
232.775	449.5
233.009	431.5
233.243	414.5
233.477	450.5
233.711	553.5
233.945	593.5
234.179	528.5
234.413	436.5
234.647	464.5
234.881	479.5
235.115	554.5
235.349	600.5
235.583	792.5
235.817	1014.5
236.051	1020.5
236.285	682.5
236.519	552.5
236.753	500.5
236.987	519.5
237.221	552.5
237.455	535.5
237.689	460.5
237.922	452.5
238.156	465.5
238.39	490.5
238.624	508.5
238.858	494.5
239.091	482.5
239.325	519.5
239.559	502.5
239.793	507.5
240.027	546.5
240.26	544.5
240.494	564.5
240.728	578.5
240.961	637.5
241.195	656.5
241.429	693.5
241.662	707.5
241.896	778.5
242.13	966.5
242.363	1278.5
242.597	1655.5
242.83	1568.5
243.064	1579.5
243.298	1846.5
243.531	1540.5
243.765	970.5
243.998	782.5
244.232	709.5
244.465	678.5
244.699	650.5
244.932	652.5
245.166	687.5
245.399	694.5
245.633	670.5
245.866	670.5
246.099	703.5
246.333	645.5
246.566	662.5
246.8	639.5
247.033	646.5
247.266	645.5
247.5	666.5
247.733	681.5
247.966	723.5
248.2	782.5
248.433	889.5
248.666	987.5
248.899	971.5
249.133	861.5
249.366	906.5
249.599	978.5
249.832	1102.5
250.066	1123.5
250.299	871.5
250.532	758.5
250.765	737.5
250.998	765.5
251.231	720.5
251.465	725.5
251.698	738.5
251.931	733.5
252.164	748.5
252.397	769.5
252.63	786.5
252.863	831.5
253.096	803.5
253.329	794.5
253.562	786.5
253.795	776.5
254.028	830.5
254.261	843.5
254.494	886.5
254.727	1050.5
254.96	1286.5
255.193	1216.5
255.426	977.5
255.659	877.5
255.892	876.5
256.124	874.5
256.357	875.5
256.59	922.5
256.823	974.5
257.056	1135.5
257.289	1360.5
257.521	1515.5
257.754	1218.5
257.987	982.5
258.22	923.5
258.452	946.5
258.685	930.5
258.918	962.5
259.151	1048.5
259.383	1094.5
259.616	1243.5
259.849	1320.5
260.081	1106.5
260.314	1007.5
260.547	948.5
260.779	931.5
261.012	989.5
261.244	950.5
261.477	983.5
261.71	989.5
261.942	1046.5
262.175	1036.5
262.407	1020.5
262.64	1057.5
262.872	1077.5
263.105	1150.5
263.337	1207.5
263.57	1278.5
263.802	1297.5
264.035	1319.5
264.267	1338.5
264.499	1371.5
264.732	1448.5
264.964	1448.5
265.197	1446.5
265.429	1411.5
265.661	1489.5
265.894	1592.5
266.126	1741.5
266.358	1998.5
266.591	1915.5
266.823	1627.5
267.055	1450.5
267.287	1396.5
267.52	1306.5
267.752	1326.5
267.984	1294.5
268.216	1222.5
268.448	1243.5
268.681	1240.5
268.913	1247.5
269.145	1230.5
269.377	1249.5
269.609	1248.5
269.841	1251.5
270.073	1348.5
270.306	1619.5
270.538	2117.5
270.77	3286.5
271.002	4038.5
271.234	2820.5
271.466	1908.5
271.698	1552.5
271.93	1424.5
272.162	1359.5
272.394	1319.5
272.626	1259.5
272.858	1250.5
273.09	1239.5
273.322	1182.5
273.553	1227.5
273.785	1185.5
274.017	1196.5
274.249	1207.5
274.481	1198.5
274.713	1223.5
274.945	1202.5
275.176	1233.5
275.408	1197.5
275.64	1230.5
275.872	1221.5
276.104	1256.5
276.335	1269.5
276.567	1283.5
276.799	1259.5
277.031	1308.5
277.262	1347.5
277.494	1422.5
277.726	1620.5
277.957	1864.5
278.189	2143.5
278.421	2054.5
278.652	1787.5
278.884	1705.5
279.115	1488.5
279.347	1456.5
279.579	1401.5
279.81	1399.5
280.042	1402.5
280.273	1453.5
280.505	1469.5
280.736	1486.5
280.968	1593.5
281.199	1761.5
281.431	2013.5
281.662	2150.5
281.894	1814.5
282.125	1630.5
282.356	1663.5
282.588	1677.5
282.819	1738.5
283.051	1829.5
283.282	2020.5
283.513	2455.5
283.745	3650.5
283.976	5813.5
284.207	8199.5
284.439	7410.5
284.67	4588.5
284.901	3782.5
285.132	3812.5
285.364	3656.5
285.595	2722.5
285.826	2443.5
286.057	2914.5
286.288	3957.5
286.52	5327.5
286.751	4901.5
286.982	3099.5
287.213	2332.5
287.444	1982.5
287.675	1878.5
287.906	1816.5
288.138	1734.5
288.369	1702.5
288.6	1707.5
288.831	1675.5
289.062	1661.5
289.293	1700.5
289.524	1708.5
289.755	1694.5
289.986	1732.5
290.217	1720.5
290.448	1697.5
290.679	1703.5
290.91	1758.5
291.141	1901.5
291.371	2014.5
291.602	2164.5
291.833	1974.5
292.064	1790.5
292.295	1716.5
292.526	1657.5
292.757	1664.5
292.987	1603.5
293.218	1570.5
293.449	1628.5
293.68	1561.5
293.91	1607.5
294.141	1550.5
294.372	1586.5
294.603	1590.5
294.833	1556.5
295.064	1539.5
295.295	1543.5
295.525	1562.5
295.756	1553.5
295.987	1563.5
296.217	1619.5
296.448	1597.5
296.679	1575.5
296.909	1606.5
297.14	1588.5
297.37	1623.5
297.601	1620.5
297.831	1648.5
298.062	1641.5
298.292	1652.5
298.523	1670.5
298.753	1722.5
298.984	1727.5
299.214	1749.5
299.445	1801.5
299.675	1792.5
299.905	1844.5
300.136	1942.5
300.366	2178.5
300.597	2785.5
300.827	3919.5
301.057	5358.5
301.288	5226.5
301.518	3416.5
301.748	2637.5
301.979	2384.5
302.209	2293.5
302.439	2318.5
302.669	2464.5
302.9	2979.5
303.13	4153.5
303.36	6325.5
303.59	8397.5
303.82	7297.5
304.051	4288.5
304.281	3112.5
304.511	2528.5
304.741	2349.5
304.971	2218.5
305.201	2079.5
305.431	2019.5
305.661	1993.5
305.891	1911.5
306.121	1901.5
306.352	1847.5
306.582	1823.5
306.812	1822.5
307.042	1885.5
307.272	1850.5
307.502	1810.5
307.731	1814.5
307.961	1826.5
308.191	1793.5
308.421	1772.5
308.651	1826.5
308.881	1774.5
309.111	1804.5
309.341	1792.5
309.571	1851.5
309.8	1837.5
310.03	1879.5
310.26	1876.5
310.49	1853.5
310.72	1826.5
310.949	1818.5
311.179	1866.5
311.409	1924.5
311.639	1898.5
311.868	1951.5
312.098	1927.5
312.328	1956.5
312.557	1972.5
312.787	1943.5
313.017	2000.5
313.246	1977.5
313.476	2020.5
313.706	2094.5
313.935	2235.5
314.165	2386.5
314.394	2489.5
314.624	2390.5
314.853	2146.5
315.083	2133.5
315.312	2194.5
315.542	2167.5
315.771	2217.5
316.001	2267.5
316.23	2320.5
316.46	2426.5
316.689	2636.5
316.919	3234.5
317.148	4779.5
317.377	7300.5
317.607	10621.5
317.836	11074.5
318.065	6649.5
318.295	4328.5
318.524	3479.5
318.753	3016.5
318.983	2802.5
319.212	2604.5
319.441	2546.5
319.67	2454.5
319.9	2426.5
320.129	2412.5
320.358	2354.5
320.587	2324.5
320.816	2351.5
321.046	2351.5
321.275	2374.5
321.504	2391.5
321.733	2434.5
321.962	2510.5
322.191	2547.5
322.42	2506.5
322.649	2485.5
322.878	2431.5
323.108	2484.5
323.337	2525.5
323.566	2572.5
323.795	2618.5
324.024	2665.5
324.253	2710.5
324.482	2838.5
324.71	3051.5
324.939	3214.5
325.168	3288.5
325.397	3413.5
325.626	4084.5
325.855	5711.5
326.084	8938.5
326.313	12814.5
326.542	13504.5
326.77	9290.5
326.999	5986.5
327.228	5035.5
327.457	4806.5
327.686	4862.5
327.914	5200.5
328.143	6059.5
328.372	7260.5
328.6	7867.5
328.829	7040.5
329.058	5768.5
329.287	5055.5
329.515	4697.5
329.744	4280.5
329.972	4084.5
330.201	3955.5
330.43	3710.5
330.658	3617.5
330.887	3562.5
331.115	3508.5
331.344	3476.5
331.572	3408.5
331.801	3472.5
332.03	3493.5
332.258	3485.5
332.486	3753.5
332.715	4315.5
332.943	5340.5
333.172	6713.5
333.4	6687.5
333.629	5016.5
333.857	4555.5
334.085	4542.5
334.314	4750.5
334.542	5126.5
334.771	5994.5
334.999	7430.5
335.227	9452.5
335.455	10515.5
335.684	9466.5
335.912	7767.5
336.14	6524.5
336.369	5730.5
336.597	5212.5
336.825	4779.5
337.053	4539.5
337.281	4263.5
337.51	4014.5
337.738	3916.5
337.966	3696.5
338.194	3589.5
338.422	3516.5
338.65	3354.5
338.878	3317.5
339.106	3259.5
339.334	3196.5
339.562	3126.5
339.79	3084.5
340.018	3063.5
340.246	3015.5
340.474	3024.5
340.702	3037.5
340.93	3000.5
341.158	2998.5
341.386	2987.5
341.614	2978.5
341.842	2868.5
342.07	2821.5
342.298	2797.5
342.526	2796.5
342.754	2719.5
342.981	2722.5
343.209	2746.5
343.437	2734.5
343.665	2763.5
343.893	2832.5
344.12	2796.5
344.348	2795.5
344.576	2724.5
344.804	2702.5
345.031	2619.5
345.259	2628.5
345.487	2593.5
345.714	2542.5
345.942	2554.5
346.17	2552.5
346.397	2525.5
346.625	2524.5
346.853	2525.5
347.08	2522.5
347.308	2512.5
347.535	2459.5
347.763	2475.5
347.99	2506.5
348.218	2450.5
348.445	2473.5
348.673	2444.5
348.9	2471.5
349.128	2453.5
349.355	2434.5
349.583	2388.5
349.81	2412.5
350.037	2460.5
350.265	2390.5
350.492	2396.5
350.72	2432.5
350.947	2428.5
351.174	2409.5
351.402	2376.5
351.629	2343.5
351.856	2362.5
352.083	2414.5
352.311	2366.5
352.538	2407.5
352.765	2402.5
352.992	2396.5
353.22	2357.5
353.447	2323.5
353.674	2366.5
353.901	2390.5
354.128	2393.5
354.355	2387.5
354.583	2372.5
354.81	2350.5
355.037	2438.5
355.264	2441.5
355.491	2498.5
355.718	2429.5
355.945	2428.5
356.172	2505.5
356.399	2469.5
356.626	2524.5
356.853	2507.5
357.08	2472.5
357.307	2572.5
357.534	2610.5
357.761	2568.5
357.988	2572.5
358.215	2559.5
358.441	2539.5
358.668	2485.5
358.895	2541.5
359.122	2533.5
359.349	2545.5
359.576	2534.5
359.802	2542.5
360.029	2528.5
360.256	2600.5
360.483	2522.5
360.709	2530.5
360.936	2552.5
361.163	2572.5
361.39	2539.5
361.616	2572.5
361.843	2574.5
362.07	2533.5
362.296	2591.5
362.523	2562.5
362.749	2554.5
362.976	2549.5
363.203	2522.5
363.429	2508.5
363.656	2500.5
363.882	2531.5
364.109	2508.5
364.335	2466.5
364.562	2518.5
364.788	2567.5
365.015	2578.5
365.241	2650.5
365.468	2790.5
365.694	2930.5
365.92	2838.5
366.147	2651.5
366.373	2584.5
366.599	2599.5
366.826	2621.5
367.052	2598.5
367.278	2612.5
367.505	2610.5
367.731	2620.5
367.957	2635.5
368.184	2635.5
368.41	2696.5
368.636	2634.5
368.862	2681.5
369.089	2595.5
369.315	2610.5
369.541	2644.5
369.767	2634.5
369.993	2617.5
370.219	2659.5
370.445	2612.5
370.672	2690.5
370.898	2638.5
371.124	2650.5
371.35	2709.5
371.576	2724.5
371.802	2741.5
372.028	2733.5
372.254	2702.5
372.48	2764.5
372.706	2804.5
372.932	2759.5
373.158	2778.5
373.384	2774.5
373.61	2760.5
373.835	2783.5
374.061	2787.5
374.287	2829.5
374.513	2868.5
374.739	2888.5
374.965	2923.5
375.191	2879.5
375.416	2912.5
375.642	2844.5
375.868	2854.5
376.094	2780.5
376.319	2782.5
376.545	2759.5
376.771	2749.5
376.997	2755.5
377.222	2764.5
377.448	2726.5
377.674	2748.5
377.899	2694.5
378.125	2738.5
378.35	2701.5
378.576	2738.5
378.802	2755.5
379.027	2794.5
379.253	2914.5
379.478	3075.5
379.704	3586.5
379.929	5239.5
380.155	8022.5
380.38	8742.5
380.606	5367.5
380.831	3693.5
381.057	3283.5
381.282	2943.5
381.507	2872.5
381.733	2774.5
381.958	2747.5
382.184	2702.5
382.409	2735.5
382.634	2715.5
382.86	2706.5
383.085	2647.5
383.31	2696.5
383.535	2722.5
383.761	2670.5
383.986	2695.5
384.211	2736.5
384.436	2746.5
384.662	2811.5
384.887	2740.5
385.112	2777.5
385.337	2751.5
385.562	2781.5
385.787	2786.5
386.013	2817.5
386.238	2806.5
386.463	2794.5
386.688	2750.5
386.913	2717.5
387.138	2787.5
387.363	2779.5
387.588	2733.5
387.813	2792.5
388.038	2786.5
388.263	2774.5
388.488	2743.5
388.713	2722.5
388.938	2781.5
389.163	2727.5
389.387	2752.5
389.612	2743.5
389.837	2817.5
390.062	2765.5
390.287	2786.5
390.512	2762.5
390.736	2875.5
390.961	2836.5
391.186	2865.5
391.411	2918.5
391.636	2897.5
391.86	2889.5
392.085	2942.5
392.31	2900.5
392.534	2875.5
392.759	2833.5
392.984	2847.5
393.208	2778.5
393.433	2850.5
393.658	2777.5
393.882	2764.5
394.107	2762.5
394.331	2788.5
394.556	2769.5
394.78	2828.5
395.005	2858.5
395.229	2828.5
395.454	2897.5
395.678	2880.5
395.903	2892.5
396.127	2870.5
396.352	2883.5
396.576	2842.5
396.801	2847.5
397.025	2911.5
397.249	2943.5
397.474	2927.5
397.698	2838.5
397.922	2999.5
398.147	2967.5
398.371	2982.5
398.595	3012.5
398.82	3129.5
399.044	3236.5
399.268	3304.5
399.492	3555.5
399.717	3715.5
399.941	3690.5
400.165	3510.5
400.389	3368.5
400.613	3218.5
400.837	3176.5
401.062	3142.5
401.286	3052.5
401.51	3066.5
401.734	3071.5
401.958	3068.5
402.182	3010.5
402.406	3039.5
402.63	3067.5
402.854	3042.5
403.078	3112.5
403.302	3098.5
403.526	3137.5
403.75	3114.5
403.974	3180.5
404.198	3119.5
404.422	3187.5
404.645	3171.5
404.869	3135.5
405.093	3177.5
405.317	3169.5
405.541	3223.5
405.765	3278.5
405.988	3268.5
406.212	3242.5
406.436	3222.5
406.66	3302.5
406.883	3256.5
407.107	3378.5
407.331	3352.5
407.555	3442.5
407.778	3421.5
408.002	3368.5
408.226	3387.5
408.449	3386.5
408.673	3331.5
408.896	3236.5
409.12	3227.5
409.344	3222.5
409.567	3169.5
409.791	3245.5
410.014	3174.5
410.238	3158.5
410.461	3162.5
410.685	3134.5
410.908	3125.5
411.132	3149.5
411.355	3066.5
411.578	3097.5
411.802	3042.5
412.025	3044.5
412.249	3078.5
412.472	3082.5
412.695	2977.5
412.919	2992.5
413.142	2973.5
413.365	2996.5
413.589	2990.5
413.812	2974.5
414.035	2995.5
414.258	2980.5
414.482	2986.5
414.705	3025.5
414.928	2963.5
415.151	2965.5
415.374	2888.5
415.597	2923.5
415.821	2902.5
416.044	2832.5
416.267	2870.5
416.49	2879.5
416.713	2816.5
416.936	2870.5
417.159	2826.5
417.382	2806.5
417.605	2819.5
417.828	2856.5
418.051	2901.5
418.274	2871.5
418.497	2852.5
418.72	2931.5
418.943	2898.5
419.166	3019.5
419.389	3228.5
419.611	3197.5
419.834	3086.5
420.057	3030.5
420.28	2910.5
420.503	2865.5
420.726	2902.5
420.948	2854.5
421.171	2841.5
421.394	2854.5
421.617	2841.5
421.839	2900.5
422.062	2906.5
422.285	2870.5
422.507	2925.5
422.73	2954.5
422.953	2973.5
423.175	2995.5
423.398	3000.5
423.621	2868.5
423.843	2907.5
424.066	2915.5
424.288	2835.5
424.511	2814.5
424.733	2864.5
424.956	2745.5
425.178	2866.5
425.401	2842.5
425.623	2821.5
425.846	2776.5
426.068	2775.5
426.291	2759.5
426.513	2741.5
426.735	2706.5
426.958	2706.5
427.18	2705.5
427.402	2659.5
427.625	2690.5
427.847	2662.5
428.069	2624.5
428.292	2696.5
428.514	2634.5
428.736	2637.5
428.958	2686.5
429.181	2657.5
429.403	2606.5
429.625	2674.5
429.847	2726.5
430.069	2676.5
430.292	2838.5
430.514	2844.5
430.736	2898.5
430.958	2668.5
431.18	2640.5
431.402	2686.5
431.624	2630.5
431.846	2604.5
432.068	2599.5
432.29	2657.5
432.512	2604.5
432.734	2680.5
432.956	2606.5
433.178	2621.5
433.4	2648.5
433.622	2648.5
433.844	2666.5
434.066	2658.5
434.287	2663.5
434.509	2675.5
434.731	2713.5
434.953	2742.5
435.175	2746.5
435.397	2748.5
435.618	2698.5
435.84	2631.5
436.062	2622.5
436.284	2622.5
436.505	2605.5
436.727	2598.5
436.949	2630.5
437.17	2607.5
437.392	2573.5
437.614	2590.5
437.835	2550.5
438.057	2550.5
438.278	2505.5
438.5	2535.5
438.721	2619.5
438.943	2700.5
439.165	2726.5
439.386	2736.5
439.608	2719.5
439.829	2706.5
440.05	2850.5
440.272	2954.5
440.493	2770.5
440.715	2684.5
440.936	2716.5
441.158	2768.5
441.379	2782.5
441.6	2855.5
441.822	2895.5
442.043	3062.5
442.264	3222.5
442.486	3002.5
442.707	2893.5
442.928	2867.5
443.149	2812.5
443.371	2834.5
443.592	2854.5
443.813	2832.5
444.034	2826.5
444.255	2902.5
444.476	2962.5
444.698	2986.5
444.919	3019.5
445.14	3060.5
445.361	2944.5
445.582	2849.5
445.803	2823.5
446.024	2807.5
446.245	2834.5
446.466	2840.5
446.687	2776.5
446.908	2753.5
447.129	2688.5
447.35	2645.5
447.571	2688.5
447.792	2592.5
448.013	2636.5
448.234	2560.5
448.455	2568.5
448.675	2600.5
448.896	2702.5
449.117	2787.5
449.338	3030.5
449.559	3152.5
449.779	2810.5
450	2632.5
450.221	2600.5
450.442	2585.5
450.662	2532.5
450.883	2555.5
451.104	2504.5
451.324	2540.5
451.545	2534.5
451.766	2554.5
451.986	2593.5
452.207	2839.5
452.428	3582.5
452.648	5526.5
452.869	4646.5
453.089	3220.5
453.31	2948.5
453.53	2943.5
453.751	3005.5
453.971	3197.5
454.192	3087.5
454.412	2677.5
454.633	2513.5
454.853	2508.5
455.073	2498.5
455.294	2460.5
455.514	2440.5
455.734	2470.5
455.955	2425.5
456.175	2377.5
456.395	2410.5
456.616	2431.5
456.836	2450.5
457.056	2475.5
457.276	2452.5
457.497	2632.5
457.717	2676.5
457.937	2586.5
458.157	2571.5
458.377	2570.5
458.598	2548.5
458.818	2585.5
459.038	2630.5
459.258	2663.5
459.478	2661.5
459.698	2699.5
459.918	2682.5
460.138	2719.5
460.358	2804.5
460.578	2892.5
460.798	2889.5
461.018	2899.5
461.238	2877.5
461.458	2878.5
461.678	2854.5
461.898	3010.5
462.118	2974.5
462.338	3053.5
462.558	3130.5
462.777	3158.5
462.997	3284.5
463.217	3403.5
463.437	3526.5
463.657	3557.5
463.876	3605.5
464.096	3343.5
464.316	3259.5
464.536	3162.5
464.755	3047.5
464.975	2998.5
465.195	2926.5
465.414	2836.5
465.634	2725.5
465.854	2723.5
466.073	2721.5
466.293	2616.5
466.512	2671.5
466.732	2655.5
466.951	2846.5
467.171	3043.5
467.391	2960.5
467.61	2697.5
467.829	2599.5
468.049	2586.5
468.268	2600.5
468.488	2623.5
468.707	2596.5
468.927	2586.5
469.146	2556.5
469.365	2587.5
469.585	2667.5
469.804	2681.5
470.023	2730.5
470.243	2780.5
470.462	2842.5
470.681	3027.5
470.901	3299.5
471.12	3768.5
471.339	3824.5
471.558	3172.5
471.777	2824.5
471.997	2749.5
472.216	2719.5
472.435	2648.5
472.654	2635.5
472.873	2546.5
473.092	2580.5
473.311	2626.5
473.53	2582.5
473.749	2679.5
473.968	2760.5
474.187	2636.5
474.406	2583.5
474.625	2572.5
474.844	2617.5
475.063	2620.5
475.282	2603.5
475.501	2631.5
475.72	2647.5
475.939	2639.5
476.158	2742.5
476.377	2720.5
476.596	2734.5
476.814	2717.5
477.033	2742.5
477.252	2771.5
477.471	2810.5
477.69	2844.5
477.908	2886.5
478.127	3006.5
478.346	2950.5
478.564	3024.5
478.783	3010.5
479.002	3071.5
479.22	3065.5
479.439	3098.5
479.658	3101.5
479.876	3128.5
480.095	3135.5
480.313	3227.5
480.532	3199.5
480.751	3235.5
480.969	3147.5
481.188	3138.5
481.406	3163.5
481.624	3171.5
481.843	3196.5
482.061	3177.5
482.28	3165.5
482.498	3166.5
482.717	3105.5
482.935	3180.5
483.153	3192.5
483.372	3266.5
483.59	3316.5
483.808	3345.5
484.027	3520.5
484.245	3632.5
484.463	4153.5
484.681	4578.5
484.9	4089.5
485.118	3823.5
485.336	3801.5
485.554	3770.5
485.772	4048.5
485.99	4614.5
486.209	4911.5
486.427	4077.5
486.645	3707.5
486.863	3506.5
487.081	3440.5
487.299	3407.5
487.517	3358.5
487.735	3398.5
487.953	3354.5
488.171	3370.5
488.389	3296.5
488.607	3301.5
488.825	3195.5
489.043	3248.5
489.261	3233.5
489.479	3237.5
489.696	3226.5
489.914	3276.5
490.132	3263.5
490.35	3279.5
490.568	3260.5
490.786	3362.5
491.003	3371.5
491.221	3389.5
491.439	3396.5
491.657	3379.5
491.874	3395.5
492.092	3407.5
492.31	3462.5
492.527	3419.5
492.745	3324.5
492.963	3379.5
493.18	3395.5
493.398	3388.5
493.615	3356.5
493.833	3397.5
494.05	3411.5
494.268	3420.5
494.485	3367.5
494.703	3361.5
494.92	3407.5
495.138	3417.5
495.355	3410.5
495.573	3432.5
495.79	3432.5
496.008	3487.5
496.225	3516.5
496.442	3572.5
496.66	3674.5
496.877	3854.5
497.094	3823.5
497.312	3690.5
497.529	3701.5
497.746	3742.5
497.963	3802.5
498.181	3862.5
498.398	3983.5
498.615	4086.5
498.832	4269.5
499.049	4436.5
499.267	4793.5
499.484	5106.5
499.701	5062.5
499.918	5098.5
500.135	5411.5
500.352	5750.5
500.569	5750.5
500.786	5670.5
501.003	5549.5
501.22	5252.5
501.437	5014.5
501.654	4750.5
501.871	4597.5
502.088	4295.5
502.305	4222.5
502.522	4070.5
502.739	4000.5
502.956	3894.5
503.172	3762.5
503.389	3732.5
503.606	3641.5
503.823	3598.5
