Data from SnStandardFlinnAPT0064_LampEnergy10_LIBS07252019.E.O._I.C._HRD10591_15-22-12-494.txt Node
Date: Thu Jul 25 15:22:12 EDT 2019
User: cochatt
Spectrometer: HR+D1059
Trigger mode: 1
Integration Time (sec): 1.000000E-1
Scans to average: 1
Electric dark correction enabled: true
Nonlinearity correction enabled: false
Boxcar width: 0
XAxis mode: Wavelengths
Number of Pixels in Spectrum: 2048
>>>>>Begin Spectral Data<<<<<
223.165	-2.69
223.4	-2.69
223.635	-2.69
223.869	-4.69
224.104	-23.69
224.338	-10.69
224.573	1.31
224.808	-10.69
225.042	-4.69
225.277	-7.69
225.511	1.31
225.746	-7.69
225.98	-6.69
226.215	3.31
226.449	3.31
226.683	7.31
226.918	27.31
227.152	35.31
227.387	36.31
227.621	35.31
227.856	35.31
228.09	42.31
228.324	43.31
228.559	55.31
228.793	128.31
229.027	300.31
229.262	316.31
229.496	288.31
229.73	319.31
229.964	306.31
230.199	303.31
230.433	301.31
230.667	298.31
230.901	303.31
231.136	332.31
231.37	337.31
231.604	376.31
231.838	435.31
232.072	497.31
232.306	543.31
232.541	465.31
232.775	413.31
233.009	390.31
233.243	417.31
233.477	439.31
233.711	503.31
233.945	561.31
234.179	487.31
234.413	441.31
234.647	450.31
234.881	458.31
235.115	495.31
235.349	608.31
235.583	745.31
235.817	961.31
236.051	936.31
236.285	647.31
236.519	501.31
236.753	481.31
236.987	500.31
237.221	524.31
237.455	509.31
237.689	487.31
237.922	455.31
238.156	476.31
238.39	461.31
238.624	476.31
238.858	475.31
239.091	472.31
239.325	465.31
239.559	497.31
239.793	489.31
240.027	520.31
240.26	529.31
240.494	540.31
240.728	572.31
240.961	611.31
241.195	625.31
241.429	639.31
241.662	682.31
241.896	769.31
242.13	919.31
242.363	1192.31
242.597	1554.31
242.83	1485.31
243.064	1498.31
243.298	1734.31
243.531	1450.31
243.765	954.31
243.998	776.31
244.232	685.31
244.465	676.31
244.699	635.31
244.932	645.31
245.166	657.31
245.399	657.31
245.633	690.31
245.866	684.31
246.099	643.31
246.333	654.31
246.566	649.31
246.8	647.31
247.033	654.31
247.266	642.31
247.5	652.31
247.733	644.31
247.966	700.31
248.2	740.31
248.433	860.31
248.666	980.31
248.899	912.31
249.133	828.31
249.366	871.31
249.599	927.31
249.832	1055.31
250.066	1036.31
250.299	852.31
250.532	759.31
250.765	761.31
250.998	762.31
251.231	722.31
251.465	716.31
251.698	721.31
251.931	721.31
252.164	722.31
252.397	751.31
252.63	756.31
252.863	778.31
253.096	781.31
253.329	756.31
253.562	755.31
253.795	745.31
254.028	775.31
254.261	810.31
254.494	881.31
254.727	992.31
254.96	1182.31
255.193	1186.31
255.426	962.31
255.659	889.31
255.892	838.31
256.124	873.31
256.357	873.31
256.59	935.31
256.823	945.31
257.056	1106.31
257.289	1327.31
257.521	1466.31
257.754	1169.31
257.987	957.31
258.22	892.31
258.452	910.31
258.685	910.31
258.918	931.31
259.151	981.31
259.383	1053.31
259.616	1173.31
259.849	1242.31
260.081	1050.31
260.314	987.31
260.547	962.31
260.779	962.31
261.012	959.31
261.244	960.31
261.477	959.31
261.71	969.31
261.942	987.31
262.175	991.31
262.407	1024.31
262.64	1066.31
262.872	1089.31
263.105	1127.31
263.337	1190.31
263.57	1240.31
263.802	1287.31
264.035	1351.31
264.267	1346.31
264.499	1362.31
264.732	1408.31
264.964	1429.31
265.197	1414.31
265.429	1405.31
265.661	1480.31
265.894	1585.31
266.126	1719.31
266.358	1921.31
266.591	1861.31
266.823	1616.31
267.055	1454.31
267.287	1407.31
267.52	1329.31
267.752	1269.31
267.984	1285.31
268.216	1275.31
268.448	1234.31
268.681	1240.31
268.913	1219.31
269.145	1249.31
269.377	1234.31
269.609	1270.31
269.841	1292.31
270.073	1387.31
270.306	1587.31
270.538	2113.31
270.77	3105.31
271.002	3768.31
271.234	2725.31
271.466	1823.31
271.698	1488.31
271.93	1373.31
272.162	1283.31
272.394	1272.31
272.626	1244.31
272.858	1219.31
273.09	1202.31
273.322	1187.31
273.553	1182.31
273.785	1180.31
274.017	1180.31
274.249	1209.31
274.481	1192.31
274.713	1170.31
274.945	1216.31
275.176	1220.31
275.408	1212.31
275.64	1236.31
275.872	1232.31
276.104	1256.31
276.335	1242.31
276.567	1228.31
276.799	1280.31
277.031	1303.31
277.262	1321.31
277.494	1410.31
277.726	1516.31
277.957	1799.31
278.189	2065.31
278.421	1950.31
278.652	1751.31
278.884	1648.31
279.115	1465.31
279.347	1414.31
279.579	1386.31
279.81	1384.31
280.042	1386.31
280.273	1408.31
280.505	1443.31
280.736	1478.31
280.968	1580.31
281.199	1737.31
281.431	1995.31
281.662	2058.31
281.894	1747.31
282.125	1647.31
282.356	1632.31
282.588	1636.31
282.819	1671.31
283.051	1750.31
283.282	1980.31
283.513	2418.31
283.745	3486.31
283.976	5523.31
284.207	7842.31
284.439	7025.31
284.67	4369.31
284.901	3639.31
285.132	3625.31
285.364	3461.31
285.595	2650.31
285.826	2388.31
286.057	2777.31
286.288	3763.31
286.52	5033.31
286.751	4772.31
286.982	2974.31
287.213	2211.31
287.444	1985.31
287.675	1820.31
287.906	1759.31
288.138	1744.31
288.369	1666.31
288.6	1673.31
288.831	1681.31
289.062	1658.31
289.293	1674.31
289.524	1655.31
289.755	1697.31
289.986	1701.31
290.217	1723.31
290.448	1701.31
290.679	1696.31
290.91	1751.31
291.141	1858.31
291.371	2010.31
291.602	2075.31
291.833	1903.31
292.064	1697.31
292.295	1683.31
292.526	1631.31
292.757	1607.31
292.987	1570.31
293.218	1589.31
293.449	1613.31
293.68	1589.31
293.91	1591.31
294.141	1551.31
294.372	1547.31
294.603	1570.31
294.833	1547.31
295.064	1585.31
295.295	1516.31
295.525	1543.31
295.756	1511.31
295.987	1523.31
296.217	1540.31
296.448	1558.31
296.679	1556.31
296.909	1588.31
297.14	1602.31
297.37	1611.31
297.601	1605.31
297.831	1609.31
298.062	1603.31
298.292	1632.31
298.523	1660.31
298.753	1715.31
298.984	1684.31
299.214	1713.31
299.445	1721.31
299.675	1759.31
299.905	1807.31
300.136	1843.31
300.366	2111.31
300.597	2699.31
300.827	3745.31
301.057	5096.31
301.288	5037.31
301.518	3338.31
301.748	2517.31
301.979	2309.31
302.209	2258.31
302.439	2249.31
302.669	2415.31
302.9	2911.31
303.13	4093.31
303.36	5949.31
303.59	7947.31
303.82	6834.31
304.051	4045.31
304.281	2957.31
304.511	2449.31
304.741	2309.31
304.971	2213.31
305.201	2064.31
305.431	1973.31
305.661	1967.31
305.891	1884.31
306.121	1868.31
306.352	1846.31
306.582	1863.31
306.812	1806.31
307.042	1821.31
307.272	1787.31
307.502	1780.31
307.731	1805.31
307.961	1781.31
308.191	1824.31
308.421	1827.31
308.651	1816.31
308.881	1799.31
309.111	1814.31
309.341	1823.31
309.571	1788.31
309.8	1841.31
310.03	1862.31
310.26	1833.31
310.49	1832.31
310.72	1857.31
310.949	1892.31
311.179	1912.31
311.409	1930.31
311.639	1891.31
311.868	1918.31
312.098	1920.31
312.328	1940.31
312.557	1971.31
312.787	1947.31
313.017	2003.31
313.246	1950.31
313.476	1975.31
313.706	2067.31
313.935	2165.31
314.165	2353.31
314.394	2453.31
314.624	2361.31
314.853	2136.31
315.083	2147.31
315.312	2149.31
315.542	2155.31
315.771	2191.31
316.001	2205.31
316.23	2309.31
316.46	2378.31
316.689	2645.31
316.919	3163.31
317.148	4479.31
317.377	6967.31
317.607	10093.31
317.836	10419.31
318.065	6364.31
318.295	4208.31
318.524	3317.31
318.753	2881.31
318.983	2704.31
319.212	2533.31
319.441	2457.31
319.67	2425.31
319.9	2348.31
320.129	2342.31
320.358	2334.31
320.587	2316.31
320.816	2294.31
321.046	2363.31
321.275	2290.31
321.504	2304.31
321.733	2394.31
321.962	2466.31
322.191	2520.31
322.42	2513.31
322.649	2437.31
322.878	2447.31
323.108	2420.31
323.337	2537.31
323.566	2530.31
323.795	2598.31
324.024	2611.31
324.253	2679.31
324.482	2842.31
324.71	2947.31
324.939	3146.31
325.168	3207.31
325.397	3319.31
325.626	3948.31
325.855	5444.31
326.084	8545.31
326.313	12266.31
326.542	13040.31
326.77	8777.31
326.999	5787.31
327.228	4831.31
327.457	4676.31
327.686	4698.31
327.914	4982.31
328.143	5787.31
328.372	6872.31
328.6	7612.31
328.829	6729.31
329.058	5643.31
329.287	4931.31
329.515	4499.31
329.744	4255.31
329.972	4011.31
330.201	3810.31
330.43	3660.31
330.658	3564.31
330.887	3517.31
331.115	3461.31
331.344	3425.31
331.572	3431.31
331.801	3460.31
332.03	3447.31
332.258	3503.31
332.486	3721.31
332.715	4197.31
332.943	5224.31
333.172	6413.31
333.4	6385.31
333.629	4871.31
333.857	4414.31
334.085	4456.31
334.314	4630.31
334.542	5062.31
334.771	5923.31
334.999	7265.31
335.227	9001.31
335.455	10126.31
335.684	9043.31
335.912	7418.31
336.14	6283.31
336.369	5517.31
336.597	5100.31
336.825	4707.31
337.053	4427.31
337.281	4153.31
337.51	4023.31
337.738	3840.31
337.966	3608.31
338.194	3544.31
338.422	3471.31
338.65	3386.31
338.878	3311.31
339.106	3232.31
339.334	3210.31
339.562	3119.31
339.79	3098.31
340.018	3081.31
340.246	2988.31
340.474	3013.31
340.702	3021.31
340.93	2995.31
341.158	3015.31
341.386	2963.31
341.614	2958.31
341.842	2883.31
342.07	2841.31
342.298	2774.31
342.526	2749.31
342.754	2757.31
342.981	2671.31
343.209	2712.31
343.437	2735.31
343.665	2765.31
343.893	2819.31
344.12	2840.31
344.348	2817.31
344.576	2746.31
344.804	2724.31
345.031	2619.31
345.259	2568.31
345.487	2547.31
345.714	2594.31
345.942	2600.31
346.17	2550.31
346.397	2536.31
346.625	2525.31
346.853	2513.31
347.08	2514.31
347.308	2495.31
347.535	2535.31
347.763	2539.31
347.99	2452.31
348.218	2490.31
348.445	2451.31
348.673	2465.31
348.9	2398.31
349.128	2431.31
349.355	2498.31
349.583	2446.31
349.81	2428.31
350.037	2417.31
350.265	2393.31
350.492	2447.31
350.72	2388.31
350.947	2417.31
351.174	2441.31
351.402	2411.31
351.629	2394.31
351.856	2353.31
352.083	2385.31
352.311	2396.31
352.538	2383.31
352.765	2335.31
352.992	2381.31
353.22	2377.31
353.447	2387.31
353.674	2392.31
353.901	2389.31
354.128	2381.31
354.355	2387.31
354.583	2365.31
354.81	2433.31
355.037	2441.31
355.264	2438.31
355.491	2363.31
355.718	2417.31
355.945	2431.31
356.172	2473.31
356.399	2471.31
356.626	2446.31
356.853	2464.31
357.08	2493.31
357.307	2532.31
357.534	2569.31
357.761	2607.31
357.988	2571.31
358.215	2490.31
358.441	2529.31
358.668	2547.31
358.895	2530.31
359.122	2523.31
359.349	2518.31
359.576	2545.31
359.802	2498.31
360.029	2500.31
360.256	2533.31
360.483	2553.31
360.709	2536.31
360.936	2577.31
361.163	2512.31
361.39	2555.31
361.616	2519.31
361.843	2562.31
362.07	2582.31
362.296	2593.31
362.523	2528.31
362.749	2523.31
362.976	2555.31
363.203	2570.31
363.429	2512.31
363.656	2570.31
363.882	2508.31
364.109	2497.31
364.335	2502.31
364.562	2547.31
364.788	2497.31
365.015	2625.31
365.241	2652.31
365.468	2731.31
365.694	2932.31
365.92	2790.31
366.147	2653.31
366.373	2634.31
366.599	2603.31
366.826	2593.31
367.052	2583.31
367.278	2620.31
367.505	2636.31
367.731	2622.31
367.957	2652.31
368.184	2617.31
368.41	2644.31
368.636	2652.31
368.862	2665.31
369.089	2631.31
369.315	2628.31
369.541	2668.31
369.767	2636.31
369.993	2619.31
370.219	2654.31
370.445	2625.31
370.672	2633.31
370.898	2675.31
371.124	2692.31
371.35	2727.31
371.576	2705.31
371.802	2755.31
372.028	2747.31
372.254	2725.31
372.48	2740.31
372.706	2769.31
372.932	2805.31
373.158	2765.31
373.384	2750.31
373.61	2816.31
373.835	2768.31
374.061	2833.31
374.287	2870.31
374.513	2859.31
374.739	2933.31
374.965	2894.31
375.191	2892.31
375.416	2885.31
375.642	2877.31
375.868	2856.31
376.094	2768.31
376.319	2805.31
376.545	2789.31
376.771	2752.31
376.997	2730.31
377.222	2743.31
377.448	2723.31
377.674	2726.31
377.899	2695.31
378.125	2677.31
378.35	2708.31
378.576	2741.31
378.802	2760.31
379.027	2820.31
379.253	2866.31
379.478	3018.31
379.704	3560.31
379.929	5083.31
380.155	7735.31
380.38	8246.31
380.606	5136.31
380.831	3619.31
381.057	3213.31
381.282	3001.31
381.507	2882.31
381.733	2809.31
381.958	2752.31
382.184	2700.31
382.409	2712.31
382.634	2727.31
382.86	2634.31
383.085	2664.31
383.31	2663.31
383.535	2664.31
383.761	2730.31
383.986	2682.31
384.211	2716.31
384.436	2794.31
384.662	2763.31
384.887	2776.31
385.112	2729.31
385.337	2802.31
385.562	2771.31
385.787	2796.31
386.013	2749.31
386.238	2758.31
386.463	2767.31
386.688	2762.31
386.913	2773.31
387.138	2804.31
387.363	2743.31
387.588	2749.31
387.813	2736.31
388.038	2715.31
388.263	2779.31
388.488	2733.31
388.713	2737.31
388.938	2758.31
389.163	2719.31
389.387	2763.31
389.612	2753.31
389.837	2781.31
390.062	2747.31
390.287	2793.31
390.512	2840.31
390.736	2831.31
390.961	2890.31
391.186	2869.31
391.411	2937.31
391.636	2947.31
391.86	2934.31
392.085	2930.31
392.31	2921.31
392.534	2886.31
392.759	2869.31
392.984	2765.31
393.208	2793.31
393.433	2827.31
393.658	2904.31
393.882	2773.31
394.107	2770.31
394.331	2819.31
394.556	2821.31
394.78	2785.31
395.005	2856.31
395.229	2827.31
395.454	2881.31
395.678	2871.31
395.903	2874.31
396.127	2850.31
396.352	2822.31
396.576	2847.31
396.801	2885.31
397.025	2947.31
397.249	2879.31
397.474	2956.31
397.698	2899.31
397.922	2970.31
398.147	2931.31
398.371	3004.31
398.595	3036.31
398.82	3065.31
399.044	3171.31
399.268	3372.31
399.492	3580.31
399.717	3673.31
399.941	3696.31
400.165	3560.31
400.389	3354.31
400.613	3237.31
400.837	3167.31
401.062	3079.31
401.286	3126.31
401.51	3042.31
401.734	3084.31
401.958	3048.31
402.182	3082.31
402.406	3052.31
402.63	3056.31
402.854	3051.31
403.078	3121.31
403.302	3155.31
403.526	3164.31
403.75	3216.31
403.974	3209.31
404.198	3148.31
404.422	3192.31
404.645	3155.31
404.869	3159.31
405.093	3205.31
405.317	3162.31
405.541	3219.31
405.765	3247.31
405.988	3300.31
406.212	3284.31
406.436	3209.31
406.66	3291.31
406.883	3302.31
407.107	3351.31
407.331	3388.31
407.555	3443.31
407.778	3420.31
408.002	3333.31
408.226	3419.31
408.449	3406.31
408.673	3295.31
408.896	3279.31
409.12	3196.31
409.344	3277.31
409.567	3147.31
409.791	3194.31
410.014	3111.31
410.238	3190.31
410.461	3177.31
410.685	3116.31
410.908	3105.31
411.132	3130.31
411.355	2997.31
411.578	3061.31
411.802	3036.31
412.025	3010.31
412.249	3033.31
412.472	3026.31
412.695	3061.31
412.919	2961.31
413.142	2997.31
413.365	2986.31
413.589	2987.31
413.812	2942.31
414.035	2999.31
414.258	3021.31
414.482	2999.31
414.705	2993.31
414.928	3035.31
415.151	2996.31
415.374	2948.31
415.597	2908.31
415.821	2920.31
416.044	2883.31
416.267	2879.31
416.49	2891.31
416.713	2858.31
416.936	2860.31
417.159	2834.31
417.382	2835.31
417.605	2837.31
417.828	2866.31
418.051	2895.31
418.274	2902.31
418.497	2859.31
418.72	2972.31
418.943	2845.31
419.166	3030.31
419.389	3233.31
419.611	3200.31
419.834	3098.31
420.057	2979.31
420.28	2945.31
420.503	2856.31
420.726	2846.31
420.948	2820.31
421.171	2832.31
421.394	2843.31
421.617	2851.31
421.839	2859.31
422.062	2923.31
422.285	2863.31
422.507	2927.31
422.73	2899.31
422.953	2923.31
423.175	2943.31
423.398	2940.31
423.621	2840.31
423.843	2913.31
424.066	2876.31
424.288	2840.31
424.511	2818.31
424.733	2858.31
424.956	2819.31
425.178	2848.31
425.401	2825.31
425.623	2821.31
425.846	2796.31
426.068	2756.31
426.291	2739.31
426.513	2784.31
426.735	2744.31
426.958	2762.31
427.18	2695.31
427.402	2718.31
427.625	2715.31
427.847	2674.31
428.069	2630.31
428.292	2705.31
428.514	2659.31
428.736	2650.31
428.958	2688.31
429.181	2620.31
429.403	2553.31
429.625	2645.31
429.847	2645.31
430.069	2714.31
430.292	2747.31
430.514	2801.31
430.736	2835.31
430.958	2659.31
431.18	2632.31
431.402	2633.31
431.624	2632.31
431.846	2574.31
432.068	2609.31
432.29	2648.31
432.512	2583.31
432.734	2627.31
432.956	2632.31
433.178	2667.31
433.4	2599.31
433.622	2649.31
433.844	2623.31
434.066	2611.31
434.287	2634.31
434.509	2695.31
434.731	2728.31
434.953	2717.31
435.175	2753.31
435.397	2731.31
435.618	2641.31
435.84	2635.31
436.062	2628.31
436.284	2593.31
436.505	2545.31
436.727	2593.31
436.949	2639.31
437.17	2624.31
437.392	2574.31
437.614	2538.31
437.835	2522.31
438.057	2576.31
438.278	2540.31
438.5	2547.31
438.721	2561.31
438.943	2652.31
439.165	2711.31
439.386	2714.31
439.608	2695.31
439.829	2725.31
440.05	2779.31
440.272	2814.31
440.493	2769.31
440.715	2714.31
440.936	2661.31
441.158	2737.31
441.379	2762.31
441.6	2871.31
441.822	2913.31
442.043	3085.31
442.264	3098.31
442.486	2947.31
442.707	2843.31
442.928	2808.31
443.149	2828.31
443.371	2769.31
443.592	2858.31
443.813	2803.31
444.034	2820.31
444.255	2835.31
444.476	2940.31
444.698	2977.31
444.919	3029.31
445.14	3124.31
445.361	2975.31
445.582	2861.31
445.803	2810.31
446.024	2746.31
446.245	2773.31
446.466	2810.31
446.687	2785.31
446.908	2761.31
447.129	2641.31
447.35	2635.31
447.571	2631.31
447.792	2520.31
448.013	2539.31
448.234	2556.31
448.455	2526.31
448.675	2618.31
448.896	2658.31
449.117	2758.31
449.338	3003.31
449.559	3091.31
449.779	2755.31
450	2574.31
450.221	2539.31
450.442	2554.31
450.662	2543.31
450.883	2508.31
451.104	2513.31
451.324	2491.31
451.545	2491.31
451.766	2561.31
451.986	2611.31
452.207	2779.31
452.428	3599.31
452.648	5338.31
452.869	4407.31
453.089	3083.31
453.31	2925.31
453.53	2945.31
453.751	2982.31
453.971	3139.31
454.192	3062.31
454.412	2675.31
454.633	2487.31
454.853	2455.31
455.073	2428.31
455.294	2445.31
455.514	2385.31
455.734	2413.31
455.955	2405.31
456.175	2427.31
456.395	2401.31
456.616	2428.31
456.836	2479.31
457.056	2484.31
457.276	2457.31
457.497	2643.31
457.717	2617.31
457.937	2567.31
458.157	2539.31
458.377	2591.31
458.598	2617.31
458.818	2572.31
459.038	2583.31
459.258	2617.31
459.478	2659.31
459.698	2631.31
459.918	2715.31
460.138	2726.31
460.358	2820.31
460.578	2806.31
460.798	2861.31
461.018	2840.31
461.238	2839.31
461.458	2892.31
461.678	2863.31
461.898	2960.31
462.118	2965.31
462.338	3079.31
462.558	3035.31
462.777	3136.31
462.997	3208.31
463.217	3364.31
463.437	3492.31
463.657	3521.31
463.876	3516.31
464.096	3293.31
464.316	3138.31
464.536	3159.31
464.755	3087.31
464.975	2983.31
465.195	2855.31
465.414	2787.31
465.634	2761.31
465.854	2740.31
466.073	2677.31
466.293	2609.31
466.512	2628.31
466.732	2691.31
466.951	2769.31
467.171	3002.31
467.391	2891.31
467.61	2738.31
467.829	2584.31
468.049	2592.31
468.268	2550.31
468.488	2534.31
468.707	2521.31
468.927	2567.31
469.146	2585.31
469.365	2612.31
469.585	2573.31
469.804	2676.31
470.023	2706.31
470.243	2738.31
470.462	2829.31
470.681	2971.31
470.901	3238.31
471.12	3759.31
471.339	3729.31
471.558	3123.31
471.777	2858.31
471.997	2751.31
472.216	2713.31
472.435	2646.31
472.654	2625.31
472.873	2600.31
473.092	2587.31
473.311	2624.31
473.53	2623.31
473.749	2651.31
473.968	2715.31
474.187	2580.31
474.406	2564.31
474.625	2607.31
474.844	2623.31
475.063	2607.31
475.282	2584.31
475.501	2616.31
475.72	2615.31
475.939	2696.31
476.158	2724.31
476.377	2808.31
476.596	2754.31
476.814	2732.31
477.033	2762.31
477.252	2764.31
477.471	2818.31
477.69	2813.31
477.908	2900.31
478.127	2904.31
478.346	2930.31
478.564	3017.31
478.783	3027.31
479.002	3085.31
479.22	3091.31
479.439	3112.31
479.658	3080.31
479.876	3066.31
480.095	3147.31
480.313	3210.31
480.532	3245.31
480.751	3209.31
480.969	3194.31
481.188	3149.31
481.406	3133.31
481.624	3098.31
481.843	3213.31
482.061	3205.31
482.28	3109.31
482.498	3176.31
482.717	3111.31
482.935	3193.31
483.153	3159.31
483.372	3225.31
483.59	3310.31
483.808	3337.31
484.027	3398.31
484.245	3615.31
484.463	3977.31
484.681	4467.31
484.9	4111.31
485.118	3786.31
485.336	3733.31
485.554	3799.31
485.772	3946.31
485.99	4472.31
486.209	4759.31
486.427	4085.31
486.645	3679.31
486.863	3506.31
487.081	3400.31
487.299	3417.31
487.517	3362.31
487.735	3355.31
487.953	3354.31
