Data from SnStandardFlinnAPT0064_QswitchEnergy10_LIBS07252019.E.O._I.C._HRD10591_15-28-03-973.txt Node
Date: Thu Jul 25 15:28:03 EDT 2019
User: cochatt
Spectrometer: HR+D1059
Trigger mode: 1
Integration Time (sec): 1.000000E-1
Scans to average: 1
Electric dark correction enabled: true
Nonlinearity correction enabled: false
Boxcar width: 0
XAxis mode: Wavelengths
Number of Pixels in Spectrum: 2048
>>>>>Begin Spectral Data<<<<<
223.165	-12.38
223.4	-12.38
223.635	-12.38
223.869	-17.38
224.104	-15.38
224.338	-22.38
224.573	-19.38
224.808	-16.38
225.042	-12.38
225.277	8.62
225.511	1.62
225.746	-1.38
225.98	2.62
226.215	15.62
226.449	7.62
226.683	19.62
226.918	29.62
227.152	31.62
227.387	51.62
227.621	38.62
227.856	47.62
228.09	52.62
228.324	47.62
228.559	64.62
228.793	66.62
229.027	56.62
229.262	68.62
229.496	66.62
229.73	63.62
229.964	86.62
230.199	87.62
230.433	79.62
230.667	79.62
230.901	83.62
231.136	78.62
231.37	72.62
231.604	85.62
231.838	96.62
232.072	113.62
232.306	109.62
232.541	87.62
232.775	77.62
233.009	69.62
233.243	85.62
233.477	85.62
233.711	94.62
233.945	90.62
234.179	76.62
234.413	79.62
234.647	82.62
234.881	90.62
235.115	84.62
235.349	89.62
235.583	86.62
235.817	115.62
236.051	106.62
236.285	96.62
236.519	85.62
236.753	86.62
236.987	75.62
237.221	82.62
237.455	76.62
237.689	70.62
237.922	71.62
238.156	77.62
238.39	83.62
238.624	78.62
238.858	82.62
239.091	81.62
239.325	84.62
239.559	63.62
239.793	86.62
240.027	80.62
240.26	89.62
240.494	85.62
240.728	84.62
240.961	88.62
241.195	93.62
241.429	87.62
241.662	69.62
241.896	79.62
242.13	101.62
242.363	111.62
242.597	129.62
242.83	115.62
243.064	134.62
243.298	138.62
243.531	138.62
243.765	100.62
243.998	97.62
244.232	85.62
244.465	88.62
244.699	82.62
244.932	85.62
245.166	81.62
245.399	69.62
245.633	89.62
245.866	90.62
246.099	80.62
246.333	82.62
246.566	79.62
246.8	86.62
247.033	77.62
247.266	75.62
247.5	81.62
247.733	72.62
247.966	88.62
248.2	80.62
248.433	110.62
248.666	120.62
248.899	117.62
249.133	95.62
249.366	82.62
249.599	96.62
249.832	107.62
250.066	117.62
250.299	89.62
250.532	89.62
250.765	78.62
250.998	77.62
251.231	79.62
251.465	92.62
251.698	83.62
251.931	89.62
252.164	84.62
252.397	83.62
252.63	85.62
252.863	94.62
253.096	73.62
253.329	98.62
253.562	88.62
253.795	76.62
254.028	90.62
254.261	73.62
254.494	90.62
254.727	93.62
254.96	121.62
255.193	102.62
255.426	92.62
255.659	84.62
255.892	84.62
256.124	85.62
256.357	84.62
256.59	85.62
256.823	79.62
257.056	106.62
257.289	135.62
257.521	139.62
257.754	113.62
257.987	96.62
258.22	86.62
258.452	85.62
258.685	99.62
258.918	86.62
259.151	83.62
259.383	116.62
259.616	126.62
259.849	138.62
260.081	99.62
260.314	88.62
260.547	66.62
260.779	84.62
261.012	89.62
261.244	96.62
261.477	94.62
261.71	83.62
261.942	73.62
262.175	86.62
262.407	82.62
262.64	72.62
262.872	89.62
263.105	80.62
263.337	88.62
263.57	83.62
263.802	79.62
264.035	75.62
264.267	86.62
264.499	83.62
264.732	92.62
264.964	81.62
265.197	84.62
265.429	85.62
265.661	90.62
265.894	103.62
266.126	107.62
266.358	123.62
266.591	132.62
266.823	101.62
267.055	84.62
267.287	87.62
267.52	84.62
267.752	77.62
267.984	81.62
268.216	84.62
268.448	94.62
268.681	85.62
268.913	78.62
269.145	93.62
269.377	102.62
269.609	94.62
269.841	102.62
270.073	84.62
270.306	120.62
270.538	175.62
270.77	259.62
271.002	303.62
271.234	158.62
271.466	119.62
271.698	102.62
271.93	92.62
272.162	87.62
272.394	90.62
272.626	89.62
272.858	78.62
273.09	88.62
273.322	100.62
273.553	87.62
273.785	88.62
274.017	87.62
274.249	81.62
274.481	81.62
274.713	80.62
274.945	92.62
275.176	94.62
275.408	90.62
275.64	73.62
275.872	96.62
276.104	90.62
276.335	93.62
276.567	86.62
276.799	97.62
277.031	101.62
277.262	111.62
277.494	115.62
277.726	94.62
277.957	151.62
278.189	214.62
278.421	207.62
278.652	156.62
278.884	163.62
279.115	125.62
279.347	106.62
279.579	89.62
279.81	81.62
280.042	101.62
280.273	108.62
280.505	95.62
280.736	101.62
280.968	109.62
281.199	152.62
281.431	197.62
281.662	216.62
281.894	150.62
282.125	114.62
282.356	106.62
282.588	105.62
282.819	94.62
283.051	102.62
283.282	117.62
283.513	162.62
283.745	249.62
283.976	414.62
284.207	610.62
284.439	455.62
284.67	199.62
284.901	212.62
285.132	274.62
285.364	297.62
285.595	195.62
285.826	145.62
286.057	213.62
286.288	345.62
286.52	468.62
286.751	386.62
286.982	159.62
287.213	118.62
287.444	97.62
287.675	101.62
287.906	98.62
288.138	94.62
288.369	84.62
288.6	91.62
288.831	79.62
289.062	94.62
289.293	89.62
289.524	81.62
289.755	87.62
289.986	98.62
290.217	88.62
290.448	103.62
290.679	106.62
290.91	120.62
291.141	137.62
291.371	195.62
291.602	230.62
291.833	156.62
292.064	113.62
292.295	85.62
292.526	87.62
292.757	97.62
292.987	81.62
293.218	85.62
293.449	106.62
293.68	91.62
293.91	98.62
294.141	92.62
294.372	96.62
294.603	86.62
294.833	97.62
295.064	88.62
295.295	92.62
295.525	88.62
295.756	96.62
295.987	98.62
296.217	88.62
296.448	90.62
296.679	84.62
296.909	107.62
297.14	79.62
297.37	98.62
297.601	95.62
297.831	95.62
298.062	94.62
298.292	105.62
298.523	97.62
298.753	98.62
298.984	84.62
299.214	100.62
299.445	111.62
299.675	106.62
299.905	113.62
300.136	121.62
300.366	159.62
300.597	234.62
300.827	347.62
301.057	530.62
301.288	479.62
301.518	216.62
301.748	149.62
301.979	114.62
302.209	114.62
302.439	121.62
302.669	151.62
302.9	221.62
303.13	390.62
303.36	661.62
303.59	921.62
303.82	643.62
304.051	230.62
304.281	136.62
304.511	104.62
304.741	94.62
304.971	104.62
305.201	109.62
305.431	101.62
305.661	104.62
305.891	88.62
306.121	97.62
306.352	117.62
306.582	114.62
306.812	121.62
307.042	110.62
307.272	105.62
307.502	89.62
307.731	99.62
307.961	97.62
308.191	101.62
308.421	98.62
308.651	89.62
308.881	100.62
309.111	119.62
309.341	97.62
309.571	109.62
309.8	96.62
310.03	114.62
310.26	98.62
310.49	112.62
310.72	129.62
310.949	105.62
311.179	87.62
311.409	111.62
311.639	103.62
311.868	99.62
312.098	104.62
312.328	101.62
312.557	106.62
312.787	113.62
313.017	103.62
313.246	102.62
313.476	100.62
313.706	122.62
313.935	124.62
314.165	173.62
314.394	193.62
314.624	150.62
314.853	115.62
315.083	119.62
315.312	105.62
315.542	117.62
315.771	121.62
316.001	123.62
316.23	127.62
316.46	127.62
316.689	146.62
316.919	207.62
317.148	403.62
317.377	699.62
317.607	1109.62
317.836	1058.62
318.065	415.62
318.295	192.62
318.524	149.62
318.753	122.62
318.983	123.62
319.212	112.62
319.441	113.62
319.67	121.62
319.9	106.62
320.129	115.62
320.358	113.62
320.587	116.62
320.816	121.62
321.046	116.62
321.275	122.62
321.504	119.62
321.733	133.62
321.962	141.62
322.191	136.62
322.42	115.62
322.649	123.62
322.878	121.62
323.108	115.62
323.337	111.62
323.566	113.62
323.795	121.62
324.024	117.62
324.253	140.62
324.482	171.62
324.71	221.62
324.939	239.62
325.168	219.62
325.397	169.62
325.626	230.62
325.855	375.62
326.084	750.62
326.313	1213.62
326.542	1163.62
326.77	500.62
326.999	213.62
327.228	183.62
327.457	190.62
327.686	202.62
327.914	136.62
328.143	119.62
328.372	133.62
328.6	122.62
328.829	116.62
329.058	111.62
329.287	109.62
329.515	102.62
329.744	119.62
329.972	110.62
330.201	104.62
330.43	118.62
330.658	106.62
330.887	104.62
331.115	112.62
331.344	111.62
331.572	117.62
331.801	106.62
332.03	118.62
332.258	119.62
332.486	157.62
332.715	249.62
332.943	428.62
333.172	609.62
333.4	534.62
333.629	225.62
333.857	137.62
334.085	118.62
334.314	123.62
334.542	125.62
334.771	115.62
334.999	115.62
335.227	121.62
335.455	107.62
335.684	106.62
335.912	117.62
336.14	105.62
336.369	112.62
336.597	114.62
336.825	106.62
337.053	111.62
337.281	119.62
337.51	100.62
337.738	101.62
337.966	101.62
338.194	110.62
338.422	127.62
338.65	106.62
338.878	121.62
339.106	116.62
339.334	109.62
339.562	113.62
339.79	104.62
340.018	97.62
340.246	100.62
340.474	129.62
340.702	120.62
340.93	97.62
341.158	99.62
341.386	106.62
341.614	106.62
341.842	102.62
342.07	105.62
342.298	96.62
342.526	105.62
342.754	110.62
342.981	102.62
343.209	101.62
343.437	106.62
343.665	113.62
343.893	117.62
344.12	119.62
344.348	114.62
344.576	119.62
344.804	119.62
345.031	103.62
345.259	110.62
345.487	115.62
345.714	104.62
345.942	111.62
346.17	104.62
346.397	98.62
346.625	109.62
346.853	87.62
347.08	90.62
347.308	106.62
347.535	110.62
347.763	97.62
347.99	109.62
348.218	102.62
348.445	106.62
348.673	102.62
348.9	121.62
349.128	130.62
349.355	107.62
349.583	116.62
349.81	104.62
350.037	115.62
350.265	112.62
350.492	111.62
350.72	103.62
350.947	113.62
351.174	99.62
351.402	114.62
351.629	110.62
351.856	88.62
352.083	114.62
352.311	110.62
352.538	123.62
352.765	108.62
352.992	106.62
353.22	113.62
353.447	106.62
353.674	109.62
353.901	109.62
354.128	106.62
354.355	113.62
354.583	99.62
354.81	102.62
355.037	96.62
355.264	109.62
355.491	103.62
355.718	90.62
355.945	89.62
356.172	84.62
356.399	104.62
356.626	116.62
356.853	101.62
357.08	100.62
357.307	104.62
357.534	106.62
357.761	109.62
357.988	92.62
358.215	113.62
358.441	96.62
358.668	108.62
358.895	116.62
359.122	124.62
359.349	112.62
359.576	109.62
359.802	115.62
360.029	111.62
360.256	117.62
360.483	110.62
360.709	109.62
360.936	112.62
361.163	97.62
361.39	100.62
361.616	102.62
361.843	100.62
362.07	118.62
362.296	115.62
362.523	112.62
362.749	91.62
362.976	118.62
363.203	103.62
363.429	95.62
363.656	95.62
363.882	101.62
364.109	110.62
364.335	97.62
364.562	117.62
364.788	113.62
365.015	107.62
365.241	114.62
365.468	189.62
365.694	217.62
365.92	176.62
366.147	115.62
366.373	93.62
366.599	95.62
366.826	107.62
367.052	92.62
367.278	102.62
367.505	89.62
367.731	98.62
367.957	95.62
368.184	106.62
368.41	123.62
368.636	112.62
368.862	103.62
369.089	88.62
369.315	103.62
369.541	114.62
369.767	103.62
369.993	116.62
370.219	94.62
370.445	94.62
370.672	105.62
370.898	111.62
371.124	95.62
371.35	102.62
371.576	104.62
371.802	110.62
372.028	106.62
372.254	103.62
372.48	108.62
372.706	123.62
372.932	110.62
373.158	115.62
373.384	113.62
373.61	111.62
373.835	115.62
374.061	116.62
374.287	112.62
374.513	108.62
374.739	111.62
374.965	95.62
375.191	117.62
375.416	115.62
375.642	107.62
375.868	96.62
376.094	104.62
376.319	103.62
376.545	119.62
376.771	113.62
376.997	105.62
377.222	94.62
377.448	112.62
377.674	99.62
377.899	95.62
378.125	90.62
378.35	96.62
378.576	106.62
378.802	121.62
379.027	121.62
379.253	130.62
379.478	164.62
379.704	262.62
379.929	626.62
380.155	1266.62
380.38	1275.62
380.606	418.62
380.831	161.62
381.057	129.62
381.282	118.62
381.507	102.62
381.733	97.62
381.958	97.62
382.184	107.62
382.409	112.62
382.634	100.62
382.86	106.62
383.085	103.62
383.31	114.62
383.535	99.62
383.761	99.62
383.986	94.62
384.211	88.62
384.436	104.62
384.662	93.62
384.887	96.62
385.112	108.62
385.337	103.62
385.562	96.62
385.787	89.62
386.013	80.62
386.238	121.62
386.463	101.62
386.688	89.62
386.913	106.62
387.138	92.62
387.363	113.62
387.588	109.62
387.813	98.62
388.038	93.62
388.263	88.62
388.488	94.62
388.713	93.62
388.938	112.62
389.163	99.62
389.387	91.62
389.612	101.62
389.837	90.62
390.062	99.62
390.287	103.62
390.512	109.62
390.736	92.62
390.961	87.62
391.186	96.62
391.411	102.62
391.636	110.62
391.86	103.62
392.085	98.62
392.31	101.62
392.534	93.62
392.759	103.62
392.984	97.62
393.208	124.62
393.433	129.62
393.658	126.62
393.882	88.62
394.107	86.62
394.331	103.62
394.556	79.62
394.78	98.62
395.005	89.62
395.229	96.62
395.454	87.62
395.678	87.62
395.903	104.62
396.127	99.62
396.352	93.62
396.576	104.62
396.801	124.62
397.025	118.62
397.249	107.62
397.474	100.62
397.698	112.62
397.922	95.62
398.147	81.62
398.371	98.62
398.595	101.62
398.82	93.62
399.044	79.62
399.268	91.62
399.492	102.62
399.717	81.62
399.941	107.62
400.165	98.62
400.389	101.62
400.613	91.62
400.837	75.62
401.062	86.62
401.286	94.62
401.51	92.62
401.734	83.62
401.958	93.62
402.182	91.62
402.406	100.62
402.63	104.62
402.854	95.62
403.078	90.62
403.302	85.62
403.526	89.62
403.75	98.62
403.974	82.62
404.198	98.62
404.422	93.62
404.645	92.62
404.869	104.62
405.093	102.62
405.317	90.62
405.541	107.62
405.765	118.62
405.988	139.62
406.212	118.62
406.436	85.62
406.66	96.62
406.883	106.62
407.107	93.62
407.331	83.62
407.555	89.62
407.778	97.62
408.002	107.62
408.226	95.62
408.449	87.62
408.673	97.62
408.896	105.62
409.12	97.62
409.344	105.62
409.567	95.62
409.791	89.62
410.014	83.62
410.238	101.62
410.461	104.62
410.685	92.62
410.908	105.62
411.132	90.62
411.355	79.62
411.578	101.62
411.802	109.62
412.025	98.62
412.249	92.62
412.472	89.62
412.695	96.62
412.919	97.62
413.142	96.62
413.365	103.62
413.589	97.62
413.812	97.62
414.035	91.62
414.258	88.62
414.482	99.62
414.705	104.62
414.928	112.62
415.151	97.62
415.374	93.62
415.597	94.62
415.821	83.62
416.044	93.62
416.267	94.62
416.49	106.62
416.713	85.62
416.936	98.62
417.159	90.62
417.382	93.62
417.605	103.62
417.828	88.62
418.051	81.62
418.274	88.62
418.497	94.62
418.72	98.62
418.943	91.62
419.166	88.62
419.389	91.62
419.611	106.62
419.834	96.62
420.057	90.62
420.28	99.62
420.503	93.62
420.726	96.62
420.948	90.62
421.171	94.62
421.394	89.62
421.617	87.62
421.839	91.62
422.062	79.62
422.285	87.62
422.507	109.62
422.73	120.62
422.953	134.62
423.175	96.62
423.398	72.62
423.621	95.62
423.843	90.62
424.066	92.62
424.288	91.62
424.511	81.62
424.733	89.62
424.956	91.62
425.178	90.62
425.401	96.62
425.623	91.62
425.846	86.62
426.068	101.62
426.291	83.62
426.513	101.62
426.735	87.62
426.958	99.62
427.18	104.62
427.402	90.62
427.625	101.62
427.847	88.62
428.069	99.62
428.292	97.62
428.514	95.62
428.736	102.62
428.958	98.62
429.181	102.62
429.403	93.62
429.625	81.62
429.847	79.62
430.069	112.62
430.292	94.62
430.514	76.62
430.736	101.62
430.958	96.62
431.18	86.62
431.402	77.62
431.624	76.62
431.846	73.62
432.068	101.62
432.29	92.62
432.512	111.62
432.734	85.62
432.956	96.62
433.178	93.62
433.4	97.62
433.622	102.62
433.844	94.62
434.066	83.62
434.287	98.62
434.509	83.62
434.731	97.62
434.953	84.62
435.175	83.62
435.397	77.62
435.618	85.62
435.84	96.62
436.062	96.62
436.284	97.62
436.505	104.62
436.727	72.62
436.949	94.62
437.17	98.62
437.392	82.62
437.614	109.62
437.835	90.62
438.057	88.62
438.278	64.62
438.5	84.62
438.721	111.62
438.943	104.62
439.165	97.62
439.386	92.62
439.608	91.62
439.829	93.62
440.05	110.62
440.272	113.62
440.493	89.62
440.715	102.62
440.936	104.62
441.158	100.62
441.379	82.62
441.6	96.62
441.822	91.62
442.043	114.62
442.264	126.62
442.486	111.62
442.707	98.62
442.928	95.62
443.149	94.62
443.371	83.62
443.592	83.62
443.813	91.62
444.034	88.62
444.255	94.62
444.476	97.62
444.698	99.62
444.919	82.62
445.14	180.62
445.361	131.62
445.582	88.62
445.803	94.62
446.024	89.62
446.245	83.62
446.466	86.62
446.687	99.62
446.908	102.62
447.129	101.62
447.35	87.62
447.571	94.62
447.792	101.62
448.013	83.62
448.234	101.62
448.455	102.62
448.675	79.62
448.896	98.62
449.117	103.62
449.338	115.62
449.559	137.62
449.779	114.62
450	103.62
450.221	90.62
450.442	113.62
450.662	103.62
450.883	99.62
451.104	120.62
451.324	96.62
451.545	114.62
451.766	108.62
451.986	137.62
452.207	195.62
452.428	448.62
452.648	1064.62
452.869	616.62
453.089	180.62
453.31	121.62
453.53	106.62
453.751	134.62
453.971	134.62
454.192	127.62
454.412	111.62
454.633	99.62
454.853	89.62
455.073	94.62
455.294	86.62
455.514	92.62
455.734	97.62
455.955	93.62
456.175	94.62
456.395	91.62
456.616	93.62
456.836	90.62
457.056	76.62
457.276	98.62
457.497	98.62
457.717	110.62
457.937	103.62
458.157	92.62
458.377	81.62
458.598	87.62
458.818	81.62
459.038	97.62
459.258	106.62
459.478	78.62
459.698	75.62
459.918	90.62
460.138	78.62
460.358	91.62
460.578	93.62
460.798	86.62
461.018	85.62
461.238	88.62
461.458	87.62
461.678	97.62
461.898	99.62
462.118	91.62
462.338	83.62
462.558	91.62
462.777	92.62
462.997	90.62
463.217	98.62
463.437	101.62
463.657	155.62
463.876	154.62
464.096	124.62
464.316	97.62
464.536	77.62
464.755	95.62
464.975	80.62
465.195	95.62
465.414	103.62
465.634	100.62
465.854	83.62
466.073	87.62
466.293	88.62
466.512	96.62
466.732	95.62
466.951	95.62
467.171	123.62
467.391	134.62
467.61	109.62
467.829	97.62
468.049	88.62
468.268	85.62
468.488	86.62
468.707	78.62
468.927	87.62
469.146	97.62
469.365	105.62
469.585	96.62
469.804	102.62
470.023	96.62
470.243	102.62
470.462	99.62
470.681	98.62
470.901	121.62
471.12	149.62
471.339	163.62
471.558	133.62
471.777	112.62
471.997	87.62
472.216	86.62
472.435	99.62
472.654	79.62
472.873	80.62
473.092	91.62
473.311	96.62
473.53	89.62
473.749	104.62
473.968	107.62
474.187	89.62
474.406	82.62
474.625	97.62
474.844	89.62
475.063	95.62
475.282	87.62
475.501	104.62
475.72	98.62
475.939	91.62
476.158	103.62
476.377	112.62
476.596	97.62
476.814	115.62
477.033	103.62
477.252	102.62
477.471	96.62
477.69	105.62
477.908	107.62
478.127	103.62
478.346	81.62
478.564	92.62
478.783	93.62
479.002	101.62
479.22	102.62
479.439	95.62
479.658	94.62
479.876	98.62
480.095	94.62
480.313	98.62
480.532	93.62
480.751	96.62
480.969	77.62
481.188	96.62
481.406	107.62
481.624	98.62
481.843	97.62
482.061	93.62
482.28	82.62
482.498	91.62
482.717	79.62
482.935	94.62
483.153	90.62
483.372	90.62
483.59	87.62
483.808	99.62
484.027	103.62
484.245	97.62
484.463	155.62
484.681	182.62
484.9	129.62
485.118	102.62
485.336	90.62
485.554	101.62
485.772	117.62
485.99	165.62
486.209	194.62
486.427	142.62
486.645	111.62
486.863	105.62
487.081	99.62
487.299	97.62
487.517	92.62
487.735	102.62
487.953	89.62
488.171	93.62
488.389	86.62
488.607	78.62
488.825	97.62
489.043	92.62
489.261	73.62
489.479	83.62
489.696	100.62
489.914	95.62
490.132	100.62
490.35	106.62
490.568	92.62
490.786	93.62
491.003	109.62
491.221	100.62
491.439	110.62
491.657	110.62
491.874	88.62
492.092	104.62
492.31	99.62
492.527	95.62
492.745	107.62
492.963	100.62
493.18	91.62
493.398	94.62
493.615	100.62
493.833	87.62
494.05	85.62
494.268	99.62
494.485	93.62
494.703	97.62
494.92	86.62
495.138	90.62
495.355	97.62
495.573	103.62
495.79	96.62
496.008	104.62
496.225	109.62
496.442	101.62
496.66	107.62
496.877	134.62
497.094	139.62
497.312	102.62
497.529	98.62
497.746	84.62
497.963	91.62
498.181	91.62
498.398	91.62
498.615	107.62
498.832	98.62
499.049	101.62
499.267	127.62
499.484	139.62
499.701	122.62
499.918	97.62
500.135	100.62
500.352	104.62
500.569	96.62
500.786	106.62
501.003	90.62
501.22	86.62
501.437	100.62
501.654	93.62
501.871	95.62
502.088	98.62
502.305	89.62
502.522	105.62
502.739	101.62
502.956	91.62
503.172	96.62
503.389	95.62
503.606	104.62
503.823	94.62
504.04	93.62
504.256	92.62
504.473	77.62
504.69	85.62
504.907	99.62
505.123	108.62
505.34	104.62
505.557	99.62
505.773	89.62
505.99	98.62
506.207	101.62
506.423	100.62
506.64	99.62
506.856	93.62
507.073	97.62
507.289	107.62
507.506	91.62
507.722	92.62
507.939	98.62
508.155	91.62
508.372	101.62
508.588	96.62
508.805	98.62
509.021	99.62
509.238	110.62
509.454	113.62
509.67	134.62
509.887	118.62
510.103	91.62
510.319	94.62
510.536	97.62
