Data from SnStandardFlinnAPT0064_QswitchEnergy10_LIBS07252019.E.O._I.C._HRD10591_15-26-10-973.txt Node
Date: Thu Jul 25 15:26:10 EDT 2019
User: cochatt
Spectrometer: HR+D1059
Trigger mode: 1
Integration Time (sec): 1.000000E-1
Scans to average: 1
Electric dark correction enabled: true
Nonlinearity correction enabled: false
Boxcar width: 0
XAxis mode: Wavelengths
Number of Pixels in Spectrum: 2048
>>>>>Begin Spectral Data<<<<<
223.165	-3.12
223.4	-3.12
223.635	-3.12
223.869	-9.12
224.104	-25.12
224.338	-11.12
224.573	-14.12
224.808	-9.12
225.042	-4.12
225.277	0.88
225.511	-1.12
225.746	1.88
225.98	5.88
226.215	-3.12
226.449	1.88
226.683	18.88
226.918	19.88
227.152	30.88
227.387	31.88
227.621	38.88
227.856	60.88
228.09	43.88
228.324	49.88
228.559	59.88
228.793	68.88
229.027	87.88
229.262	73.88
229.496	69.88
229.73	86.88
229.964	77.88
230.199	64.88
230.433	80.88
230.667	77.88
230.901	67.88
231.136	96.88
231.37	90.88
231.604	91.88
231.838	92.88
232.072	105.88
232.306	121.88
232.541	89.88
232.775	83.88
233.009	90.88
233.243	92.88
233.477	88.88
233.711	105.88
233.945	91.88
234.179	90.88
234.413	85.88
234.647	80.88
234.881	67.88
235.115	86.88
235.349	92.88
235.583	93.88
235.817	113.88
236.051	140.88
236.285	104.88
236.519	90.88
236.753	73.88
236.987	82.88
237.221	92.88
237.455	88.88
237.689	91.88
237.922	76.88
238.156	67.88
238.39	80.88
238.624	101.88
238.858	78.88
239.091	83.88
239.325	97.88
239.559	79.88
239.793	97.88
240.027	85.88
240.26	85.88
240.494	87.88
240.728	94.88
240.961	89.88
241.195	99.88
241.429	99.88
241.662	100.88
241.896	88.88
242.13	107.88
242.363	131.88
242.597	181.88
242.83	130.88
243.064	119.88
243.298	169.88
243.531	149.88
243.765	95.88
243.998	94.88
244.232	89.88
244.465	75.88
244.699	84.88
244.932	81.88
245.166	81.88
245.399	88.88
245.633	87.88
245.866	89.88
246.099	84.88
246.333	76.88
246.566	95.88
246.8	92.88
247.033	78.88
247.266	86.88
247.5	93.88
247.733	89.88
247.966	88.88
248.2	98.88
248.433	90.88
248.666	119.88
248.899	110.88
249.133	92.88
249.366	92.88
249.599	112.88
249.832	115.88
250.066	116.88
250.299	92.88
250.532	82.88
250.765	81.88
250.998	91.88
251.231	84.88
251.465	86.88
251.698	89.88
251.931	89.88
252.164	84.88
252.397	85.88
252.63	93.88
252.863	105.88
253.096	97.88
253.329	92.88
253.562	79.88
253.795	93.88
254.028	100.88
254.261	86.88
254.494	102.88
254.727	122.88
254.96	149.88
255.193	121.88
255.426	100.88
255.659	105.88
255.892	95.88
256.124	90.88
256.357	98.88
256.59	94.88
256.823	85.88
257.056	109.88
257.289	151.88
257.521	172.88
257.754	119.88
257.987	97.88
258.22	99.88
258.452	85.88
258.685	90.88
258.918	88.88
259.151	88.88
259.383	108.88
259.616	135.88
259.849	142.88
260.081	104.88
260.314	93.88
260.547	93.88
260.779	82.88
261.012	70.88
261.244	79.88
261.477	101.88
261.71	101.88
261.942	95.88
262.175	98.88
262.407	82.88
262.64	88.88
262.872	85.88
263.105	84.88
263.337	82.88
263.57	85.88
263.802	91.88
264.035	103.88
264.267	96.88
264.499	93.88
264.732	78.88
264.964	83.88
265.197	84.88
265.429	92.88
265.661	102.88
265.894	98.88
266.126	115.88
266.358	150.88
266.591	137.88
266.823	87.88
267.055	88.88
267.287	93.88
267.52	89.88
267.752	80.88
267.984	85.88
268.216	84.88
268.448	91.88
268.681	86.88
268.913	102.88
269.145	82.88
269.377	81.88
269.609	95.88
269.841	91.88
270.073	101.88
270.306	123.88
270.538	186.88
270.77	294.88
271.002	347.88
271.234	201.88
271.466	113.88
271.698	95.88
271.93	97.88
272.162	90.88
272.394	94.88
272.626	83.88
272.858	89.88
273.09	86.88
273.322	76.88
273.553	98.88
273.785	91.88
274.017	87.88
274.249	99.88
274.481	93.88
274.713	86.88
274.945	86.88
275.176	78.88
275.408	88.88
275.64	94.88
275.872	77.88
276.104	99.88
276.335	108.88
276.567	101.88
276.799	91.88
277.031	98.88
277.262	99.88
277.494	107.88
277.726	117.88
277.957	171.88
278.189	253.88
278.421	229.88
278.652	165.88
278.884	173.88
279.115	127.88
279.347	101.88
279.579	81.88
279.81	98.88
280.042	87.88
280.273	95.88
280.505	76.88
280.736	109.88
280.968	111.88
281.199	140.88
281.431	212.88
281.662	246.88
281.894	149.88
282.125	96.88
282.356	117.88
282.588	109.88
282.819	120.88
283.051	106.88
283.282	127.88
283.513	177.88
283.745	272.88
283.976	513.88
284.207	741.88
284.439	577.88
284.67	245.88
284.901	220.88
285.132	312.88
285.364	355.88
285.595	217.88
285.826	144.88
286.057	226.88
286.288	380.88
286.52	580.88
286.751	454.88
286.982	177.88
287.213	125.88
287.444	113.88
287.675	113.88
287.906	105.88
288.138	104.88
288.369	89.88
288.6	105.88
288.831	105.88
289.062	114.88
289.293	113.88
289.524	90.88
289.755	107.88
289.986	95.88
290.217	104.88
290.448	97.88
290.679	102.88
290.91	123.88
291.141	155.88
291.371	214.88
291.602	267.88
291.833	190.88
292.064	105.88
292.295	94.88
292.526	100.88
292.757	98.88
292.987	105.88
293.218	94.88
293.449	97.88
293.68	90.88
293.91	100.88
294.141	93.88
294.372	91.88
294.603	94.88
294.833	109.88
295.064	95.88
295.295	96.88
295.525	92.88
295.756	94.88
295.987	77.88
296.217	82.88
296.448	97.88
296.679	94.88
296.909	91.88
297.14	115.88
297.37	103.88
297.601	103.88
297.831	95.88
298.062	101.88
298.292	93.88
298.523	114.88
298.753	94.88
298.984	117.88
299.214	117.88
299.445	105.88
299.675	122.88
299.905	99.88
300.136	125.88
300.366	152.88
300.597	263.88
300.827	421.88
301.057	627.88
301.288	569.88
301.518	235.88
301.748	137.88
301.979	123.88
302.209	130.88
302.439	124.88
302.669	144.88
302.9	237.88
303.13	460.88
303.36	810.88
303.59	1126.88
303.82	783.88
304.051	275.88
304.281	163.88
304.511	128.88
304.741	126.88
304.971	120.88
305.201	112.88
305.431	99.88
305.661	97.88
305.891	122.88
306.121	100.88
306.352	109.88
306.582	109.88
306.812	106.88
307.042	119.88
307.272	96.88
307.502	117.88
307.731	104.88
307.961	96.88
308.191	94.88
308.421	95.88
308.651	102.88
308.881	114.88
309.111	108.88
309.341	95.88
309.571	91.88
309.8	109.88
310.03	101.88
310.26	105.88
310.49	116.88
310.72	99.88
310.949	113.88
311.179	106.88
311.409	117.88
311.639	95.88
311.868	107.88
312.098	107.88
312.328	104.88
312.557	122.88
312.787	111.88
313.017	121.88
313.246	115.88
313.476	119.88
313.706	126.88
313.935	142.88
314.165	182.88
314.394	199.88
314.624	161.88
314.853	129.88
315.083	127.88
315.312	126.88
315.542	128.88
315.771	110.88
316.001	133.88
316.23	147.88
316.46	137.88
316.689	181.88
316.919	229.88
317.148	454.88
317.377	854.88
317.607	1385.88
317.836	1283.88
318.065	475.88
318.295	211.88
318.524	153.88
318.753	118.88
318.983	121.88
319.212	116.88
319.441	118.88
319.67	110.88
319.9	115.88
320.129	107.88
320.358	118.88
320.587	125.88
320.816	123.88
321.046	135.88
321.275	134.88
321.504	126.88
321.733	152.88
321.962	143.88
322.191	150.88
322.42	130.88
322.649	135.88
322.878	130.88
323.108	119.88
323.337	121.88
323.566	124.88
323.795	125.88
324.024	127.88
324.253	135.88
324.482	170.88
324.71	226.88
324.939	274.88
325.168	232.88
325.397	187.88
325.626	233.88
325.855	440.88
326.084	854.88
326.313	1443.88
326.542	1427.88
326.77	557.88
326.999	225.88
327.228	210.88
327.457	218.88
327.686	213.88
327.914	149.88
328.143	140.88
328.372	126.88
328.6	134.88
328.829	118.88
329.058	109.88
329.287	118.88
329.515	121.88
329.744	122.88
329.972	117.88
330.201	127.88
330.43	119.88
330.658	115.88
330.887	120.88
331.115	124.88
331.344	103.88
331.572	118.88
331.801	118.88
332.03	114.88
332.258	122.88
332.486	152.88
332.715	265.88
332.943	453.88
333.172	676.88
333.4	594.88
333.629	238.88
333.857	147.88
334.085	133.88
334.314	129.88
334.542	107.88
334.771	113.88
334.999	113.88
335.227	126.88
335.455	129.88
335.684	129.88
335.912	121.88
336.14	106.88
336.369	110.88
336.597	109.88
336.825	113.88
337.053	115.88
337.281	122.88
337.51	111.88
337.738	117.88
337.966	119.88
338.194	117.88
338.422	105.88
338.65	110.88
338.878	110.88
339.106	118.88
339.334	115.88
339.562	110.88
339.79	111.88
340.018	125.88
340.246	104.88
340.474	109.88
340.702	123.88
340.93	113.88
341.158	115.88
341.386	119.88
341.614	107.88
341.842	109.88
342.07	107.88
342.298	122.88
342.526	119.88
342.754	118.88
342.981	121.88
343.209	109.88
343.437	108.88
343.665	109.88
343.893	120.88
344.12	115.88
344.348	101.88
344.576	105.88
344.804	113.88
345.031	109.88
345.259	117.88
345.487	113.88
345.714	106.88
345.942	106.88
346.17	108.88
346.397	102.88
346.625	103.88
346.853	107.88
347.08	110.88
347.308	86.88
347.535	100.88
347.763	89.88
347.99	89.88
348.218	101.88
348.445	98.88
348.673	125.88
348.9	120.88
349.128	115.88
349.355	102.88
349.583	92.88
349.81	109.88
350.037	108.88
350.265	117.88
350.492	106.88
350.72	113.88
350.947	110.88
351.174	101.88
351.402	109.88
351.629	111.88
351.856	122.88
352.083	102.88
352.311	108.88
352.538	106.88
352.765	105.88
352.992	113.88
353.22	102.88
353.447	111.88
353.674	95.88
353.901	106.88
354.128	105.88
354.355	94.88
354.583	105.88
354.81	99.88
355.037	93.88
355.264	111.88
355.491	97.88
355.718	97.88
355.945	101.88
356.172	124.88
356.399	103.88
356.626	108.88
356.853	110.88
357.08	112.88
357.307	91.88
357.534	97.88
357.761	93.88
357.988	110.88
358.215	111.88
358.441	106.88
358.668	109.88
358.895	111.88
359.122	100.88
359.349	97.88
359.576	114.88
359.802	113.88
360.029	99.88
360.256	122.88
360.483	113.88
360.709	98.88
360.936	101.88
361.163	108.88
361.39	110.88
361.616	115.88
361.843	110.88
362.07	106.88
362.296	110.88
362.523	96.88
362.749	116.88
362.976	107.88
363.203	113.88
363.429	105.88
363.656	109.88
363.882	108.88
364.109	117.88
364.335	98.88
364.562	90.88
364.788	113.88
365.015	101.88
365.241	121.88
365.468	173.88
365.694	234.88
365.92	193.88
366.147	113.88
366.373	108.88
366.599	104.88
366.826	99.88
367.052	98.88
367.278	100.88
367.505	83.88
367.731	95.88
367.957	95.88
368.184	95.88
368.41	114.88
368.636	113.88
368.862	101.88
369.089	104.88
369.315	109.88
369.541	106.88
369.767	110.88
369.993	107.88
370.219	107.88
370.445	101.88
370.672	100.88
370.898	103.88
371.124	115.88
371.35	117.88
371.576	93.88
371.802	109.88
372.028	116.88
372.254	101.88
372.48	106.88
372.706	108.88
372.932	103.88
373.158	111.88
373.384	120.88
373.61	110.88
373.835	117.88
374.061	105.88
374.287	98.88
374.513	113.88
374.739	115.88
374.965	106.88
375.191	110.88
375.416	103.88
375.642	104.88
375.868	113.88
376.094	102.88
376.319	99.88
376.545	102.88
376.771	107.88
376.997	108.88
377.222	112.88
377.448	109.88
377.674	106.88
377.899	96.88
378.125	110.88
378.35	112.88
378.576	117.88
378.802	125.88
379.027	122.88
379.253	150.88
379.478	169.88
379.704	281.88
379.929	681.88
380.155	1408.88
380.38	1485.88
380.606	493.88
380.831	195.88
381.057	125.88
381.282	113.88
381.507	95.88
381.733	115.88
381.958	115.88
382.184	105.88
382.409	100.88
382.634	109.88
382.86	99.88
383.085	103.88
383.31	102.88
383.535	106.88
383.761	108.88
383.986	110.88
384.211	107.88
384.436	110.88
384.662	98.88
384.887	109.88
385.112	114.88
385.337	119.88
385.562	113.88
385.787	94.88
386.013	124.88
386.238	102.88
386.463	90.88
386.688	108.88
386.913	108.88
387.138	107.88
387.363	102.88
387.588	99.88
387.813	113.88
388.038	98.88
388.263	99.88
388.488	95.88
388.713	105.88
388.938	105.88
389.163	107.88
389.387	106.88
389.612	116.88
389.837	109.88
390.062	130.88
390.287	105.88
390.512	95.88
390.736	98.88
390.961	90.88
391.186	92.88
391.411	96.88
391.636	111.88
391.86	99.88
392.085	113.88
392.31	101.88
392.534	104.88
392.759	106.88
392.984	94.88
393.208	93.88
393.433	156.88
393.658	123.88
393.882	107.88
394.107	97.88
394.331	91.88
394.556	79.88
394.78	92.88
395.005	98.88
395.229	102.88
395.454	117.88
395.678	114.88
395.903	115.88
396.127	106.88
396.352	99.88
396.576	107.88
396.801	128.88
397.025	123.88
397.249	110.88
397.474	93.88
397.698	111.88
397.922	102.88
398.147	90.88
398.371	110.88
398.595	86.88
398.82	103.88
399.044	88.88
399.268	97.88
399.492	106.88
399.717	102.88
399.941	115.88
400.165	99.88
400.389	93.88
400.613	104.88
400.837	106.88
401.062	104.88
401.286	103.88
401.51	98.88
401.734	92.88
401.958	93.88
402.182	105.88
402.406	107.88
402.63	105.88
402.854	93.88
403.078	96.88
403.302	107.88
403.526	114.88
403.75	104.88
403.974	91.88
404.198	111.88
404.422	103.88
404.645	92.88
404.869	108.88
405.093	96.88
405.317	105.88
405.541	92.88
405.765	119.88
405.988	161.88
406.212	119.88
406.436	103.88
406.66	98.88
406.883	88.88
407.107	83.88
407.331	95.88
407.555	92.88
407.778	102.88
408.002	100.88
408.226	101.88
408.449	103.88
408.673	90.88
408.896	88.88
409.12	105.88
409.344	93.88
409.567	92.88
409.791	108.88
410.014	121.88
410.238	115.88
410.461	101.88
410.685	91.88
410.908	87.88
411.132	103.88
411.355	110.88
411.578	88.88
411.802	107.88
412.025	87.88
412.249	96.88
412.472	94.88
412.695	100.88
412.919	89.88
413.142	96.88
413.365	102.88
413.589	108.88
413.812	108.88
414.035	101.88
414.258	103.88
414.482	94.88
414.705	99.88
414.928	112.88
415.151	104.88
415.374	106.88
415.597	114.88
415.821	107.88
416.044	93.88
416.267	103.88
416.49	83.88
416.713	104.88
416.936	106.88
417.159	91.88
417.382	90.88
417.605	100.88
417.828	100.88
418.051	95.88
418.274	99.88
418.497	101.88
418.72	99.88
418.943	107.88
419.166	119.88
419.389	99.88
419.611	107.88
419.834	98.88
420.057	97.88
420.28	96.88
420.503	98.88
420.726	99.88
420.948	95.88
421.171	97.88
421.394	91.88
421.617	82.88
421.839	85.88
422.062	101.88
422.285	84.88
422.507	105.88
422.73	111.88
422.953	133.88
423.175	116.88
423.398	98.88
423.621	94.88
423.843	81.88
424.066	95.88
424.288	90.88
424.511	98.88
424.733	95.88
424.956	91.88
425.178	109.88
425.401	109.88
425.623	96.88
425.846	98.88
426.068	89.88
426.291	98.88
426.513	99.88
426.735	94.88
426.958	104.88
427.18	88.88
427.402	97.88
427.625	95.88
427.847	95.88
428.069	103.88
428.292	106.88
428.514	104.88
428.736	93.88
428.958	95.88
429.181	90.88
429.403	106.88
429.625	95.88
429.847	109.88
430.069	108.88
430.292	108.88
430.514	105.88
430.736	102.88
430.958	86.88
431.18	89.88
431.402	100.88
431.624	98.88
431.846	92.88
432.068	99.88
432.29	92.88
432.512	99.88
432.734	99.88
432.956	92.88
433.178	114.88
433.4	101.88
433.622	87.88
433.844	108.88
434.066	103.88
434.287	86.88
434.509	87.88
434.731	90.88
434.953	95.88
435.175	81.88
435.397	89.88
435.618	103.88
435.84	85.88
436.062	97.88
436.284	97.88
436.505	98.88
436.727	98.88
436.949	91.88
437.17	94.88
437.392	86.88
437.614	96.88
437.835	94.88
438.057	99.88
438.278	90.88
438.5	87.88
438.721	99.88
438.943	104.88
439.165	116.88
439.386	123.88
439.608	118.88
439.829	122.88
440.05	125.88
440.272	115.88
440.493	104.88
440.715	99.88
440.936	101.88
441.158	97.88
441.379	103.88
441.6	97.88
441.822	87.88
442.043	115.88
442.264	129.88
442.486	109.88
442.707	107.88
442.928	98.88
443.149	83.88
443.371	93.88
443.592	106.88
443.813	106.88
444.034	97.88
444.255	97.88
444.476	104.88
444.698	97.88
444.919	102.88
445.14	229.88
445.361	150.88
445.582	99.88
445.803	88.88
446.024	98.88
446.245	104.88
446.466	102.88
446.687	109.88
446.908	109.88
447.129	90.88
447.35	89.88
447.571	91.88
447.792	97.88
448.013	103.88
448.234	93.88
448.455	104.88
448.675	101.88
448.896	98.88
449.117	123.88
449.338	129.88
449.559	146.88
449.779	117.88
450	109.88
450.221	98.88
450.442	121.88
450.662	117.88
450.883	115.88
451.104	106.88
451.324	129.88
451.545	119.88
451.766	125.88
451.986	124.88
452.207	213.88
452.428	484.88
452.648	1205.88
452.869	676.88
453.089	205.88
453.31	118.88
453.53	113.88
453.751	128.88
453.971	161.88
454.192	145.88
454.412	107.88
454.633	110.88
454.853	93.88
455.073	85.88
455.294	90.88
455.514	99.88
455.734	95.88
455.955	87.88
456.175	92.88
456.395	96.88
456.616	90.88
456.836	98.88
457.056	96.88
457.276	94.88
457.497	112.88
457.717	104.88
457.937	95.88
458.157	95.88
458.377	86.88
458.598	90.88
458.818	90.88
459.038	96.88
459.258	85.88
459.478	89.88
459.698	87.88
459.918	84.88
460.138	85.88
460.358	102.88
460.578	99.88
460.798	102.88
461.018	95.88
461.238	86.88
461.458	94.88
461.678	102.88
461.898	86.88
462.118	105.88
462.338	113.88
462.558	97.88
462.777	87.88
462.997	87.88
463.217	102.88
463.437	123.88
463.657	176.88
463.876	187.88
464.096	134.88
464.316	89.88
464.536	111.88
464.755	83.88
464.975	91.88
465.195	101.88
465.414	99.88
465.634	93.88
465.854	88.88
466.073	93.88
466.293	78.88
466.512	90.88
466.732	105.88
466.951	120.88
467.171	139.88
467.391	138.88
467.61	98.88
467.829	89.88
468.049	103.88
468.268	105.88
468.488	92.88
468.707	92.88
468.927	99.88
469.146	91.88
469.365	107.88
469.585	88.88
469.804	103.88
470.023	104.88
470.243	93.88
470.462	104.88
470.681	99.88
470.901	123.88
471.12	169.88
471.339	206.88
471.558	128.88
471.777	121.88
471.997	104.88
472.216	90.88
472.435	87.88
472.654	96.88
472.873	98.88
473.092	82.88
473.311	90.88
473.53	103.88
473.749	94.88
473.968	111.88
474.187	107.88
474.406	97.88
474.625	92.88
474.844	98.88
475.063	92.88
475.282	103.88
475.501	97.88
475.72	88.88
475.939	107.88
476.158	93.88
476.377	104.88
476.596	126.88
476.814	96.88
477.033	97.88
477.252	103.88
477.471	98.88
477.69	99.88
477.908	97.88
478.127	102.88
478.346	114.88
478.564	113.88
478.783	108.88
479.002	83.88
479.22	98.88
479.439	87.88
479.658	94.88
479.876	94.88
480.095	95.88
480.313	95.88
480.532	104.88
480.751	107.88
480.969	98.88
481.188	93.88
481.406	101.88
481.624	99.88
481.843	121.88
482.061	109.88
482.28	116.88
482.498	92.88
482.717	98.88
482.935	84.88
483.153	97.88
483.372	103.88
483.59	101.88
483.808	102.88
484.027	98.88
484.245	125.88
484.463	172.88
484.681	228.88
484.9	140.88
485.118	124.88
485.336	106.88
485.554	112.88
485.772	122.88
485.99	170.88
486.209	236.88
486.427	172.88
486.645	96.88
486.863	106.88
487.081	101.88
487.299	84.88
487.517	99.88
487.735	103.88
487.953	98.88
488.171	94.88
488.389	106.88
488.607	94.88
488.825	93.88
489.043	111.88
489.261	110.88
489.479	91.88
489.696	99.88
489.914	113.88
490.132	100.88
490.35	99.88
490.568	98.88
490.786	100.88
491.003	106.88
491.221	104.88
491.439	108.88
491.657	109.88
491.874	107.88
492.092	111.88
492.31	98.88
492.527	107.88
492.745	94.88
492.963	121.88
493.18	99.88
493.398	103.88
493.615	102.88
493.833	104.88
494.05	84.88
494.268	103.88
494.485	88.88
494.703	97.88
494.92	95.88
495.138	101.88
495.355	106.88
495.573	115.88
495.79	101.88
496.008	108.88
496.225	113.88
496.442	102.88
496.66	129.88
496.877	150.88
497.094	159.88
497.312	105.88
497.529	92.88
497.746	106.88
497.963	98.88
498.181	100.88
498.398	93.88
498.615	103.88
498.832	100.88
499.049	106.88
499.267	123.88
499.484	159.88
499.701	104.88
499.918	107.88
500.135	113.88
500.352	108.88
500.569	91.88
500.786	113.88
501.003	89.88
501.22	107.88
501.437	98.88
501.654	102.88
501.871	91.88
502.088	90.88
502.305	102.88
502.522	100.88
502.739	95.88
502.956	92.88
503.172	110.88
503.389	113.88
503.606	100.88
503.823	97.88
504.04	83.88
504.256	93.88
504.473	87.88
504.69	90.88
504.907	100.88
505.123	116.88
505.34	102.88
505.557	103.88
505.773	107.88
505.99	74.88
506.207	90.88
506.423	116.88
506.64	117.88
506.856	98.88
507.073	99.88
507.289	112.88
507.506	97.88
507.722	88.88
507.939	106.88
508.155	102.88
508.372	94.88
508.588	97.88
