Data from SnStandardFlinnAPT0064_LampEnergy10_LIBS07252019.E.O._I.C._HRD10591_15-22-05-494.txt Node
Date: Thu Jul 25 15:22:05 EDT 2019
User: cochatt
Spectrometer: HR+D1059
Trigger mode: 1
Integration Time (sec): 1.000000E-1
Scans to average: 1
Electric dark correction enabled: true
Nonlinearity correction enabled: false
Boxcar width: 0
XAxis mode: Wavelengths
Number of Pixels in Spectrum: 2048
>>>>>Begin Spectral Data<<<<<
223.165	-24.88
223.4	-24.88
223.635	-24.88
223.869	-11.88
224.104	-33.88
224.338	-11.88
224.573	-6.88
224.808	-18.88
225.042	-0.88
225.277	-5.88
225.511	15.12
225.746	-1.88
225.98	9.12
226.215	5.12
226.449	15.12
226.683	27.12
226.918	25.12
227.152	20.12
227.387	38.12
227.621	35.12
227.856	41.12
228.09	51.12
228.324	40.12
228.559	53.12
228.793	119.12
229.027	320.12
229.262	347.12
229.496	327.12
229.73	304.12
229.964	302.12
230.199	297.12
230.433	312.12
230.667	321.12
230.901	321.12
231.136	313.12
231.37	379.12
231.604	388.12
231.838	435.12
232.072	527.12
232.306	579.12
232.541	476.12
232.775	409.12
233.009	411.12
233.243	424.12
233.477	457.12
233.711	524.12
233.945	592.12
234.179	518.12
234.413	443.12
234.647	429.12
234.881	474.12
235.115	502.12
235.349	603.12
235.583	778.12
235.817	1016.12
236.051	977.12
236.285	640.12
236.519	527.12
236.753	498.12
236.987	509.12
237.221	552.12
237.455	492.12
237.689	472.12
237.922	465.12
238.156	449.12
238.39	489.12
238.624	497.12
238.858	476.12
239.091	478.12
239.325	524.12
239.559	487.12
239.793	512.12
240.027	509.12
240.26	547.12
240.494	556.12
240.728	582.12
240.961	608.12
241.195	673.12
241.429	694.12
241.662	707.12
241.896	768.12
242.13	945.12
242.363	1265.12
242.597	1635.12
242.83	1584.12
243.064	1570.12
243.298	1807.12
243.531	1544.12
243.765	979.12
243.998	782.12
244.232	688.12
244.465	670.12
244.699	639.12
244.932	670.12
245.166	645.12
245.399	685.12
245.633	681.12
245.866	687.12
246.099	673.12
246.333	671.12
246.566	656.12
246.8	632.12
247.033	627.12
247.266	630.12
247.5	650.12
247.733	685.12
247.966	721.12
248.2	754.12
248.433	885.12
248.666	995.12
248.899	959.12
249.133	849.12
249.366	881.12
249.599	966.12
249.832	1090.12
250.066	1115.12
250.299	857.12
250.532	797.12
250.765	757.12
250.998	715.12
251.231	737.12
251.465	736.12
251.698	725.12
251.931	732.12
252.164	758.12
252.397	777.12
252.63	756.12
252.863	829.12
253.096	784.12
253.329	770.12
253.562	790.12
253.795	792.12
254.028	801.12
254.261	832.12
254.494	872.12
254.727	1051.12
254.96	1229.12
255.193	1249.12
255.426	973.12
255.659	885.12
255.892	885.12
256.124	864.12
256.357	885.12
256.59	901.12
256.823	981.12
257.056	1097.12
257.289	1376.12
257.521	1503.12
257.754	1174.12
257.987	971.12
258.22	915.12
258.452	905.12
258.685	921.12
258.918	929.12
259.151	1009.12
259.383	1110.12
259.616	1236.12
259.849	1290.12
260.081	1111.12
260.314	1010.12
260.547	966.12
260.779	952.12
261.012	941.12
261.244	952.12
261.477	974.12
261.71	1011.12
261.942	1035.12
262.175	1013.12
262.407	1035.12
262.64	1046.12
262.872	1096.12
263.105	1141.12
263.337	1182.12
263.57	1267.12
263.802	1275.12
264.035	1299.12
264.267	1339.12
264.499	1374.12
264.732	1445.12
264.964	1437.12
265.197	1440.12
265.429	1481.12
265.661	1464.12
265.894	1620.12
266.126	1750.12
266.358	1983.12
266.591	1920.12
266.823	1645.12
267.055	1448.12
267.287	1367.12
267.52	1341.12
267.752	1343.12
267.984	1267.12
268.216	1256.12
268.448	1250.12
268.681	1229.12
268.913	1230.12
269.145	1243.12
269.377	1248.12
269.609	1260.12
269.841	1300.12
270.073	1397.12
270.306	1618.12
270.538	2192.12
270.77	3254.12
271.002	4020.12
271.234	2815.12
271.466	1885.12
271.698	1513.12
271.93	1384.12
272.162	1344.12
272.394	1299.12
272.626	1271.12
272.858	1261.12
273.09	1219.12
273.322	1218.12
273.553	1204.12
273.785	1186.12
274.017	1223.12
274.249	1199.12
274.481	1205.12
274.713	1205.12
274.945	1237.12
275.176	1221.12
275.408	1255.12
275.64	1235.12
275.872	1231.12
276.104	1261.12
276.335	1301.12
276.567	1315.12
276.799	1264.12
277.031	1315.12
277.262	1316.12
277.494	1404.12
277.726	1573.12
277.957	1896.12
278.189	2173.12
278.421	2019.12
278.652	1782.12
278.884	1684.12
279.115	1525.12
279.347	1444.12
279.579	1423.12
279.81	1417.12
280.042	1414.12
280.273	1440.12
280.505	1448.12
280.736	1470.12
280.968	1583.12
281.199	1832.12
281.431	2066.12
281.662	2104.12
281.894	1776.12
282.125	1647.12
282.356	1623.12
282.588	1664.12
282.819	1714.12
283.051	1829.12
283.282	2049.12
283.513	2516.12
283.745	3585.12
283.976	5759.12
284.207	8216.12
284.439	7405.12
284.67	4622.12
284.901	3789.12
285.132	3837.12
285.364	3623.12
285.595	2673.12
285.826	2449.12
286.057	2860.12
286.288	3940.12
286.52	5243.12
286.751	4925.12
286.982	3045.12
287.213	2268.12
287.444	1987.12
287.675	1866.12
287.906	1789.12
288.138	1730.12
288.369	1720.12
288.6	1709.12
288.831	1701.12
289.062	1692.12
289.293	1687.12
289.524	1707.12
289.755	1723.12
289.986	1721.12
290.217	1709.12
290.448	1687.12
290.679	1739.12
290.91	1790.12
291.141	1938.12
291.371	2083.12
291.602	2160.12
291.833	1999.12
292.064	1764.12
292.295	1685.12
292.526	1666.12
292.757	1656.12
292.987	1559.12
293.218	1602.12
293.449	1597.12
293.68	1594.12
293.91	1584.12
294.141	1592.12
294.372	1590.12
294.603	1569.12
294.833	1571.12
295.064	1562.12
295.295	1590.12
295.525	1583.12
295.756	1575.12
295.987	1560.12
296.217	1557.12
296.448	1579.12
296.679	1580.12
296.909	1565.12
297.14	1600.12
297.37	1632.12
297.601	1644.12
297.831	1616.12
298.062	1654.12
298.292	1681.12
298.523	1704.12
298.753	1696.12
298.984	1714.12
299.214	1732.12
299.445	1750.12
299.675	1781.12
299.905	1824.12
300.136	1912.12
300.366	2220.12
300.597	2787.12
300.827	3932.12
301.057	5345.12
301.288	5306.12
301.518	3356.12
301.748	2550.12
301.979	2349.12
302.209	2295.12
302.439	2292.12
302.669	2459.12
302.9	2991.12
303.13	4301.12
303.36	6311.12
303.59	8477.12
303.82	7287.12
304.051	4237.12
304.281	3064.12
304.511	2563.12
304.741	2347.12
304.971	2196.12
305.201	2142.12
305.431	2088.12
305.661	1971.12
305.891	1864.12
306.121	1890.12
306.352	1900.12
306.582	1860.12
306.812	1814.12
307.042	1864.12
307.272	1831.12
307.502	1815.12
307.731	1846.12
307.961	1852.12
308.191	1847.12
308.421	1839.12
308.651	1837.12
308.881	1788.12
309.111	1816.12
309.341	1841.12
309.571	1862.12
309.8	1874.12
310.03	1855.12
310.26	1904.12
310.49	1860.12
310.72	1856.12
310.949	1838.12
311.179	1899.12
311.409	1907.12
311.639	1953.12
311.868	1912.12
312.098	1938.12
312.328	1960.12
312.557	1978.12
312.787	2009.12
313.017	1982.12
313.246	2008.12
313.476	2015.12
313.706	2126.12
313.935	2219.12
314.165	2448.12
314.394	2525.12
314.624	2377.12
314.853	2191.12
315.083	2182.12
315.312	2190.12
315.542	2152.12
315.771	2244.12
316.001	2255.12
316.23	2342.12
316.46	2449.12
316.689	2689.12
316.919	3210.12
317.148	4702.12
317.377	7251.12
317.607	10690.12
317.836	11068.12
318.065	6649.12
318.295	4267.12
318.524	3398.12
318.753	2950.12
318.983	2748.12
319.212	2566.12
319.441	2516.12
319.67	2443.12
319.9	2324.12
320.129	2405.12
320.358	2345.12
320.587	2347.12
320.816	2393.12
321.046	2333.12
321.275	2365.12
321.504	2393.12
321.733	2448.12
321.962	2537.12
322.191	2608.12
322.42	2490.12
322.649	2535.12
322.878	2517.12
323.108	2508.12
323.337	2590.12
323.566	2542.12
323.795	2645.12
324.024	2687.12
324.253	2731.12
324.482	2820.12
324.71	2997.12
324.939	3197.12
325.168	3331.12
325.397	3387.12
325.626	4086.12
325.855	5757.12
326.084	8896.12
326.313	12895.12
326.542	13564.12
326.77	9159.12
326.999	5970.12
327.228	4971.12
327.457	4822.12
327.686	4836.12
327.914	5135.12
328.143	6037.12
328.372	7222.12
328.6	7748.12
328.829	6955.12
329.058	5821.12
329.287	5024.12
329.515	4607.12
329.744	4257.12
329.972	4021.12
330.201	3852.12
330.43	3767.12
330.658	3659.12
330.887	3577.12
331.115	3521.12
331.344	3541.12
331.572	3503.12
331.801	3505.12
332.03	3510.12
332.258	3611.12
332.486	3830.12
332.715	4306.12
332.943	5449.12
333.172	6729.12
333.4	6681.12
333.629	5070.12
333.857	4516.12
334.085	4505.12
334.314	4771.12
334.542	5151.12
334.771	5982.12
334.999	7441.12
335.227	9369.12
335.455	10445.12
335.684	9288.12
335.912	7703.12
336.14	6492.12
336.369	5701.12
336.597	5235.12
336.825	4875.12
337.053	4516.12
337.281	4248.12
337.51	4031.12
337.738	3847.12
337.966	3761.12
338.194	3623.12
338.422	3511.12
338.65	3422.12
338.878	3343.12
339.106	3312.12
339.334	3264.12
339.562	3141.12
339.79	3108.12
340.018	3046.12
340.246	3093.12
340.474	3111.12
340.702	3064.12
340.93	3123.12
341.158	3065.12
341.386	2997.12
341.614	3025.12
341.842	2957.12
342.07	2903.12
342.298	2848.12
342.526	2799.12
342.754	2767.12
342.981	2801.12
343.209	2715.12
343.437	2820.12
343.665	2852.12
343.893	2873.12
344.12	2869.12
344.348	2846.12
344.576	2757.12
344.804	2739.12
345.031	2673.12
345.259	2639.12
345.487	2605.12
345.714	2605.12
345.942	2559.12
346.17	2594.12
346.397	2556.12
346.625	2597.12
346.853	2532.12
347.08	2543.12
347.308	2583.12
347.535	2572.12
347.763	2558.12
347.99	2515.12
348.218	2489.12
348.445	2466.12
348.673	2459.12
348.9	2470.12
349.128	2452.12
349.355	2454.12
349.583	2452.12
349.81	2448.12
350.037	2440.12
350.265	2428.12
350.492	2423.12
350.72	2408.12
350.947	2402.12
351.174	2408.12
351.402	2429.12
351.629	2429.12
351.856	2445.12
352.083	2378.12
352.311	2361.12
352.538	2373.12
352.765	2423.12
352.992	2383.12
353.22	2409.12
353.447	2392.12
353.674	2406.12
353.901	2396.12
354.128	2387.12
354.355	2454.12
354.583	2455.12
354.81	2451.12
355.037	2443.12
355.264	2480.12
355.491	2462.12
355.718	2475.12
355.945	2490.12
356.172	2460.12
356.399	2448.12
356.626	2507.12
356.853	2527.12
357.08	2501.12
357.307	2546.12
357.534	2637.12
357.761	2587.12
357.988	2607.12
358.215	2583.12
358.441	2613.12
358.668	2562.12
358.895	2525.12
359.122	2504.12
359.349	2548.12
359.576	2591.12
359.802	2573.12
360.029	2539.12
360.256	2579.12
360.483	2588.12
360.709	2575.12
360.936	2635.12
361.163	2662.12
361.39	2567.12
361.616	2589.12
361.843	2633.12
362.07	2631.12
362.296	2613.12
362.523	2583.12
362.749	2598.12
362.976	2583.12
363.203	2579.12
363.429	2552.12
363.656	2550.12
363.882	2583.12
364.109	2572.12
364.335	2554.12
364.562	2555.12
364.788	2610.12
365.015	2631.12
365.241	2679.12
365.468	2833.12
365.694	2949.12
365.92	2843.12
366.147	2655.12
366.373	2654.12
366.599	2635.12
366.826	2577.12
367.052	2673.12
367.278	2629.12
367.505	2575.12
367.731	2657.12
367.957	2603.12
368.184	2619.12
368.41	2694.12
368.636	2711.12
368.862	2685.12
369.089	2703.12
369.315	2654.12
369.541	2641.12
369.767	2660.12
369.993	2671.12
370.219	2633.12
370.445	2654.12
370.672	2710.12
370.898	2715.12
371.124	2719.12
371.35	2769.12
371.576	2739.12
371.802	2853.12
372.028	2760.12
372.254	2811.12
372.48	2735.12
372.706	2805.12
372.932	2816.12
373.158	2801.12
373.384	2853.12
373.61	2831.12
373.835	2847.12
374.061	2861.12
374.287	2881.12
374.513	2918.12
374.739	2932.12
374.965	2939.12
375.191	2928.12
375.416	2911.12
375.642	2863.12
375.868	2838.12
376.094	2824.12
376.319	2773.12
376.545	2815.12
376.771	2779.12
376.997	2781.12
377.222	2801.12
377.448	2759.12
377.674	2746.12
377.899	2732.12
378.125	2724.12
378.35	2754.12
378.576	2787.12
378.802	2806.12
379.027	2829.12
379.253	2917.12
379.478	3086.12
379.704	3704.12
379.929	5246.12
380.155	8150.12
380.38	8743.12
380.606	5375.12
380.831	3696.12
381.057	3245.12
381.282	2989.12
381.507	2904.12
381.733	2835.12
381.958	2753.12
382.184	2798.12
382.409	2724.12
382.634	2694.12
382.86	2716.12
383.085	2708.12
383.31	2692.12
383.535	2732.12
383.761	2735.12
383.986	2746.12
384.211	2733.12
384.436	2736.12
384.662	2788.12
384.887	2845.12
385.112	2735.12
385.337	2846.12
385.562	2847.12
385.787	2823.12
386.013	2744.12
386.238	2817.12
386.463	2803.12
386.688	2822.12
386.913	2843.12
387.138	2815.12
387.363	2780.12
387.588	2755.12
387.813	2776.12
388.038	2758.12
388.263	2799.12
388.488	2849.12
388.713	2792.12
388.938	2827.12
389.163	2739.12
389.387	2814.12
389.612	2822.12
389.837	2800.12
390.062	2793.12
390.287	2894.12
390.512	2845.12
390.736	2817.12
390.961	2906.12
391.186	2908.12
391.411	2969.12
391.636	2936.12
391.86	2960.12
392.085	2914.12
392.31	2925.12
392.534	2959.12
392.759	2881.12
392.984	2864.12
393.208	2896.12
393.433	2946.12
393.658	2897.12
393.882	2821.12
394.107	2826.12
394.331	2814.12
394.556	2844.12
394.78	2893.12
395.005	2864.12
395.229	2852.12
395.454	2920.12
395.678	2944.12
395.903	2871.12
396.127	2938.12
396.352	2919.12
396.576	2863.12
396.801	2878.12
397.025	2952.12
397.249	2940.12
397.474	2925.12
397.698	2939.12
397.922	3029.12
398.147	2941.12
398.371	2951.12
398.595	3083.12
398.82	3119.12
399.044	3281.12
399.268	3356.12
399.492	3579.12
399.717	3720.12
399.941	3741.12
400.165	3563.12
400.389	3387.12
400.613	3358.12
400.837	3229.12
401.062	3168.12
401.286	3127.12
401.51	3132.12
401.734	3099.12
401.958	3120.12
402.182	3105.12
402.406	3072.12
402.63	3105.12
402.854	3138.12
403.078	3159.12
403.302	3207.12
403.526	3179.12
403.75	3226.12
403.974	3185.12
404.198	3184.12
404.422	3287.12
404.645	3192.12
404.869	3189.12
405.093	3274.12
405.317	3195.12
405.541	3261.12
405.765	3280.12
405.988	3336.12
406.212	3322.12
406.436	3259.12
406.66	3396.12
406.883	3338.12
407.107	3451.12
407.331	3421.12
407.555	3545.12
407.778	3493.12
408.002	3472.12
408.226	3474.12
408.449	3449.12
408.673	3383.12
408.896	3309.12
409.12	3243.12
409.344	3248.12
409.567	3193.12
409.791	3227.12
410.014	3200.12
410.238	3185.12
410.461	3205.12
410.685	3165.12
410.908	3187.12
411.132	3155.12
411.355	3080.12
411.578	3095.12
411.802	3093.12
412.025	3088.12
412.249	3114.12
412.472	3075.12
412.695	3052.12
412.919	3013.12
413.142	3054.12
413.365	3061.12
413.589	3059.12
413.812	3052.12
414.035	3041.12
414.258	3033.12
414.482	3007.12
414.705	3103.12
414.928	3016.12
415.151	3012.12
415.374	3008.12
415.597	2964.12
415.821	2931.12
416.044	2883.12
416.267	2932.12
416.49	2913.12
416.713	2847.12
416.936	2905.12
417.159	2882.12
417.382	2842.12
417.605	2835.12
417.828	2897.12
418.051	2947.12
418.274	2905.12
418.497	2943.12
418.72	2997.12
418.943	2950.12
419.166	3055.12
419.389	3243.12
419.611	3187.12
419.834	3108.12
420.057	3064.12
420.28	2992.12
420.503	2953.12
420.726	2866.12
420.948	2905.12
421.171	2849.12
421.394	2915.12
421.617	2939.12
421.839	2969.12
422.062	2948.12
422.285	2913.12
422.507	2980.12
422.73	2964.12
422.953	2996.12
423.175	3033.12
423.398	2978.12
423.621	2964.12
423.843	2899.12
424.066	2916.12
424.288	2924.12
424.511	2875.12
424.733	2923.12
424.956	2867.12
425.178	2839.12
425.401	2899.12
425.623	2871.12
425.846	2797.12
426.068	2835.12
426.291	2819.12
426.513	2814.12
426.735	2801.12
426.958	2819.12
427.18	2758.12
427.402	2766.12
427.625	2762.12
427.847	2685.12
428.069	2687.12
428.292	2736.12
428.514	2696.12
428.736	2705.12
428.958	2683.12
429.181	2651.12
429.403	2665.12
429.625	2636.12
429.847	2688.12
430.069	2683.12
430.292	2823.12
430.514	2899.12
430.736	2912.12
430.958	2728.12
431.18	2695.12
431.402	2699.12
431.624	2599.12
431.846	2635.12
432.068	2683.12
432.29	2646.12
432.512	2614.12
432.734	2662.12
432.956	2656.12
433.178	2656.12
433.4	2674.12
433.622	2651.12
433.844	2708.12
434.066	2683.12
434.287	2661.12
434.509	2714.12
434.731	2771.12
434.953	2785.12
435.175	2767.12
435.397	2796.12
435.618	2698.12
435.84	2703.12
436.062	2655.12
436.284	2615.12
436.505	2645.12
436.727	2651.12
436.949	2683.12
437.17	2629.12
437.392	2641.12
437.614	2592.12
437.835	2543.12
438.057	2574.12
438.278	2579.12
438.5	2562.12
438.721	2624.12
438.943	2655.12
439.165	2750.12
439.386	2805.12
439.608	2725.12
439.829	2755.12
440.05	2847.12
440.272	2877.12
440.493	2760.12
440.715	2751.12
440.936	2713.12
441.158	2756.12
441.379	2772.12
441.6	2902.12
441.822	2991.12
442.043	3132.12
442.264	3245.12
442.486	2995.12
442.707	2873.12
442.928	2850.12
443.149	2855.12
443.371	2883.12
443.592	2853.12
443.813	2859.12
444.034	2903.12
444.255	2913.12
444.476	2948.12
444.698	3009.12
444.919	3024.12
445.14	3137.12
445.361	2998.12
445.582	2953.12
445.803	2862.12
446.024	2784.12
446.245	2819.12
446.466	2792.12
446.687	2834.12
446.908	2764.12
447.129	2701.12
447.35	2707.12
447.571	2646.12
447.792	2603.12
448.013	2624.12
448.234	2600.12
448.455	2589.12
448.675	2627.12
448.896	2755.12
449.117	2801.12
449.338	3042.12
449.559	3190.12
449.779	2844.12
450	2649.12
450.221	2623.12
450.442	2600.12
450.662	2526.12
450.883	2540.12
451.104	2561.12
451.324	2571.12
451.545	2567.12
451.766	2583.12
451.986	2630.12
452.207	2870.12
452.428	3736.12
452.648	5649.12
452.869	4611.12
453.089	3183.12
453.31	2976.12
453.53	2996.12
453.751	3062.12
453.971	3240.12
454.192	3179.12
454.412	2748.12
454.633	2557.12
454.853	2511.12
455.073	2488.12
455.294	2453.12
455.514	2446.12
455.734	2421.12
455.955	2467.12
456.175	2464.12
456.395	2422.12
456.616	2422.12
456.836	2496.12
457.056	2473.12
457.276	2529.12
457.497	2685.12
457.717	2663.12
457.937	2591.12
458.157	2575.12
458.377	2581.12
458.598	2613.12
458.818	2613.12
459.038	2638.12
459.258	2640.12
459.478	2636.12
459.698	2745.12
459.918	2721.12
460.138	2811.12
460.358	2869.12
460.578	2849.12
460.798	2923.12
461.018	2910.12
461.238	2894.12
461.458	2924.12
461.678	2955.12
461.898	3023.12
462.118	3031.12
462.338	3085.12
462.558	3095.12
462.777	3154.12
462.997	3275.12
463.217	3415.12
463.437	3550.12
463.657	3614.12
463.876	3574.12
464.096	3394.12
464.316	3243.12
464.536	3136.12
464.755	3125.12
464.975	3015.12
465.195	2873.12
465.414	2861.12
465.634	2767.12
465.854	2761.12
466.073	2745.12
466.293	2718.12
466.512	2648.12
466.732	2719.12
466.951	2854.12
467.171	3055.12
467.391	2943.12
467.61	2743.12
467.829	2656.12
468.049	2677.12
468.268	2570.12
468.488	2597.12
468.707	2609.12
468.927	2607.12
469.146	2597.12
469.365	2654.12
469.585	2651.12
469.804	2705.12
470.023	2813.12
470.243	2803.12
470.462	2900.12
470.681	3051.12
470.901	3313.12
471.12	3900.12
471.339	3797.12
471.558	3168.12
471.777	2917.12
471.997	2791.12
472.216	2676.12
472.435	2679.12
472.654	2656.12
472.873	2594.12
473.092	2626.12
473.311	2589.12
473.53	2649.12
473.749	2733.12
473.968	2826.12
474.187	2667.12
474.406	2589.12
474.625	2631.12
474.844	2682.12
475.063	2653.12
475.282	2649.12
475.501	2664.12
475.72	2703.12
475.939	2655.12
476.158	2783.12
476.377	2828.12
476.596	2808.12
476.814	2797.12
477.033	2795.12
477.252	2784.12
477.471	2847.12
477.69	2918.12
477.908	2904.12
478.127	2962.12
478.346	2977.12
478.564	3062.12
478.783	3064.12
479.002	3133.12
479.22	3134.12
479.439	3125.12
479.658	3159.12
479.876	3159.12
480.095	3166.12
480.313	3220.12
480.532	3295.12
480.751	3272.12
480.969	3232.12
481.188	3246.12
481.406	3182.12
481.624	3203.12
481.843	3217.12
482.061	3254.12
482.28	3153.12
482.498	3195.12
482.717	3157.12
482.935	3251.12
483.153	3296.12
483.372	3312.12
483.59	3333.12
483.808	3367.12
484.027	3476.12
484.245	3689.12
484.463	4093.12
484.681	4573.12
484.9	4125.12
485.118	3881.12
485.336	3807.12
485.554	3816.12
485.772	4102.12
485.99	4569.12
486.209	4943.12
486.427	4193.12
486.645	3657.12
486.863	3613.12
487.081	3485.12
487.299	3406.12
487.517	3407.12
487.735	3393.12
