Data from SnStandardFlinnAPT0064_LampEnergy10_LIBS07252019.E.O._I.C._HRD10591_15-20-24-493.txt Node
Date: Thu Jul 25 15:20:24 EDT 2019
User: cochatt
Spectrometer: HR+D1059
Trigger mode: 1
Integration Time (sec): 1.000000E-1
Scans to average: 1
Electric dark correction enabled: true
Nonlinearity correction enabled: false
Boxcar width: 0
XAxis mode: Wavelengths
Number of Pixels in Spectrum: 2048
>>>>>Begin Spectral Data<<<<<
223.165	-12.25
223.4	-12.25
223.635	-12.25
223.869	-27.25
224.104	-8.25
224.338	-8.25
224.573	-17.25
224.808	-21.25
225.042	-16.25
225.277	1.75
225.511	-11.25
225.746	-0.25
225.98	5.75
226.215	13.75
226.449	14.75
226.683	25.75
226.918	25.75
227.152	34.75
227.387	38.75
227.621	39.75
227.856	49.75
228.09	63.75
228.324	55.75
228.559	60.75
228.793	133.75
229.027	307.75
229.262	332.75
229.496	299.75
229.73	299.75
229.964	288.75
230.199	293.75
230.433	287.75
230.667	315.75
230.901	324.75
231.136	347.75
231.37	346.75
231.604	398.75
231.838	467.75
232.072	542.75
232.306	588.75
232.541	474.75
232.775	427.75
233.009	436.75
233.243	421.75
233.477	460.75
233.711	533.75
233.945	582.75
234.179	528.75
234.413	462.75
234.647	455.75
234.881	455.75
235.115	523.75
235.349	616.75
235.583	778.75
235.817	1033.75
236.051	1020.75
236.285	664.75
236.519	542.75
236.753	493.75
236.987	491.75
237.221	541.75
237.455	522.75
237.689	471.75
237.922	458.75
238.156	473.75
238.39	485.75
238.624	497.75
238.858	497.75
239.091	490.75
239.325	461.75
239.559	481.75
239.793	515.75
240.027	538.75
240.26	535.75
240.494	558.75
240.728	580.75
240.961	606.75
241.195	645.75
241.429	685.75
241.662	704.75
241.896	787.75
242.13	964.75
242.363	1269.75
242.597	1632.75
242.83	1579.75
243.064	1578.75
243.298	1889.75
243.531	1533.75
243.765	995.75
243.998	798.75
244.232	719.75
244.465	669.75
244.699	645.75
244.932	650.75
245.166	657.75
245.399	682.75
245.633	674.75
245.866	679.75
246.099	663.75
246.333	659.75
246.566	647.75
246.8	622.75
247.033	645.75
247.266	653.75
247.5	656.75
247.733	687.75
247.966	706.75
248.2	770.75
248.433	900.75
248.666	1033.75
248.899	980.75
249.133	863.75
249.366	865.75
249.599	956.75
249.832	1091.75
250.066	1111.75
250.299	867.75
250.532	785.75
250.765	741.75
250.998	736.75
251.231	729.75
251.465	713.75
251.698	723.75
251.931	740.75
252.164	739.75
252.397	743.75
252.63	789.75
252.863	815.75
253.096	779.75
253.329	770.75
253.562	748.75
253.795	781.75
254.028	795.75
254.261	851.75
254.494	866.75
254.727	1047.75
254.96	1247.75
255.193	1220.75
255.426	974.75
255.659	884.75
255.892	853.75
256.124	856.75
256.357	900.75
256.59	910.75
256.823	993.75
257.056	1118.75
257.289	1390.75
257.521	1516.75
257.754	1207.75
257.987	958.75
258.22	909.75
258.452	901.75
258.685	927.75
258.918	954.75
259.151	1007.75
259.383	1101.75
259.616	1212.75
259.849	1290.75
260.081	1088.75
260.314	982.75
260.547	983.75
260.779	919.75
261.012	919.75
261.244	956.75
261.477	984.75
261.71	985.75
261.942	967.75
262.175	985.75
262.407	1026.75
262.64	1022.75
262.872	1087.75
263.105	1107.75
263.337	1166.75
263.57	1266.75
263.802	1270.75
264.035	1287.75
264.267	1301.75
264.499	1343.75
264.732	1437.75
264.964	1378.75
265.197	1417.75
265.429	1421.75
265.661	1419.75
265.894	1525.75
266.126	1722.75
266.358	1941.75
266.591	1917.75
266.823	1593.75
267.055	1415.75
267.287	1378.75
267.52	1299.75
267.752	1291.75
267.984	1257.75
268.216	1243.75
268.448	1209.75
268.681	1207.75
268.913	1225.75
269.145	1201.75
269.377	1245.75
269.609	1266.75
269.841	1284.75
270.073	1332.75
270.306	1582.75
270.538	2177.75
270.77	3289.75
271.002	4019.75
271.234	2843.75
271.466	1910.75
271.698	1545.75
271.93	1417.75
272.162	1315.75
272.394	1274.75
272.626	1238.75
272.858	1206.75
273.09	1193.75
273.322	1213.75
273.553	1204.75
273.785	1189.75
274.017	1191.75
274.249	1179.75
274.481	1185.75
274.713	1205.75
274.945	1163.75
275.176	1244.75
275.408	1230.75
275.64	1244.75
275.872	1205.75
276.104	1244.75
276.335	1254.75
276.567	1258.75
276.799	1257.75
277.031	1283.75
277.262	1344.75
277.494	1420.75
277.726	1589.75
277.957	1883.75
278.189	2144.75
278.421	2037.75
278.652	1787.75
278.884	1661.75
279.115	1493.75
279.347	1421.75
279.579	1395.75
279.81	1400.75
280.042	1378.75
280.273	1429.75
280.505	1415.75
280.736	1487.75
280.968	1590.75
281.199	1766.75
281.431	2028.75
281.662	2126.75
281.894	1800.75
282.125	1660.75
282.356	1663.75
282.588	1692.75
282.819	1676.75
283.051	1823.75
283.282	2017.75
283.513	2530.75
283.745	3634.75
283.976	5801.75
284.207	8198.75
284.439	7569.75
284.67	4645.75
284.901	3837.75
285.132	3889.75
285.364	3716.75
285.595	2772.75
285.826	2472.75
286.057	2892.75
286.288	4036.75
286.52	5438.75
286.751	5008.75
286.982	3139.75
287.213	2309.75
287.444	2019.75
287.675	1882.75
287.906	1796.75
288.138	1719.75
288.369	1668.75
288.6	1676.75
288.831	1657.75
289.062	1679.75
289.293	1665.75
289.524	1647.75
289.755	1723.75
289.986	1682.75
290.217	1704.75
290.448	1693.75
290.679	1736.75
290.91	1772.75
291.141	1853.75
291.371	2020.75
291.602	2165.75
291.833	1977.75
292.064	1767.75
292.295	1670.75
292.526	1659.75
292.757	1611.75
292.987	1559.75
293.218	1590.75
293.449	1573.75
293.68	1549.75
293.91	1553.75
294.141	1523.75
294.372	1516.75
294.603	1563.75
294.833	1565.75
295.064	1525.75
295.295	1558.75
295.525	1563.75
295.756	1556.75
295.987	1549.75
296.217	1589.75
296.448	1575.75
296.679	1546.75
296.909	1585.75
297.14	1595.75
297.37	1618.75
297.601	1628.75
297.831	1619.75
298.062	1606.75
298.292	1581.75
298.523	1638.75
298.753	1677.75
298.984	1683.75
299.214	1721.75
299.445	1713.75
299.675	1765.75
299.905	1843.75
300.136	1921.75
300.366	2175.75
300.597	2745.75
300.827	3962.75
301.057	5503.75
301.288	5420.75
301.518	3489.75
301.748	2588.75
301.979	2402.75
302.209	2278.75
302.439	2305.75
302.669	2445.75
302.9	2976.75
303.13	4239.75
303.36	6397.75
303.59	8511.75
303.82	7446.75
304.051	4261.75
304.281	3082.75
304.511	2547.75
304.741	2354.75
304.971	2209.75
305.201	2079.75
305.431	1994.75
305.661	1921.75
305.891	1932.75
306.121	1880.75
306.352	1901.75
306.582	1837.75
306.812	1834.75
307.042	1836.75
307.272	1837.75
307.502	1818.75
307.731	1842.75
307.961	1812.75
308.191	1798.75
308.421	1772.75
308.651	1801.75
308.881	1811.75
309.111	1807.75
309.341	1795.75
309.571	1831.75
309.8	1812.75
310.03	1839.75
310.26	1836.75
310.49	1848.75
310.72	1849.75
310.949	1858.75
311.179	1856.75
311.409	1877.75
311.639	1886.75
311.868	1905.75
312.098	1881.75
312.328	1913.75
312.557	1913.75
312.787	1952.75
313.017	1975.75
313.246	1987.75
313.476	1990.75
313.706	2011.75
313.935	2230.75
314.165	2330.75
314.394	2550.75
314.624	2369.75
314.853	2171.75
315.083	2113.75
315.312	2153.75
315.542	2195.75
315.771	2201.75
316.001	2223.75
316.23	2303.75
316.46	2377.75
316.689	2693.75
316.919	3261.75
317.148	4747.75
317.377	7323.75
317.607	10817.75
317.836	11209.75
318.065	6741.75
318.295	4348.75
318.524	3406.75
318.753	3020.75
318.983	2766.75
319.212	2605.75
319.441	2540.75
319.67	2406.75
319.9	2382.75
320.129	2379.75
320.358	2325.75
320.587	2303.75
320.816	2340.75
321.046	2320.75
321.275	2337.75
321.504	2346.75
321.733	2463.75
321.962	2497.75
322.191	2475.75
322.42	2479.75
322.649	2477.75
322.878	2435.75
323.108	2488.75
323.337	2501.75
323.566	2505.75
323.795	2574.75
324.024	2610.75
324.253	2715.75
324.482	2807.75
324.71	3038.75
324.939	3234.75
325.168	3300.75
325.397	3433.75
325.626	4071.75
325.855	5653.75
326.084	9023.75
326.313	12930.75
326.542	13689.75
326.77	9378.75
326.999	5950.75
327.228	5036.75
327.457	4785.75
327.686	4843.75
327.914	5139.75
328.143	5909.75
328.372	6998.75
328.6	7754.75
328.829	6908.75
329.058	5791.75
329.287	5078.75
329.515	4569.75
329.744	4227.75
329.972	4013.75
330.201	3835.75
330.43	3703.75
330.658	3554.75
330.887	3574.75
331.115	3452.75
331.344	3487.75
331.572	3477.75
331.801	3426.75
332.03	3511.75
332.258	3565.75
332.486	3709.75
332.715	4330.75
332.943	5316.75
333.172	6713.75
333.4	6716.75
333.629	4974.75
333.857	4478.75
334.085	4479.75
334.314	4647.75
334.542	5080.75
334.771	5915.75
334.999	7307.75
335.227	9179.75
335.455	10329.75
335.684	9320.75
335.912	7657.75
336.14	6434.75
336.369	5668.75
336.597	5163.75
336.825	4747.75
337.053	4513.75
337.281	4229.75
337.51	3956.75
337.738	3844.75
337.966	3668.75
338.194	3526.75
338.422	3448.75
338.65	3259.75
338.878	3267.75
339.106	3202.75
339.334	3204.75
339.562	3112.75
339.79	3043.75
340.018	3035.75
340.246	3039.75
340.474	2970.75
340.702	2961.75
340.93	2992.75
341.158	2981.75
341.386	2967.75
341.614	2934.75
341.842	2834.75
342.07	2796.75
342.298	2753.75
342.526	2723.75
342.754	2725.75
342.981	2662.75
343.209	2676.75
343.437	2739.75
343.665	2750.75
343.893	2785.75
344.12	2771.75
344.348	2726.75
344.576	2664.75
344.804	2649.75
345.031	2608.75
345.259	2604.75
345.487	2532.75
345.714	2532.75
345.942	2503.75
346.17	2500.75
346.397	2552.75
346.625	2496.75
346.853	2505.75
347.08	2526.75
347.308	2541.75
347.535	2505.75
347.763	2509.75
347.99	2467.75
348.218	2473.75
348.445	2432.75
348.673	2440.75
348.9	2430.75
349.128	2465.75
349.355	2401.75
349.583	2415.75
349.81	2353.75
350.037	2383.75
350.265	2371.75
350.492	2352.75
350.72	2403.75
350.947	2332.75
351.174	2408.75
351.402	2407.75
351.629	2388.75
351.856	2365.75
352.083	2357.75
352.311	2356.75
352.538	2347.75
352.765	2327.75
352.992	2311.75
353.22	2328.75
353.447	2315.75
353.674	2381.75
353.901	2388.75
354.128	2339.75
354.355	2358.75
354.583	2357.75
354.81	2405.75
355.037	2403.75
355.264	2403.75
355.491	2439.75
355.718	2398.75
355.945	2402.75
356.172	2429.75
356.399	2405.75
356.626	2463.75
356.853	2509.75
357.08	2497.75
357.307	2484.75
357.534	2529.75
357.761	2520.75
357.988	2564.75
358.215	2521.75
358.441	2525.75
358.668	2514.75
358.895	2517.75
359.122	2483.75
359.349	2485.75
359.576	2478.75
359.802	2481.75
360.029	2468.75
360.256	2497.75
360.483	2503.75
360.709	2482.75
360.936	2489.75
361.163	2511.75
361.39	2524.75
361.616	2525.75
361.843	2554.75
362.07	2496.75
362.296	2503.75
362.523	2560.75
362.749	2501.75
362.976	2475.75
363.203	2469.75
363.429	2468.75
363.656	2498.75
363.882	2516.75
364.109	2517.75
364.335	2459.75
364.562	2532.75
364.788	2545.75
365.015	2536.75
365.241	2619.75
365.468	2798.75
365.694	2895.75
365.92	2830.75
366.147	2615.75
366.373	2569.75
366.599	2540.75
366.826	2561.75
367.052	2563.75
367.278	2612.75
367.505	2492.75
367.731	2596.75
367.957	2591.75
368.184	2604.75
368.41	2632.75
368.636	2652.75
368.862	2638.75
369.089	2620.75
369.315	2588.75
369.541	2599.75
369.767	2619.75
369.993	2593.75
370.219	2574.75
370.445	2598.75
370.672	2604.75
370.898	2627.75
371.124	2663.75
371.35	2676.75
371.576	2652.75
371.802	2740.75
372.028	2668.75
372.254	2689.75
372.48	2727.75
372.706	2693.75
372.932	2787.75
373.158	2719.75
373.384	2741.75
373.61	2740.75
373.835	2734.75
374.061	2771.75
374.287	2783.75
374.513	2835.75
374.739	2819.75
374.965	2883.75
375.191	2851.75
375.416	2849.75
375.642	2826.75
375.868	2812.75
376.094	2822.75
376.319	2767.75
376.545	2715.75
376.771	2749.75
376.997	2712.75
377.222	2715.75
377.448	2663.75
377.674	2696.75
377.899	2703.75
378.125	2766.75
378.35	2689.75
378.576	2691.75
378.802	2737.75
379.027	2760.75
379.253	2830.75
379.478	2980.75
379.704	3522.75
379.929	5179.75
380.155	8174.75
380.38	8903.75
380.606	5390.75
380.831	3736.75
381.057	3195.75
381.282	2953.75
381.507	2840.75
381.733	2766.75
381.958	2725.75
382.184	2672.75
382.409	2648.75
382.634	2687.75
382.86	2665.75
383.085	2682.75
383.31	2622.75
383.535	2640.75
383.761	2670.75
383.986	2726.75
384.211	2671.75
384.436	2762.75
384.662	2722.75
384.887	2773.75
385.112	2744.75
385.337	2729.75
385.562	2757.75
385.787	2761.75
386.013	2796.75
386.238	2804.75
386.463	2722.75
386.688	2745.75
386.913	2735.75
387.138	2732.75
387.363	2756.75
387.588	2704.75
387.813	2735.75
388.038	2748.75
388.263	2712.75
388.488	2754.75
388.713	2707.75
388.938	2743.75
389.163	2761.75
389.387	2689.75
389.612	2744.75
389.837	2728.75
390.062	2743.75
390.287	2760.75
390.512	2762.75
390.736	2780.75
390.961	2790.75
391.186	2830.75
391.411	2878.75
391.636	2889.75
391.86	2895.75
392.085	2895.75
392.31	2876.75
392.534	2874.75
392.759	2814.75
392.984	2808.75
393.208	2813.75
393.433	2817.75
393.658	2805.75
393.882	2768.75
394.107	2731.75
394.331	2798.75
394.556	2765.75
394.78	2780.75
395.005	2793.75
395.229	2795.75
395.454	2851.75
395.678	2831.75
395.903	2847.75
396.127	2837.75
396.352	2821.75
396.576	2790.75
396.801	2850.75
397.025	2885.75
397.249	2875.75
397.474	2918.75
397.698	2865.75
397.922	2918.75
398.147	2870.75
398.371	2929.75
398.595	2949.75
398.82	3070.75
399.044	3165.75
399.268	3316.75
399.492	3507.75
399.717	3620.75
399.941	3581.75
400.165	3511.75
400.389	3305.75
400.613	3255.75
400.837	3093.75
401.062	3137.75
401.286	3019.75
401.51	2988.75
401.734	2954.75
401.958	3026.75
402.182	3028.75
402.406	3011.75
402.63	2972.75
402.854	3071.75
403.078	3029.75
403.302	3077.75
403.526	3155.75
403.75	3127.75
403.974	3192.75
404.198	3127.75
404.422	3150.75
404.645	3062.75
404.869	3083.75
405.093	3131.75
405.317	3139.75
405.541	3165.75
405.765	3222.75
405.988	3251.75
406.212	3250.75
406.436	3178.75
406.66	3304.75
406.883	3253.75
407.107	3364.75
407.331	3354.75
407.555	3427.75
407.778	3431.75
408.002	3378.75
408.226	3314.75
408.449	3359.75
408.673	3290.75
408.896	3217.75
409.12	3205.75
409.344	3205.75
409.567	3076.75
409.791	3077.75
410.014	3120.75
410.238	3059.75
410.461	3072.75
410.685	3140.75
410.908	3082.75
411.132	3058.75
411.355	2969.75
411.578	2988.75
411.802	3009.75
412.025	2945.75
412.249	3078.75
412.472	3027.75
412.695	2983.75
412.919	2940.75
413.142	3020.75
413.365	2881.75
413.589	2962.75
413.812	2923.75
414.035	3012.75
414.258	2959.75
414.482	2983.75
414.705	3037.75
414.928	2934.75
415.151	2957.75
415.374	2975.75
415.597	2878.75
415.821	2880.75
416.044	2917.75
416.267	2844.75
416.49	2839.75
416.713	2829.75
416.936	2847.75
417.159	2717.75
417.382	2819.75
417.605	2757.75
417.828	2825.75
418.051	2857.75
418.274	2839.75
418.497	2882.75
418.72	2922.75
418.943	2869.75
419.166	3035.75
419.389	3230.75
419.611	3153.75
419.834	3069.75
420.057	3000.75
420.28	2866.75
420.503	2825.75
420.726	2860.75
420.948	2873.75
421.171	2848.75
421.394	2847.75
421.617	2825.75
421.839	2851.75
422.062	2824.75
422.285	2796.75
422.507	2857.75
422.73	2940.75
422.953	2931.75
423.175	2939.75
423.398	2892.75
423.621	2894.75
423.843	2904.75
424.066	2880.75
424.288	2821.75
424.511	2882.75
424.733	2846.75
424.956	2825.75
425.178	2814.75
425.401	2776.75
425.623	2841.75
425.846	2798.75
426.068	2768.75
426.291	2745.75
426.513	2741.75
426.735	2722.75
426.958	2711.75
427.18	2676.75
427.402	2731.75
427.625	2695.75
427.847	2628.75
428.069	2642.75
428.292	2661.75
428.514	2687.75
428.736	2609.75
428.958	2642.75
429.181	2572.75
429.403	2617.75
429.625	2609.75
429.847	2613.75
430.069	2695.75
430.292	2783.75
430.514	2823.75
430.736	2833.75
430.958	2692.75
431.18	2632.75
431.402	2597.75
431.624	2562.75
431.846	2593.75
432.068	2547.75
432.29	2639.75
432.512	2611.75
432.734	2611.75
432.956	2581.75
433.178	2620.75
433.4	2655.75
433.622	2627.75
433.844	2631.75
434.066	2589.75
434.287	2621.75
434.509	2664.75
434.731	2685.75
434.953	2717.75
435.175	2744.75
435.397	2700.75
435.618	2677.75
435.84	2653.75
436.062	2590.75
436.284	2572.75
436.505	2588.75
436.727	2642.75
436.949	2571.75
437.17	2573.75
437.392	2561.75
437.614	2610.75
437.835	2499.75
438.057	2505.75
438.278	2535.75
438.5	2490.75
438.721	2559.75
438.943	2651.75
439.165	2727.75
439.386	2665.75
439.608	2677.75
439.829	2703.75
440.05	2835.75
440.272	2865.75
440.493	2782.75
440.715	2650.75
440.936	2730.75
441.158	2743.75
441.379	2782.75
441.6	2781.75
441.822	2911.75
442.043	3080.75
442.264	3151.75
442.486	2939.75
442.707	2859.75
442.928	2750.75
443.149	2787.75
443.371	2749.75
443.592	2810.75
443.813	2815.75
444.034	2828.75
444.255	2845.75
444.476	2899.75
444.698	2935.75
444.919	2985.75
445.14	2994.75
445.361	2973.75
445.582	2928.75
445.803	2854.75
446.024	2753.75
446.245	2775.75
446.466	2735.75
446.687	2717.75
446.908	2750.75
447.129	2639.75
447.35	2659.75
447.571	2626.75
447.792	2588.75
448.013	2563.75
448.234	2520.75
448.455	2570.75
448.675	2623.75
448.896	2692.75
449.117	2783.75
449.338	2947.75
449.559	3137.75
449.779	2855.75
450	2561.75
450.221	2535.75
450.442	2521.75
450.662	2543.75
450.883	2503.75
451.104	2515.75
451.324	2508.75
451.545	2505.75
451.766	2525.75
451.986	2643.75
452.207	2773.75
452.428	3648.75
452.648	5637.75
452.869	4702.75
453.089	3209.75
453.31	2923.75
453.53	2953.75
453.751	3037.75
453.971	3214.75
454.192	3141.75
454.412	2689.75
454.633	2577.75
454.853	2478.75
455.073	2441.75
455.294	2468.75
455.514	2386.75
455.734	2404.75
455.955	2351.75
456.175	2386.75
456.395	2404.75
456.616	2426.75
456.836	2501.75
457.056	2417.75
457.276	2421.75
457.497	2582.75
457.717	2586.75
457.937	2559.75
458.157	2507.75
458.377	2523.75
458.598	2579.75
458.818	2604.75
459.038	2560.75
459.258	2587.75
459.478	2582.75
459.698	2626.75
459.918	2632.75
460.138	2730.75
460.358	2802.75
460.578	2811.75
460.798	2853.75
461.018	2772.75
461.238	2774.75
461.458	2867.75
461.678	2933.75
461.898	2987.75
462.118	2952.75
462.338	3027.75
462.558	3036.75
462.777	3064.75
462.997	3185.75
463.217	3382.75
463.437	3488.75
463.657	3563.75
463.876	3523.75
464.096	3297.75
464.316	3201.75
464.536	3145.75
464.755	3077.75
464.975	3005.75
465.195	2905.75
465.414	2804.75
465.634	2747.75
465.854	2690.75
466.073	2697.75
466.293	2628.75
466.512	2619.75
466.732	2664.75
466.951	2791.75
467.171	2989.75
467.391	2959.75
467.61	2703.75
467.829	2649.75
468.049	2591.75
468.268	2526.75
468.488	2565.75
468.707	2571.75
468.927	2523.75
469.146	2477.75
469.365	2590.75
469.585	2597.75
469.804	2708.75
470.023	2750.75
470.243	2757.75
470.462	2857.75
470.681	3031.75
470.901	3323.75
471.12	3804.75
471.339	3685.75
471.558	3157.75
471.777	2871.75
471.997	2776.75
472.216	2686.75
472.435	2666.75
472.654	2587.75
472.873	2598.75
473.092	2591.75
473.311	2601.75
473.53	2575.75
473.749	2680.75
473.968	2769.75
474.187	2630.75
474.406	2619.75
474.625	2585.75
474.844	2555.75
475.063	2607.75
475.282	2619.75
475.501	2619.75
475.72	2636.75
475.939	2670.75
476.158	2696.75
476.377	2760.75
476.596	2686.75
476.814	2751.75
477.033	2727.75
477.252	2748.75
477.471	2794.75
477.69	2865.75
477.908	2883.75
478.127	2957.75
478.346	2949.75
478.564	2989.75
478.783	3019.75
479.002	3050.75
479.22	3091.75
479.439	3110.75
479.658	3066.75
479.876	3052.75
480.095	3078.75
480.313	3193.75
480.532	3165.75
480.751	3193.75
480.969	3111.75
481.188	3128.75
481.406	3110.75
481.624	3157.75
481.843	3158.75
482.061	3180.75
482.28	3180.75
482.498	3093.75
482.717	3089.75
482.935	3174.75
483.153	3217.75
483.372	3260.75
483.59	3282.75
483.808	3317.75
484.027	3397.75
484.245	3633.75
484.463	4110.75
484.681	4575.75
484.9	4146.75
485.118	3788.75
485.336	3727.75
485.554	3739.75
485.772	3943.75
485.99	4535.75
486.209	4923.75
486.427	4115.75
486.645	3639.75
486.863	3479.75
487.081	3410.75
487.299	3297.75
487.517	3361.75
487.735	3412.75
