Data from SnStandardFlinnAPT0064_LampEnergy10_LIBS07252019.E.O._I.C._HRD10591_15-21-48-494.txt Node
Date: Thu Jul 25 15:21:48 EDT 2019
User: cochatt
Spectrometer: HR+D1059
Trigger mode: 1
Integration Time (sec): 1.000000E-1
Scans to average: 1
Electric dark correction enabled: true
Nonlinearity correction enabled: false
Boxcar width: 0
XAxis mode: Wavelengths
Number of Pixels in Spectrum: 2048
>>>>>Begin Spectral Data<<<<<
223.165	-14.25
223.4	-14.25
223.635	-14.25
223.869	-21.25
224.104	-13.25
224.338	-19.25
224.573	-1.25
224.808	4.75
225.042	-11.25
225.277	-22.25
225.511	-15.25
225.746	12.75
225.98	1.75
226.215	19.75
226.449	14.75
226.683	21.75
226.918	18.75
227.152	23.75
227.387	29.75
227.621	18.75
227.856	22.75
228.09	45.75
228.324	45.75
228.559	48.75
228.793	115.75
229.027	303.75
229.262	327.75
229.496	292.75
229.73	282.75
229.964	295.75
230.199	293.75
230.433	296.75
230.667	302.75
230.901	307.75
231.136	317.75
231.37	322.75
231.604	381.75
231.838	404.75
232.072	511.75
232.306	525.75
232.541	471.75
232.775	419.75
233.009	413.75
233.243	399.75
233.477	439.75
233.711	498.75
233.945	553.75
234.179	504.75
234.413	437.75
234.647	432.75
234.881	414.75
235.115	511.75
235.349	604.75
235.583	745.75
235.817	959.75
236.051	926.75
236.285	617.75
236.519	523.75
236.753	485.75
236.987	489.75
237.221	517.75
237.455	491.75
237.689	454.75
237.922	453.75
238.156	455.75
238.39	469.75
238.624	484.75
238.858	474.75
239.091	466.75
239.325	493.75
239.559	463.75
239.793	497.75
240.027	506.75
240.26	546.75
240.494	525.75
240.728	540.75
240.961	591.75
241.195	612.75
241.429	667.75
241.662	665.75
241.896	762.75
242.13	913.75
242.363	1201.75
242.597	1537.75
242.83	1462.75
243.064	1457.75
243.298	1688.75
243.531	1408.75
243.765	926.75
243.998	752.75
244.232	662.75
244.465	647.75
244.699	629.75
244.932	629.75
245.166	631.75
245.399	643.75
245.633	663.75
245.866	659.75
246.099	646.75
246.333	619.75
246.566	626.75
246.8	614.75
247.033	659.75
247.266	619.75
247.5	627.75
247.733	656.75
247.966	684.75
248.2	740.75
248.433	834.75
248.666	968.75
248.899	895.75
249.133	856.75
249.366	849.75
249.599	949.75
249.832	1052.75
250.066	1036.75
250.299	828.75
250.532	775.75
250.765	741.75
250.998	717.75
251.231	710.75
251.465	689.75
251.698	711.75
251.931	717.75
252.164	736.75
252.397	721.75
252.63	771.75
252.863	787.75
253.096	770.75
253.329	763.75
253.562	763.75
253.795	774.75
254.028	787.75
254.261	812.75
254.494	841.75
254.727	973.75
254.96	1182.75
255.193	1169.75
255.426	942.75
255.659	841.75
255.892	825.75
256.124	867.75
256.357	862.75
256.59	871.75
256.823	937.75
257.056	1093.75
257.289	1319.75
257.521	1407.75
257.754	1138.75
257.987	961.75
258.22	883.75
258.452	868.75
258.685	895.75
258.918	925.75
259.151	981.75
259.383	1036.75
259.616	1198.75
259.849	1260.75
260.081	1050.75
260.314	958.75
260.547	896.75
260.779	915.75
261.012	941.75
261.244	939.75
261.477	922.75
261.71	960.75
261.942	963.75
262.175	991.75
262.407	1011.75
262.64	1031.75
262.872	1068.75
263.105	1095.75
263.337	1185.75
263.57	1260.75
263.802	1280.75
264.035	1285.75
264.267	1309.75
264.499	1346.75
264.732	1399.75
264.964	1431.75
265.197	1436.75
265.429	1410.75
265.661	1482.75
265.894	1539.75
266.126	1737.75
266.358	1912.75
266.591	1872.75
266.823	1589.75
267.055	1408.75
267.287	1370.75
267.52	1303.75
267.752	1295.75
267.984	1249.75
268.216	1287.75
268.448	1226.75
268.681	1237.75
268.913	1191.75
269.145	1184.75
269.377	1212.75
269.609	1219.75
269.841	1234.75
270.073	1357.75
270.306	1548.75
270.538	2084.75
270.77	3036.75
271.002	3689.75
271.234	2683.75
271.466	1805.75
271.698	1485.75
271.93	1360.75
272.162	1303.75
272.394	1274.75
272.626	1222.75
272.858	1216.75
273.09	1187.75
273.322	1169.75
273.553	1161.75
273.785	1174.75
274.017	1180.75
274.249	1162.75
274.481	1185.75
274.713	1186.75
274.945	1164.75
275.176	1197.75
275.408	1174.75
275.64	1198.75
275.872	1211.75
276.104	1229.75
276.335	1255.75
276.567	1243.75
276.799	1245.75
277.031	1283.75
277.262	1318.75
277.494	1357.75
277.726	1499.75
277.957	1797.75
278.189	2020.75
278.421	1906.75
278.652	1722.75
278.884	1629.75
279.115	1457.75
279.347	1397.75
279.579	1353.75
279.81	1364.75
280.042	1369.75
280.273	1359.75
280.505	1396.75
280.736	1441.75
280.968	1551.75
281.199	1747.75
281.431	1983.75
281.662	2053.75
281.894	1693.75
282.125	1583.75
282.356	1621.75
282.588	1609.75
282.819	1669.75
283.051	1789.75
283.282	1962.75
283.513	2383.75
283.745	3508.75
283.976	5337.75
284.207	7625.75
284.439	6904.75
284.67	4249.75
284.901	3566.75
285.132	3561.75
285.364	3351.75
285.595	2603.75
285.826	2317.75
286.057	2751.75
286.288	3709.75
286.52	4987.75
286.751	4684.75
286.982	2963.75
287.213	2210.75
287.444	1942.75
287.675	1808.75
287.906	1766.75
288.138	1692.75
288.369	1632.75
288.6	1655.75
288.831	1651.75
289.062	1632.75
289.293	1638.75
289.524	1676.75
289.755	1665.75
289.986	1660.75
290.217	1685.75
290.448	1705.75
290.679	1697.75
290.91	1716.75
291.141	1843.75
291.371	1991.75
291.602	2069.75
291.833	1874.75
292.064	1722.75
292.295	1665.75
292.526	1647.75
292.757	1593.75
292.987	1587.75
293.218	1553.75
293.449	1568.75
293.68	1566.75
293.91	1558.75
294.141	1519.75
294.372	1530.75
294.603	1542.75
294.833	1520.75
295.064	1532.75
295.295	1544.75
295.525	1533.75
295.756	1539.75
295.987	1537.75
296.217	1530.75
296.448	1545.75
296.679	1559.75
296.909	1508.75
297.14	1534.75
297.37	1604.75
297.601	1576.75
297.831	1565.75
298.062	1622.75
298.292	1615.75
298.523	1653.75
298.753	1633.75
298.984	1649.75
299.214	1683.75
299.445	1705.75
299.675	1701.75
299.905	1784.75
300.136	1858.75
300.366	2073.75
300.597	2670.75
300.827	3660.75
301.057	4976.75
301.288	4990.75
301.518	3248.75
301.748	2487.75
301.979	2326.75
302.209	2231.75
302.439	2283.75
302.669	2372.75
302.9	2852.75
303.13	4030.75
303.36	5813.75
303.59	7779.75
303.82	6819.75
304.051	4062.75
304.281	2949.75
304.511	2452.75
304.741	2241.75
304.971	2125.75
305.201	2017.75
305.431	1973.75
305.661	1927.75
305.891	1865.75
306.121	1830.75
306.352	1800.75
306.582	1809.75
306.812	1806.75
307.042	1813.75
307.272	1817.75
307.502	1792.75
307.731	1785.75
307.961	1791.75
308.191	1762.75
308.421	1778.75
308.651	1800.75
308.881	1727.75
309.111	1795.75
309.341	1797.75
309.571	1862.75
309.8	1797.75
310.03	1824.75
310.26	1819.75
310.49	1859.75
310.72	1835.75
310.949	1859.75
311.179	1851.75
311.409	1887.75
311.639	1938.75
311.868	1919.75
312.098	1916.75
312.328	1927.75
312.557	1948.75
312.787	1937.75
313.017	1952.75
313.246	1955.75
313.476	1970.75
313.706	2027.75
313.935	2161.75
314.165	2308.75
314.394	2445.75
314.624	2302.75
314.853	2094.75
315.083	2115.75
315.312	2110.75
315.542	2137.75
315.771	2136.75
316.001	2187.75
316.23	2300.75
316.46	2358.75
316.689	2585.75
316.919	3097.75
317.148	4437.75
317.377	6742.75
317.607	9843.75
317.836	10281.75
318.065	6269.75
318.295	4127.75
318.524	3307.75
318.753	2863.75
318.983	2673.75
319.212	2527.75
319.441	2425.75
319.67	2394.75
319.9	2384.75
320.129	2276.75
320.358	2332.75
320.587	2288.75
320.816	2283.75
321.046	2326.75
321.275	2311.75
321.504	2371.75
321.733	2425.75
321.962	2487.75
322.191	2509.75
322.42	2449.75
322.649	2429.75
322.878	2439.75
323.108	2429.75
323.337	2498.75
323.566	2491.75
323.795	2556.75
324.024	2530.75
324.253	2612.75
324.482	2783.75
324.71	2905.75
324.939	3095.75
325.168	3159.75
325.397	3259.75
325.626	3871.75
325.855	5399.75
326.084	8310.75
326.313	12150.75
326.542	12868.75
326.77	8675.75
326.999	5624.75
327.228	4774.75
327.457	4611.75
327.686	4610.75
327.914	5024.75
328.143	5776.75
328.372	6908.75
328.6	7609.75
328.829	6761.75
329.058	5605.75
329.287	4967.75
329.515	4525.75
329.744	4179.75
329.972	3987.75
330.201	3823.75
330.43	3614.75
330.658	3534.75
330.887	3488.75
331.115	3454.75
331.344	3408.75
331.572	3375.75
331.801	3449.75
332.03	3417.75
332.258	3465.75
332.486	3620.75
332.715	4091.75
332.943	5150.75
333.172	6347.75
333.4	6366.75
333.629	4924.75
333.857	4387.75
334.085	4383.75
334.314	4643.75
334.542	5009.75
334.771	5907.75
334.999	7257.75
335.227	8987.75
335.455	10184.75
335.684	9126.75
335.912	7462.75
336.14	6289.75
336.369	5550.75
336.597	5072.75
336.825	4657.75
337.053	4389.75
337.281	4236.75
337.51	3945.75
337.738	3837.75
337.966	3625.75
338.194	3501.75
338.422	3403.75
338.65	3327.75
338.878	3193.75
339.106	3223.75
339.334	3184.75
339.562	3140.75
339.79	3025.75
340.018	3036.75
340.246	2993.75
340.474	2957.75
340.702	2939.75
340.93	2990.75
341.158	2997.75
341.386	2948.75
341.614	2954.75
341.842	2898.75
342.07	2777.75
342.298	2729.75
342.526	2658.75
342.754	2650.75
342.981	2659.75
343.209	2681.75
343.437	2685.75
343.665	2735.75
343.893	2803.75
344.12	2833.75
344.348	2752.75
344.576	2683.75
344.804	2649.75
345.031	2579.75
345.259	2588.75
345.487	2589.75
345.714	2484.75
345.942	2497.75
346.17	2509.75
346.397	2522.75
346.625	2518.75
346.853	2484.75
347.08	2502.75
347.308	2503.75
347.535	2444.75
347.763	2459.75
347.99	2431.75
348.218	2396.75
348.445	2439.75
348.673	2406.75
348.9	2443.75
349.128	2412.75
349.355	2401.75
349.583	2433.75
349.81	2378.75
350.037	2368.75
350.265	2411.75
350.492	2332.75
350.72	2330.75
350.947	2360.75
351.174	2340.75
351.402	2418.75
351.629	2363.75
351.856	2383.75
352.083	2365.75
352.311	2314.75
352.538	2357.75
352.765	2359.75
352.992	2325.75
353.22	2313.75
353.447	2326.75
353.674	2358.75
353.901	2385.75
354.128	2353.75
354.355	2354.75
354.583	2329.75
354.81	2374.75
355.037	2401.75
355.264	2340.75
355.491	2419.75
355.718	2389.75
355.945	2395.75
356.172	2381.75
356.399	2421.75
356.626	2464.75
356.853	2482.75
357.08	2466.75
357.307	2489.75
357.534	2540.75
357.761	2499.75
357.988	2512.75
358.215	2505.75
358.441	2503.75
358.668	2470.75
358.895	2455.75
359.122	2477.75
359.349	2482.75
359.576	2482.75
359.802	2494.75
360.029	2487.75
360.256	2478.75
360.483	2531.75
360.709	2492.75
360.936	2469.75
361.163	2534.75
361.39	2517.75
361.616	2559.75
361.843	2479.75
362.07	2512.75
362.296	2537.75
362.523	2489.75
362.749	2525.75
362.976	2511.75
363.203	2514.75
363.429	2459.75
363.656	2468.75
363.882	2491.75
364.109	2488.75
364.335	2496.75
364.562	2509.75
364.788	2507.75
365.015	2514.75
365.241	2626.75
365.468	2788.75
365.694	2871.75
365.92	2781.75
366.147	2605.75
366.373	2532.75
366.599	2536.75
366.826	2520.75
367.052	2535.75
367.278	2553.75
367.505	2599.75
367.731	2591.75
367.957	2556.75
368.184	2596.75
368.41	2648.75
368.636	2611.75
368.862	2613.75
369.089	2638.75
369.315	2662.75
369.541	2563.75
369.767	2602.75
369.993	2549.75
370.219	2583.75
370.445	2594.75
370.672	2615.75
370.898	2633.75
371.124	2633.75
371.35	2686.75
371.576	2715.75
371.802	2704.75
372.028	2700.75
372.254	2729.75
372.48	2744.75
372.706	2720.75
372.932	2774.75
373.158	2745.75
373.384	2733.75
373.61	2756.75
373.835	2767.75
374.061	2796.75
374.287	2748.75
374.513	2815.75
374.739	2819.75
374.965	2857.75
375.191	2829.75
375.416	2830.75
375.642	2799.75
375.868	2843.75
376.094	2763.75
376.319	2758.75
376.545	2754.75
376.771	2747.75
376.997	2699.75
377.222	2701.75
377.448	2667.75
377.674	2688.75
377.899	2696.75
378.125	2699.75
378.35	2641.75
378.576	2731.75
378.802	2739.75
379.027	2801.75
379.253	2841.75
379.478	2998.75
379.704	3533.75
379.929	5030.75
380.155	7593.75
380.38	8115.75
380.606	5088.75
380.831	3627.75
381.057	3146.75
381.282	2890.75
381.507	2807.75
381.733	2741.75
381.958	2711.75
382.184	2665.75
382.409	2652.75
382.634	2678.75
382.86	2644.75
383.085	2680.75
383.31	2628.75
383.535	2607.75
383.761	2668.75
383.986	2642.75
384.211	2678.75
384.436	2685.75
384.662	2695.75
384.887	2715.75
385.112	2731.75
385.337	2729.75
385.562	2769.75
385.787	2735.75
386.013	2725.75
386.238	2717.75
386.463	2694.75
386.688	2737.75
386.913	2707.75
387.138	2717.75
387.363	2706.75
387.588	2723.75
387.813	2678.75
388.038	2708.75
388.263	2746.75
388.488	2749.75
388.713	2736.75
388.938	2748.75
389.163	2708.75
389.387	2785.75
389.612	2709.75
389.837	2701.75
390.062	2721.75
390.287	2746.75
390.512	2735.75
390.736	2823.75
390.961	2801.75
391.186	2822.75
391.411	2830.75
391.636	2831.75
391.86	2854.75
392.085	2871.75
392.31	2887.75
392.534	2818.75
392.759	2862.75
392.984	2838.75
393.208	2923.75
393.433	3031.75
393.658	2984.75
393.882	2806.75
394.107	2766.75
394.331	2737.75
394.556	2788.75
394.78	2789.75
395.005	2834.75
395.229	2821.75
395.454	2892.75
395.678	2849.75
395.903	2843.75
396.127	2907.75
396.352	2873.75
396.576	2852.75
396.801	2947.75
397.025	2985.75
397.249	2907.75
397.474	2921.75
397.698	2914.75
397.922	2894.75
398.147	2895.75
398.371	2937.75
398.595	3028.75
398.82	3062.75
399.044	3188.75
399.268	3285.75
399.492	3550.75
399.717	3633.75
399.941	3641.75
400.165	3506.75
400.389	3378.75
400.613	3185.75
400.837	3135.75
401.062	3074.75
401.286	3045.75
401.51	3006.75
401.734	3012.75
401.958	2977.75
402.182	3021.75
402.406	2997.75
402.63	3035.75
402.854	3070.75
403.078	3063.75
403.302	3100.75
403.526	3069.75
403.75	3073.75
403.974	3143.75
404.198	3090.75
404.422	3126.75
404.645	3152.75
404.869	3120.75
405.093	3127.75
405.317	3118.75
405.541	3143.75
405.765	3210.75
405.988	3270.75
406.212	3236.75
406.436	3147.75
406.66	3247.75
406.883	3231.75
407.107	3308.75
407.331	3357.75
407.555	3497.75
407.778	3428.75
408.002	3345.75
408.226	3349.75
408.449	3353.75
408.673	3287.75
408.896	3230.75
409.12	3197.75
409.344	3133.75
409.567	3158.75
409.791	3106.75
410.014	3070.75
410.238	3047.75
410.461	3077.75
410.685	3099.75
410.908	3057.75
411.132	3061.75
411.355	2982.75
411.578	3006.75
411.802	2971.75
412.025	2989.75
412.249	3019.75
412.472	3059.75
412.695	3005.75
412.919	2961.75
413.142	2913.75
413.365	2938.75
413.589	2997.75
413.812	2949.75
414.035	2942.75
414.258	2966.75
414.482	2910.75
414.705	2995.75
414.928	2939.75
415.151	2929.75
415.374	2904.75
415.597	2873.75
415.821	2842.75
416.044	2818.75
416.267	2803.75
416.49	2829.75
416.713	2814.75
416.936	2847.75
417.159	2843.75
417.382	2785.75
417.605	2793.75
417.828	2866.75
418.051	2855.75
418.274	2863.75
418.497	2831.75
418.72	2907.75
418.943	2842.75
419.166	2994.75
419.389	3172.75
419.611	3057.75
419.834	3042.75
420.057	2962.75
420.28	2879.75
420.503	2820.75
420.726	2772.75
420.948	2852.75
421.171	2831.75
421.394	2834.75
421.617	2869.75
421.839	2837.75
422.062	2892.75
422.285	2798.75
422.507	2873.75
422.73	2893.75
422.953	2929.75
423.175	2946.75
423.398	2916.75
423.621	2821.75
423.843	2837.75
424.066	2857.75
424.288	2864.75
424.511	2839.75
424.733	2884.75
424.956	2779.75
425.178	2736.75
425.401	2756.75
425.623	2802.75
425.846	2765.75
426.068	2729.75
426.291	2703.75
426.513	2683.75
426.735	2672.75
426.958	2646.75
427.18	2667.75
427.402	2739.75
427.625	2676.75
427.847	2611.75
428.069	2602.75
428.292	2679.75
428.514	2642.75
428.736	2595.75
428.958	2670.75
429.181	2625.75
429.403	2557.75
429.625	2610.75
429.847	2640.75
430.069	2649.75
430.292	2766.75
430.514	2794.75
430.736	2841.75
430.958	2682.75
431.18	2615.75
431.402	2593.75
431.624	2561.75
431.846	2582.75
432.068	2496.75
432.29	2611.75
432.512	2525.75
432.734	2633.75
432.956	2577.75
433.178	2601.75
433.4	2588.75
433.622	2691.75
433.844	2620.75
434.066	2627.75
434.287	2583.75
434.509	2590.75
434.731	2697.75
434.953	2693.75
435.175	2687.75
435.397	2691.75
435.618	2660.75
435.84	2609.75
436.062	2578.75
436.284	2566.75
436.505	2579.75
436.727	2564.75
436.949	2561.75
437.17	2593.75
437.392	2506.75
437.614	2569.75
437.835	2459.75
438.057	2559.75
438.278	2516.75
438.5	2537.75
438.721	2561.75
438.943	2655.75
439.165	2660.75
439.386	2705.75
439.608	2689.75
439.829	2683.75
440.05	2794.75
440.272	2796.75
440.493	2691.75
440.715	2643.75
440.936	2670.75
441.158	2707.75
441.379	2789.75
441.6	2845.75
441.822	2930.75
442.043	3057.75
442.264	3114.75
442.486	2954.75
442.707	2823.75
442.928	2797.75
443.149	2769.75
443.371	2734.75
443.592	2794.75
443.813	2789.75
444.034	2782.75
444.255	2848.75
444.476	2887.75
444.698	2953.75
444.919	3006.75
445.14	3009.75
445.361	2963.75
445.582	2810.75
445.803	2837.75
446.024	2774.75
446.245	2720.75
446.466	2778.75
446.687	2742.75
446.908	2705.75
447.129	2646.75
447.35	2644.75
447.571	2572.75
447.792	2546.75
448.013	2563.75
448.234	2564.75
448.455	2492.75
448.675	2596.75
448.896	2683.75
449.117	2689.75
449.338	2933.75
449.559	3009.75
449.779	2754.75
450	2563.75
450.221	2520.75
450.442	2485.75
450.662	2523.75
450.883	2487.75
451.104	2469.75
451.324	2477.75
451.545	2500.75
451.766	2533.75
451.986	2523.75
452.207	2774.75
452.428	3569.75
452.648	5255.75
452.869	4420.75
453.089	3081.75
453.31	2880.75
453.53	2831.75
453.751	2979.75
453.971	3038.75
454.192	3029.75
454.412	2649.75
454.633	2478.75
454.853	2443.75
455.073	2391.75
455.294	2414.75
455.514	2399.75
455.734	2384.75
455.955	2327.75
456.175	2388.75
456.395	2351.75
456.616	2398.75
456.836	2403.75
457.056	2420.75
457.276	2429.75
457.497	2572.75
457.717	2628.75
457.937	2558.75
458.157	2484.75
458.377	2528.75
458.598	2530.75
458.818	2553.75
459.038	2589.75
459.258	2567.75
459.478	2607.75
459.698	2621.75
459.918	2636.75
460.138	2719.75
460.358	2817.75
460.578	2784.75
460.798	2835.75
461.018	2819.75
461.238	2813.75
461.458	2829.75
461.678	2825.75
461.898	2978.75
462.118	2912.75
462.338	3009.75
462.558	3009.75
462.777	3095.75
462.997	3271.75
463.217	3335.75
463.437	3438.75
463.657	3491.75
463.876	3423.75
464.096	3319.75
464.316	3128.75
464.536	3139.75
464.755	3039.75
464.975	2983.75
465.195	2875.75
465.414	2795.75
465.634	2681.75
465.854	2678.75
466.073	2658.75
466.293	2665.75
466.512	2589.75
466.732	2673.75
466.951	2746.75
467.171	2942.75
467.391	2900.75
467.61	2644.75
467.829	2572.75
468.049	2618.75
468.268	2504.75
468.488	2530.75
468.707	2525.75
468.927	2518.75
469.146	2512.75
469.365	2565.75
469.585	2559.75
469.804	2661.75
470.023	2724.75
470.243	2701.75
470.462	2801.75
470.681	2934.75
470.901	3227.75
471.12	3609.75
471.339	3641.75
471.558	3041.75
471.777	2832.75
471.997	2742.75
472.216	2683.75
472.435	2646.75
472.654	2576.75
472.873	2520.75
473.092	2553.75
473.311	2522.75
473.53	2598.75
473.749	2648.75
473.968	2717.75
474.187	2610.75
474.406	2584.75
474.625	2556.75
474.844	2608.75
475.063	2551.75
475.282	2577.75
475.501	2555.75
475.72	2580.75
475.939	2629.75
476.158	2706.75
476.377	2741.75
476.596	2701.75
476.814	2731.75
477.033	2696.75
477.252	2738.75
477.471	2777.75
477.69	2874.75
477.908	2875.75
478.127	2897.75
478.346	2917.75
478.564	2929.75
478.783	2982.75
479.002	3097.75
479.22	3053.75
479.439	3056.75
479.658	3050.75
479.876	3046.75
480.095	3115.75
480.313	3201.75
480.532	3186.75
480.751	3183.75
480.969	3149.75
481.188	3107.75
481.406	3069.75
481.624	3097.75
481.843	3123.75
482.061	3143.75
482.28	3114.75
482.498	3043.75
482.717	3105.75
482.935	3161.75
483.153	3173.75
483.372	3169.75
483.59	3187.75
483.808	3268.75
484.027	3354.75
484.245	3545.75
484.463	3924.75
484.681	4349.75
484.9	3986.75
485.118	3689.75
485.336	3597.75
485.554	3737.75
485.772	3890.75
485.99	4407.75
486.209	4708.75
486.427	4033.75
486.645	3595.75
486.863	3465.75
487.081	3369.75
487.299	3345.75
487.517	3335.75
487.735	3307.75
