Data from SnStandardFlinnAPT0064_LampEnergy10_LIBS07252019.E.O._I.C._HRD10591_15-21-44-494.txt Node
Date: Thu Jul 25 15:21:44 EDT 2019
User: cochatt
Spectrometer: HR+D1059
Trigger mode: 1
Integration Time (sec): 1.000000E-1
Scans to average: 1
Electric dark correction enabled: true
Nonlinearity correction enabled: false
Boxcar width: 0
XAxis mode: Wavelengths
Number of Pixels in Spectrum: 2048
>>>>>Begin Spectral Data<<<<<
223.165	-3.25
223.4	-3.25
223.635	-3.25
223.869	-11.25
224.104	-16.25
224.338	-21.25
224.573	-22.25
224.808	-6.25
225.042	-21.25
225.277	-6.25
225.511	-9.25
225.746	-7.25
225.98	20.75
226.215	4.75
226.449	7.75
226.683	23.75
226.918	23.75
227.152	43.75
227.387	38.75
227.621	27.75
227.856	34.75
228.09	45.75
228.324	49.75
228.559	56.75
228.793	127.75
229.027	299.75
229.262	348.75
229.496	301.75
229.73	313.75
229.964	307.75
230.199	307.75
230.433	312.75
230.667	296.75
230.901	317.75
231.136	310.75
231.37	354.75
231.604	373.75
231.838	449.75
232.072	510.75
232.306	528.75
232.541	464.75
232.775	414.75
233.009	417.75
233.243	402.75
233.477	450.75
233.711	509.75
233.945	561.75
234.179	478.75
234.413	459.75
234.647	470.75
234.881	454.75
235.115	515.75
235.349	606.75
235.583	757.75
235.817	957.75
236.051	913.75
236.285	638.75
236.519	513.75
236.753	485.75
236.987	501.75
237.221	519.75
237.455	502.75
237.689	446.75
237.922	446.75
238.156	440.75
238.39	472.75
238.624	496.75
238.858	448.75
239.091	500.75
239.325	477.75
239.559	485.75
239.793	517.75
240.027	518.75
240.26	515.75
240.494	546.75
240.728	594.75
240.961	624.75
241.195	631.75
241.429	660.75
241.662	693.75
241.896	766.75
242.13	915.75
242.363	1185.75
242.597	1498.75
242.83	1476.75
243.064	1470.75
243.298	1686.75
243.531	1405.75
243.765	936.75
243.998	753.75
244.232	692.75
244.465	663.75
244.699	667.75
244.932	687.75
245.166	635.75
245.399	655.75
245.633	673.75
245.866	665.75
246.099	667.75
246.333	637.75
246.566	633.75
246.8	641.75
247.033	640.75
247.266	632.75
247.5	625.75
247.733	643.75
247.966	688.75
248.2	760.75
248.433	851.75
248.666	976.75
248.899	951.75
249.133	848.75
249.366	862.75
249.599	938.75
249.832	1055.75
250.066	1060.75
250.299	825.75
250.532	774.75
250.765	759.75
250.998	733.75
251.231	740.75
251.465	707.75
251.698	733.75
251.931	722.75
252.164	725.75
252.397	783.75
252.63	783.75
252.863	807.75
253.096	791.75
253.329	783.75
253.562	768.75
253.795	799.75
254.028	764.75
254.261	822.75
254.494	883.75
254.727	981.75
254.96	1182.75
255.193	1180.75
255.426	958.75
255.659	842.75
255.892	846.75
256.124	844.75
256.357	860.75
256.59	915.75
256.823	973.75
257.056	1094.75
257.289	1331.75
257.521	1459.75
257.754	1192.75
257.987	960.75
258.22	899.75
258.452	925.75
258.685	928.75
258.918	938.75
259.151	987.75
259.383	1075.75
259.616	1198.75
259.849	1246.75
260.081	1083.75
260.314	987.75
260.547	967.75
260.779	942.75
261.012	943.75
261.244	947.75
261.477	963.75
261.71	977.75
261.942	1011.75
262.175	996.75
262.407	1039.75
262.64	1035.75
262.872	1086.75
263.105	1143.75
263.337	1224.75
263.57	1269.75
263.802	1289.75
264.035	1299.75
264.267	1342.75
264.499	1363.75
264.732	1415.75
264.964	1457.75
265.197	1414.75
265.429	1421.75
265.661	1480.75
265.894	1571.75
266.126	1754.75
266.358	1935.75
266.591	1871.75
266.823	1631.75
267.055	1436.75
267.287	1389.75
267.52	1321.75
267.752	1291.75
267.984	1278.75
268.216	1245.75
268.448	1239.75
268.681	1225.75
268.913	1200.75
269.145	1226.75
269.377	1220.75
269.609	1254.75
269.841	1280.75
270.073	1327.75
270.306	1539.75
270.538	2074.75
270.77	3053.75
271.002	3743.75
271.234	2656.75
271.466	1842.75
271.698	1531.75
271.93	1391.75
272.162	1302.75
272.394	1295.75
272.626	1231.75
272.858	1225.75
273.09	1193.75
273.322	1185.75
273.553	1171.75
273.785	1184.75
274.017	1204.75
274.249	1197.75
274.481	1219.75
274.713	1214.75
274.945	1187.75
275.176	1181.75
275.408	1182.75
275.64	1194.75
275.872	1205.75
276.104	1265.75
276.335	1246.75
276.567	1246.75
276.799	1246.75
277.031	1296.75
277.262	1351.75
277.494	1381.75
277.726	1543.75
277.957	1837.75
278.189	2068.75
278.421	1931.75
278.652	1737.75
278.884	1604.75
279.115	1505.75
279.347	1395.75
279.579	1363.75
279.81	1401.75
280.042	1403.75
280.273	1421.75
280.505	1391.75
280.736	1449.75
280.968	1540.75
281.199	1762.75
281.431	1985.75
281.662	2056.75
281.894	1737.75
282.125	1636.75
282.356	1621.75
282.588	1620.75
282.819	1715.75
283.051	1771.75
283.282	1950.75
283.513	2406.75
283.745	3443.75
283.976	5385.75
284.207	7548.75
284.439	6888.75
284.67	4356.75
284.901	3612.75
285.132	3641.75
285.364	3485.75
285.595	2687.75
285.826	2383.75
286.057	2775.75
286.288	3694.75
286.52	5052.75
286.751	4642.75
286.982	3006.75
287.213	2273.75
287.444	1956.75
287.675	1856.75
287.906	1823.75
288.138	1724.75
288.369	1675.75
288.6	1681.75
288.831	1641.75
289.062	1652.75
289.293	1687.75
289.524	1701.75
289.755	1678.75
289.986	1685.75
290.217	1704.75
290.448	1746.75
290.679	1703.75
290.91	1748.75
291.141	1862.75
291.371	2021.75
291.602	2105.75
291.833	1938.75
292.064	1726.75
292.295	1688.75
292.526	1616.75
292.757	1608.75
292.987	1599.75
293.218	1566.75
293.449	1589.75
293.68	1615.75
293.91	1603.75
294.141	1573.75
294.372	1563.75
294.603	1555.75
294.833	1541.75
295.064	1543.75
295.295	1575.75
295.525	1560.75
295.756	1553.75
295.987	1511.75
296.217	1549.75
296.448	1573.75
296.679	1527.75
296.909	1545.75
297.14	1553.75
297.37	1603.75
297.601	1629.75
297.831	1633.75
298.062	1626.75
298.292	1620.75
298.523	1663.75
298.753	1688.75
298.984	1696.75
299.214	1694.75
299.445	1740.75
299.675	1736.75
299.905	1812.75
300.136	1939.75
300.366	2114.75
300.597	2694.75
300.827	3725.75
301.057	4993.75
301.288	5026.75
301.518	3285.75
301.748	2530.75
301.979	2304.75
302.209	2254.75
302.439	2270.75
302.669	2373.75
302.9	2874.75
303.13	4053.75
303.36	5862.75
303.59	7748.75
303.82	6758.75
304.051	4130.75
304.281	2949.75
304.511	2507.75
304.741	2315.75
304.971	2171.75
305.201	2061.75
305.431	1971.75
305.661	1886.75
305.891	1910.75
306.121	1849.75
306.352	1847.75
306.582	1809.75
306.812	1753.75
307.042	1813.75
307.272	1807.75
307.502	1806.75
307.731	1826.75
307.961	1746.75
308.191	1785.75
308.421	1825.75
308.651	1773.75
308.881	1768.75
309.111	1783.75
309.341	1819.75
309.571	1804.75
309.8	1823.75
310.03	1823.75
310.26	1871.75
310.49	1831.75
310.72	1856.75
310.949	1861.75
311.179	1906.75
311.409	1906.75
311.639	1904.75
311.868	1898.75
312.098	1875.75
312.328	1917.75
312.557	1949.75
312.787	1962.75
313.017	1943.75
313.246	1982.75
313.476	1946.75
313.706	2088.75
313.935	2190.75
314.165	2320.75
314.394	2450.75
314.624	2335.75
314.853	2159.75
315.083	2097.75
315.312	2167.75
315.542	2135.75
315.771	2199.75
316.001	2209.75
316.23	2321.75
316.46	2389.75
316.689	2642.75
316.919	3166.75
317.148	4448.75
317.377	6709.75
317.607	9761.75
317.836	10243.75
318.065	6363.75
318.295	4090.75
318.524	3331.75
318.753	2908.75
318.983	2694.75
319.212	2549.75
319.441	2509.75
319.67	2375.75
319.9	2362.75
320.129	2379.75
320.358	2297.75
320.587	2325.75
320.816	2260.75
321.046	2319.75
321.275	2306.75
321.504	2339.75
321.733	2486.75
321.962	2465.75
322.191	2503.75
322.42	2475.75
322.649	2433.75
322.878	2474.75
323.108	2430.75
323.337	2543.75
323.566	2536.75
323.795	2623.75
324.024	2594.75
324.253	2671.75
324.482	2837.75
324.71	2934.75
324.939	3134.75
325.168	3165.75
325.397	3301.75
325.626	3937.75
325.855	5449.75
326.084	8297.75
326.313	12049.75
326.542	12873.75
326.77	8783.75
326.999	5813.75
327.228	4912.75
327.457	4653.75
327.686	4699.75
327.914	4967.75
328.143	5860.75
328.372	6983.75
328.6	7526.75
328.829	6734.75
329.058	5652.75
329.287	4959.75
329.515	4553.75
329.744	4263.75
329.972	3987.75
330.201	3842.75
330.43	3709.75
330.658	3557.75
330.887	3585.75
331.115	3488.75
331.344	3426.75
331.572	3389.75
331.801	3457.75
332.03	3474.75
332.258	3556.75
332.486	3717.75
332.715	4187.75
332.943	5165.75
333.172	6456.75
333.4	6379.75
333.629	4906.75
333.857	4424.75
334.085	4473.75
334.314	4691.75
334.542	5021.75
334.771	5860.75
334.999	7185.75
335.227	9019.75
335.455	10129.75
335.684	8984.75
335.912	7493.75
336.14	6292.75
336.369	5616.75
336.597	5154.75
336.825	4685.75
337.053	4520.75
337.281	4266.75
337.51	4003.75
337.738	3852.75
337.966	3726.75
338.194	3610.75
338.422	3442.75
338.65	3398.75
338.878	3308.75
339.106	3217.75
339.334	3201.75
339.562	3158.75
339.79	3091.75
340.018	3049.75
340.246	3016.75
340.474	3030.75
340.702	3001.75
340.93	3009.75
341.158	3000.75
341.386	2957.75
341.614	2935.75
341.842	2892.75
342.07	2852.75
342.298	2793.75
342.526	2749.75
342.754	2788.75
342.981	2695.75
343.209	2726.75
343.437	2720.75
343.665	2801.75
343.893	2789.75
344.12	2775.75
344.348	2723.75
344.576	2689.75
344.804	2704.75
345.031	2624.75
345.259	2585.75
345.487	2563.75
345.714	2564.75
345.942	2551.75
346.17	2513.75
346.397	2505.75
346.625	2455.75
346.853	2508.75
347.08	2533.75
347.308	2515.75
347.535	2485.75
347.763	2443.75
347.99	2454.75
348.218	2475.75
348.445	2442.75
348.673	2451.75
348.9	2433.75
349.128	2460.75
349.355	2408.75
349.583	2419.75
349.81	2410.75
350.037	2403.75
350.265	2385.75
350.492	2360.75
350.72	2386.75
350.947	2378.75
351.174	2419.75
351.402	2398.75
351.629	2383.75
351.856	2385.75
352.083	2435.75
352.311	2401.75
352.538	2354.75
352.765	2327.75
352.992	2305.75
353.22	2351.75
353.447	2342.75
353.674	2369.75
353.901	2348.75
354.128	2342.75
354.355	2365.75
354.583	2378.75
354.81	2424.75
355.037	2433.75
355.264	2410.75
355.491	2441.75
355.718	2411.75
355.945	2408.75
356.172	2438.75
356.399	2414.75
356.626	2431.75
356.853	2537.75
357.08	2507.75
357.307	2486.75
357.534	2598.75
357.761	2533.75
357.988	2527.75
358.215	2530.75
358.441	2546.75
358.668	2510.75
358.895	2591.75
359.122	2513.75
359.349	2519.75
359.576	2524.75
359.802	2518.75
360.029	2521.75
360.256	2518.75
360.483	2559.75
360.709	2564.75
360.936	2568.75
361.163	2527.75
361.39	2518.75
361.616	2514.75
361.843	2586.75
362.07	2565.75
362.296	2615.75
362.523	2532.75
362.749	2571.75
362.976	2522.75
363.203	2550.75
363.429	2510.75
363.656	2548.75
363.882	2541.75
364.109	2513.75
364.335	2509.75
364.562	2508.75
364.788	2522.75
365.015	2562.75
365.241	2610.75
365.468	2801.75
365.694	2936.75
365.92	2823.75
366.147	2619.75
366.373	2570.75
366.599	2581.75
366.826	2597.75
367.052	2559.75
367.278	2612.75
367.505	2613.75
367.731	2577.75
367.957	2579.75
368.184	2679.75
368.41	2638.75
368.636	2661.75
368.862	2651.75
369.089	2630.75
369.315	2623.75
369.541	2663.75
369.767	2615.75
369.993	2624.75
370.219	2598.75
370.445	2662.75
370.672	2693.75
370.898	2650.75
371.124	2689.75
371.35	2705.75
371.576	2706.75
371.802	2738.75
372.028	2707.75
372.254	2770.75
372.48	2750.75
372.706	2794.75
372.932	2782.75
373.158	2737.75
373.384	2754.75
373.61	2787.75
373.835	2806.75
374.061	2823.75
374.287	2821.75
374.513	2856.75
374.739	2868.75
374.965	2917.75
375.191	2869.75
375.416	2889.75
375.642	2806.75
375.868	2842.75
376.094	2841.75
376.319	2812.75
376.545	2746.75
376.771	2768.75
376.997	2750.75
377.222	2685.75
377.448	2733.75
377.674	2733.75
377.899	2703.75
378.125	2738.75
378.35	2694.75
378.576	2735.75
378.802	2803.75
379.027	2806.75
379.253	2865.75
379.478	3042.75
379.704	3517.75
379.929	5029.75
380.155	7604.75
380.38	8270.75
380.606	5162.75
380.831	3709.75
381.057	3233.75
381.282	2970.75
381.507	2839.75
381.733	2752.75
381.958	2725.75
382.184	2737.75
382.409	2703.75
382.634	2635.75
382.86	2698.75
383.085	2698.75
383.31	2670.75
383.535	2658.75
383.761	2706.75
383.986	2664.75
384.211	2725.75
384.436	2741.75
384.662	2824.75
384.887	2793.75
385.112	2787.75
385.337	2801.75
385.562	2809.75
385.787	2770.75
386.013	2812.75
386.238	2771.75
386.463	2759.75
386.688	2808.75
386.913	2729.75
387.138	2787.75
387.363	2765.75
387.588	2749.75
387.813	2769.75
388.038	2752.75
388.263	2777.75
388.488	2738.75
388.713	2746.75
388.938	2733.75
389.163	2724.75
389.387	2784.75
389.612	2703.75
389.837	2726.75
390.062	2794.75
390.287	2809.75
390.512	2753.75
390.736	2858.75
390.961	2837.75
391.186	2839.75
391.411	2905.75
391.636	2954.75
391.86	2933.75
392.085	2888.75
392.31	2866.75
392.534	2826.75
392.759	2792.75
392.984	2847.75
393.208	2797.75
393.433	2815.75
393.658	2739.75
393.882	2739.75
394.107	2810.75
394.331	2804.75
394.556	2789.75
394.78	2824.75
395.005	2820.75
395.229	2819.75
395.454	2867.75
395.678	2864.75
395.903	2819.75
396.127	2834.75
396.352	2878.75
396.576	2842.75
396.801	2819.75
397.025	2845.75
397.249	2893.75
397.474	2905.75
397.698	2895.75
397.922	2894.75
398.147	2918.75
398.371	2978.75
398.595	2993.75
398.82	3043.75
399.044	3181.75
399.268	3335.75
399.492	3526.75
399.717	3686.75
399.941	3673.75
400.165	3523.75
400.389	3424.75
400.613	3247.75
400.837	3138.75
401.062	3137.75
401.286	3070.75
401.51	3032.75
401.734	3024.75
401.958	3040.75
402.182	3036.75
402.406	3027.75
402.63	3084.75
402.854	3116.75
403.078	3081.75
403.302	3111.75
403.526	3136.75
403.75	3113.75
403.974	3186.75
404.198	3075.75
404.422	3142.75
404.645	3154.75
404.869	3136.75
405.093	3193.75
405.317	3174.75
405.541	3238.75
405.765	3208.75
405.988	3269.75
406.212	3285.75
406.436	3215.75
406.66	3268.75
406.883	3298.75
407.107	3315.75
407.331	3394.75
407.555	3488.75
407.778	3443.75
408.002	3376.75
408.226	3393.75
408.449	3386.75
408.673	3249.75
408.896	3273.75
409.12	3234.75
409.344	3214.75
409.567	3144.75
409.791	3181.75
410.014	3146.75
410.238	3146.75
410.461	3075.75
410.685	3133.75
410.908	3133.75
411.132	3077.75
411.355	3018.75
411.578	3026.75
411.802	3003.75
412.025	3031.75
412.249	3079.75
412.472	3041.75
412.695	2982.75
412.919	2937.75
413.142	3008.75
413.365	3025.75
413.589	2972.75
413.812	2949.75
414.035	2964.75
414.258	2978.75
414.482	2979.75
414.705	2990.75
414.928	2944.75
415.151	2968.75
415.374	2910.75
415.597	2894.75
415.821	2886.75
416.044	2830.75
416.267	2865.75
416.49	2895.75
416.713	2875.75
416.936	2877.75
417.159	2867.75
417.382	2798.75
417.605	2807.75
417.828	2848.75
418.051	2829.75
418.274	2873.75
418.497	2888.75
418.72	2968.75
418.943	2879.75
419.166	3034.75
419.389	3225.75
419.611	3158.75
419.834	3075.75
420.057	2929.75
420.28	2899.75
420.503	2889.75
420.726	2776.75
420.948	2837.75
421.171	2837.75
421.394	2887.75
421.617	2839.75
421.839	2855.75
422.062	2885.75
422.285	2855.75
422.507	2903.75
422.73	2948.75
422.953	2945.75
423.175	2913.75
423.398	2943.75
423.621	2856.75
423.843	2953.75
424.066	2934.75
424.288	2848.75
424.511	2826.75
424.733	2886.75
424.956	2833.75
425.178	2776.75
425.401	2801.75
425.623	2818.75
425.846	2788.75
426.068	2778.75
426.291	2763.75
426.513	2770.75
426.735	2744.75
426.958	2696.75
427.18	2683.75
427.402	2751.75
427.625	2705.75
427.847	2687.75
428.069	2640.75
428.292	2705.75
428.514	2681.75
428.736	2638.75
428.958	2652.75
429.181	2589.75
429.403	2643.75
429.625	2671.75
429.847	2666.75
430.069	2744.75
430.292	2757.75
430.514	2862.75
430.736	2808.75
430.958	2685.75
431.18	2647.75
431.402	2618.75
431.624	2594.75
431.846	2613.75
432.068	2626.75
432.29	2583.75
432.512	2539.75
432.734	2640.75
432.956	2607.75
433.178	2625.75
433.4	2637.75
433.622	2656.75
433.844	2669.75
434.066	2660.75
434.287	2617.75
434.509	2687.75
434.731	2693.75
434.953	2728.75
435.175	2754.75
435.397	2745.75
435.618	2693.75
435.84	2673.75
436.062	2606.75
436.284	2575.75
436.505	2599.75
436.727	2597.75
436.949	2622.75
437.17	2606.75
437.392	2622.75
437.614	2578.75
437.835	2506.75
438.057	2539.75
438.278	2484.75
438.5	2496.75
438.721	2590.75
438.943	2661.75
439.165	2688.75
439.386	2700.75
439.608	2687.75
439.829	2693.75
440.05	2819.75
440.272	2848.75
440.493	2708.75
440.715	2672.75
440.936	2730.75
441.158	2758.75
441.379	2747.75
441.6	2825.75
441.822	2904.75
442.043	3027.75
442.264	3130.75
442.486	2979.75
442.707	2875.75
442.928	2793.75
443.149	2775.75
443.371	2738.75
443.592	2833.75
443.813	2821.75
444.034	2853.75
444.255	2898.75
444.476	2919.75
444.698	2982.75
444.919	3022.75
445.14	3089.75
445.361	2972.75
445.582	2895.75
445.803	2806.75
446.024	2802.75
446.245	2800.75
446.466	2806.75
446.687	2722.75
446.908	2769.75
447.129	2691.75
447.35	2621.75
447.571	2644.75
447.792	2550.75
448.013	2626.75
448.234	2614.75
448.455	2528.75
448.675	2639.75
448.896	2689.75
449.117	2760.75
449.338	2923.75
449.559	3048.75
449.779	2742.75
450	2638.75
450.221	2557.75
450.442	2518.75
450.662	2563.75
450.883	2571.75
451.104	2467.75
451.324	2483.75
451.545	2555.75
451.766	2525.75
451.986	2521.75
452.207	2768.75
452.428	3585.75
452.648	5377.75
452.869	4474.75
453.089	3125.75
453.31	2929.75
453.53	2920.75
453.751	2968.75
453.971	3135.75
454.192	3030.75
454.412	2612.75
454.633	2555.75
454.853	2475.75
455.073	2433.75
455.294	2431.75
455.514	2395.75
455.734	2392.75
455.955	2372.75
456.175	2456.75
456.395	2397.75
456.616	2427.75
456.836	2449.75
457.056	2501.75
457.276	2489.75
457.497	2656.75
457.717	2655.75
457.937	2577.75
458.157	2563.75
458.377	2531.75
458.598	2596.75
458.818	2620.75
459.038	2577.75
459.258	2560.75
459.478	2647.75
459.698	2693.75
459.918	2662.75
460.138	2735.75
460.358	2809.75
460.578	2823.75
460.798	2871.75
461.018	2865.75
461.238	2848.75
461.458	2855.75
461.678	2888.75
461.898	2960.75
462.118	2963.75
462.338	3024.75
462.558	3041.75
462.777	3112.75
462.997	3218.75
463.217	3380.75
463.437	3445.75
463.657	3535.75
463.876	3510.75
464.096	3338.75
464.316	3209.75
464.536	3143.75
464.755	3034.75
464.975	3010.75
465.195	2895.75
465.414	2855.75
465.634	2754.75
465.854	2714.75
466.073	2683.75
466.293	2701.75
466.512	2655.75
466.732	2681.75
466.951	2751.75
467.171	2979.75
467.391	2922.75
467.61	2715.75
467.829	2577.75
468.049	2616.75
468.268	2574.75
468.488	2517.75
468.707	2543.75
468.927	2567.75
469.146	2485.75
469.365	2638.75
469.585	2628.75
469.804	2660.75
470.023	2706.75
470.243	2720.75
470.462	2829.75
470.681	2965.75
470.901	3314.75
471.12	3671.75
471.339	3647.75
471.558	3098.75
471.777	2908.75
471.997	2786.75
472.216	2658.75
472.435	2637.75
472.654	2600.75
472.873	2532.75
473.092	2615.75
473.311	2579.75
473.53	2613.75
473.749	2670.75
473.968	2735.75
474.187	2659.75
474.406	2593.75
474.625	2592.75
474.844	2585.75
475.063	2639.75
475.282	2563.75
475.501	2638.75
475.72	2657.75
475.939	2688.75
476.158	2767.75
476.377	2842.75
476.596	2714.75
476.814	2720.75
477.033	2692.75
477.252	2719.75
477.471	2780.75
477.69	2856.75
477.908	2918.75
478.127	2884.75
478.346	2960.75
478.564	3014.75
478.783	2983.75
479.002	3064.75
479.22	3081.75
479.439	3088.75
479.658	3110.75
479.876	3122.75
480.095	3153.75
480.313	3201.75
480.532	3134.75
480.751	3226.75
480.969	3174.75
481.188	3168.75
481.406	3128.75
481.624	3156.75
481.843	3134.75
482.061	3178.75
482.28	3133.75
482.498	3099.75
482.717	3110.75
482.935	3186.75
483.153	3219.75
483.372	3327.75
483.59	3271.75
483.808	3314.75
484.027	3345.75
484.245	3577.75
484.463	3927.75
484.681	4306.75
484.9	4007.75
485.118	3825.75
485.336	3678.75
485.554	3753.75
485.772	3963.75
485.99	4410.75
486.209	4753.75
486.427	4051.75
486.645	3649.75
486.863	3502.75
487.081	3440.75
487.299	3368.75
487.517	3334.75
487.735	3338.75
487.953	3346.75
