Data from SnStandardFlinnAPT0064_LampEnergy5.5_LIBS07252019.E.O._I.C._HRD10591_15-16-34-492.txt Node
Date: Thu Jul 25 15:16:34 EDT 2019
User: cochatt
Spectrometer: HR+D1059
Trigger mode: 1
Integration Time (sec): 1.000000E-1
Scans to average: 1
Electric dark correction enabled: true
Nonlinearity correction enabled: false
Boxcar width: 0
XAxis mode: Wavelengths
Number of Pixels in Spectrum: 2048
>>>>>Begin Spectral Data<<<<<
223.165	-10
223.4	-10
223.635	-10
223.869	-19
224.104	-21
224.338	-16
224.573	-12
224.808	-16
225.042	10
225.277	10
225.511	-9
225.746	12
225.98	4
226.215	4
226.449	16
226.683	-4
226.918	20
227.152	31
227.387	31
227.621	49
227.856	60
228.09	50
228.324	64
228.559	41
228.793	91
229.027	167
229.262	173
229.496	161
229.73	159
229.964	174
230.199	153
230.433	166
230.667	156
230.901	192
231.136	156
231.37	185
231.604	202
231.838	215
232.072	250
232.306	269
232.541	237
232.775	218
233.009	212
233.243	221
233.477	238
233.711	260
233.945	284
234.179	264
234.413	231
234.647	224
234.881	216
235.115	256
235.349	299
235.583	345
235.817	445
236.051	430
236.285	309
236.519	249
236.753	248
236.987	249
237.221	238
237.455	228
237.689	227
237.922	244
238.156	233
238.39	232
238.624	246
238.858	245
239.091	226
239.325	249
239.559	247
239.793	249
240.027	238
240.26	267
240.494	265
240.728	291
240.961	280
241.195	317
241.429	297
241.662	330
241.896	360
242.13	409
242.363	535
242.597	680
242.83	656
243.064	651
243.298	771
243.531	634
243.765	399
243.998	341
244.232	311
244.465	317
244.699	302
244.932	305
245.166	320
245.399	305
245.633	309
245.866	332
246.099	315
246.333	325
246.566	311
246.8	298
247.033	307
247.266	318
247.5	312
247.733	311
247.966	318
248.2	328
248.433	391
248.666	413
248.899	422
249.133	357
249.366	397
249.599	412
249.832	440
250.066	486
250.299	389
250.532	372
250.765	346
250.998	344
251.231	350
251.465	332
251.698	342
251.931	348
252.164	341
252.397	363
252.63	372
252.863	364
253.096	359
253.329	376
253.562	354
253.795	341
254.028	378
254.261	384
254.494	401
254.727	454
254.96	563
255.193	535
255.426	430
255.659	387
255.892	415
256.124	393
256.357	384
256.59	392
256.823	436
257.056	474
257.289	568
257.521	620
257.754	531
257.987	423
258.22	416
258.452	409
258.685	396
258.918	430
259.151	448
259.383	498
259.616	538
259.849	524
260.081	481
260.314	456
260.547	458
260.779	418
261.012	438
261.244	447
261.477	441
261.71	451
261.942	449
262.175	470
262.407	473
262.64	473
262.872	488
263.105	522
263.337	551
263.57	558
263.802	568
264.035	574
264.267	567
264.499	600
264.732	632
264.964	637
265.197	616
265.429	635
265.661	657
265.894	688
266.126	771
266.358	836
266.591	806
266.823	678
267.055	642
267.287	632
267.52	615
267.752	597
267.984	581
268.216	567
268.448	575
268.681	549
268.913	547
269.145	551
269.377	556
269.609	558
269.841	574
270.073	599
270.306	693
270.538	925
270.77	1337
271.002	1630
271.234	1115
271.466	781
271.698	655
271.93	591
272.162	565
272.394	585
272.626	576
272.858	555
273.09	542
273.322	548
273.553	538
273.785	523
274.017	539
274.249	552
274.481	562
274.713	530
274.945	541
275.176	549
275.408	560
275.64	531
275.872	547
276.104	556
276.335	548
276.567	559
276.799	573
277.031	577
277.262	574
277.494	593
277.726	640
277.957	745
278.189	839
278.421	793
278.652	709
278.884	711
279.115	641
279.347	631
279.579	602
279.81	606
280.042	615
280.273	624
280.505	627
280.736	637
280.968	662
281.199	719
281.431	784
281.662	806
281.894	742
282.125	687
282.356	704
282.588	681
282.819	725
283.051	751
283.282	838
283.513	1023
283.745	1480
283.976	2359
284.207	3331
284.439	2953
284.67	1775
284.901	1386
285.132	1408
285.364	1344
285.595	1056
285.826	993
286.057	1145
286.288	1608
286.52	2123
286.751	1953
286.982	1235
287.213	921
287.444	819
287.675	777
287.906	760
288.138	754
288.369	739
288.6	714
288.831	687
289.062	715
289.293	716
289.524	722
289.755	723
289.986	733
290.217	731
290.448	742
290.679	734
290.91	750
291.141	759
291.371	819
291.602	871
291.833	797
292.064	739
292.295	740
292.526	716
292.757	711
292.987	698
293.218	686
293.449	688
293.68	685
293.91	677
294.141	675
294.372	673
294.603	689
294.833	673
295.064	676
295.295	692
295.525	693
295.756	662
295.987	665
296.217	702
296.448	683
296.679	699
296.909	678
297.14	703
297.37	725
297.601	713
297.831	704
298.062	696
298.292	708
298.523	708
298.753	709
298.984	735
299.214	757
299.445	742
299.675	757
299.905	791
300.136	819
300.366	886
300.597	1132
300.827	1587
301.057	2092
301.288	2057
301.518	1347
301.748	1030
301.979	953
302.209	905
302.439	923
302.669	1031
302.9	1219
303.13	1640
303.36	2388
303.59	3279
303.82	2821
304.051	1615
304.281	1157
304.511	1002
304.741	933
304.971	888
305.201	885
305.431	844
305.661	808
305.891	794
306.121	825
306.352	774
306.582	813
306.812	790
307.042	782
307.272	803
307.502	807
307.731	785
307.961	802
308.191	782
308.421	765
308.651	792
308.881	773
309.111	760
309.341	804
309.571	780
309.8	810
310.03	811
310.26	811
310.49	778
310.72	819
310.949	792
311.179	827
311.409	813
311.639	813
311.868	831
312.098	842
312.328	863
312.557	855
312.787	850
313.017	849
313.246	835
313.476	868
313.706	868
313.935	901
314.165	968
314.394	986
314.624	982
314.853	899
315.083	875
315.312	937
315.542	921
315.771	928
316.001	932
316.23	995
316.46	991
316.689	1063
316.919	1311
317.148	1923
317.377	2960
317.607	4343
317.836	4461
318.065	2531
318.295	1657
318.524	1335
318.753	1206
318.983	1121
319.212	1057
319.441	1026
319.67	1017
319.9	986
320.129	979
320.358	988
320.587	996
320.816	985
321.046	981
321.275	997
321.504	1026
321.733	1024
321.962	1045
322.191	1023
322.42	1049
322.649	1038
322.878	1057
323.108	1016
323.337	1060
323.566	1092
323.795	1117
324.024	1107
324.253	1123
324.482	1169
324.71	1235
324.939	1293
325.168	1333
325.397	1347
325.626	1605
325.855	2249
326.084	3558
326.313	5278
326.542	5502
326.77	3492
326.999	2283
327.228	1880
327.457	1843
327.686	1817
327.914	1966
328.143	2259
328.372	2580
328.6	2797
328.829	2604
329.058	2233
329.287	1958
329.515	1859
329.744	1731
329.972	1614
330.201	1584
330.43	1490
330.658	1477
330.887	1445
331.115	1435
331.344	1415
331.572	1412
331.801	1443
332.03	1419
332.258	1469
332.486	1518
332.715	1725
332.943	2123
333.172	2551
333.4	2528
333.629	1960
333.857	1769
334.085	1782
334.314	1869
334.542	2010
334.771	2334
334.999	2797
335.227	3428
335.455	3792
335.684	3497
335.912	2909
336.14	2519
336.369	2245
336.597	2104
336.825	1935
337.053	1827
337.281	1709
337.51	1639
337.738	1581
337.966	1531
338.194	1456
338.422	1427
338.65	1399
338.878	1377
339.106	1305
339.334	1365
339.562	1343
339.79	1303
340.018	1289
340.246	1252
340.474	1270
340.702	1249
340.93	1307
341.158	1261
341.386	1276
341.614	1257
341.842	1203
342.07	1206
342.298	1196
342.526	1206
342.754	1179
342.981	1149
343.209	1175
343.437	1164
343.665	1180
343.893	1199
344.12	1191
344.348	1175
344.576	1139
344.804	1147
345.031	1125
345.259	1126
345.487	1097
345.714	1082
345.942	1094
346.17	1109
346.397	1090
346.625	1077
346.853	1047
347.08	1091
347.308	1101
347.535	1069
347.763	1075
347.99	1095
348.218	1052
348.445	1087
348.673	1077
348.9	1044
349.128	1050
349.355	1063
349.583	1031
349.81	1036
350.037	1063
350.265	1040
350.492	1018
350.72	1031
350.947	1026
351.174	1012
351.402	1030
351.629	1054
351.856	1037
352.083	1015
352.311	1053
352.538	1031
352.765	1049
352.992	1015
353.22	1006
353.447	1013
353.674	1026
353.901	1017
354.128	1042
354.355	1016
354.583	1043
354.81	1027
355.037	1033
355.264	1052
355.491	1070
355.718	1050
355.945	1037
356.172	1038
356.399	1061
356.626	1059
356.853	1087
357.08	1065
357.307	1097
357.534	1127
357.761	1083
357.988	1104
358.215	1105
358.441	1085
358.668	1079
358.895	1097
359.122	1068
359.349	1094
359.576	1086
359.802	1107
360.029	1084
360.256	1079
360.483	1052
360.709	1073
360.936	1075
361.163	1109
361.39	1111
361.616	1094
361.843	1091
362.07	1104
362.296	1102
362.523	1079
362.749	1099
362.976	1085
363.203	1067
363.429	1093
363.656	1086
363.882	1070
364.109	1089
364.335	1088
364.562	1086
364.788	1106
365.015	1140
365.241	1128
365.468	1143
365.694	1218
365.92	1204
366.147	1122
366.373	1115
366.599	1113
366.826	1104
367.052	1100
367.278	1108
367.505	1115
367.731	1125
367.957	1105
368.184	1122
368.41	1111
368.636	1125
368.862	1169
369.089	1095
369.315	1124
369.541	1140
369.767	1118
369.993	1120
370.219	1123
370.445	1146
370.672	1151
370.898	1152
371.124	1161
371.35	1169
371.576	1185
371.802	1187
372.028	1195
372.254	1185
372.48	1223
372.706	1215
372.932	1179
373.158	1175
373.384	1196
373.61	1185
373.835	1185
374.061	1200
374.287	1211
374.513	1213
374.739	1240
374.965	1242
375.191	1250
375.416	1230
375.642	1217
375.868	1219
376.094	1165
376.319	1181
376.545	1216
376.771	1169
376.997	1173
377.222	1197
377.448	1159
377.674	1179
377.899	1184
378.125	1162
378.35	1188
378.576	1179
378.802	1227
379.027	1191
379.253	1228
379.478	1287
379.704	1467
379.929	2090
380.155	3101
380.38	3321
380.606	2085
380.831	1466
381.057	1320
381.282	1235
381.507	1215
381.733	1184
381.958	1177
382.184	1187
382.409	1159
382.634	1150
382.86	1157
383.085	1139
383.31	1159
383.535	1151
383.761	1176
383.986	1159
384.211	1205
384.436	1203
384.662	1198
384.887	1216
385.112	1183
385.337	1193
385.562	1191
385.787	1185
386.013	1197
386.238	1243
386.463	1162
386.688	1223
386.913	1205
387.138	1207
387.363	1206
387.588	1185
387.813	1166
388.038	1195
388.263	1207
388.488	1205
388.713	1219
388.938	1173
389.163	1221
389.387	1206
389.612	1207
389.837	1210
390.062	1193
390.287	1213
390.512	1208
390.736	1225
390.961	1253
391.186	1241
391.411	1238
391.636	1243
391.86	1251
392.085	1243
392.31	1291
392.534	1255
392.759	1245
392.984	1221
393.208	1293
393.433	1265
393.658	1237
393.882	1209
394.107	1204
394.331	1220
394.556	1253
394.78	1246
395.005	1224
395.229	1210
395.454	1283
395.678	1246
395.903	1245
396.127	1263
396.352	1219
396.576	1233
396.801	1305
397.025	1286
397.249	1298
397.474	1305
397.698	1274
397.922	1305
398.147	1257
398.371	1300
398.595	1339
398.82	1347
399.044	1417
399.268	1475
399.492	1548
399.717	1584
399.941	1591
400.165	1518
400.389	1480
400.613	1405
400.837	1386
401.062	1354
401.286	1321
401.51	1343
401.734	1327
401.958	1328
402.182	1338
402.406	1348
402.63	1336
402.854	1343
403.078	1369
403.302	1359
403.526	1382
403.75	1345
403.974	1413
404.198	1400
404.422	1360
404.645	1394
404.869	1398
405.093	1377
405.317	1376
405.541	1380
405.765	1421
405.988	1410
406.212	1419
406.436	1408
406.66	1429
406.883	1409
407.107	1462
407.331	1455
407.555	1507
407.778	1518
408.002	1477
408.226	1468
408.449	1465
408.673	1442
408.896	1413
409.12	1420
409.344	1417
409.567	1431
409.791	1407
410.014	1397
410.238	1342
410.461	1380
410.685	1374
410.908	1341
411.132	1343
411.355	1352
411.578	1328
411.802	1308
412.025	1319
412.249	1317
412.472	1367
412.695	1318
412.919	1310
413.142	1303
413.365	1325
413.589	1317
413.812	1289
414.035	1289
414.258	1315
414.482	1333
414.705	1322
414.928	1310
415.151	1279
415.374	1312
415.597	1285
415.821	1254
416.044	1264
416.267	1252
416.49	1268
416.713	1285
416.936	1263
417.159	1255
417.382	1233
417.605	1268
417.828	1246
418.051	1244
418.274	1239
418.497	1251
418.72	1317
418.943	1274
419.166	1339
419.389	1412
419.611	1356
419.834	1370
420.057	1308
420.28	1285
420.503	1246
420.726	1264
420.948	1260
421.171	1230
421.394	1282
421.617	1249
421.839	1281
422.062	1272
422.285	1255
422.507	1293
422.73	1299
422.953	1292
423.175	1304
423.398	1304
423.621	1218
423.843	1243
424.066	1291
424.288	1275
424.511	1271
424.733	1270
424.956	1240
425.178	1255
425.401	1235
425.623	1272
425.846	1225
426.068	1240
426.291	1209
426.513	1196
426.735	1220
426.958	1226
427.18	1167
427.402	1203
427.625	1233
427.847	1180
428.069	1176
428.292	1201
428.514	1168
428.736	1187
428.958	1189
429.181	1138
429.403	1139
429.625	1175
429.847	1169
430.069	1168
430.292	1218
430.514	1242
430.736	1227
430.958	1200
431.18	1190
431.402	1181
431.624	1163
431.846	1150
432.068	1161
432.29	1141
432.512	1158
432.734	1150
432.956	1155
433.178	1198
433.4	1190
433.622	1196
433.844	1191
434.066	1207
434.287	1166
434.509	1156
434.731	1186
434.953	1212
435.175	1213
435.397	1231
435.618	1168
435.84	1204
436.062	1158
436.284	1188
436.505	1163
436.727	1185
436.949	1147
437.17	1155
437.392	1118
437.614	1139
437.835	1108
438.057	1141
438.278	1123
438.5	1128
438.721	1155
438.943	1166
439.165	1189
439.386	1185
439.608	1223
439.829	1223
440.05	1231
440.272	1240
440.493	1192
440.715	1190
440.936	1244
441.158	1233
441.379	1230
441.6	1280
441.822	1317
442.043	1341
442.264	1406
442.486	1301
442.707	1267
442.928	1231
443.149	1251
443.371	1235
443.592	1232
443.813	1254
444.034	1255
444.255	1299
444.476	1304
444.698	1327
444.919	1373
445.14	1416
445.361	1328
445.582	1276
445.803	1251
446.024	1228
446.245	1258
446.466	1238
446.687	1237
446.908	1264
447.129	1208
447.35	1160
447.571	1221
447.792	1160
448.013	1174
448.234	1154
448.455	1141
448.675	1159
448.896	1157
449.117	1199
449.338	1335
449.559	1396
449.779	1191
450	1158
450.221	1153
450.442	1136
450.662	1107
450.883	1135
451.104	1142
451.324	1110
451.545	1116
451.766	1129
451.986	1123
452.207	1190
452.428	1451
452.648	2061
452.869	1770
453.089	1283
453.31	1228
453.53	1225
453.751	1259
453.971	1343
454.192	1333
454.412	1141
454.633	1124
454.853	1114
455.073	1078
455.294	1071
455.514	1075
455.734	1040
455.955	1050
456.175	1065
456.395	1055
456.616	1039
456.836	1083
457.056	1066
457.276	1063
457.497	1133
457.717	1128
457.937	1104
458.157	1139
458.377	1117
458.598	1120
458.818	1118
459.038	1146
459.258	1153
459.478	1157
459.698	1169
459.918	1149
460.138	1198
460.358	1233
460.578	1191
460.798	1283
461.018	1260
461.238	1241
461.458	1272
461.678	1262
461.898	1294
462.118	1325
462.338	1312
462.558	1329
462.777	1372
462.997	1393
463.217	1454
463.437	1481
463.657	1527
463.876	1508
464.096	1378
464.316	1414
464.536	1411
464.755	1365
464.975	1310
465.195	1254
465.414	1262
465.634	1220
465.854	1206
466.073	1212
466.293	1163
466.512	1192
466.732	1168
466.951	1236
467.171	1311
467.391	1296
467.61	1199
467.829	1185
468.049	1154
468.268	1168
468.488	1162
468.707	1150
468.927	1152
469.146	1139
469.365	1149
469.585	1158
469.804	1195
470.023	1215
470.243	1218
470.462	1249
470.681	1314
470.901	1384
471.12	1631
471.339	1639
471.558	1406
471.777	1262
471.997	1229
472.216	1189
472.435	1172
472.654	1109
472.873	1115
473.092	1146
473.311	1121
473.53	1149
473.749	1203
473.968	1217
474.187	1160
474.406	1123
474.625	1139
474.844	1158
475.063	1186
475.282	1163
475.501	1156
475.72	1163
475.939	1180
476.158	1225
476.377	1211
476.596	1196
476.814	1189
477.033	1232
477.252	1225
477.471	1240
477.69	1264
477.908	1284
478.127	1295
478.346	1311
478.564	1339
478.783	1321
479.002	1348
479.22	1340
479.439	1374
479.658	1341
479.876	1367
480.095	1337
480.313	1396
480.532	1388
480.751	1385
480.969	1357
481.188	1362
481.406	1335
481.624	1341
481.843	1349
482.061	1392
482.28	1374
482.498	1334
482.717	1344
482.935	1382
483.153	1381
483.372	1405
483.59	1449
483.808	1430
484.027	1461
484.245	1543
484.463	1747
484.681	1930
484.9	1733
485.118	1613
485.336	1582
485.554	1606
485.772	1652
485.99	1935
486.209	2065
486.427	1757
486.645	1576
486.863	1525
487.081	1475
487.299	1453
487.517	1466
487.735	1487
487.953	1521
488.171	1489
488.389	1495
488.607	1436
488.825	1443
489.043	1430
489.261	1394
489.479	1370
489.696	1415
489.914	1423
490.132	1406
490.35	1428
490.568	1445
490.786	1455
491.003	1495
491.221	1501
491.439	1495
491.657	1499
491.874	1503
492.092	1541
492.31	1514
492.527	1531
492.745	1483
492.963	1515
493.18	1511
493.398	1517
493.615	1562
493.833	1533
494.05	1507
494.268	1499
494.485	1514
494.703	1526
494.92	1490
495.138	1500
495.355	1493
495.573	1525
495.79	1528
496.008	1520
496.225	1520
496.442	1559
496.66	1611
496.877	1659
497.094	1678
497.312	1592
497.529	1611
497.746	1669
497.963	1657
498.181	1699
498.398	1721
498.615	1752
498.832	1826
499.049	1952
499.267	2070
499.484	2160
499.701	2175
499.918	2248
500.135	2389
500.352	2488
500.569	2551
500.786	2557
501.003	2431
501.22	2367
501.437	2234
501.654	2056
501.871	1975
502.088	1877
502.305	1832
502.522	1804
502.739	1748
502.956	1685
503.172	1616
503.389	1599
503.606	1617
503.823	1561
504.04	1549
504.256	1555
504.473	1565
504.69	1535
504.907	1505
505.123	1499
505.34	1447
505.557	1443
505.773	1432
505.99	1396
506.207	1377
506.423	1371
506.64	1371
506.856	1342
507.073	1357
507.289	1339
507.506	1341
507.722	1335
507.939	1305
508.155	1311
508.372	1312
508.588	1292
508.805	1307
509.021	1295
509.238	1308
509.454	1352
509.67	1435
509.887	1318
510.103	1295
510.319	1253
510.536	1287
510.752	1245
510.968	1243
511.184	1238
511.401	1250
511.617	1231
511.833	1209
512.049	1230
512.265	1211
512.481	1240
512.698	1216
512.914	1246
513.13	1215
513.346	1230
513.562	1229
513.778	1214
513.994	1236
514.21	1248
514.426	1335
514.642	1367
514.858	1322
515.074	1257
515.29	1217
515.506	1244
515.721	1271
515.937	1237
516.153	1296
516.369	1320
516.585	1302
516.801	1318
517.016	1390
517.232	1347
517.448	1373
517.664	1403
517.879	1395
518.095	1387
518.311	1379
518.527	1340
518.742	1377
518.958	1388
519.173	1402
519.389	1353
519.605	1302
519.82	1269
520.036	1290
520.251	1258
520.467	1266
520.682	1231
520.898	1223
521.113	1252
521.329	1234
521.544	1242
521.76	1184
521.975	1194
522.19	1224
522.406	1196
522.621	1204
522.836	1209
523.052	1195
523.267	1188
523.482	1235
523.698	1182
523.913	1188
524.128	1187
524.343	1179
524.559	1225
524.774	1165
524.989	1175
525.204	1217
525.419	1219
525.634	1191
525.849	1175
526.064	1188
526.28	1173
526.495	1170
526.71	1190
526.925	1185
527.14	1199
527.355	1169
527.57	1173
527.785	1195
527.999	1191
528.214	1199
528.429	1188
528.644	1226
528.859	1259
529.074	1229
529.289	1283
529.503	1320
529.718	1275
529.933	1257
530.148	1268
530.363	1273
530.577	1230
530.792	1265
531.007	1272
531.221	1265
531.436	1270
531.651	1285
531.865	1271
532.08	1297
532.295	1310
532.509	1411
532.724	1405
532.938	1408
533.153	1462
533.367	1524
533.582	1604
533.796	1587
534.011	1530
534.225	1494
534.44	1457
534.654	1425
534.868	1405
535.083	1431
535.297	1397
535.511	1367
535.726	1337
535.94	1323
536.154	1260
536.369	1302
536.583	1262
536.797	1231
537.011	1219
537.225	1204
537.44	1244
537.654	1224
537.868	1182
538.082	1177
538.296	1150
538.51	1172
538.724	1195
538.938	1159
539.153	1165
539.367	1191
539.581	1137
539.795	1143
540.009	1143
540.222	1144
540.436	1135
540.65	1166
540.864	1157
541.078	1198
541.292	1255
541.506	1487
541.72	1527
541.934	1351
542.147	1299
542.361	1188
542.575	1181
542.789	1159
543.002	1134
543.216	1097
543.43	1139
543.644	1117
543.857	1142
544.071	1159
544.285	1120
544.498	1155
544.712	1125
544.925	1142
545.139	1151
545.352	1174
545.566	1146
545.779	1163
545.993	1159
