Data from SnStandardFlinnAPT0064_LampEnergy10_LIBS07252019.E.O._I.C._HRD10591_15-19-43-493.txt Node
Date: Thu Jul 25 15:19:43 EDT 2019
User: cochatt
Spectrometer: HR+D1059
Trigger mode: 1
Integration Time (sec): 1.000000E-1
Scans to average: 1
Electric dark correction enabled: true
Nonlinearity correction enabled: false
Boxcar width: 0
XAxis mode: Wavelengths
Number of Pixels in Spectrum: 2048
>>>>>Begin Spectral Data<<<<<
223.165	-24.56
223.4	-24.56
223.635	-24.56
223.869	-23.56
224.104	-25.56
224.338	-6.56
224.573	-6.56
224.808	-12.56
225.042	-7.56
225.277	-12.56
225.511	7.44
225.746	4.44
225.98	14.44
226.215	10.44
226.449	9.44
226.683	22.44
226.918	19.44
227.152	31.44
227.387	35.44
227.621	53.44
227.856	45.44
228.09	53.44
228.324	45.44
228.559	49.44
228.793	137.44
229.027	319.44
229.262	332.44
229.496	317.44
229.73	297.44
229.964	309.44
230.199	315.44
230.433	324.44
230.667	342.44
230.901	336.44
231.136	346.44
231.37	357.44
231.604	393.44
231.838	465.44
232.072	544.44
232.306	610.44
232.541	485.44
232.775	443.44
233.009	428.44
233.243	457.44
233.477	461.44
233.711	523.44
233.945	610.44
234.179	520.44
234.413	478.44
234.647	477.44
234.881	494.44
235.115	553.44
235.349	625.44
235.583	809.44
235.817	1113.44
236.051	1062.44
236.285	707.44
236.519	559.44
236.753	533.44
236.987	528.44
237.221	542.44
237.455	552.44
237.689	485.44
237.922	479.44
238.156	477.44
238.39	505.44
238.624	506.44
238.858	501.44
239.091	484.44
239.325	513.44
239.559	522.44
239.793	526.44
240.027	557.44
240.26	568.44
240.494	579.44
240.728	625.44
240.961	619.44
241.195	681.44
241.429	691.44
241.662	743.44
241.896	846.44
242.13	1011.44
242.363	1328.44
242.597	1711.44
242.83	1685.44
243.064	1640.44
243.298	1921.44
243.531	1573.44
243.765	1017.44
243.998	810.44
244.232	749.44
244.465	689.44
244.699	677.44
244.932	681.44
245.166	690.44
245.399	691.44
245.633	732.44
245.866	740.44
246.099	698.44
246.333	658.44
246.566	649.44
246.8	635.44
247.033	662.44
247.266	649.44
247.5	701.44
247.733	696.44
247.966	717.44
248.2	776.44
248.433	898.44
248.666	1029.44
248.899	996.44
249.133	891.44
249.366	887.44
249.599	968.44
249.832	1144.44
250.066	1099.44
250.299	886.44
250.532	799.44
250.765	757.44
250.998	759.44
251.231	721.44
251.465	758.44
251.698	755.44
251.931	759.44
252.164	774.44
252.397	740.44
252.63	800.44
252.863	820.44
253.096	792.44
253.329	803.44
253.562	795.44
253.795	795.44
254.028	814.44
254.261	855.44
254.494	890.44
254.727	1064.44
254.96	1290.44
255.193	1298.44
255.426	1010.44
255.659	912.44
255.892	896.44
256.124	892.44
256.357	908.44
256.59	923.44
256.823	1006.44
257.056	1142.44
257.289	1406.44
257.521	1565.44
257.754	1214.44
257.987	1012.44
258.22	935.44
258.452	935.44
258.685	929.44
258.918	963.44
259.151	1014.44
259.383	1105.44
259.616	1262.44
259.849	1322.44
260.081	1103.44
260.314	1002.44
260.547	990.44
260.779	951.44
261.012	958.44
261.244	987.44
261.477	991.44
261.71	991.44
261.942	1005.44
262.175	1006.44
262.407	1057.44
262.64	1045.44
262.872	1083.44
263.105	1143.44
263.337	1166.44
263.57	1228.44
263.802	1302.44
264.035	1274.44
264.267	1307.44
264.499	1399.44
264.732	1436.44
264.964	1424.44
265.197	1406.44
265.429	1437.44
265.661	1436.44
265.894	1612.44
266.126	1762.44
266.358	1946.44
266.591	1898.44
266.823	1596.44
267.055	1449.44
267.287	1397.44
267.52	1317.44
267.752	1293.44
267.984	1297.44
268.216	1265.44
268.448	1256.44
268.681	1249.44
268.913	1258.44
269.145	1202.44
269.377	1234.44
269.609	1248.44
269.841	1285.44
270.073	1382.44
270.306	1616.44
270.538	2195.44
270.77	3430.44
271.002	4166.44
271.234	3022.44
271.466	1981.44
271.698	1628.44
271.93	1461.44
272.162	1374.44
272.394	1312.44
272.626	1292.44
272.858	1254.44
273.09	1257.44
273.322	1218.44
273.553	1208.44
273.785	1190.44
274.017	1233.44
274.249	1238.44
274.481	1179.44
274.713	1206.44
274.945	1204.44
275.176	1217.44
275.408	1240.44
275.64	1242.44
275.872	1239.44
276.104	1257.44
276.335	1287.44
276.567	1281.44
276.799	1289.44
277.031	1298.44
277.262	1326.44
277.494	1434.44
277.726	1601.44
277.957	1937.44
278.189	2190.44
278.421	2045.44
278.652	1786.44
278.884	1710.44
279.115	1497.44
279.347	1477.44
279.579	1415.44
279.81	1437.44
280.042	1403.44
280.273	1448.44
280.505	1495.44
280.736	1554.44
280.968	1617.44
281.199	1812.44
281.431	2116.44
281.662	2163.44
281.894	1844.44
282.125	1695.44
282.356	1660.44
282.588	1718.44
282.819	1754.44
283.051	1866.44
283.282	2090.44
283.513	2601.44
283.745	3806.44
283.976	6037.44
284.207	8621.44
284.439	7878.44
284.67	4940.44
284.901	3966.44
285.132	3925.44
285.364	3749.44
285.595	2857.44
285.826	2541.44
286.057	3008.44
286.288	4106.44
286.52	5623.44
286.751	5185.44
286.982	3230.44
287.213	2412.44
287.444	2069.44
287.675	1934.44
287.906	1817.44
288.138	1753.44
288.369	1727.44
288.6	1718.44
288.831	1708.44
289.062	1689.44
289.293	1692.44
289.524	1683.44
289.755	1749.44
289.986	1740.44
290.217	1739.44
290.448	1702.44
290.679	1758.44
290.91	1802.44
291.141	1910.44
291.371	2056.44
291.602	2161.44
291.833	1978.44
292.064	1762.44
292.295	1700.44
292.526	1646.44
292.757	1667.44
292.987	1636.44
293.218	1580.44
293.449	1610.44
293.68	1588.44
293.91	1557.44
294.141	1575.44
294.372	1566.44
294.603	1586.44
294.833	1599.44
295.064	1615.44
295.295	1574.44
295.525	1623.44
295.756	1591.44
295.987	1544.44
296.217	1569.44
296.448	1576.44
296.679	1566.44
296.909	1596.44
297.14	1594.44
297.37	1625.44
297.601	1625.44
297.831	1632.44
298.062	1662.44
298.292	1665.44
298.523	1673.44
298.753	1735.44
298.984	1721.44
299.214	1743.44
299.445	1773.44
299.675	1831.44
299.905	1880.44
300.136	1943.44
300.366	2219.44
300.597	2827.44
300.827	4091.44
301.057	5555.44
301.288	5518.44
301.518	3537.44
301.748	2703.44
301.979	2492.44
302.209	2300.44
302.439	2329.44
302.669	2564.44
302.9	3069.44
303.13	4378.44
303.36	6537.44
303.59	8743.44
303.82	7671.44
304.051	4513.44
304.281	3222.44
304.511	2629.44
304.741	2426.44
304.971	2259.44
305.201	2165.44
305.431	2037.44
305.661	2002.44
305.891	1890.44
306.121	1933.44
306.352	1943.44
306.582	1888.44
306.812	1862.44
307.042	1877.44
307.272	1839.44
307.502	1826.44
307.731	1777.44
307.961	1843.44
308.191	1813.44
308.421	1827.44
308.651	1805.44
308.881	1811.44
309.111	1830.44
309.341	1821.44
309.571	1846.44
309.8	1867.44
310.03	1875.44
310.26	1877.44
310.49	1827.44
310.72	1868.44
310.949	1875.44
311.179	1919.44
311.409	1924.44
311.639	1937.44
311.868	1955.44
312.098	1942.44
312.328	1987.44
312.557	2001.44
312.787	1974.44
313.017	1972.44
313.246	2016.44
313.476	2047.44
313.706	2093.44
313.935	2234.44
314.165	2401.44
314.394	2509.44
314.624	2395.44
314.853	2206.44
315.083	2166.44
315.312	2217.44
315.542	2174.44
315.771	2243.44
316.001	2310.44
316.23	2373.44
316.46	2431.44
316.689	2748.44
316.919	3361.44
317.148	4889.44
317.377	7505.44
317.607	11035.44
317.836	11531.44
318.065	7087.44
318.295	4503.44
318.524	3613.44
318.753	3123.44
318.983	2831.44
319.212	2713.44
319.441	2589.44
319.67	2525.44
319.9	2465.44
320.129	2388.44
320.358	2364.44
320.587	2374.44
320.816	2371.44
321.046	2389.44
321.275	2370.44
321.504	2422.44
321.733	2430.44
321.962	2465.44
322.191	2539.44
322.42	2531.44
322.649	2508.44
322.878	2488.44
323.108	2546.44
323.337	2595.44
323.566	2549.44
323.795	2610.44
324.024	2700.44
324.253	2769.44
324.482	2893.44
324.71	3051.44
324.939	3317.44
325.168	3381.44
325.397	3487.44
325.626	4153.44
325.855	5857.44
326.084	9263.44
326.313	13203.44
326.542	14035.44
326.77	9675.44
326.999	6312.44
327.228	5260.44
327.457	4901.44
327.686	4910.44
327.914	5334.44
328.143	6146.44
328.372	7449.44
328.6	8069.44
328.829	7193.44
329.058	6024.44
329.287	5278.44
329.515	4737.44
329.744	4363.44
329.972	4150.44
330.201	3889.44
330.43	3753.44
330.658	3655.44
330.887	3552.44
331.115	3561.44
331.344	3515.44
331.572	3470.44
331.801	3484.44
332.03	3506.44
332.258	3585.44
332.486	3817.44
332.715	4330.44
332.943	5435.44
333.172	6884.44
333.4	6902.44
333.629	5123.44
333.857	4577.44
334.085	4553.44
334.314	4798.44
334.542	5200.44
334.771	6223.44
334.999	7690.44
335.227	9603.44
335.455	10826.44
335.684	9638.44
335.912	7899.44
336.14	6621.44
336.369	5859.44
336.597	5334.44
336.825	4895.44
337.053	4542.44
337.281	4290.44
337.51	4055.44
337.738	3920.44
337.966	3717.44
338.194	3623.44
338.422	3535.44
338.65	3459.44
338.878	3349.44
339.106	3207.44
339.334	3245.44
339.562	3172.44
339.79	3069.44
340.018	3089.44
340.246	3036.44
340.474	3016.44
340.702	3010.44
340.93	3026.44
341.158	3042.44
341.386	3041.44
341.614	2973.44
341.842	2889.44
342.07	2863.44
342.298	2819.44
342.526	2798.44
342.754	2697.44
342.981	2747.44
343.209	2709.44
343.437	2766.44
343.665	2761.44
343.893	2848.44
344.12	2858.44
344.348	2788.44
344.576	2717.44
344.804	2693.44
345.031	2613.44
345.259	2593.44
345.487	2552.44
345.714	2645.44
345.942	2527.44
346.17	2531.44
346.397	2507.44
346.625	2521.44
346.853	2496.44
347.08	2524.44
347.308	2513.44
347.535	2527.44
347.763	2502.44
347.99	2500.44
348.218	2445.44
348.445	2470.44
348.673	2447.44
348.9	2482.44
349.128	2471.44
349.355	2428.44
349.583	2441.44
349.81	2426.44
350.037	2406.44
350.265	2395.44
350.492	2440.44
350.72	2413.44
350.947	2406.44
351.174	2445.44
351.402	2431.44
351.629	2399.44
351.856	2360.44
352.083	2351.44
352.311	2379.44
352.538	2352.44
352.765	2351.44
352.992	2387.44
353.22	2338.44
353.447	2340.44
353.674	2334.44
353.901	2402.44
354.128	2402.44
354.355	2338.44
354.583	2412.44
354.81	2397.44
355.037	2407.44
355.264	2438.44
355.491	2456.44
355.718	2425.44
355.945	2425.44
356.172	2475.44
356.399	2437.44
356.626	2484.44
356.853	2510.44
357.08	2478.44
357.307	2518.44
357.534	2570.44
357.761	2604.44
357.988	2606.44
358.215	2487.44
358.441	2573.44
358.668	2554.44
358.895	2449.44
359.122	2511.44
359.349	2595.44
359.576	2513.44
359.802	2572.44
360.029	2545.44
360.256	2525.44
360.483	2590.44
360.709	2530.44
360.936	2585.44
361.163	2521.44
361.39	2518.44
361.616	2568.44
361.843	2526.44
362.07	2552.44
362.296	2560.44
362.523	2518.44
362.749	2532.44
362.976	2537.44
363.203	2495.44
363.429	2496.44
363.656	2575.44
363.882	2515.44
364.109	2483.44
364.335	2543.44
364.562	2507.44
364.788	2513.44
365.015	2543.44
365.241	2623.44
365.468	2817.44
365.694	2941.44
365.92	2857.44
366.147	2579.44
366.373	2596.44
366.599	2587.44
366.826	2577.44
367.052	2577.44
367.278	2586.44
367.505	2628.44
367.731	2585.44
367.957	2583.44
368.184	2590.44
368.41	2665.44
368.636	2635.44
368.862	2630.44
369.089	2652.44
369.315	2637.44
369.541	2627.44
369.767	2664.44
369.993	2633.44
370.219	2600.44
370.445	2627.44
370.672	2650.44
370.898	2646.44
371.124	2673.44
371.35	2699.44
371.576	2709.44
371.802	2700.44
372.028	2754.44
372.254	2759.44
372.48	2771.44
372.706	2771.44
372.932	2775.44
373.158	2751.44
373.384	2734.44
373.61	2750.44
373.835	2763.44
374.061	2765.44
374.287	2812.44
374.513	2767.44
374.739	2928.44
374.965	2841.44
375.191	2877.44
375.416	2862.44
375.642	2812.44
375.868	2790.44
376.094	2783.44
376.319	2750.44
376.545	2718.44
376.771	2741.44
376.997	2727.44
377.222	2730.44
377.448	2726.44
377.674	2721.44
377.899	2711.44
378.125	2757.44
378.35	2725.44
378.576	2702.44
378.802	2753.44
379.027	2805.44
379.253	2912.44
379.478	3066.44
379.704	3666.44
379.929	5274.44
380.155	8259.44
380.38	9167.44
380.606	5511.44
380.831	3843.44
381.057	3294.44
381.282	3073.44
381.507	2823.44
381.733	2811.44
381.958	2810.44
382.184	2743.44
382.409	2645.44
382.634	2674.44
382.86	2673.44
383.085	2686.44
383.31	2652.44
383.535	2664.44
383.761	2667.44
383.986	2710.44
384.211	2719.44
384.436	2767.44
384.662	2767.44
384.887	2799.44
385.112	2763.44
385.337	2821.44
385.562	2758.44
385.787	2726.44
386.013	2785.44
386.238	2761.44
386.463	2793.44
386.688	2774.44
386.913	2750.44
387.138	2738.44
387.363	2797.44
387.588	2753.44
387.813	2781.44
388.038	2706.44
388.263	2748.44
388.488	2762.44
388.713	2772.44
388.938	2709.44
389.163	2689.44
389.387	2747.44
389.612	2716.44
389.837	2773.44
390.062	2753.44
390.287	2840.44
390.512	2775.44
390.736	2788.44
390.961	2917.44
391.186	2844.44
391.411	2872.44
391.636	2936.44
391.86	2913.44
392.085	2870.44
392.31	2880.44
392.534	2894.44
392.759	2861.44
392.984	2837.44
393.208	2839.44
393.433	2882.44
393.658	2814.44
393.882	2780.44
394.107	2770.44
394.331	2795.44
394.556	2805.44
394.78	2873.44
395.005	2839.44
395.229	2823.44
395.454	2811.44
395.678	2905.44
395.903	2821.44
396.127	2891.44
396.352	2874.44
396.576	2848.44
396.801	2834.44
397.025	2906.44
397.249	2855.44
397.474	2919.44
397.698	2897.44
397.922	2946.44
398.147	2913.44
398.371	3015.44
398.595	2971.44
398.82	3009.44
399.044	3182.44
399.268	3274.44
399.492	3533.44
399.717	3633.44
399.941	3606.44
400.165	3443.44
400.389	3398.44
400.613	3221.44
400.837	3132.44
401.062	3081.44
401.286	2993.44
401.51	3051.44
401.734	3006.44
401.958	3013.44
402.182	2974.44
402.406	2957.44
402.63	2985.44
402.854	3039.44
403.078	3051.44
403.302	3104.44
403.526	3121.44
403.75	3125.44
403.974	3079.44
404.198	3111.44
404.422	3106.44
404.645	3161.44
404.869	3181.44
405.093	3131.44
405.317	3090.44
405.541	3171.44
405.765	3224.44
405.988	3297.44
406.212	3238.44
406.436	3203.44
406.66	3262.44
406.883	3237.44
407.107	3293.44
407.331	3354.44
407.555	3449.44
407.778	3387.44
408.002	3365.44
408.226	3355.44
408.449	3378.44
408.673	3283.44
408.896	3267.44
409.12	3260.44
409.344	3201.44
409.567	3169.44
409.791	3195.44
410.014	3157.44
410.238	3134.44
410.461	3099.44
410.685	3096.44
410.908	3095.44
411.132	3113.44
411.355	3016.44
411.578	3061.44
411.802	3031.44
412.025	3004.44
412.249	3034.44
412.472	3005.44
412.695	2969.44
412.919	2931.44
413.142	2995.44
413.365	3008.44
413.589	3019.44
413.812	2932.44
414.035	2938.44
414.258	2966.44
414.482	2953.44
414.705	3022.44
414.928	2967.44
415.151	2946.44
415.374	2921.44
415.597	2913.44
415.821	2886.44
416.044	2849.44
416.267	2845.44
416.49	2832.44
416.713	2839.44
416.936	2844.44
417.159	2787.44
417.382	2775.44
417.605	2810.44
417.828	2823.44
418.051	2860.44
418.274	2912.44
418.497	2893.44
418.72	2900.44
418.943	2844.44
419.166	3003.44
419.389	3150.44
419.611	3122.44
419.834	3081.44
420.057	2986.44
420.28	2930.44
420.503	2888.44
420.726	2857.44
420.948	2824.44
421.171	2821.44
421.394	2923.44
421.617	2878.44
421.839	2882.44
422.062	2922.44
422.285	2885.44
422.507	2889.44
422.73	2944.44
422.953	2939.44
423.175	2986.44
423.398	2972.44
423.621	2847.44
423.843	2883.44
424.066	2832.44
424.288	2860.44
424.511	2837.44
424.733	2867.44
424.956	2851.44
425.178	2778.44
425.401	2765.44
425.623	2816.44
425.846	2746.44
426.068	2758.44
426.291	2719.44
426.513	2688.44
426.735	2728.44
426.958	2784.44
427.18	2722.44
427.402	2744.44
427.625	2709.44
427.847	2614.44
428.069	2699.44
428.292	2764.44
428.514	2604.44
428.736	2609.44
428.958	2659.44
429.181	2637.44
429.403	2543.44
429.625	2611.44
429.847	2602.44
430.069	2701.44
430.292	2724.44
430.514	2850.44
430.736	2902.44
430.958	2696.44
431.18	2643.44
431.402	2639.44
431.624	2593.44
431.846	2575.44
432.068	2607.44
432.29	2611.44
432.512	2579.44
432.734	2655.44
432.956	2627.44
433.178	2656.44
433.4	2625.44
433.622	2642.44
433.844	2636.44
434.066	2651.44
434.287	2644.44
434.509	2656.44
434.731	2760.44
434.953	2707.44
435.175	2757.44
435.397	2755.44
435.618	2655.44
435.84	2660.44
436.062	2580.44
436.284	2655.44
436.505	2583.44
436.727	2634.44
436.949	2636.44
437.17	2631.44
437.392	2585.44
437.614	2551.44
437.835	2537.44
438.057	2535.44
438.278	2506.44
438.5	2607.44
438.721	2594.44
438.943	2666.44
439.165	2741.44
439.386	2777.44
439.608	2681.44
439.829	2744.44
440.05	2813.44
440.272	2880.44
440.493	2732.44
440.715	2685.44
440.936	2742.44
441.158	2743.44
441.379	2712.44
441.6	2851.44
441.822	2915.44
442.043	3114.44
442.264	3179.44
442.486	2940.44
442.707	2857.44
442.928	2804.44
443.149	2777.44
443.371	2796.44
443.592	2781.44
443.813	2840.44
444.034	2795.44
444.255	2876.44
444.476	2885.44
444.698	2934.44
444.919	3029.44
445.14	3023.44
445.361	2912.44
445.582	2891.44
445.803	2807.44
446.024	2763.44
446.245	2798.44
446.466	2805.44
446.687	2784.44
446.908	2735.44
447.129	2681.44
447.35	2666.44
447.571	2662.44
447.792	2583.44
448.013	2574.44
448.234	2598.44
448.455	2597.44
448.675	2641.44
448.896	2694.44
449.117	2845.44
449.338	3047.44
449.559	3208.44
449.779	2824.44
450	2605.44
450.221	2544.44
450.442	2576.44
450.662	2574.44
450.883	2465.44
451.104	2569.44
451.324	2531.44
451.545	2546.44
451.766	2564.44
451.986	2639.44
452.207	2837.44
452.428	3663.44
452.648	5678.44
452.869	4794.44
453.089	3271.44
453.31	3036.44
453.53	3017.44
453.751	3086.44
453.971	3246.44
454.192	3166.44
454.412	2694.44
454.633	2540.44
454.853	2493.44
455.073	2479.44
455.294	2453.44
455.514	2419.44
455.734	2425.44
455.955	2392.44
456.175	2410.44
456.395	2390.44
456.616	2392.44
456.836	2459.44
457.056	2453.44
457.276	2500.44
457.497	2629.44
457.717	2633.44
457.937	2535.44
458.157	2504.44
458.377	2548.44
458.598	2603.44
458.818	2582.44
459.038	2570.44
459.258	2585.44
459.478	2653.44
459.698	2674.44
459.918	2659.44
460.138	2708.44
460.358	2750.44
460.578	2778.44
460.798	2835.44
461.018	2861.44
461.238	2825.44
461.458	2901.44
461.678	2803.44
461.898	2939.44
462.118	2970.44
462.338	3049.44
462.558	3015.44
462.777	3148.44
462.997	3277.44
463.217	3390.44
463.437	3523.44
463.657	3572.44
463.876	3570.44
464.096	3385.44
464.316	3199.44
464.536	3116.44
464.755	3114.44
464.975	2991.44
465.195	2921.44
465.414	2854.44
465.634	2766.44
465.854	2739.44
466.073	2702.44
466.293	2673.44
466.512	2668.44
466.732	2685.44
466.951	2841.44
467.171	3028.44
467.391	3005.44
467.61	2711.44
467.829	2655.44
468.049	2615.44
468.268	2582.44
468.488	2582.44
468.707	2563.44
468.927	2583.44
469.146	2594.44
469.365	2655.44
469.585	2575.44
469.804	2678.44
470.023	2787.44
470.243	2788.44
470.462	2876.44
470.681	3032.44
470.901	3364.44
471.12	3852.44
471.339	3855.44
471.558	3193.44
471.777	2975.44
471.997	2771.44
472.216	2707.44
472.435	2651.44
472.654	2628.44
472.873	2547.44
473.092	2595.44
473.311	2610.44
473.53	2613.44
473.749	2689.44
473.968	2819.44
474.187	2676.44
474.406	2651.44
474.625	2593.44
474.844	2589.44
475.063	2654.44
475.282	2637.44
475.501	2633.44
475.72	2670.44
475.939	2701.44
476.158	2697.44
476.377	2788.44
476.596	2754.44
476.814	2753.44
477.033	2670.44
477.252	2773.44
477.471	2825.44
477.69	2877.44
477.908	2908.44
478.127	2996.44
478.346	2983.44
478.564	2970.44
478.783	2997.44
479.002	3073.44
479.22	3095.44
479.439	3078.44
479.658	3057.44
479.876	3145.44
480.095	3108.44
480.313	3195.44
480.532	3220.44
480.751	3231.44
480.969	3165.44
481.188	3140.44
481.406	3083.44
481.624	3150.44
481.843	3232.44
482.061	3181.44
482.28	3163.44
482.498	3168.44
482.717	3104.44
482.935	3195.44
483.153	3234.44
483.372	3255.44
483.59	3324.44
483.808	3358.44
484.027	3459.44
484.245	3625.44
484.463	4111.44
484.681	4650.44
484.9	4194.44
485.118	3897.44
485.336	3819.44
485.554	3819.44
485.772	4101.44
485.99	4641.44
486.209	5018.44
486.427	4250.44
486.645	3659.44
486.863	3470.44
487.081	3457.44
487.299	3412.44
487.517	3339.44
487.735	3379.44
