Data from SnStandardFlinnAPT0064_LampEnergy5.5_LIBS07252019.E.O._I.C._HRD10591_15-16-08-491.txt Node
Date: Thu Jul 25 15:16:08 EDT 2019
User: cochatt
Spectrometer: HR+D1059
Trigger mode: 1
Integration Time (sec): 1.000000E-1
Scans to average: 1
Electric dark correction enabled: true
Nonlinearity correction enabled: false
Boxcar width: 0
XAxis mode: Wavelengths
Number of Pixels in Spectrum: 2048
>>>>>Begin Spectral Data<<<<<
223.165	-9
223.4	-9
223.635	-9
223.869	-42
224.104	-31
224.338	-28
224.573	-12
224.808	-11
225.042	2
225.277	-12
225.511	-3
225.746	13
225.98	13
226.215	6
226.449	29
226.683	32
226.918	26
227.152	27
227.387	25
227.621	56
227.856	44
228.09	38
228.324	49
228.559	64
228.793	68
229.027	154
229.262	158
229.496	139
229.73	151
229.964	165
230.199	174
230.433	172
230.667	167
230.901	181
231.136	168
231.37	173
231.604	182
231.838	220
232.072	231
232.306	232
232.541	209
232.775	210
233.009	211
233.243	212
233.477	243
233.711	258
233.945	257
234.179	265
234.413	219
234.647	218
234.881	234
235.115	235
235.349	261
235.583	325
235.817	423
236.051	400
236.285	290
236.519	254
236.753	223
236.987	234
237.221	247
237.455	218
237.689	232
237.922	219
238.156	207
238.39	229
238.624	252
238.858	224
239.091	248
239.325	232
239.559	218
239.793	236
240.027	234
240.26	251
240.494	253
240.728	268
240.961	267
241.195	297
241.429	301
241.662	308
241.896	348
242.13	402
242.363	493
242.597	627
242.83	602
243.064	626
243.298	690
243.531	612
243.765	412
243.998	329
244.232	310
244.465	282
244.699	291
244.932	301
245.166	315
245.399	320
245.633	300
245.866	313
246.099	322
246.333	289
246.566	299
246.8	272
247.033	300
247.266	300
247.5	316
247.733	307
247.966	324
248.2	357
248.433	376
248.666	418
248.899	401
249.133	368
249.366	348
249.599	376
249.832	425
250.066	434
250.299	366
250.532	345
250.765	354
250.998	339
251.231	348
251.465	334
251.698	342
251.931	355
252.164	327
252.397	348
252.63	346
252.863	354
253.096	328
253.329	341
253.562	356
253.795	353
254.028	370
254.261	357
254.494	390
254.727	433
254.96	500
255.193	516
255.426	418
255.659	382
255.892	377
256.124	384
256.357	395
256.59	396
256.823	413
257.056	462
257.289	540
257.521	581
257.754	474
257.987	412
258.22	408
258.452	405
258.685	395
258.918	406
259.151	429
259.383	449
259.616	501
259.849	535
260.081	485
260.314	446
260.547	420
260.779	407
261.012	422
261.244	439
261.477	426
261.71	455
261.942	450
262.175	461
262.407	466
262.64	461
262.872	507
263.105	514
263.337	562
263.57	530
263.802	564
264.035	608
264.267	584
264.499	618
264.732	619
264.964	624
265.197	646
265.429	632
265.661	619
265.894	665
266.126	737
266.358	809
266.591	791
266.823	702
267.055	640
267.287	622
267.52	566
267.752	572
267.984	571
268.216	535
268.448	546
268.681	526
268.913	536
269.145	542
269.377	519
269.609	566
269.841	562
270.073	594
270.306	665
270.538	843
270.77	1245
271.002	1483
271.234	1065
271.466	729
271.698	622
271.93	580
272.162	557
272.394	545
272.626	563
272.858	530
273.09	536
273.322	538
273.553	529
273.785	537
274.017	538
274.249	537
274.481	515
274.713	516
274.945	536
275.176	517
275.408	534
275.64	549
275.872	532
276.104	544
276.335	555
276.567	548
276.799	552
277.031	569
277.262	590
277.494	588
277.726	632
277.957	731
278.189	822
278.421	743
278.652	696
278.884	673
279.115	619
279.347	624
279.579	602
279.81	625
280.042	604
280.273	611
280.505	619
280.736	635
280.968	637
281.199	702
281.431	774
281.662	788
281.894	707
282.125	677
282.356	692
282.588	694
282.819	686
283.051	744
283.282	806
283.513	988
283.745	1388
283.976	2197
284.207	3094
284.439	2717
284.67	1651
284.901	1398
285.132	1324
285.364	1276
285.595	1026
285.826	940
286.057	1093
286.288	1453
286.52	1965
286.751	1835
286.982	1117
287.213	898
287.444	806
287.675	745
287.906	726
288.138	712
288.369	704
288.6	710
288.831	708
289.062	692
289.293	715
289.524	716
289.755	730
289.986	710
290.217	706
290.448	718
290.679	723
290.91	752
291.141	756
291.371	799
291.602	784
291.833	753
292.064	723
292.295	702
292.526	700
292.757	699
292.987	670
293.218	677
293.449	691
293.68	697
293.91	672
294.141	670
294.372	670
294.603	659
294.833	679
295.064	652
295.295	681
295.525	670
295.756	658
295.987	655
296.217	671
296.448	690
296.679	672
296.909	654
297.14	690
297.37	688
297.601	698
297.831	689
298.062	696
298.292	683
298.523	716
298.753	734
298.984	714
299.214	757
299.445	742
299.675	730
299.905	773
300.136	765
300.366	857
300.597	1074
300.827	1488
301.057	1952
301.288	1881
301.518	1288
301.748	1006
301.979	931
302.209	892
302.439	899
302.669	960
302.9	1151
303.13	1566
303.36	2217
303.59	3005
303.82	2569
304.051	1566
304.281	1133
304.511	972
304.741	898
304.971	886
305.201	846
305.431	825
305.661	832
305.891	818
306.121	775
306.352	774
306.582	761
306.812	766
307.042	763
307.272	755
307.502	748
307.731	734
307.961	771
308.191	731
308.421	777
308.651	762
308.881	782
309.111	761
309.341	749
309.571	776
309.8	760
310.03	772
310.26	781
310.49	775
310.72	788
310.949	807
311.179	789
311.409	800
311.639	809
311.868	828
312.098	828
312.328	840
312.557	849
312.787	816
313.017	827
313.246	833
313.476	840
313.706	849
313.935	893
314.165	944
314.394	966
314.624	920
314.853	916
315.083	892
315.312	874
315.542	910
315.771	909
316.001	930
316.23	970
316.46	985
316.689	1042
316.919	1250
317.148	1802
317.377	2672
317.607	3957
317.836	4070
318.065	2404
318.295	1564
318.524	1284
318.753	1144
318.983	1077
319.212	1020
319.441	997
319.67	972
319.9	966
320.129	970
320.358	992
320.587	974
320.816	985
321.046	987
321.275	973
321.504	975
321.733	997
321.962	1021
322.191	1035
322.42	999
322.649	1020
322.878	997
323.108	1003
323.337	1073
323.566	1024
323.795	1064
324.024	1102
324.253	1107
324.482	1137
324.71	1188
324.939	1253
325.168	1266
325.397	1316
325.626	1541
325.855	2153
326.084	3312
326.313	4758
326.542	5106
326.77	3256
326.999	2187
327.228	1824
327.457	1756
327.686	1768
327.914	1887
328.143	2200
328.372	2562
328.6	2695
328.829	2510
329.058	2222
329.287	1997
329.515	1824
329.744	1684
329.972	1632
330.201	1560
330.43	1484
330.658	1454
330.887	1413
331.115	1408
331.344	1401
331.572	1371
331.801	1400
332.03	1408
332.258	1460
332.486	1484
332.715	1654
332.943	1958
333.172	2412
333.4	2413
333.629	1910
333.857	1751
334.085	1755
334.314	1841
334.542	1997
334.771	2295
334.999	2708
335.227	3277
335.455	3666
335.684	3386
335.912	2872
336.14	2509
336.369	2232
336.597	2074
336.825	1944
337.053	1805
337.281	1702
337.51	1615
337.738	1564
337.966	1499
338.194	1473
338.422	1410
338.65	1357
338.878	1389
339.106	1343
339.334	1328
339.562	1285
339.79	1265
340.018	1256
340.246	1236
340.474	1237
340.702	1230
340.93	1265
341.158	1272
341.386	1243
341.614	1195
341.842	1209
342.07	1180
342.298	1152
342.526	1130
342.754	1146
342.981	1136
343.209	1126
343.437	1174
343.665	1197
343.893	1198
344.12	1167
344.348	1146
344.576	1129
344.804	1112
345.031	1100
345.259	1109
345.487	1070
345.714	1078
345.942	1099
346.17	1081
346.397	1072
346.625	1050
346.853	1076
347.08	1051
347.308	1057
347.535	1064
347.763	1057
347.99	1051
348.218	1064
348.445	1022
348.673	1037
348.9	1039
349.128	1038
349.355	1011
349.583	1018
349.81	1028
350.037	1047
350.265	1013
350.492	1032
350.72	1009
350.947	1020
351.174	994
351.402	1009
351.629	992
351.856	1023
352.083	1027
352.311	989
352.538	1024
352.765	989
352.992	1016
353.22	996
353.447	974
353.674	1002
353.901	1012
354.128	1028
354.355	1015
354.583	1020
354.81	1013
355.037	1021
355.264	1016
355.491	1039
355.718	1032
355.945	1036
356.172	1035
356.399	1046
356.626	1035
356.853	1060
357.08	1057
357.307	1068
357.534	1062
357.761	1080
357.988	1076
358.215	1066
358.441	1067
358.668	1083
358.895	1069
359.122	1072
359.349	1092
359.576	1088
359.802	1085
360.029	1038
360.256	1064
360.483	1071
360.709	1055
360.936	1096
361.163	1074
361.39	1067
361.616	1085
361.843	1081
362.07	1092
362.296	1061
362.523	1065
362.749	1054
362.976	1069
363.203	1064
363.429	1066
363.656	1079
363.882	1068
364.109	1049
364.335	1084
364.562	1064
364.788	1074
365.015	1057
365.241	1125
365.468	1134
365.694	1174
365.92	1159
366.147	1060
366.373	1077
366.599	1100
366.826	1101
367.052	1086
367.278	1110
367.505	1112
367.731	1068
367.957	1122
368.184	1115
368.41	1129
368.636	1133
368.862	1119
369.089	1114
369.315	1127
369.541	1101
369.767	1105
369.993	1112
370.219	1128
370.445	1136
370.672	1134
370.898	1118
371.124	1125
371.35	1139
371.576	1126
371.802	1140
372.028	1157
372.254	1144
372.48	1169
372.706	1202
372.932	1180
373.158	1154
373.384	1182
373.61	1175
373.835	1216
374.061	1192
374.287	1184
374.513	1185
374.739	1225
374.965	1218
375.191	1222
375.416	1230
375.642	1180
375.868	1194
376.094	1205
376.319	1169
376.545	1174
376.771	1182
376.997	1162
377.222	1138
377.448	1176
377.674	1185
377.899	1138
378.125	1172
378.35	1173
378.576	1154
378.802	1168
379.027	1164
379.253	1203
379.478	1279
379.704	1466
379.929	1935
380.155	2883
380.38	3074
380.606	1972
380.831	1449
381.057	1288
381.282	1195
381.507	1194
381.733	1164
381.958	1170
382.184	1214
382.409	1137
382.634	1141
382.86	1123
383.085	1147
383.31	1131
383.535	1150
383.761	1156
383.986	1185
384.211	1177
384.436	1228
384.662	1200
384.887	1187
385.112	1209
385.337	1188
385.562	1213
385.787	1186
386.013	1202
386.238	1188
386.463	1190
386.688	1196
386.913	1140
387.138	1165
387.363	1172
387.588	1196
387.813	1212
388.038	1178
388.263	1170
388.488	1196
388.713	1184
388.938	1205
389.163	1163
389.387	1192
389.612	1194
389.837	1205
390.062	1193
390.287	1187
390.512	1189
390.736	1224
390.961	1241
391.186	1208
391.411	1234
391.636	1262
391.86	1252
392.085	1218
392.31	1256
392.534	1241
392.759	1242
392.984	1223
393.208	1234
393.433	1239
393.658	1221
393.882	1186
394.107	1212
394.331	1227
394.556	1216
394.78	1221
395.005	1229
395.229	1227
395.454	1218
395.678	1231
395.903	1207
396.127	1209
396.352	1239
396.576	1244
396.801	1259
397.025	1283
397.249	1252
397.474	1272
397.698	1243
397.922	1261
398.147	1247
398.371	1264
398.595	1280
398.82	1313
399.044	1384
399.268	1440
399.492	1515
399.717	1597
399.941	1607
400.165	1505
400.389	1463
400.613	1381
400.837	1346
401.062	1350
401.286	1318
401.51	1337
401.734	1308
401.958	1307
402.182	1337
402.406	1301
402.63	1304
402.854	1317
403.078	1340
403.302	1355
403.526	1348
403.75	1329
403.974	1367
404.198	1371
404.422	1377
404.645	1358
404.869	1371
405.093	1374
405.317	1361
405.541	1395
405.765	1373
405.988	1360
406.212	1380
406.436	1385
406.66	1416
406.883	1397
407.107	1442
407.331	1460
407.555	1484
407.778	1451
408.002	1472
408.226	1438
408.449	1453
408.673	1407
408.896	1411
409.12	1361
409.344	1381
409.567	1354
409.791	1377
410.014	1369
410.238	1358
410.461	1341
410.685	1360
410.908	1328
411.132	1318
411.355	1315
411.578	1326
411.802	1321
412.025	1282
412.249	1334
412.472	1305
412.695	1292
412.919	1301
413.142	1298
413.365	1323
413.589	1272
413.812	1282
414.035	1284
414.258	1307
414.482	1281
414.705	1300
414.928	1303
415.151	1286
415.374	1265
415.597	1283
415.821	1246
416.044	1227
416.267	1257
416.49	1247
416.713	1246
416.936	1285
417.159	1199
417.382	1269
417.605	1210
417.828	1222
418.051	1237
418.274	1283
418.497	1228
418.72	1262
418.943	1245
419.166	1307
419.389	1397
419.611	1337
419.834	1330
420.057	1291
420.28	1276
420.503	1234
420.726	1268
420.948	1211
421.171	1248
421.394	1261
421.617	1277
421.839	1279
422.062	1288
422.285	1237
422.507	1254
422.73	1298
422.953	1268
423.175	1255
423.398	1294
423.621	1242
423.843	1280
424.066	1281
424.288	1257
424.511	1238
424.733	1242
424.956	1266
425.178	1241
425.401	1215
425.623	1242
425.846	1208
426.068	1219
426.291	1196
426.513	1200
426.735	1217
426.958	1213
427.18	1174
427.402	1190
427.625	1235
427.847	1163
428.069	1157
428.292	1180
428.514	1160
428.736	1161
428.958	1179
429.181	1138
429.403	1148
429.625	1152
429.847	1148
430.069	1190
430.292	1192
430.514	1221
430.736	1224
430.958	1177
431.18	1139
431.402	1132
431.624	1103
431.846	1103
432.068	1100
432.29	1133
432.512	1140
432.734	1144
432.956	1155
433.178	1142
433.4	1152
433.622	1150
433.844	1132
434.066	1160
434.287	1156
434.509	1165
434.731	1155
434.953	1166
435.175	1162
435.397	1203
435.618	1173
435.84	1130
436.062	1136
436.284	1118
436.505	1128
436.727	1119
436.949	1149
437.17	1146
437.392	1112
437.614	1110
437.835	1113
438.057	1110
438.278	1092
438.5	1140
438.721	1147
438.943	1182
439.165	1184
439.386	1178
439.608	1195
439.829	1194
440.05	1175
440.272	1219
440.493	1201
440.715	1186
440.936	1202
441.158	1213
441.379	1186
441.6	1251
441.822	1291
442.043	1360
442.264	1345
442.486	1265
442.707	1253
442.928	1227
443.149	1219
443.371	1217
443.592	1268
443.813	1216
444.034	1249
444.255	1261
444.476	1283
444.698	1304
444.919	1330
445.14	1380
445.361	1312
445.582	1269
445.803	1228
446.024	1219
446.245	1256
446.466	1240
446.687	1190
446.908	1207
447.129	1185
447.35	1178
447.571	1170
447.792	1133
448.013	1147
448.234	1096
448.455	1100
448.675	1179
448.896	1166
449.117	1208
449.338	1311
449.559	1316
449.779	1216
450	1134
450.221	1125
450.442	1126
450.662	1094
450.883	1088
451.104	1114
451.324	1080
451.545	1105
451.766	1123
451.986	1093
452.207	1165
452.428	1402
452.648	1911
452.869	1669
453.089	1302
453.31	1202
453.53	1224
453.751	1251
453.971	1294
454.192	1270
454.412	1108
454.633	1111
454.853	1062
455.073	1068
455.294	1061
455.514	1043
455.734	1061
455.955	1072
456.175	1046
456.395	1066
456.616	1082
456.836	1045
457.056	1084
457.276	1057
457.497	1125
457.717	1137
457.937	1100
458.157	1096
458.377	1143
458.598	1110
458.818	1106
459.038	1113
459.258	1146
459.478	1161
459.698	1186
459.918	1136
460.138	1180
460.358	1197
460.578	1254
460.798	1217
461.018	1245
461.238	1245
461.458	1260
461.678	1244
461.898	1272
462.118	1289
462.338	1301
462.558	1312
462.777	1369
462.997	1408
463.217	1418
463.437	1500
463.657	1495
463.876	1470
464.096	1366
464.316	1380
464.536	1377
464.755	1355
464.975	1301
465.195	1235
465.414	1233
465.634	1197
465.854	1193
466.073	1179
466.293	1130
466.512	1167
466.732	1174
466.951	1207
467.171	1263
467.391	1238
467.61	1177
467.829	1122
468.049	1120
468.268	1115
468.488	1120
468.707	1123
468.927	1151
469.146	1107
469.365	1121
469.585	1126
469.804	1147
470.023	1180
470.243	1196
470.462	1230
470.681	1276
470.901	1373
471.12	1570
471.339	1594
471.558	1316
471.777	1234
471.997	1188
472.216	1146
472.435	1149
472.654	1131
472.873	1106
473.092	1082
473.311	1104
473.53	1126
473.749	1171
473.968	1194
474.187	1150
474.406	1101
474.625	1126
474.844	1161
475.063	1157
475.282	1146
475.501	1150
475.72	1125
475.939	1147
476.158	1152
476.377	1193
476.596	1158
476.814	1188
477.033	1172
477.252	1218
477.471	1191
477.69	1230
477.908	1260
478.127	1327
478.346	1290
478.564	1328
478.783	1300
479.002	1325
479.22	1325
479.439	1365
479.658	1337
479.876	1336
480.095	1348
480.313	1385
480.532	1374
480.751	1383
480.969	1341
481.188	1329
481.406	1310
481.624	1330
481.843	1336
482.061	1314
482.28	1337
482.498	1328
482.717	1347
482.935	1383
483.153	1390
483.372	1387
483.59	1422
483.808	1422
484.027	1458
484.245	1504
484.463	1634
484.681	1857
484.9	1661
485.118	1606
485.336	1562
485.554	1579
485.772	1682
485.99	1850
486.209	2021
486.427	1683
486.645	1548
486.863	1506
487.081	1465
487.299	1448
487.517	1440
487.735	1462
487.953	1466
488.171	1436
488.389	1446
488.607	1426
488.825	1396
489.043	1373
489.261	1387
489.479	1393
489.696	1384
489.914	1412
490.132	1390
490.35	1413
490.568	1429
490.786	1467
491.003	1451
491.221	1489
491.439	1510
491.657	1474
491.874	1510
492.092	1498
492.31	1502
492.527	1518
492.745	1480
492.963	1487
493.18	1523
493.398	1483
493.615	1492
493.833	1498
494.05	1473
494.268	1490
494.485	1491
494.703	1482
494.92	1525
495.138	1499
495.355	1492
495.573	1481
495.79	1510
496.008	1526
496.225	1532
496.442	1520
496.66	1558
496.877	1623
497.094	1602
497.312	1597
497.529	1588
497.746	1604
497.963	1628
498.181	1655
498.398	1682
498.615	1735
498.832	1837
499.049	1915
499.267	2016
499.484	2141
499.701	2187
499.918	2228
500.135	2347
500.352	2490
500.569	2566
500.786	2501
501.003	2414
501.22	2278
501.437	2156
501.654	2072
501.871	1941
502.088	1853
502.305	1816
502.522	1776
502.739	1711
502.956	1621
503.172	1635
503.389	1578
503.606	1585
503.823	1532
504.04	1528
504.256	1494
504.473	1542
504.69	1496
504.907	1522
505.123	1465
505.34	1473
505.557	1421
505.773	1405
505.99	1413
506.207	1359
506.423	1316
506.64	1367
506.856	1340
507.073	1333
507.289	1301
507.506	1330
507.722	1304
507.939	1294
508.155	1291
508.372	1301
508.588	1291
508.805	1276
509.021	1277
509.238	1300
509.454	1320
509.67	1393
509.887	1321
510.103	1278
510.319	1305
510.536	1248
510.752	1254
510.968	1220
511.184	1245
511.401	1246
511.617	1194
511.833	1200
512.049	1202
512.265	1190
512.481	1192
512.698	1191
512.914	1224
513.13	1194
513.346	1212
513.562	1211
513.778	1201
513.994	1241
514.21	1262
514.426	1296
514.642	1318
514.858	1284
515.074	1225
515.29	1249
515.506	1241
515.721	1256
515.937	1241
516.153	1286
516.369	1240
516.585	1266
516.801	1284
517.016	1316
517.232	1331
517.448	1395
517.664	1387
517.879	1359
518.095	1351
518.311	1379
518.527	1361
518.742	1341
518.958	1339
519.173	1355
519.389	1317
519.605	1292
519.82	1266
520.036	1266
520.251	1229
520.467	1236
520.682	1234
520.898	1248
521.113	1219
521.329	1221
521.544	1167
521.76	1168
521.975	1201
522.19	1188
522.406	1201
522.621	1177
522.836	1188
523.052	1202
523.267	1216
523.482	1154
523.698	1158
523.913	1167
524.128	1185
524.343	1148
524.559	1186
524.774	1180
524.989	1193
525.204	1185
525.419	1149
525.634	1202
525.849	1148
526.064	1154
526.28	1166
526.495	1181
526.71	1159
526.925	1167
527.14	1158
527.355	1152
527.57	1174
527.785	1182
527.999	1173
528.214	1220
528.429	1198
528.644	1217
528.859	1249
529.074	1211
529.289	1299
529.503	1253
529.718	1237
529.933	1237
530.148	1206
530.363	1251
530.577	1227
530.792	1222
531.007	1239
531.221	1227
531.436	1266
531.651	1284
531.865	1268
532.08	1304
532.295	1321
532.509	1365
532.724	1392
532.938	1385
533.153	1443
533.367	1506
533.582	1569
533.796	1597
534.011	1484
534.225	1450
534.44	1431
534.654	1412
534.868	1380
535.083	1373
535.297	1340
535.511	1286
535.726	1312
535.94	1281
536.154	1308
536.369	1230
536.583	1243
536.797	1236
537.011	1242
537.225	1206
537.44	1192
537.654	1212
537.868	1179
538.082	1194
538.296	1177
538.51	1150
538.724	1173
538.938	1164
539.153	1165
539.367	1177
539.581	1133
539.795	1144
540.009	1148
540.222	1154
540.436	1105
540.65	1148
540.864	1181
541.078	1175
541.292	1234
541.506	1402
541.72	1478
541.934	1356
542.147	1278
542.361	1195
542.575	1165
542.789	1141
543.002	1131
543.216	1106
543.43	1093
543.644	1093
543.857	1102
544.071	1142
544.285	1133
544.498	1136
544.712	1123
544.925	1148
545.139	1154
545.352	1138
545.566	1117
545.779	1143
545.993	1182
546.206	1152
