Data from SnStandardFlinnAPT0064_LampEnergy10_LIBS07252019.E.O._I.C._HRD10591_15-20-55-494.txt Node
Date: Thu Jul 25 15:20:55 EDT 2019
User: cochatt
Spectrometer: HR+D1059
Trigger mode: 1
Integration Time (sec): 1.000000E-1
Scans to average: 1
Electric dark correction enabled: true
Nonlinearity correction enabled: false
Boxcar width: 0
XAxis mode: Wavelengths
Number of Pixels in Spectrum: 2048
>>>>>Begin Spectral Data<<<<<
223.165	-12.44
223.4	-12.44
223.635	-12.44
223.869	-38.44
224.104	-17.44
224.338	-20.44
224.573	-12.44
224.808	3.56
225.042	3.56
225.277	-12.44
225.511	-5.44
225.746	8.56
225.98	1.56
226.215	6.56
226.449	4.56
226.683	26.56
226.918	25.56
227.152	38.56
227.387	41.56
227.621	34.56
227.856	32.56
228.09	47.56
228.324	51.56
228.559	56.56
228.793	136.56
229.027	296.56
229.262	345.56
229.496	298.56
229.73	306.56
229.964	298.56
230.199	296.56
230.433	302.56
230.667	309.56
230.901	286.56
231.136	320.56
231.37	339.56
231.604	371.56
231.838	436.56
232.072	516.56
232.306	559.56
232.541	494.56
232.775	423.56
233.009	416.56
233.243	414.56
233.477	452.56
233.711	518.56
233.945	570.56
234.179	487.56
234.413	446.56
234.647	418.56
234.881	459.56
235.115	494.56
235.349	609.56
235.583	742.56
235.817	967.56
236.051	969.56
236.285	673.56
236.519	524.56
236.753	495.56
236.987	502.56
237.221	524.56
237.455	529.56
237.689	459.56
237.922	436.56
238.156	472.56
238.39	470.56
238.624	470.56
238.858	484.56
239.091	482.56
239.325	476.56
239.559	488.56
239.793	514.56
240.027	513.56
240.26	554.56
240.494	554.56
240.728	593.56
240.961	606.56
241.195	617.56
241.429	672.56
241.662	700.56
241.896	774.56
242.13	947.56
242.363	1246.56
242.597	1608.56
242.83	1557.56
243.064	1501.56
243.298	1775.56
243.531	1481.56
243.765	932.56
243.998	737.56
244.232	696.56
244.465	654.56
244.699	630.56
244.932	632.56
245.166	650.56
245.399	678.56
245.633	656.56
245.866	702.56
246.099	658.56
246.333	646.56
246.566	633.56
246.8	632.56
247.033	629.56
247.266	641.56
247.5	643.56
247.733	652.56
247.966	706.56
248.2	767.56
248.433	851.56
248.666	966.56
248.899	944.56
249.133	841.56
249.366	832.56
249.599	921.56
249.832	1062.56
250.066	1082.56
250.299	862.56
250.532	794.56
250.765	742.56
250.998	722.56
251.231	724.56
251.465	721.56
251.698	719.56
251.931	732.56
252.164	719.56
252.397	752.56
252.63	769.56
252.863	796.56
253.096	792.56
253.329	796.56
253.562	760.56
253.795	799.56
254.028	800.56
254.261	809.56
254.494	875.56
254.727	995.56
254.96	1252.56
255.193	1207.56
255.426	969.56
255.659	886.56
255.892	876.56
256.124	852.56
256.357	883.56
256.59	892.56
256.823	990.56
257.056	1082.56
257.289	1327.56
257.521	1481.56
257.754	1165.56
257.987	983.56
258.22	900.56
258.452	939.56
258.685	933.56
258.918	931.56
259.151	966.56
259.383	1046.56
259.616	1213.56
259.849	1284.56
260.081	1102.56
260.314	971.56
260.547	930.56
260.779	946.56
261.012	952.56
261.244	964.56
261.477	966.56
261.71	970.56
261.942	980.56
262.175	984.56
262.407	1032.56
262.64	1050.56
262.872	1088.56
263.105	1150.56
263.337	1228.56
263.57	1283.56
263.802	1278.56
264.035	1272.56
264.267	1351.56
264.499	1334.56
264.732	1413.56
264.964	1428.56
265.197	1399.56
265.429	1424.56
265.661	1459.56
265.894	1554.56
266.126	1702.56
266.358	1928.56
266.591	1858.56
266.823	1605.56
267.055	1429.56
267.287	1351.56
267.52	1299.56
267.752	1292.56
267.984	1266.56
268.216	1275.56
268.448	1241.56
268.681	1190.56
268.913	1224.56
269.145	1219.56
269.377	1182.56
269.609	1241.56
269.841	1264.56
270.073	1385.56
270.306	1572.56
270.538	2137.56
270.77	3142.56
271.002	3891.56
271.234	2766.56
271.466	1867.56
271.698	1515.56
271.93	1393.56
272.162	1329.56
272.394	1265.56
272.626	1247.56
272.858	1221.56
273.09	1221.56
273.322	1194.56
273.553	1205.56
273.785	1181.56
274.017	1179.56
274.249	1221.56
274.481	1211.56
274.713	1200.56
274.945	1208.56
275.176	1247.56
275.408	1207.56
275.64	1211.56
275.872	1225.56
276.104	1267.56
276.335	1268.56
276.567	1299.56
276.799	1235.56
277.031	1283.56
277.262	1287.56
277.494	1366.56
277.726	1577.56
277.957	1828.56
278.189	2119.56
278.421	1980.56
278.652	1751.56
278.884	1706.56
279.115	1496.56
279.347	1420.56
279.579	1399.56
279.81	1386.56
280.042	1404.56
280.273	1417.56
280.505	1439.56
280.736	1480.56
280.968	1561.56
281.199	1787.56
281.431	2033.56
281.662	2071.56
281.894	1754.56
282.125	1654.56
282.356	1635.56
282.588	1658.56
282.819	1666.56
283.051	1808.56
283.282	2026.56
283.513	2409.56
283.745	3528.56
283.976	5490.56
284.207	7785.56
284.439	7240.56
284.67	4531.56
284.901	3672.56
285.132	3734.56
285.364	3562.56
285.595	2747.56
285.826	2412.56
286.057	2847.56
286.288	3795.56
286.52	5207.56
286.751	4813.56
286.982	2991.56
287.213	2281.56
287.444	1968.56
287.675	1822.56
287.906	1792.56
288.138	1699.56
288.369	1664.56
288.6	1640.56
288.831	1657.56
289.062	1678.56
289.293	1701.56
289.524	1675.56
289.755	1694.56
289.986	1686.56
290.217	1698.56
290.448	1657.56
290.679	1690.56
290.91	1747.56
291.141	1858.56
291.371	2036.56
291.602	2099.56
291.833	1933.56
292.064	1704.56
292.295	1697.56
292.526	1644.56
292.757	1624.56
292.987	1608.56
293.218	1589.56
293.449	1608.56
293.68	1583.56
293.91	1574.56
294.141	1546.56
294.372	1563.56
294.603	1584.56
294.833	1586.56
295.064	1558.56
295.295	1549.56
295.525	1568.56
295.756	1534.56
295.987	1518.56
296.217	1554.56
296.448	1543.56
296.679	1584.56
296.909	1564.56
297.14	1540.56
297.37	1627.56
297.601	1617.56
297.831	1637.56
298.062	1644.56
298.292	1631.56
298.523	1673.56
298.753	1694.56
298.984	1724.56
299.214	1731.56
299.445	1732.56
299.675	1746.56
299.905	1837.56
300.136	1899.56
300.366	2137.56
300.597	2686.56
300.827	3792.56
301.057	5142.56
301.288	5197.56
301.518	3314.56
301.748	2582.56
301.979	2332.56
302.209	2276.56
302.439	2289.56
302.669	2459.56
302.9	2830.56
303.13	4128.56
303.36	6095.56
303.59	8156.56
303.82	7081.56
304.051	4158.56
304.281	2990.56
304.511	2500.56
304.741	2281.56
304.971	2216.56
305.201	2094.56
305.431	2013.56
305.661	1960.56
305.891	1908.56
306.121	1847.56
306.352	1871.56
306.582	1822.56
306.812	1819.56
307.042	1831.56
307.272	1830.56
307.502	1811.56
307.731	1828.56
307.961	1799.56
308.191	1779.56
308.421	1785.56
308.651	1804.56
308.881	1779.56
309.111	1817.56
309.341	1762.56
309.571	1857.56
309.8	1841.56
310.03	1880.56
310.26	1855.56
310.49	1831.56
310.72	1874.56
310.949	1867.56
311.179	1866.56
311.409	1883.56
311.639	1913.56
311.868	1910.56
312.098	1906.56
312.328	1939.56
312.557	1979.56
312.787	1996.56
313.017	1973.56
313.246	1977.56
313.476	1999.56
313.706	2106.56
313.935	2193.56
314.165	2384.56
314.394	2453.56
314.624	2352.56
314.853	2142.56
315.083	2143.56
315.312	2135.56
315.542	2140.56
315.771	2171.56
316.001	2241.56
316.23	2270.56
316.46	2423.56
316.689	2688.56
316.919	3194.56
317.148	4549.56
317.377	6894.56
317.607	10258.56
317.836	10655.56
318.065	6584.56
318.295	4242.56
318.524	3402.56
318.753	2960.56
318.983	2694.56
319.212	2599.56
319.441	2486.56
319.67	2450.56
319.9	2358.56
320.129	2380.56
320.358	2356.56
320.587	2318.56
320.816	2343.56
321.046	2341.56
321.275	2368.56
321.504	2382.56
321.733	2396.56
321.962	2514.56
322.191	2506.56
322.42	2527.56
322.649	2483.56
322.878	2466.56
323.108	2468.56
323.337	2530.56
323.566	2554.56
323.795	2602.56
324.024	2674.56
324.253	2712.56
324.482	2813.56
324.71	3011.56
324.939	3184.56
325.168	3204.56
325.397	3363.56
325.626	3952.56
325.855	5492.56
326.084	8650.56
326.313	12442.56
326.542	13267.56
326.77	8958.56
326.999	5890.56
327.228	4893.56
327.457	4707.56
327.686	4743.56
327.914	5065.56
328.143	5789.56
328.372	6975.56
328.6	7524.56
328.829	6776.56
329.058	5716.56
329.287	4960.56
329.515	4477.56
329.744	4183.56
329.972	4018.56
330.201	3822.56
330.43	3683.56
330.658	3576.56
330.887	3487.56
331.115	3423.56
331.344	3425.56
331.572	3387.56
331.801	3439.56
332.03	3508.56
332.258	3538.56
332.486	3721.56
332.715	4191.56
332.943	5307.56
333.172	6536.56
333.4	6590.56
333.629	4868.56
333.857	4478.56
334.085	4420.56
334.314	4670.56
334.542	5050.56
334.771	5859.56
334.999	7248.56
335.227	9034.56
335.455	10074.56
335.684	9083.56
335.912	7435.56
336.14	6367.56
336.369	5616.56
336.597	5153.56
336.825	4760.56
337.053	4508.56
337.281	4235.56
337.51	3968.56
337.738	3883.56
337.966	3679.56
338.194	3545.56
338.422	3447.56
338.65	3340.56
338.878	3244.56
339.106	3212.56
339.334	3198.56
339.562	3115.56
339.79	3059.56
340.018	3066.56
340.246	2985.56
340.474	3017.56
340.702	2954.56
340.93	3017.56
341.158	3019.56
341.386	2987.56
341.614	3007.56
341.842	2884.56
342.07	2789.56
342.298	2780.56
342.526	2779.56
342.754	2779.56
342.981	2686.56
343.209	2729.56
343.437	2729.56
343.665	2778.56
343.893	2773.56
344.12	2781.56
344.348	2791.56
344.576	2717.56
344.804	2649.56
345.031	2614.56
345.259	2636.56
345.487	2570.56
345.714	2550.56
345.942	2547.56
346.17	2531.56
346.397	2494.56
346.625	2541.56
346.853	2486.56
347.08	2531.56
347.308	2496.56
347.535	2543.56
347.763	2534.56
347.99	2440.56
348.218	2415.56
348.445	2452.56
348.673	2429.56
348.9	2476.56
349.128	2441.56
349.355	2417.56
349.583	2440.56
349.81	2427.56
350.037	2383.56
350.265	2381.56
350.492	2399.56
350.72	2363.56
350.947	2389.56
351.174	2409.56
351.402	2382.56
351.629	2351.56
351.856	2344.56
352.083	2384.56
352.311	2403.56
352.538	2426.56
352.765	2387.56
352.992	2358.56
353.22	2340.56
353.447	2375.56
353.674	2345.56
353.901	2350.56
354.128	2382.56
354.355	2391.56
354.583	2400.56
354.81	2390.56
355.037	2364.56
355.264	2384.56
355.491	2430.56
355.718	2406.56
355.945	2435.56
356.172	2433.56
356.399	2414.56
356.626	2430.56
356.853	2521.56
357.08	2475.56
357.307	2508.56
357.534	2539.56
357.761	2575.56
357.988	2598.56
358.215	2602.56
358.441	2491.56
358.668	2528.56
358.895	2531.56
359.122	2523.56
359.349	2517.56
359.576	2531.56
359.802	2508.56
360.029	2526.56
360.256	2504.56
360.483	2560.56
360.709	2556.56
360.936	2526.56
361.163	2558.56
361.39	2538.56
361.616	2564.56
361.843	2542.56
362.07	2590.56
362.296	2565.56
362.523	2518.56
362.749	2548.56
362.976	2550.56
363.203	2523.56
363.429	2525.56
363.656	2530.56
363.882	2552.56
364.109	2516.56
364.335	2522.56
364.562	2504.56
364.788	2536.56
365.015	2567.56
365.241	2610.56
365.468	2745.56
365.694	2915.56
365.92	2794.56
366.147	2599.56
366.373	2584.56
366.599	2602.56
366.826	2624.56
367.052	2589.56
367.278	2614.56
367.505	2588.56
367.731	2588.56
367.957	2585.56
368.184	2653.56
368.41	2634.56
368.636	2656.56
368.862	2628.56
369.089	2645.56
369.315	2646.56
369.541	2591.56
369.767	2637.56
369.993	2613.56
370.219	2661.56
370.445	2633.56
370.672	2675.56
370.898	2649.56
371.124	2633.56
371.35	2677.56
371.576	2698.56
371.802	2718.56
372.028	2716.56
372.254	2736.56
372.48	2731.56
372.706	2711.56
372.932	2751.56
373.158	2750.56
373.384	2820.56
373.61	2773.56
373.835	2766.56
374.061	2794.56
374.287	2791.56
374.513	2836.56
374.739	2856.56
374.965	2847.56
375.191	2894.56
375.416	2842.56
375.642	2826.56
375.868	2800.56
376.094	2787.56
376.319	2798.56
376.545	2761.56
376.771	2754.56
376.997	2683.56
377.222	2682.56
377.448	2715.56
377.674	2715.56
377.899	2690.56
378.125	2716.56
378.35	2747.56
378.576	2688.56
378.802	2759.56
379.027	2791.56
379.253	2872.56
379.478	3010.56
379.704	3507.56
379.929	5142.56
380.155	7828.56
380.38	8572.56
380.606	5238.56
380.831	3606.56
381.057	3242.56
381.282	2922.56
381.507	2867.56
381.733	2772.56
381.958	2730.56
382.184	2714.56
382.409	2717.56
382.634	2683.56
382.86	2631.56
383.085	2680.56
383.31	2666.56
383.535	2690.56
383.761	2659.56
383.986	2734.56
384.211	2730.56
384.436	2736.56
384.662	2822.56
384.887	2723.56
385.112	2700.56
385.337	2776.56
385.562	2750.56
385.787	2769.56
386.013	2818.56
386.238	2811.56
386.463	2774.56
386.688	2799.56
386.913	2746.56
387.138	2755.56
387.363	2750.56
387.588	2773.56
387.813	2770.56
388.038	2731.56
388.263	2702.56
388.488	2762.56
388.713	2740.56
388.938	2772.56
389.163	2720.56
389.387	2789.56
389.612	2765.56
389.837	2762.56
390.062	2761.56
390.287	2811.56
390.512	2800.56
390.736	2808.56
390.961	2882.56
391.186	2824.56
391.411	2902.56
391.636	2854.56
391.86	2964.56
392.085	2930.56
392.31	2887.56
392.534	2850.56
392.759	2864.56
392.984	2820.56
393.208	2771.56
393.433	2820.56
393.658	2822.56
393.882	2750.56
394.107	2784.56
394.331	2779.56
394.556	2808.56
394.78	2798.56
395.005	2819.56
395.229	2808.56
395.454	2832.56
395.678	2880.56
395.903	2882.56
396.127	2836.56
396.352	2871.56
396.576	2834.56
396.801	2831.56
397.025	2908.56
397.249	2910.56
397.474	2987.56
397.698	2894.56
397.922	2923.56
398.147	2952.56
398.371	2948.56
398.595	3014.56
398.82	3132.56
399.044	3169.56
399.268	3293.56
399.492	3543.56
399.717	3687.56
399.941	3719.56
400.165	3522.56
400.389	3372.56
400.613	3303.56
400.837	3180.56
401.062	3104.56
401.286	3102.56
401.51	3021.56
401.734	3048.56
401.958	3094.56
402.182	3068.56
402.406	3073.56
402.63	3047.56
402.854	3058.56
403.078	3101.56
403.302	3136.56
403.526	3131.56
403.75	3153.56
403.974	3194.56
404.198	3135.56
404.422	3168.56
404.645	3195.56
404.869	3128.56
405.093	3212.56
405.317	3179.56
405.541	3208.56
405.765	3226.56
405.988	3228.56
406.212	3273.56
406.436	3216.56
406.66	3298.56
406.883	3236.56
407.107	3370.56
407.331	3470.56
407.555	3475.56
407.778	3379.56
408.002	3390.56
408.226	3378.56
408.449	3424.56
408.673	3299.56
408.896	3233.56
409.12	3207.56
409.344	3211.56
409.567	3163.56
409.791	3208.56
410.014	3194.56
410.238	3150.56
410.461	3156.56
410.685	3158.56
410.908	3126.56
411.132	3096.56
411.355	3030.56
411.578	3075.56
411.802	3068.56
412.025	3001.56
412.249	3043.56
412.472	3023.56
412.695	2995.56
412.919	2995.56
413.142	3003.56
413.365	2980.56
413.589	3066.56
413.812	2960.56
414.035	3025.56
414.258	3047.56
414.482	3004.56
414.705	3025.56
414.928	2965.56
415.151	2969.56
415.374	2955.56
415.597	2948.56
415.821	2841.56
416.044	2862.56
416.267	2858.56
416.49	2848.56
416.713	2856.56
416.936	2839.56
417.159	2813.56
417.382	2860.56
417.605	2802.56
417.828	2836.56
418.051	2862.56
418.274	2874.56
418.497	2854.56
418.72	2994.56
418.943	2912.56
419.166	2990.56
419.389	3177.56
419.611	3166.56
419.834	3028.56
420.057	2995.56
420.28	2921.56
420.503	2852.56
420.726	2887.56
420.948	2865.56
421.171	2836.56
421.394	2919.56
421.617	2851.56
421.839	2905.56
422.062	2898.56
422.285	2820.56
422.507	2900.56
422.73	2912.56
422.953	2926.56
423.175	2960.56
423.398	2970.56
423.621	2850.56
423.843	2898.56
424.066	2906.56
424.288	2808.56
424.511	2882.56
424.733	2860.56
424.956	2856.56
425.178	2889.56
425.401	2828.56
425.623	2853.56
425.846	2783.56
426.068	2782.56
426.291	2782.56
426.513	2755.56
426.735	2695.56
426.958	2728.56
427.18	2705.56
427.402	2748.56
427.625	2752.56
427.847	2674.56
428.069	2656.56
428.292	2688.56
428.514	2655.56
428.736	2646.56
428.958	2671.56
429.181	2645.56
429.403	2594.56
429.625	2620.56
429.847	2673.56
430.069	2708.56
430.292	2833.56
430.514	2873.56
430.736	2815.56
430.958	2711.56
431.18	2642.56
431.402	2618.56
431.624	2604.56
431.846	2632.56
432.068	2608.56
432.29	2609.56
432.512	2610.56
432.734	2611.56
432.956	2595.56
433.178	2625.56
433.4	2629.56
433.622	2688.56
433.844	2692.56
434.066	2598.56
434.287	2672.56
434.509	2704.56
434.731	2721.56
434.953	2713.56
435.175	2746.56
435.397	2736.56
435.618	2682.56
435.84	2636.56
436.062	2618.56
436.284	2622.56
436.505	2631.56
436.727	2611.56
436.949	2620.56
437.17	2666.56
437.392	2582.56
437.614	2626.56
437.835	2502.56
438.057	2524.56
438.278	2499.56
438.5	2559.56
438.721	2566.56
438.943	2655.56
439.165	2740.56
439.386	2728.56
439.608	2754.56
439.829	2723.56
440.05	2826.56
440.272	2862.56
440.493	2756.56
440.715	2718.56
440.936	2712.56
441.158	2764.56
441.379	2764.56
441.6	2870.56
441.822	2927.56
442.043	3076.56
442.264	3153.56
442.486	2952.56
442.707	2871.56
442.928	2796.56
443.149	2826.56
443.371	2758.56
443.592	2823.56
443.813	2816.56
444.034	2824.56
444.255	2908.56
444.476	2954.56
444.698	2944.56
444.919	2982.56
445.14	3091.56
445.361	2919.56
445.582	2905.56
445.803	2837.56
446.024	2748.56
446.245	2836.56
446.466	2795.56
446.687	2720.56
446.908	2741.56
447.129	2640.56
447.35	2656.56
447.571	2615.56
447.792	2572.56
448.013	2612.56
448.234	2623.56
448.455	2579.56
448.675	2591.56
448.896	2667.56
449.117	2727.56
449.338	3052.56
449.559	3158.56
449.779	2844.56
450	2615.56
450.221	2534.56
450.442	2548.56
450.662	2516.56
450.883	2510.56
451.104	2487.56
451.324	2526.56
451.545	2518.56
451.766	2572.56
451.986	2549.56
452.207	2792.56
452.428	3580.56
452.648	5536.56
452.869	4642.56
453.089	3142.56
453.31	2972.56
453.53	2906.56
453.751	3029.56
453.971	3226.56
454.192	3084.56
454.412	2673.56
454.633	2529.56
454.853	2471.56
455.073	2424.56
455.294	2468.56
455.514	2458.56
455.734	2439.56
455.955	2370.56
456.175	2418.56
456.395	2406.56
456.616	2430.56
456.836	2438.56
457.056	2516.56
457.276	2484.56
457.497	2596.56
457.717	2576.56
457.937	2560.56
458.157	2549.56
458.377	2503.56
458.598	2585.56
458.818	2594.56
459.038	2590.56
459.258	2576.56
459.478	2642.56
459.698	2697.56
459.918	2731.56
460.138	2718.56
460.358	2816.56
460.578	2793.56
460.798	2866.56
461.018	2889.56
461.238	2840.56
461.458	2878.56
461.678	2824.56
461.898	2977.56
462.118	2996.56
462.338	3032.56
462.558	3024.56
462.777	3149.56
462.997	3225.56
463.217	3348.56
463.437	3551.56
463.657	3632.56
463.876	3532.56
464.096	3340.56
464.316	3226.56
464.536	3156.56
464.755	3097.56
464.975	3000.56
465.195	2898.56
465.414	2852.56
465.634	2741.56
465.854	2678.56
466.073	2678.56
466.293	2662.56
466.512	2688.56
466.732	2696.56
466.951	2823.56
467.171	2962.56
467.391	2992.56
467.61	2712.56
467.829	2574.56
468.049	2572.56
468.268	2560.56
468.488	2574.56
468.707	2526.56
468.927	2584.56
469.146	2582.56
469.365	2625.56
469.585	2571.56
469.804	2665.56
470.023	2717.56
470.243	2747.56
470.462	2814.56
470.681	2996.56
470.901	3296.56
471.12	3745.56
471.339	3788.56
471.558	3144.56
471.777	2900.56
471.997	2772.56
472.216	2694.56
472.435	2650.56
472.654	2599.56
472.873	2531.56
473.092	2608.56
473.311	2628.56
473.53	2615.56
473.749	2643.56
473.968	2763.56
474.187	2651.56
474.406	2563.56
474.625	2570.56
474.844	2581.56
475.063	2611.56
475.282	2591.56
475.501	2633.56
475.72	2634.56
475.939	2628.56
476.158	2724.56
476.377	2763.56
476.596	2700.56
476.814	2756.56
477.033	2732.56
477.252	2810.56
477.471	2828.56
477.69	2856.56
477.908	2927.56
478.127	2942.56
478.346	2912.56
478.564	3044.56
478.783	3016.56
479.002	3092.56
479.22	3095.56
479.439	3095.56
479.658	3109.56
479.876	3120.56
480.095	3136.56
480.313	3255.56
480.532	3210.56
480.751	3234.56
480.969	3153.56
481.188	3132.56
481.406	3131.56
481.624	3172.56
481.843	3129.56
482.061	3190.56
482.28	3194.56
482.498	3149.56
482.717	3150.56
482.935	3144.56
483.153	3191.56
483.372	3222.56
483.59	3330.56
483.808	3302.56
484.027	3397.56
484.245	3546.56
484.463	4035.56
484.681	4464.56
484.9	4091.56
485.118	3778.56
485.336	3726.56
485.554	3736.56
485.772	3977.56
485.99	4506.56
486.209	4808.56
486.427	4140.56
486.645	3620.56
486.863	3487.56
487.081	3494.56
487.299	3368.56
487.517	3289.56
487.735	3324.56
487.953	3383.56
