Data from SnStandardFlinnAPT0064_QswitchEnergy10_LIBS07252019.E.O._I.C._HRD10591_15-27-02-973.txt Node
Date: Thu Jul 25 15:27:02 EDT 2019
User: cochatt
Spectrometer: HR+D1059
Trigger mode: 1
Integration Time (sec): 1.000000E-1
Scans to average: 1
Electric dark correction enabled: true
Nonlinearity correction enabled: false
Boxcar width: 0
XAxis mode: Wavelengths
Number of Pixels in Spectrum: 2048
>>>>>Begin Spectral Data<<<<<
223.165	-4.88
223.4	-4.88
223.635	-4.88
223.869	-12.88
224.104	-19.88
224.338	-7.88
224.573	-28.88
224.808	-11.88
225.042	3.12
225.277	-6.88
225.511	-9.88
225.746	4.12
225.98	15.12
226.215	9.12
226.449	7.12
226.683	23.12
226.918	15.12
227.152	26.12
227.387	22.12
227.621	48.12
227.856	35.12
228.09	49.12
228.324	43.12
228.559	47.12
228.793	62.12
229.027	70.12
229.262	85.12
229.496	70.12
229.73	71.12
229.964	67.12
230.199	74.12
230.433	84.12
230.667	83.12
230.901	85.12
231.136	77.12
231.37	91.12
231.604	87.12
231.838	92.12
232.072	108.12
232.306	123.12
232.541	105.12
232.775	101.12
233.009	99.12
233.243	98.12
233.477	99.12
233.711	104.12
233.945	114.12
234.179	79.12
234.413	85.12
234.647	90.12
234.881	89.12
235.115	83.12
235.349	98.12
235.583	103.12
235.817	118.12
236.051	128.12
236.285	99.12
236.519	85.12
236.753	94.12
236.987	84.12
237.221	79.12
237.455	69.12
237.689	80.12
237.922	86.12
238.156	99.12
238.39	89.12
238.624	89.12
238.858	87.12
239.091	71.12
239.325	73.12
239.559	96.12
239.793	89.12
240.027	89.12
240.26	76.12
240.494	86.12
240.728	72.12
240.961	103.12
241.195	101.12
241.429	107.12
241.662	91.12
241.896	105.12
242.13	105.12
242.363	129.12
242.597	164.12
242.83	122.12
243.064	133.12
243.298	179.12
243.531	166.12
243.765	103.12
243.998	89.12
244.232	81.12
244.465	82.12
244.699	81.12
244.932	76.12
245.166	71.12
245.399	91.12
245.633	94.12
245.866	95.12
246.099	84.12
246.333	102.12
246.566	96.12
246.8	69.12
247.033	86.12
247.266	76.12
247.5	87.12
247.733	88.12
247.966	88.12
248.2	104.12
248.433	99.12
248.666	131.12
248.899	120.12
249.133	98.12
249.366	90.12
249.599	105.12
249.832	118.12
250.066	136.12
250.299	107.12
250.532	89.12
250.765	87.12
250.998	82.12
251.231	78.12
251.465	81.12
251.698	73.12
251.931	83.12
252.164	96.12
252.397	82.12
252.63	100.12
252.863	94.12
253.096	97.12
253.329	101.12
253.562	96.12
253.795	94.12
254.028	85.12
254.261	85.12
254.494	95.12
254.727	111.12
254.96	146.12
255.193	144.12
255.426	107.12
255.659	84.12
255.892	86.12
256.124	100.12
256.357	93.12
256.59	89.12
256.823	94.12
257.056	115.12
257.289	153.12
257.521	181.12
257.754	132.12
257.987	94.12
258.22	100.12
258.452	83.12
258.685	91.12
258.918	98.12
259.151	106.12
259.383	103.12
259.616	129.12
259.849	149.12
260.081	129.12
260.314	91.12
260.547	95.12
260.779	67.12
261.012	91.12
261.244	87.12
261.477	84.12
261.71	97.12
261.942	93.12
262.175	95.12
262.407	81.12
262.64	85.12
262.872	78.12
263.105	80.12
263.337	104.12
263.57	72.12
263.802	98.12
264.035	96.12
264.267	95.12
264.499	81.12
264.732	83.12
264.964	103.12
265.197	89.12
265.429	95.12
265.661	91.12
265.894	103.12
266.126	125.12
266.358	143.12
266.591	154.12
266.823	97.12
267.055	84.12
267.287	72.12
267.52	91.12
267.752	96.12
267.984	80.12
268.216	85.12
268.448	93.12
268.681	91.12
268.913	102.12
269.145	85.12
269.377	98.12
269.609	86.12
269.841	91.12
270.073	108.12
270.306	122.12
270.538	176.12
270.77	297.12
271.002	357.12
271.234	180.12
271.466	109.12
271.698	103.12
271.93	109.12
272.162	93.12
272.394	99.12
272.626	100.12
272.858	90.12
273.09	89.12
273.322	86.12
273.553	104.12
273.785	101.12
274.017	90.12
274.249	88.12
274.481	101.12
274.713	93.12
274.945	84.12
275.176	81.12
275.408	98.12
275.64	93.12
275.872	97.12
276.104	109.12
276.335	108.12
276.567	100.12
276.799	96.12
277.031	105.12
277.262	109.12
277.494	99.12
277.726	127.12
277.957	179.12
278.189	225.12
278.421	215.12
278.652	193.12
278.884	177.12
279.115	129.12
279.347	104.12
279.579	102.12
279.81	92.12
280.042	103.12
280.273	78.12
280.505	100.12
280.736	112.12
280.968	125.12
281.199	157.12
281.431	227.12
281.662	264.12
281.894	153.12
282.125	101.12
282.356	127.12
282.588	105.12
282.819	115.12
283.051	127.12
283.282	145.12
283.513	175.12
283.745	299.12
283.976	490.12
284.207	748.12
284.439	561.12
284.67	258.12
284.901	243.12
285.132	327.12
285.364	366.12
285.595	222.12
285.826	178.12
286.057	252.12
286.288	374.12
286.52	588.12
286.751	453.12
286.982	202.12
287.213	123.12
287.444	103.12
287.675	99.12
287.906	99.12
288.138	94.12
288.369	92.12
288.6	87.12
288.831	97.12
289.062	102.12
289.293	97.12
289.524	93.12
289.755	98.12
289.986	93.12
290.217	111.12
290.448	98.12
290.679	104.12
290.91	123.12
291.141	152.12
291.371	218.12
291.602	271.12
291.833	187.12
292.064	128.12
292.295	110.12
292.526	110.12
292.757	111.12
292.987	100.12
293.218	90.12
293.449	92.12
293.68	101.12
293.91	96.12
294.141	92.12
294.372	100.12
294.603	91.12
294.833	112.12
295.064	99.12
295.295	85.12
295.525	97.12
295.756	89.12
295.987	101.12
296.217	88.12
296.448	103.12
296.679	92.12
296.909	95.12
297.14	109.12
297.37	99.12
297.601	94.12
297.831	107.12
298.062	112.12
298.292	115.12
298.523	108.12
298.753	97.12
298.984	105.12
299.214	111.12
299.445	107.12
299.675	111.12
299.905	116.12
300.136	131.12
300.366	168.12
300.597	231.12
300.827	415.12
301.057	653.12
301.288	588.12
301.518	244.12
301.748	145.12
301.979	137.12
302.209	129.12
302.439	128.12
302.669	157.12
302.9	254.12
303.13	463.12
303.36	812.12
303.59	1107.12
303.82	800.12
304.051	285.12
304.281	152.12
304.511	141.12
304.741	125.12
304.971	109.12
305.201	126.12
305.431	103.12
305.661	92.12
305.891	98.12
306.121	113.12
306.352	113.12
306.582	115.12
306.812	123.12
307.042	121.12
307.272	118.12
307.502	114.12
307.731	109.12
307.961	119.12
308.191	107.12
308.421	103.12
308.651	107.12
308.881	104.12
309.111	104.12
309.341	102.12
309.571	110.12
309.8	110.12
310.03	107.12
310.26	112.12
310.49	109.12
310.72	113.12
310.949	119.12
311.179	116.12
311.409	103.12
311.639	138.12
311.868	117.12
312.098	97.12
312.328	115.12
312.557	127.12
312.787	113.12
313.017	127.12
313.246	117.12
313.476	102.12
313.706	137.12
313.935	153.12
314.165	181.12
314.394	240.12
314.624	172.12
314.853	133.12
315.083	135.12
315.312	129.12
315.542	128.12
315.771	124.12
316.001	129.12
316.23	129.12
316.46	144.12
316.689	169.12
316.919	240.12
317.148	464.12
317.377	831.12
317.607	1372.12
317.836	1263.12
318.065	479.12
318.295	204.12
318.524	155.12
318.753	128.12
318.983	131.12
319.212	127.12
319.441	117.12
319.67	137.12
319.9	119.12
320.129	114.12
320.358	129.12
320.587	123.12
320.816	118.12
321.046	134.12
321.275	131.12
321.504	135.12
321.733	153.12
321.962	156.12
322.191	153.12
322.42	127.12
322.649	131.12
322.878	129.12
323.108	127.12
323.337	124.12
323.566	114.12
323.795	133.12
324.024	142.12
324.253	134.12
324.482	172.12
324.71	224.12
324.939	279.12
325.168	230.12
325.397	183.12
325.626	251.12
325.855	471.12
326.084	860.12
326.313	1463.12
326.542	1419.12
326.77	566.12
326.999	234.12
327.228	211.12
327.457	217.12
327.686	234.12
327.914	157.12
328.143	123.12
328.372	143.12
328.6	124.12
328.829	117.12
329.058	131.12
329.287	116.12
329.515	109.12
329.744	131.12
329.972	123.12
330.201	127.12
330.43	116.12
330.658	116.12
330.887	117.12
331.115	116.12
331.344	114.12
331.572	109.12
331.801	123.12
332.03	123.12
332.258	135.12
332.486	167.12
332.715	286.12
332.943	471.12
333.172	713.12
333.4	632.12
333.629	243.12
333.857	139.12
334.085	141.12
334.314	120.12
334.542	117.12
334.771	111.12
334.999	109.12
335.227	120.12
335.455	131.12
335.684	136.12
335.912	120.12
336.14	133.12
336.369	121.12
336.597	107.12
336.825	117.12
337.053	103.12
337.281	104.12
337.51	126.12
337.738	105.12
337.966	110.12
338.194	109.12
338.422	115.12
338.65	140.12
338.878	118.12
339.106	119.12
339.334	123.12
339.562	120.12
339.79	126.12
340.018	108.12
340.246	109.12
340.474	121.12
340.702	113.12
340.93	113.12
341.158	115.12
341.386	121.12
341.614	115.12
341.842	109.12
342.07	121.12
342.298	121.12
342.526	116.12
342.754	128.12
342.981	120.12
343.209	125.12
343.437	117.12
343.665	107.12
343.893	110.12
344.12	108.12
344.348	118.12
344.576	101.12
344.804	113.12
345.031	123.12
345.259	110.12
345.487	116.12
345.714	124.12
345.942	111.12
346.17	108.12
346.397	106.12
346.625	99.12
346.853	120.12
347.08	104.12
347.308	96.12
347.535	107.12
347.763	98.12
347.99	105.12
348.218	105.12
348.445	124.12
348.673	103.12
348.9	120.12
349.128	123.12
349.355	120.12
349.583	122.12
349.81	116.12
350.037	115.12
350.265	127.12
350.492	125.12
350.72	121.12
350.947	124.12
351.174	115.12
351.402	96.12
351.629	113.12
351.856	111.12
352.083	102.12
352.311	106.12
352.538	110.12
352.765	110.12
352.992	109.12
353.22	120.12
353.447	125.12
353.674	115.12
353.901	94.12
354.128	105.12
354.355	114.12
354.583	102.12
354.81	105.12
355.037	126.12
355.264	101.12
355.491	113.12
355.718	113.12
355.945	104.12
356.172	108.12
356.399	99.12
356.626	115.12
356.853	100.12
357.08	109.12
357.307	117.12
357.534	115.12
357.761	106.12
357.988	101.12
358.215	103.12
358.441	110.12
358.668	117.12
358.895	110.12
359.122	108.12
359.349	132.12
359.576	126.12
359.802	128.12
360.029	113.12
360.256	117.12
360.483	108.12
360.709	101.12
360.936	117.12
361.163	123.12
361.39	103.12
361.616	112.12
361.843	113.12
362.07	115.12
362.296	110.12
362.523	102.12
362.749	106.12
362.976	105.12
363.203	108.12
363.429	115.12
363.656	107.12
363.882	128.12
364.109	117.12
364.335	106.12
364.562	117.12
364.788	107.12
365.015	119.12
365.241	127.12
365.468	181.12
365.694	232.12
365.92	197.12
366.147	117.12
366.373	96.12
366.599	87.12
366.826	100.12
367.052	101.12
367.278	111.12
367.505	95.12
367.731	98.12
367.957	107.12
368.184	122.12
368.41	120.12
368.636	115.12
368.862	99.12
369.089	96.12
369.315	101.12
369.541	115.12
369.767	120.12
369.993	104.12
370.219	105.12
370.445	103.12
370.672	101.12
370.898	118.12
371.124	106.12
371.35	100.12
371.576	95.12
371.802	116.12
372.028	115.12
372.254	113.12
372.48	110.12
372.706	110.12
372.932	112.12
373.158	116.12
373.384	129.12
373.61	119.12
373.835	108.12
374.061	103.12
374.287	127.12
374.513	121.12
374.739	105.12
374.965	120.12
375.191	117.12
375.416	103.12
375.642	113.12
375.868	123.12
376.094	111.12
376.319	109.12
376.545	102.12
376.771	99.12
376.997	104.12
377.222	118.12
377.448	115.12
377.674	126.12
377.899	115.12
378.125	103.12
378.35	125.12
378.576	119.12
378.802	103.12
379.027	126.12
379.253	148.12
379.478	161.12
379.704	294.12
379.929	715.12
380.155	1465.12
380.38	1528.12
380.606	494.12
380.831	177.12
381.057	147.12
381.282	121.12
381.507	122.12
381.733	127.12
381.958	110.12
382.184	108.12
382.409	109.12
382.634	117.12
382.86	91.12
383.085	104.12
383.31	119.12
383.535	105.12
383.761	103.12
383.986	98.12
384.211	115.12
384.436	102.12
384.662	103.12
384.887	100.12
385.112	97.12
385.337	112.12
385.562	105.12
385.787	112.12
386.013	113.12
386.238	103.12
386.463	118.12
386.688	119.12
386.913	96.12
387.138	126.12
387.363	119.12
387.588	114.12
387.813	120.12
388.038	103.12
388.263	109.12
388.488	96.12
388.713	103.12
388.938	101.12
389.163	112.12
389.387	116.12
389.612	97.12
389.837	101.12
390.062	101.12
390.287	101.12
390.512	99.12
390.736	111.12
390.961	96.12
391.186	83.12
391.411	100.12
391.636	99.12
391.86	99.12
392.085	113.12
392.31	102.12
392.534	99.12
392.759	113.12
392.984	110.12
393.208	110.12
393.433	136.12
393.658	127.12
393.882	100.12
394.107	112.12
394.331	93.12
394.556	99.12
394.78	92.12
395.005	110.12
395.229	96.12
395.454	96.12
395.678	115.12
395.903	101.12
396.127	92.12
396.352	86.12
396.576	96.12
396.801	123.12
397.025	132.12
397.249	117.12
397.474	117.12
397.698	94.12
397.922	90.12
398.147	108.12
398.371	104.12
398.595	103.12
398.82	114.12
399.044	114.12
399.268	96.12
399.492	101.12
399.717	104.12
399.941	107.12
400.165	92.12
400.389	101.12
400.613	95.12
400.837	86.12
401.062	94.12
401.286	104.12
401.51	100.12
401.734	105.12
401.958	103.12
402.182	93.12
402.406	91.12
402.63	93.12
402.854	105.12
403.078	100.12
403.302	103.12
403.526	93.12
403.75	107.12
403.974	104.12
404.198	103.12
404.422	89.12
404.645	95.12
404.869	102.12
405.093	91.12
405.317	94.12
405.541	96.12
405.765	142.12
405.988	156.12
406.212	132.12
406.436	106.12
406.66	103.12
406.883	96.12
407.107	89.12
407.331	97.12
407.555	106.12
407.778	105.12
408.002	113.12
408.226	103.12
408.449	112.12
408.673	91.12
408.896	99.12
409.12	88.12
409.344	91.12
409.567	104.12
409.791	104.12
410.014	99.12
410.238	100.12
410.461	102.12
410.685	100.12
410.908	111.12
411.132	94.12
411.355	91.12
411.578	101.12
411.802	119.12
412.025	96.12
412.249	116.12
412.472	105.12
412.695	103.12
412.919	113.12
413.142	95.12
413.365	115.12
413.589	103.12
413.812	111.12
414.035	112.12
414.258	121.12
414.482	112.12
414.705	99.12
414.928	101.12
415.151	97.12
415.374	102.12
415.597	108.12
415.821	87.12
416.044	96.12
416.267	105.12
416.49	95.12
416.713	102.12
416.936	97.12
417.159	92.12
417.382	101.12
417.605	91.12
417.828	103.12
418.051	107.12
418.274	96.12
418.497	92.12
418.72	85.12
418.943	102.12
419.166	105.12
419.389	113.12
419.611	107.12
419.834	103.12
420.057	95.12
420.28	86.12
420.503	113.12
420.726	104.12
420.948	102.12
421.171	106.12
421.394	120.12
421.617	99.12
421.839	95.12
422.062	95.12
422.285	99.12
422.507	101.12
422.73	121.12
422.953	133.12
423.175	105.12
423.398	91.12
423.621	114.12
423.843	94.12
424.066	90.12
424.288	102.12
424.511	97.12
424.733	92.12
424.956	105.12
425.178	103.12
425.401	95.12
425.623	103.12
425.846	94.12
426.068	78.12
426.291	85.12
426.513	85.12
426.735	104.12
426.958	97.12
427.18	100.12
427.402	100.12
427.625	100.12
427.847	94.12
428.069	90.12
428.292	110.12
428.514	100.12
428.736	115.12
428.958	111.12
429.181	100.12
429.403	110.12
429.625	108.12
429.847	115.12
430.069	109.12
430.292	88.12
430.514	101.12
430.736	121.12
430.958	117.12
431.18	111.12
431.402	84.12
431.624	103.12
431.846	98.12
432.068	93.12
432.29	100.12
432.512	89.12
432.734	95.12
432.956	98.12
433.178	101.12
433.4	98.12
433.622	98.12
433.844	104.12
434.066	100.12
434.287	88.12
434.509	99.12
434.731	101.12
434.953	107.12
435.175	100.12
435.397	90.12
435.618	102.12
435.84	97.12
436.062	88.12
436.284	100.12
436.505	109.12
436.727	101.12
436.949	100.12
437.17	90.12
437.392	113.12
437.614	120.12
437.835	85.12
438.057	86.12
438.278	87.12
438.5	101.12
438.721	97.12
438.943	110.12
439.165	126.12
439.386	111.12
439.608	96.12
439.829	96.12
440.05	125.12
440.272	114.12
440.493	112.12
440.715	104.12
440.936	113.12
441.158	100.12
441.379	93.12
441.6	94.12
441.822	106.12
442.043	120.12
442.264	130.12
442.486	99.12
442.707	101.12
442.928	103.12
443.149	97.12
443.371	112.12
443.592	112.12
443.813	99.12
444.034	93.12
444.255	101.12
444.476	109.12
444.698	106.12
444.919	115.12
445.14	213.12
445.361	163.12
445.582	101.12
445.803	105.12
446.024	117.12
446.245	117.12
446.466	103.12
446.687	108.12
446.908	111.12
447.129	109.12
447.35	106.12
447.571	113.12
447.792	116.12
448.013	101.12
448.234	101.12
448.455	99.12
448.675	99.12
448.896	93.12
449.117	123.12
449.338	127.12
449.559	151.12
449.779	133.12
450	114.12
450.221	100.12
450.442	113.12
450.662	111.12
450.883	108.12
451.104	115.12
451.324	131.12
451.545	111.12
451.766	123.12
451.986	138.12
452.207	208.12
452.428	524.12
452.648	1277.12
452.869	728.12
453.089	203.12
453.31	110.12
453.53	129.12
453.751	136.12
453.971	159.12
454.192	161.12
454.412	107.12
454.633	93.12
454.853	106.12
455.073	107.12
455.294	102.12
455.514	93.12
455.734	86.12
455.955	87.12
456.175	88.12
456.395	95.12
456.616	94.12
456.836	102.12
457.056	96.12
457.276	109.12
457.497	124.12
457.717	102.12
457.937	101.12
458.157	103.12
458.377	105.12
458.598	91.12
458.818	103.12
459.038	102.12
459.258	95.12
459.478	87.12
459.698	90.12
459.918	89.12
460.138	89.12
460.358	90.12
460.578	99.12
460.798	113.12
461.018	100.12
461.238	100.12
461.458	88.12
461.678	98.12
461.898	93.12
462.118	96.12
462.338	94.12
462.558	103.12
462.777	118.12
462.997	112.12
463.217	113.12
463.437	123.12
463.657	174.12
463.876	183.12
464.096	139.12
464.316	104.12
464.536	100.12
464.755	105.12
464.975	94.12
465.195	96.12
465.414	93.12
465.634	97.12
465.854	78.12
466.073	98.12
466.293	123.12
466.512	98.12
466.732	98.12
466.951	119.12
467.171	127.12
467.391	130.12
467.61	104.12
467.829	97.12
468.049	125.12
468.268	107.12
468.488	110.12
468.707	93.12
468.927	101.12
469.146	95.12
469.365	108.12
469.585	106.12
469.804	111.12
470.023	112.12
470.243	118.12
470.462	113.12
470.681	112.12
470.901	135.12
471.12	189.12
471.339	205.12
471.558	123.12
471.777	122.12
471.997	104.12
472.216	115.12
472.435	112.12
472.654	103.12
472.873	108.12
473.092	107.12
473.311	97.12
473.53	112.12
473.749	107.12
473.968	116.12
474.187	91.12
474.406	87.12
474.625	91.12
474.844	95.12
475.063	88.12
475.282	98.12
475.501	102.12
475.72	116.12
475.939	104.12
476.158	78.12
476.377	119.12
476.596	120.12
476.814	108.12
477.033	103.12
477.252	100.12
477.471	102.12
477.69	104.12
477.908	105.12
478.127	109.12
478.346	109.12
478.564	98.12
478.783	98.12
479.002	96.12
479.22	96.12
479.439	96.12
479.658	108.12
479.876	102.12
480.095	107.12
480.313	98.12
480.532	88.12
480.751	101.12
480.969	108.12
481.188	94.12
481.406	113.12
481.624	99.12
481.843	126.12
482.061	108.12
482.28	95.12
482.498	115.12
482.717	109.12
482.935	108.12
483.153	111.12
483.372	109.12
483.59	109.12
483.808	99.12
484.027	98.12
484.245	128.12
484.463	173.12
484.681	216.12
484.9	153.12
485.118	119.12
485.336	115.12
485.554	107.12
485.772	131.12
485.99	185.12
486.209	236.12
486.427	154.12
486.645	130.12
486.863	122.12
487.081	106.12
487.299	95.12
487.517	98.12
487.735	95.12
487.953	99.12
488.171	114.12
488.389	117.12
488.607	97.12
488.825	96.12
489.043	105.12
489.261	87.12
489.479	106.12
489.696	106.12
489.914	111.12
490.132	119.12
490.35	94.12
490.568	107.12
490.786	95.12
491.003	115.12
491.221	108.12
491.439	121.12
491.657	110.12
491.874	117.12
492.092	108.12
492.31	115.12
492.527	112.12
492.745	111.12
492.963	99.12
493.18	105.12
493.398	111.12
493.615	87.12
493.833	102.12
494.05	113.12
494.268	105.12
494.485	118.12
494.703	99.12
494.92	104.12
495.138	101.12
495.355	105.12
495.573	105.12
495.79	96.12
496.008	118.12
496.225	104.12
496.442	111.12
496.66	115.12
496.877	151.12
497.094	152.12
497.312	110.12
497.529	117.12
497.746	111.12
497.963	104.12
498.181	97.12
498.398	108.12
498.615	106.12
498.832	111.12
499.049	112.12
499.267	137.12
499.484	168.12
499.701	112.12
499.918	109.12
500.135	112.12
500.352	102.12
500.569	99.12
500.786	118.12
501.003	105.12
501.22	103.12
501.437	99.12
501.654	108.12
501.871	102.12
502.088	99.12
502.305	106.12
502.522	92.12
502.739	107.12
502.956	103.12
503.172	116.12
503.389	110.12
503.606	100.12
503.823	86.12
504.04	98.12
504.256	108.12
504.473	94.12
504.69	112.12
504.907	116.12
505.123	123.12
505.34	107.12
505.557	104.12
505.773	100.12
505.99	103.12
506.207	101.12
506.423	108.12
506.64	113.12
506.856	115.12
