Data from SnStandardFlinnAPT0064_LampEnergy5.5_LIBS07252019.E.O._I.C._HRD10591_15-14-32-490.txt Node
Date: Thu Jul 25 15:14:32 EDT 2019
User: cochatt
Spectrometer: HR+D1059
Trigger mode: 1
Integration Time (sec): 1.000000E-1
Scans to average: 1
Electric dark correction enabled: true
Nonlinearity correction enabled: false
Boxcar width: 0
XAxis mode: Wavelengths
Number of Pixels in Spectrum: 2048
>>>>>Begin Spectral Data<<<<<
223.165	-3.88
223.4	-3.88
223.635	-3.88
223.869	-6.88
224.104	-28.88
224.338	-9.88
224.573	-12.88
224.808	-20.88
225.042	-7.88
225.277	-10.88
225.511	-6.88
225.746	14.12
225.98	21.12
226.215	4.12
226.449	19.12
226.683	15.12
226.918	12.12
227.152	23.12
227.387	29.12
227.621	31.12
227.856	44.12
228.09	32.12
228.324	45.12
228.559	54.12
228.793	85.12
229.027	132.12
229.262	162.12
229.496	148.12
229.73	147.12
229.964	156.12
230.199	162.12
230.433	153.12
230.667	154.12
230.901	160.12
231.136	156.12
231.37	152.12
231.604	181.12
231.838	196.12
232.072	196.12
232.306	214.12
232.541	196.12
232.775	187.12
233.009	190.12
233.243	209.12
233.477	211.12
233.711	198.12
233.945	232.12
234.179	229.12
234.413	202.12
234.647	216.12
234.881	205.12
235.115	234.12
235.349	239.12
235.583	301.12
235.817	376.12
236.051	360.12
236.285	280.12
236.519	235.12
236.753	219.12
236.987	239.12
237.221	234.12
237.455	217.12
237.689	215.12
237.922	220.12
238.156	219.12
238.39	221.12
238.624	227.12
238.858	213.12
239.091	204.12
239.325	232.12
239.559	219.12
239.793	230.12
240.027	227.12
240.26	243.12
240.494	218.12
240.728	259.12
240.961	263.12
241.195	284.12
241.429	278.12
241.662	300.12
241.896	326.12
242.13	358.12
242.363	426.12
242.597	536.12
242.83	541.12
243.064	570.12
243.298	628.12
243.531	533.12
243.765	372.12
243.998	317.12
244.232	283.12
244.465	284.12
244.699	301.12
244.932	291.12
245.166	279.12
245.399	288.12
245.633	290.12
245.866	301.12
246.099	290.12
246.333	274.12
246.566	288.12
246.8	283.12
247.033	307.12
247.266	285.12
247.5	283.12
247.733	286.12
247.966	298.12
248.2	310.12
248.433	329.12
248.666	378.12
248.899	365.12
249.133	352.12
249.366	355.12
249.599	368.12
249.832	394.12
250.066	418.12
250.299	347.12
250.532	327.12
250.765	322.12
250.998	309.12
251.231	315.12
251.465	330.12
251.698	318.12
251.931	336.12
252.164	333.12
252.397	323.12
252.63	324.12
252.863	353.12
253.096	329.12
253.329	330.12
253.562	325.12
253.795	320.12
254.028	327.12
254.261	337.12
254.494	340.12
254.727	393.12
254.96	445.12
255.193	442.12
255.426	394.12
255.659	383.12
255.892	357.12
256.124	366.12
256.357	349.12
256.59	377.12
256.823	392.12
257.056	449.12
257.289	485.12
257.521	526.12
257.754	454.12
257.987	403.12
258.22	382.12
258.452	382.12
258.685	377.12
258.918	397.12
259.151	408.12
259.383	424.12
259.616	465.12
259.849	500.12
260.081	424.12
260.314	424.12
260.547	404.12
260.779	402.12
261.012	403.12
261.244	394.12
261.477	411.12
261.71	456.12
261.942	434.12
262.175	434.12
262.407	446.12
262.64	446.12
262.872	470.12
263.105	481.12
263.337	509.12
263.57	540.12
263.802	527.12
264.035	528.12
264.267	551.12
264.499	562.12
264.732	604.12
264.964	600.12
265.197	589.12
265.429	598.12
265.661	617.12
265.894	634.12
266.126	696.12
266.358	749.12
266.591	721.12
266.823	679.12
267.055	603.12
267.287	576.12
267.52	549.12
267.752	554.12
267.984	550.12
268.216	541.12
268.448	501.12
268.681	549.12
268.913	515.12
269.145	506.12
269.377	550.12
269.609	506.12
269.841	525.12
270.073	538.12
270.306	623.12
270.538	800.12
270.77	1077.12
271.002	1316.12
271.234	950.12
271.466	690.12
271.698	613.12
271.93	556.12
272.162	549.12
272.394	528.12
272.626	515.12
272.858	502.12
273.09	523.12
273.322	512.12
273.553	491.12
273.785	514.12
274.017	520.12
274.249	491.12
274.481	527.12
274.713	469.12
274.945	518.12
275.176	504.12
275.408	508.12
275.64	512.12
275.872	510.12
276.104	504.12
276.335	523.12
276.567	534.12
276.799	518.12
277.031	517.12
277.262	547.12
277.494	583.12
277.726	604.12
277.957	660.12
278.189	711.12
278.421	692.12
278.652	635.12
278.884	626.12
279.115	588.12
279.347	576.12
279.579	569.12
279.81	553.12
280.042	570.12
280.273	573.12
280.505	579.12
280.736	578.12
280.968	597.12
281.199	635.12
281.431	740.12
281.662	716.12
281.894	664.12
282.125	636.12
282.356	643.12
282.588	641.12
282.819	652.12
283.051	681.12
283.282	748.12
283.513	909.12
283.745	1211.12
283.976	1847.12
284.207	2552.12
284.439	2360.12
284.67	1502.12
284.901	1221.12
285.132	1211.12
285.364	1132.12
285.595	925.12
285.826	864.12
286.057	1026.12
286.288	1291.12
286.52	1700.12
286.751	1586.12
286.982	1026.12
287.213	832.12
287.444	758.12
287.675	692.12
287.906	695.12
288.138	690.12
288.369	651.12
288.6	661.12
288.831	666.12
289.062	672.12
289.293	658.12
289.524	674.12
289.755	681.12
289.986	704.12
290.217	696.12
290.448	674.12
290.679	699.12
290.91	690.12
291.141	706.12
291.371	718.12
291.602	766.12
291.833	702.12
292.064	678.12
292.295	676.12
292.526	659.12
292.757	653.12
292.987	644.12
293.218	654.12
293.449	642.12
293.68	614.12
293.91	626.12
294.141	653.12
294.372	631.12
294.603	620.12
294.833	641.12
295.064	623.12
295.295	621.12
295.525	600.12
295.756	620.12
295.987	605.12
296.217	645.12
296.448	626.12
296.679	630.12
296.909	632.12
297.14	624.12
297.37	651.12
297.601	647.12
297.831	636.12
298.062	648.12
298.292	643.12
298.523	665.12
298.753	662.12
298.984	678.12
299.214	701.12
299.445	692.12
299.675	712.12
299.905	713.12
300.136	728.12
300.366	833.12
300.597	996.12
300.827	1320.12
301.057	1709.12
301.288	1692.12
301.518	1176.12
301.748	917.12
301.979	872.12
302.209	851.12
302.439	855.12
302.669	901.12
302.9	1041.12
303.13	1351.12
303.36	1904.12
303.59	2501.12
303.82	2198.12
304.051	1380.12
304.281	1053.12
304.511	924.12
304.741	888.12
304.971	808.12
305.201	784.12
305.431	748.12
305.661	748.12
305.891	753.12
306.121	740.12
306.352	752.12
306.582	755.12
306.812	722.12
307.042	748.12
307.272	758.12
307.502	716.12
307.731	722.12
307.961	715.12
308.191	720.12
308.421	730.12
308.651	731.12
308.881	726.12
309.111	721.12
309.341	721.12
309.571	743.12
309.8	741.12
310.03	745.12
310.26	769.12
310.49	728.12
310.72	762.12
310.949	746.12
311.179	791.12
311.409	794.12
311.639	797.12
311.868	777.12
312.098	760.12
312.328	755.12
312.557	769.12
312.787	777.12
313.017	791.12
313.246	799.12
313.476	799.12
313.706	830.12
313.935	806.12
314.165	878.12
314.394	892.12
314.624	871.12
314.853	847.12
315.083	849.12
315.312	850.12
315.542	839.12
315.771	826.12
316.001	875.12
316.23	881.12
316.46	932.12
316.689	986.12
316.919	1148.12
317.148	1567.12
317.377	2312.12
317.607	3363.12
317.836	3397.12
318.065	2092.12
318.295	1438.12
318.524	1214.12
318.753	1050.12
318.983	1044.12
319.212	968.12
319.441	959.12
319.67	932.12
319.9	898.12
320.129	921.12
320.358	914.12
320.587	905.12
320.816	918.12
321.046	930.12
321.275	942.12
321.504	892.12
321.733	945.12
321.962	944.12
322.191	980.12
322.42	946.12
322.649	978.12
322.878	966.12
323.108	995.12
323.337	978.12
323.566	981.12
323.795	1013.12
324.024	1022.12
324.253	1035.12
324.482	1069.12
324.71	1142.12
324.939	1190.12
325.168	1193.12
325.397	1250.12
325.626	1416.12
325.855	1872.12
326.084	2791.12
326.313	4027.12
326.542	4338.12
326.77	2901.12
326.999	2003.12
327.228	1746.12
327.457	1645.12
327.686	1674.12
327.914	1773.12
328.143	1998.12
328.372	2286.12
328.6	2428.12
328.829	2313.12
329.058	2032.12
329.287	1856.12
329.515	1692.12
329.744	1580.12
329.972	1479.12
330.201	1490.12
330.43	1414.12
330.658	1366.12
330.887	1348.12
331.115	1346.12
331.344	1312.12
331.572	1318.12
331.801	1338.12
332.03	1346.12
332.258	1353.12
332.486	1396.12
332.715	1532.12
332.943	1832.12
333.172	2160.12
333.4	2160.12
333.629	1747.12
333.857	1686.12
334.085	1675.12
334.314	1725.12
334.542	1851.12
334.771	2123.12
334.999	2441.12
335.227	2930.12
335.455	3225.12
335.684	3031.12
335.912	2634.12
336.14	2345.12
336.369	2090.12
336.597	1983.12
336.825	1826.12
337.053	1730.12
337.281	1602.12
337.51	1513.12
337.738	1484.12
337.966	1388.12
338.194	1371.12
338.422	1345.12
338.65	1302.12
338.878	1328.12
339.106	1256.12
339.334	1242.12
339.562	1218.12
339.79	1211.12
340.018	1203.12
340.246	1197.12
340.474	1214.12
340.702	1196.12
340.93	1164.12
341.158	1163.12
341.386	1182.12
341.614	1152.12
341.842	1183.12
342.07	1144.12
342.298	1132.12
342.526	1104.12
342.754	1070.12
342.981	1086.12
343.209	1059.12
343.437	1092.12
343.665	1102.12
343.893	1118.12
344.12	1107.12
344.348	1093.12
344.576	1080.12
344.804	1064.12
345.031	1050.12
345.259	1034.12
345.487	1045.12
345.714	1015.12
345.942	1042.12
346.17	996.12
346.397	992.12
346.625	992.12
346.853	1003.12
347.08	998.12
347.308	998.12
347.535	1026.12
347.763	985.12
347.99	973.12
348.218	987.12
348.445	945.12
348.673	965.12
348.9	991.12
349.128	1009.12
349.355	956.12
349.583	980.12
349.81	968.12
350.037	978.12
350.265	969.12
350.492	979.12
350.72	963.12
350.947	982.12
351.174	951.12
351.402	965.12
351.629	950.12
351.856	952.12
352.083	980.12
352.311	960.12
352.538	941.12
352.765	956.12
352.992	940.12
353.22	955.12
353.447	961.12
353.674	993.12
353.901	974.12
354.128	957.12
354.355	972.12
354.583	954.12
354.81	981.12
355.037	967.12
355.264	968.12
355.491	965.12
355.718	952.12
355.945	977.12
356.172	964.12
356.399	986.12
356.626	963.12
356.853	1008.12
357.08	994.12
357.307	990.12
357.534	1041.12
357.761	1028.12
357.988	984.12
358.215	1008.12
358.441	1000.12
358.668	1013.12
358.895	986.12
359.122	1011.12
359.349	1000.12
359.576	1036.12
359.802	1017.12
360.029	1006.12
360.256	1012.12
360.483	1032.12
360.709	1004.12
360.936	1046.12
361.163	1044.12
361.39	1053.12
361.616	1013.12
361.843	1022.12
362.07	1011.12
362.296	1041.12
362.523	1031.12
362.749	1045.12
362.976	1021.12
363.203	1029.12
363.429	1028.12
363.656	1039.12
363.882	1038.12
364.109	1016.12
364.335	1019.12
364.562	1039.12
364.788	1049.12
365.015	1029.12
365.241	1079.12
365.468	1064.12
365.694	1115.12
365.92	1085.12
366.147	1039.12
366.373	1030.12
366.599	1027.12
366.826	1018.12
367.052	1050.12
367.278	1027.12
367.505	1012.12
367.731	1029.12
367.957	1041.12
368.184	1056.12
368.41	1073.12
368.636	1068.12
368.862	1058.12
369.089	1070.12
369.315	1071.12
369.541	1068.12
369.767	1066.12
369.993	1056.12
370.219	1072.12
370.445	1065.12
370.672	1066.12
370.898	1075.12
371.124	1074.12
371.35	1101.12
371.576	1114.12
371.802	1095.12
372.028	1105.12
372.254	1098.12
372.48	1074.12
372.706	1120.12
372.932	1138.12
373.158	1078.12
373.384	1130.12
373.61	1169.12
373.835	1124.12
374.061	1117.12
374.287	1132.12
374.513	1130.12
374.739	1156.12
374.965	1127.12
375.191	1181.12
375.416	1168.12
375.642	1143.12
375.868	1172.12
376.094	1139.12
376.319	1138.12
376.545	1109.12
376.771	1142.12
376.997	1080.12
377.222	1115.12
377.448	1094.12
377.674	1084.12
377.899	1084.12
378.125	1073.12
378.35	1086.12
378.576	1077.12
378.802	1081.12
379.027	1124.12
379.253	1138.12
379.478	1184.12
379.704	1336.12
379.929	1778.12
380.155	2468.12
380.38	2594.12
380.606	1745.12
380.831	1356.12
381.057	1228.12
381.282	1166.12
381.507	1149.12
381.733	1108.12
381.958	1106.12
382.184	1106.12
382.409	1099.12
382.634	1070.12
382.86	1105.12
383.085	1103.12
383.31	1099.12
383.535	1129.12
383.761	1118.12
383.986	1116.12
384.211	1107.12
384.436	1133.12
384.662	1132.12
384.887	1121.12
385.112	1094.12
385.337	1118.12
385.562	1107.12
385.787	1108.12
386.013	1152.12
386.238	1135.12
386.463	1094.12
386.688	1092.12
386.913	1093.12
387.138	1125.12
387.363	1134.12
387.588	1104.12
387.813	1139.12
388.038	1128.12
388.263	1112.12
388.488	1127.12
388.713	1139.12
388.938	1122.12
389.163	1107.12
389.387	1132.12
389.612	1132.12
389.837	1145.12
390.062	1128.12
390.287	1145.12
390.512	1132.12
390.736	1117.12
390.961	1158.12
391.186	1181.12
391.411	1154.12
391.636	1200.12
391.86	1198.12
392.085	1179.12
392.31	1170.12
392.534	1155.12
392.759	1153.12
392.984	1181.12
393.208	1148.12
393.433	1149.12
393.658	1130.12
393.882	1156.12
394.107	1154.12
394.331	1149.12
394.556	1130.12
394.78	1137.12
395.005	1162.12
395.229	1184.12
395.454	1159.12
395.678	1169.12
395.903	1154.12
396.127	1169.12
396.352	1150.12
396.576	1172.12
396.801	1170.12
397.025	1178.12
397.249	1180.12
397.474	1187.12
397.698	1183.12
397.922	1223.12
398.147	1182.12
398.371	1204.12
398.595	1238.12
398.82	1286.12
399.044	1330.12
399.268	1363.12
399.492	1454.12
399.717	1510.12
399.941	1516.12
400.165	1448.12
400.389	1376.12
400.613	1334.12
400.837	1288.12
401.062	1280.12
401.286	1284.12
401.51	1222.12
401.734	1203.12
401.958	1248.12
402.182	1243.12
402.406	1269.12
402.63	1257.12
402.854	1300.12
403.078	1289.12
403.302	1292.12
403.526	1316.12
403.75	1302.12
403.974	1285.12
404.198	1295.12
404.422	1325.12
404.645	1273.12
404.869	1293.12
405.093	1308.12
405.317	1297.12
405.541	1309.12
405.765	1339.12
405.988	1340.12
406.212	1349.12
406.436	1342.12
406.66	1367.12
406.883	1372.12
407.107	1377.12
407.331	1378.12
407.555	1378.12
407.778	1370.12
408.002	1367.12
408.226	1386.12
408.449	1368.12
408.673	1309.12
408.896	1331.12
409.12	1308.12
409.344	1357.12
409.567	1267.12
409.791	1302.12
410.014	1271.12
410.238	1306.12
410.461	1297.12
410.685	1284.12
410.908	1251.12
411.132	1254.12
411.355	1241.12
411.578	1242.12
411.802	1260.12
412.025	1242.12
412.249	1246.12
412.472	1252.12
412.695	1210.12
412.919	1224.12
413.142	1226.12
413.365	1209.12
413.589	1233.12
413.812	1209.12
414.035	1244.12
414.258	1225.12
414.482	1192.12
414.705	1221.12
414.928	1245.12
415.151	1226.12
415.374	1225.12
415.597	1208.12
415.821	1181.12
416.044	1232.12
416.267	1182.12
416.49	1162.12
416.713	1198.12
416.936	1161.12
417.159	1166.12
417.382	1145.12
417.605	1162.12
417.828	1156.12
418.051	1204.12
418.274	1229.12
418.497	1191.12
418.72	1213.12
418.943	1186.12
419.166	1243.12
419.389	1316.12
419.611	1324.12
419.834	1232.12
420.057	1253.12
420.28	1191.12
420.503	1176.12
420.726	1182.12
420.948	1169.12
421.171	1195.12
421.394	1195.12
421.617	1149.12
421.839	1189.12
422.062	1196.12
422.285	1185.12
422.507	1202.12
422.73	1185.12
422.953	1205.12
423.175	1223.12
423.398	1201.12
423.621	1178.12
423.843	1185.12
424.066	1197.12
424.288	1193.12
424.511	1220.12
424.733	1180.12
424.956	1180.12
425.178	1166.12
425.401	1210.12
425.623	1206.12
425.846	1141.12
426.068	1167.12
426.291	1129.12
426.513	1110.12
426.735	1112.12
426.958	1122.12
427.18	1101.12
427.402	1088.12
427.625	1133.12
427.847	1109.12
428.069	1095.12
428.292	1133.12
428.514	1092.12
428.736	1096.12
428.958	1103.12
429.181	1106.12
429.403	1079.12
429.625	1076.12
429.847	1092.12
430.069	1116.12
430.292	1162.12
430.514	1170.12
430.736	1148.12
430.958	1134.12
431.18	1124.12
431.402	1124.12
431.624	1093.12
431.846	1092.12
432.068	1083.12
432.29	1080.12
432.512	1091.12
432.734	1078.12
432.956	1099.12
433.178	1104.12
433.4	1096.12
433.622	1107.12
433.844	1142.12
434.066	1068.12
434.287	1120.12
434.509	1105.12
434.731	1109.12
434.953	1116.12
435.175	1163.12
435.397	1140.12
435.618	1096.12
435.84	1087.12
436.062	1076.12
436.284	1096.12
436.505	1081.12
436.727	1109.12
436.949	1086.12
437.17	1081.12
437.392	1072.12
437.614	1106.12
437.835	1046.12
438.057	1070.12
438.278	1046.12
438.5	1092.12
438.721	1090.12
438.943	1083.12
439.165	1139.12
439.386	1110.12
439.608	1124.12
439.829	1132.12
440.05	1112.12
440.272	1159.12
440.493	1109.12
440.715	1146.12
440.936	1131.12
441.158	1163.12
441.379	1171.12
441.6	1213.12
441.822	1181.12
442.043	1269.12
442.264	1294.12
442.486	1209.12
442.707	1193.12
442.928	1164.12
443.149	1194.12
443.371	1178.12
443.592	1187.12
443.813	1190.12
444.034	1188.12
444.255	1206.12
444.476	1245.12
444.698	1298.12
444.919	1251.12
445.14	1337.12
445.361	1286.12
445.582	1234.12
445.803	1204.12
446.024	1174.12
446.245	1200.12
446.466	1172.12
446.687	1169.12
446.908	1154.12
447.129	1141.12
447.35	1112.12
447.571	1119.12
447.792	1069.12
448.013	1114.12
448.234	1085.12
448.455	1076.12
448.675	1091.12
448.896	1127.12
449.117	1132.12
449.338	1184.12
449.559	1206.12
449.779	1129.12
450	1076.12
450.221	1087.12
450.442	1030.12
450.662	1042.12
450.883	1061.12
451.104	1053.12
451.324	1049.12
451.545	1018.12
451.766	1042.12
451.986	1038.12
452.207	1113.12
452.428	1346.12
452.648	1704.12
452.869	1527.12
453.089	1171.12
453.31	1113.12
453.53	1134.12
453.751	1153.12
453.971	1190.12
454.192	1196.12
454.412	1073.12
454.633	1057.12
454.853	1057.12
455.073	1024.12
455.294	992.12
455.514	1013.12
455.734	1010.12
455.955	1002.12
456.175	1008.12
456.395	1008.12
456.616	983.12
456.836	1006.12
457.056	977.12
457.276	1024.12
457.497	1090.12
457.717	1084.12
457.937	1037.12
458.157	1060.12
458.377	1063.12
458.598	1053.12
458.818	1062.12
459.038	1099.12
459.258	1030.12
459.478	1079.12
459.698	1101.12
459.918	1104.12
460.138	1100.12
460.358	1144.12
460.578	1141.12
460.798	1201.12
461.018	1192.12
461.238	1201.12
461.458	1204.12
461.678	1210.12
461.898	1203.12
462.118	1233.12
462.338	1271.12
462.558	1266.12
462.777	1276.12
462.997	1308.12
463.217	1379.12
463.437	1410.12
463.657	1408.12
463.876	1384.12
464.096	1344.12
464.316	1266.12
464.536	1291.12
464.755	1290.12
464.975	1252.12
465.195	1244.12
465.414	1128.12
465.634	1147.12
465.854	1094.12
466.073	1154.12
466.293	1131.12
466.512	1095.12
466.732	1113.12
466.951	1137.12
467.171	1180.12
467.391	1174.12
467.61	1124.12
467.829	1072.12
468.049	1093.12
468.268	1094.12
468.488	1080.12
468.707	1074.12
468.927	1098.12
469.146	1076.12
469.365	1076.12
469.585	1088.12
469.804	1126.12
470.023	1123.12
470.243	1142.12
470.462	1176.12
470.681	1189.12
470.901	1275.12
471.12	1450.12
471.339	1448.12
471.558	1254.12
471.777	1180.12
471.997	1119.12
472.216	1128.12
472.435	1101.12
472.654	1080.12
472.873	1054.12
473.092	1078.12
473.311	1096.12
473.53	1110.12
473.749	1089.12
473.968	1113.12
474.187	1116.12
474.406	1100.12
474.625	1083.12
474.844	1097.12
475.063	1078.12
475.282	1102.12
475.501	1071.12
475.72	1093.12
475.939	1120.12
476.158	1129.12
476.377	1163.12
476.596	1140.12
476.814	1148.12
477.033	1103.12
477.252	1147.12
477.471	1186.12
477.69	1221.12
477.908	1218.12
478.127	1251.12
478.346	1238.12
478.564	1242.12
478.783	1239.12
479.002	1273.12
479.22	1301.12
479.439	1293.12
479.658	1256.12
479.876	1283.12
480.095	1272.12
480.313	1312.12
480.532	1339.12
480.751	1326.12
480.969	1286.12
481.188	1269.12
481.406	1257.12
481.624	1248.12
481.843	1282.12
482.061	1276.12
482.28	1303.12
482.498	1283.12
482.717	1266.12
482.935	1286.12
483.153	1316.12
483.372	1338.12
483.59	1320.12
483.808	1367.12
484.027	1364.12
484.245	1403.12
484.463	1511.12
484.681	1698.12
484.9	1577.12
485.118	1504.12
485.336	1464.12
485.554	1480.12
485.772	1525.12
485.99	1720.12
486.209	1802.12
486.427	1570.12
486.645	1449.12
486.863	1425.12
487.081	1438.12
487.299	1369.12
487.517	1372.12
487.735	1386.12
487.953	1433.12
488.171	1405.12
488.389	1406.12
488.607	1353.12
488.825	1358.12
489.043	1310.12
489.261	1323.12
489.479	1333.12
489.696	1350.12
489.914	1330.12
490.132	1353.12
490.35	1396.12
490.568	1381.12
490.786	1389.12
491.003	1392.12
491.221	1412.12
491.439	1431.12
491.657	1431.12
491.874	1461.12
