Data from SnStandardFlinnAPT0064_QswitchEnergy10_LIBS07252019.E.O._I.C._HRD10591_15-27-29-973.txt Node
Date: Thu Jul 25 15:27:29 EDT 2019
User: cochatt
Spectrometer: HR+D1059
Trigger mode: 1
Integration Time (sec): 1.000000E-1
Scans to average: 1
Electric dark correction enabled: true
Nonlinearity correction enabled: false
Boxcar width: 0
XAxis mode: Wavelengths
Number of Pixels in Spectrum: 2048
>>>>>Begin Spectral Data<<<<<
223.165	-25.88
223.4	-25.88
223.635	-25.88
223.869	-22.88
224.104	-21.88
224.338	-8.88
224.573	-9.88
224.808	-19.88
225.042	-3.88
225.277	-7.88
225.511	12.12
225.746	8.12
225.98	5.12
226.215	13.12
226.449	15.12
226.683	21.12
226.918	17.12
227.152	29.12
227.387	34.12
227.621	38.12
227.856	35.12
228.09	51.12
228.324	50.12
228.559	43.12
228.793	58.12
229.027	71.12
229.262	83.12
229.496	83.12
229.73	61.12
229.964	69.12
230.199	73.12
230.433	82.12
230.667	84.12
230.901	75.12
231.136	77.12
231.37	79.12
231.604	92.12
231.838	106.12
232.072	92.12
232.306	118.12
232.541	92.12
232.775	91.12
233.009	88.12
233.243	80.12
233.477	85.12
233.711	97.12
233.945	106.12
234.179	94.12
234.413	75.12
234.647	85.12
234.881	98.12
235.115	92.12
235.349	93.12
235.583	102.12
235.817	115.12
236.051	129.12
236.285	100.12
236.519	93.12
236.753	93.12
236.987	91.12
237.221	77.12
237.455	82.12
237.689	81.12
237.922	76.12
238.156	78.12
238.39	95.12
238.624	83.12
238.858	90.12
239.091	84.12
239.325	88.12
239.559	71.12
239.793	85.12
240.027	74.12
240.26	77.12
240.494	75.12
240.728	92.12
240.961	75.12
241.195	92.12
241.429	93.12
241.662	81.12
241.896	85.12
242.13	89.12
242.363	131.12
242.597	168.12
242.83	126.12
243.064	132.12
243.298	182.12
243.531	140.12
243.765	92.12
243.998	75.12
244.232	80.12
244.465	81.12
244.699	97.12
244.932	87.12
245.166	81.12
245.399	88.12
245.633	81.12
245.866	84.12
246.099	97.12
246.333	82.12
246.566	91.12
246.8	88.12
247.033	88.12
247.266	78.12
247.5	77.12
247.733	83.12
247.966	75.12
248.2	101.12
248.433	91.12
248.666	121.12
248.899	118.12
249.133	102.12
249.366	89.12
249.599	102.12
249.832	133.12
250.066	129.12
250.299	91.12
250.532	84.12
250.765	78.12
250.998	84.12
251.231	94.12
251.465	96.12
251.698	75.12
251.931	78.12
252.164	96.12
252.397	89.12
252.63	88.12
252.863	91.12
253.096	95.12
253.329	94.12
253.562	99.12
253.795	88.12
254.028	81.12
254.261	92.12
254.494	79.12
254.727	116.12
254.96	146.12
255.193	132.12
255.426	108.12
255.659	73.12
255.892	80.12
256.124	90.12
256.357	96.12
256.59	103.12
256.823	98.12
257.056	118.12
257.289	147.12
257.521	164.12
257.754	122.12
257.987	88.12
258.22	99.12
258.452	82.12
258.685	93.12
258.918	83.12
259.151	103.12
259.383	98.12
259.616	122.12
259.849	151.12
260.081	112.12
260.314	89.12
260.547	88.12
260.779	93.12
261.012	91.12
261.244	91.12
261.477	85.12
261.71	101.12
261.942	86.12
262.175	85.12
262.407	83.12
262.64	89.12
262.872	86.12
263.105	83.12
263.337	78.12
263.57	92.12
263.802	81.12
264.035	78.12
264.267	93.12
264.499	82.12
264.732	80.12
264.964	86.12
265.197	88.12
265.429	96.12
265.661	92.12
265.894	93.12
266.126	134.12
266.358	162.12
266.591	147.12
266.823	104.12
267.055	100.12
267.287	90.12
267.52	85.12
267.752	80.12
267.984	86.12
268.216	90.12
268.448	93.12
268.681	96.12
268.913	97.12
269.145	101.12
269.377	100.12
269.609	97.12
269.841	90.12
270.073	97.12
270.306	129.12
270.538	194.12
270.77	308.12
271.002	364.12
271.234	191.12
271.466	118.12
271.698	101.12
271.93	77.12
272.162	84.12
272.394	82.12
272.626	81.12
272.858	82.12
273.09	84.12
273.322	90.12
273.553	80.12
273.785	82.12
274.017	77.12
274.249	96.12
274.481	90.12
274.713	83.12
274.945	79.12
275.176	82.12
275.408	103.12
275.64	99.12
275.872	82.12
276.104	106.12
276.335	91.12
276.567	103.12
276.799	93.12
277.031	90.12
277.262	92.12
277.494	98.12
277.726	113.12
277.957	190.12
278.189	236.12
278.421	243.12
278.652	190.12
278.884	176.12
279.115	149.12
279.347	112.12
279.579	94.12
279.81	90.12
280.042	95.12
280.273	102.12
280.505	107.12
280.736	113.12
280.968	116.12
281.199	182.12
281.431	241.12
281.662	270.12
281.894	151.12
282.125	104.12
282.356	116.12
282.588	107.12
282.819	108.12
283.051	129.12
283.282	145.12
283.513	186.12
283.745	296.12
283.976	530.12
284.207	770.12
284.439	586.12
284.67	256.12
284.901	245.12
285.132	339.12
285.364	380.12
285.595	216.12
285.826	162.12
286.057	255.12
286.288	418.12
286.52	617.12
286.751	486.12
286.982	206.12
287.213	129.12
287.444	120.12
287.675	97.12
287.906	88.12
288.138	99.12
288.369	98.12
288.6	97.12
288.831	92.12
289.062	87.12
289.293	84.12
289.524	98.12
289.755	83.12
289.986	114.12
290.217	104.12
290.448	89.12
290.679	101.12
290.91	138.12
291.141	173.12
291.371	229.12
291.602	287.12
291.833	199.12
292.064	126.12
292.295	104.12
292.526	98.12
292.757	104.12
292.987	92.12
293.218	93.12
293.449	91.12
293.68	95.12
293.91	99.12
294.141	98.12
294.372	102.12
294.603	85.12
294.833	85.12
295.064	79.12
295.295	90.12
295.525	85.12
295.756	81.12
295.987	92.12
296.217	97.12
296.448	94.12
296.679	94.12
296.909	76.12
297.14	91.12
297.37	103.12
297.601	109.12
297.831	98.12
298.062	78.12
298.292	94.12
298.523	113.12
298.753	107.12
298.984	107.12
299.214	102.12
299.445	115.12
299.675	104.12
299.905	104.12
300.136	122.12
300.366	159.12
300.597	280.12
300.827	445.12
301.057	655.12
301.288	610.12
301.518	250.12
301.748	152.12
301.979	128.12
302.209	128.12
302.439	136.12
302.669	160.12
302.9	275.12
303.13	498.12
303.36	854.12
303.59	1184.12
303.82	829.12
304.051	300.12
304.281	158.12
304.511	135.12
304.741	110.12
304.971	109.12
305.201	116.12
305.431	96.12
305.661	110.12
305.891	102.12
306.121	107.12
306.352	109.12
306.582	120.12
306.812	120.12
307.042	117.12
307.272	109.12
307.502	94.12
307.731	110.12
307.961	120.12
308.191	108.12
308.421	110.12
308.651	120.12
308.881	109.12
309.111	106.12
309.341	106.12
309.571	96.12
309.8	118.12
310.03	106.12
310.26	95.12
310.49	112.12
310.72	120.12
310.949	119.12
311.179	100.12
311.409	104.12
311.639	94.12
311.868	94.12
312.098	100.12
312.328	114.12
312.557	110.12
312.787	112.12
313.017	119.12
313.246	103.12
313.476	118.12
313.706	130.12
313.935	143.12
314.165	178.12
314.394	218.12
314.624	177.12
314.853	140.12
315.083	132.12
315.312	119.12
315.542	121.12
315.771	128.12
316.001	128.12
316.23	132.12
316.46	151.12
316.689	183.12
316.919	258.12
317.148	511.12
317.377	898.12
317.607	1449.12
317.836	1362.12
318.065	524.12
318.295	220.12
318.524	157.12
318.753	148.12
318.983	130.12
319.212	115.12
319.441	132.12
319.67	123.12
319.9	109.12
320.129	126.12
320.358	126.12
320.587	129.12
320.816	125.12
321.046	139.12
321.275	121.12
321.504	130.12
321.733	150.12
321.962	160.12
322.191	177.12
322.42	140.12
322.649	135.12
322.878	135.12
323.108	115.12
323.337	140.12
323.566	132.12
323.795	125.12
324.024	120.12
324.253	125.12
324.482	188.12
324.71	230.12
324.939	264.12
325.168	229.12
325.397	186.12
325.626	248.12
325.855	465.12
326.084	916.12
326.313	1564.12
326.542	1577.12
326.77	592.12
326.999	246.12
327.228	217.12
327.457	235.12
327.686	213.12
327.914	158.12
328.143	139.12
328.372	142.12
328.6	120.12
328.829	118.12
329.058	130.12
329.287	117.12
329.515	109.12
329.744	112.12
329.972	123.12
330.201	125.12
330.43	127.12
330.658	116.12
330.887	108.12
331.115	119.12
331.344	120.12
331.572	121.12
331.801	124.12
332.03	118.12
332.258	135.12
332.486	166.12
332.715	260.12
332.943	496.12
333.172	724.12
333.4	651.12
333.629	236.12
333.857	140.12
334.085	123.12
334.314	125.12
334.542	110.12
334.771	134.12
334.999	109.12
335.227	124.12
335.455	113.12
335.684	116.12
335.912	109.12
336.14	109.12
336.369	114.12
336.597	112.12
336.825	121.12
337.053	116.12
337.281	103.12
337.51	117.12
337.738	119.12
337.966	110.12
338.194	124.12
338.422	127.12
338.65	121.12
338.878	112.12
339.106	122.12
339.334	124.12
339.562	104.12
339.79	120.12
340.018	98.12
340.246	106.12
340.474	125.12
340.702	116.12
340.93	97.12
341.158	120.12
341.386	116.12
341.614	116.12
341.842	133.12
342.07	119.12
342.298	129.12
342.526	106.12
342.754	105.12
342.981	117.12
343.209	122.12
343.437	110.12
343.665	97.12
343.893	113.12
344.12	103.12
344.348	108.12
344.576	107.12
344.804	114.12
345.031	115.12
345.259	124.12
345.487	118.12
345.714	106.12
345.942	107.12
346.17	108.12
346.397	112.12
346.625	103.12
346.853	100.12
347.08	99.12
347.308	109.12
347.535	112.12
347.763	98.12
347.99	101.12
348.218	103.12
348.445	112.12
348.673	101.12
348.9	124.12
349.128	127.12
349.355	119.12
349.583	120.12
349.81	125.12
350.037	118.12
350.265	121.12
350.492	124.12
350.72	112.12
350.947	108.12
351.174	106.12
351.402	119.12
351.629	120.12
351.856	105.12
352.083	92.12
352.311	114.12
352.538	108.12
352.765	110.12
352.992	130.12
353.22	105.12
353.447	94.12
353.674	104.12
353.901	110.12
354.128	104.12
354.355	108.12
354.583	92.12
354.81	103.12
355.037	117.12
355.264	93.12
355.491	104.12
355.718	100.12
355.945	94.12
356.172	95.12
356.399	95.12
356.626	111.12
356.853	111.12
357.08	113.12
357.307	98.12
357.534	105.12
357.761	104.12
357.988	99.12
358.215	121.12
358.441	102.12
358.668	115.12
358.895	120.12
359.122	121.12
359.349	111.12
359.576	120.12
359.802	114.12
360.029	121.12
360.256	118.12
360.483	128.12
360.709	92.12
360.936	120.12
361.163	109.12
361.39	108.12
361.616	116.12
361.843	101.12
362.07	121.12
362.296	115.12
362.523	103.12
362.749	107.12
362.976	106.12
363.203	120.12
363.429	114.12
363.656	118.12
363.882	106.12
364.109	121.12
364.335	110.12
364.562	124.12
364.788	101.12
365.015	105.12
365.241	116.12
365.468	184.12
365.694	246.12
365.92	203.12
366.147	122.12
366.373	96.12
366.599	104.12
366.826	105.12
367.052	79.12
367.278	104.12
367.505	96.12
367.731	100.12
367.957	124.12
368.184	113.12
368.41	124.12
368.636	136.12
368.862	115.12
369.089	98.12
369.315	106.12
369.541	93.12
369.767	99.12
369.993	110.12
370.219	97.12
370.445	107.12
370.672	106.12
370.898	104.12
371.124	99.12
371.35	95.12
371.576	112.12
371.802	114.12
372.028	96.12
372.254	96.12
372.48	103.12
372.706	113.12
372.932	110.12
373.158	112.12
373.384	112.12
373.61	110.12
373.835	121.12
374.061	106.12
374.287	107.12
374.513	114.12
374.739	104.12
374.965	116.12
375.191	107.12
375.416	114.12
375.642	112.12
375.868	106.12
376.094	101.12
376.319	113.12
376.545	108.12
376.771	96.12
376.997	109.12
377.222	103.12
377.448	98.12
377.674	101.12
377.899	100.12
378.125	109.12
378.35	115.12
378.576	122.12
378.802	120.12
379.027	133.12
379.253	128.12
379.478	180.12
379.704	325.12
379.929	733.12
380.155	1531.12
380.38	1597.12
380.606	519.12
380.831	180.12
381.057	142.12
381.282	128.12
381.507	118.12
381.733	117.12
381.958	106.12
382.184	106.12
382.409	120.12
382.634	120.12
382.86	97.12
383.085	93.12
383.31	105.12
383.535	114.12
383.761	116.12
383.986	91.12
384.211	106.12
384.436	110.12
384.662	97.12
384.887	100.12
385.112	104.12
385.337	114.12
385.562	110.12
385.787	112.12
386.013	128.12
386.238	104.12
386.463	114.12
386.688	116.12
386.913	104.12
387.138	114.12
387.363	113.12
387.588	98.12
387.813	99.12
388.038	101.12
388.263	101.12
388.488	114.12
388.713	108.12
388.938	98.12
389.163	114.12
389.387	108.12
389.612	83.12
389.837	104.12
390.062	106.12
390.287	113.12
390.512	90.12
390.736	112.12
390.961	103.12
391.186	92.12
391.411	102.12
391.636	88.12
391.86	104.12
392.085	100.12
392.31	96.12
392.534	102.12
392.759	99.12
392.984	113.12
393.208	123.12
393.433	137.12
393.658	140.12
393.882	101.12
394.107	100.12
394.331	99.12
394.556	109.12
394.78	103.12
395.005	107.12
395.229	87.12
395.454	105.12
395.678	111.12
395.903	95.12
396.127	108.12
396.352	112.12
396.576	104.12
396.801	130.12
397.025	123.12
397.249	106.12
397.474	96.12
397.698	112.12
397.922	96.12
398.147	88.12
398.371	96.12
398.595	104.12
398.82	101.12
399.044	94.12
399.268	103.12
399.492	91.12
399.717	85.12
399.941	96.12
400.165	93.12
400.389	98.12
400.613	107.12
400.837	108.12
401.062	96.12
401.286	96.12
401.51	100.12
401.734	106.12
401.958	96.12
402.182	114.12
402.406	98.12
402.63	105.12
402.854	100.12
403.078	89.12
403.302	93.12
403.526	116.12
403.75	98.12
403.974	94.12
404.198	106.12
404.422	104.12
404.645	89.12
404.869	100.12
405.093	86.12
405.317	96.12
405.541	106.12
405.765	140.12
405.988	140.12
406.212	117.12
406.436	100.12
406.66	82.12
406.883	94.12
407.107	95.12
407.331	88.12
407.555	100.12
407.778	80.12
408.002	96.12
408.226	96.12
408.449	119.12
408.673	87.12
408.896	108.12
409.12	100.12
409.344	93.12
409.567	100.12
409.791	99.12
410.014	92.12
410.238	111.12
410.461	93.12
410.685	106.12
410.908	101.12
411.132	100.12
411.355	109.12
411.578	95.12
411.802	104.12
412.025	106.12
412.249	105.12
412.472	100.12
412.695	99.12
412.919	106.12
413.142	93.12
413.365	114.12
413.589	103.12
413.812	115.12
414.035	98.12
414.258	119.12
414.482	94.12
414.705	109.12
414.928	102.12
415.151	106.12
415.374	109.12
415.597	100.12
415.821	95.12
416.044	90.12
416.267	94.12
416.49	108.12
416.713	92.12
416.936	108.12
417.159	103.12
417.382	89.12
417.605	98.12
417.828	88.12
418.051	105.12
418.274	114.12
418.497	96.12
418.72	106.12
418.943	100.12
419.166	113.12
419.389	108.12
419.611	111.12
419.834	95.12
420.057	93.12
420.28	109.12
420.503	101.12
420.726	102.12
420.948	84.12
421.171	91.12
421.394	100.12
421.617	86.12
421.839	93.12
422.062	104.12
422.285	108.12
422.507	108.12
422.73	126.12
422.953	143.12
423.175	118.12
423.398	105.12
423.621	90.12
423.843	81.12
424.066	97.12
424.288	97.12
424.511	114.12
424.733	109.12
424.956	102.12
425.178	94.12
425.401	89.12
425.623	94.12
425.846	94.12
426.068	82.12
426.291	106.12
426.513	104.12
426.735	96.12
426.958	104.12
427.18	100.12
427.402	107.12
427.625	113.12
427.847	95.12
428.069	93.12
428.292	101.12
428.514	106.12
428.736	102.12
428.958	90.12
429.181	100.12
429.403	98.12
429.625	102.12
429.847	101.12
430.069	113.12
430.292	112.12
430.514	99.12
430.736	89.12
430.958	87.12
431.18	85.12
431.402	92.12
431.624	100.12
431.846	91.12
432.068	87.12
432.29	90.12
432.512	83.12
432.734	86.12
432.956	87.12
433.178	92.12
433.4	94.12
433.622	102.12
433.844	91.12
434.066	89.12
434.287	106.12
434.509	121.12
434.731	96.12
434.953	102.12
435.175	101.12
435.397	93.12
435.618	109.12
435.84	107.12
436.062	97.12
436.284	94.12
436.505	101.12
436.727	102.12
436.949	87.12
437.17	98.12
437.392	88.12
437.614	94.12
437.835	95.12
438.057	92.12
438.278	116.12
438.5	97.12
438.721	102.12
438.943	104.12
439.165	109.12
439.386	111.12
439.608	94.12
439.829	103.12
440.05	112.12
440.272	131.12
440.493	104.12
440.715	97.12
440.936	102.12
441.158	100.12
441.379	87.12
441.6	100.12
441.822	86.12
442.043	124.12
442.264	129.12
442.486	129.12
442.707	106.12
442.928	91.12
443.149	92.12
443.371	94.12
443.592	106.12
443.813	103.12
444.034	92.12
444.255	86.12
444.476	102.12
444.698	86.12
444.919	90.12
445.14	213.12
445.361	141.12
445.582	105.12
445.803	102.12
446.024	95.12
446.245	91.12
446.466	107.12
446.687	105.12
446.908	104.12
447.129	97.12
447.35	90.12
447.571	104.12
447.792	96.12
448.013	100.12
448.234	95.12
448.455	90.12
448.675	104.12
448.896	106.12
449.117	107.12
449.338	134.12
449.559	160.12
449.779	136.12
450	107.12
450.221	106.12
450.442	100.12
450.662	120.12
450.883	112.12
451.104	104.12
451.324	114.12
451.545	112.12
451.766	115.12
451.986	140.12
452.207	220.12
452.428	540.12
452.648	1270.12
452.869	721.12
453.089	208.12
453.31	120.12
453.53	128.12
453.751	140.12
453.971	153.12
454.192	154.12
454.412	112.12
454.633	100.12
454.853	78.12
455.073	90.12
455.294	104.12
455.514	90.12
455.734	98.12
455.955	89.12
456.175	91.12
456.395	88.12
456.616	107.12
456.836	103.12
457.056	102.12
457.276	109.12
457.497	115.12
457.717	130.12
457.937	96.12
458.157	91.12
458.377	98.12
458.598	96.12
458.818	93.12
459.038	89.12
459.258	92.12
459.478	88.12
459.698	89.12
459.918	84.12
460.138	108.12
460.358	88.12
460.578	93.12
460.798	87.12
461.018	83.12
461.238	101.12
461.458	94.12
461.678	102.12
461.898	100.12
462.118	90.12
462.338	99.12
462.558	93.12
462.777	95.12
462.997	100.12
463.217	99.12
463.437	153.12
463.657	187.12
463.876	193.12
464.096	128.12
464.316	105.12
464.536	96.12
464.755	93.12
464.975	100.12
465.195	102.12
465.414	103.12
465.634	88.12
465.854	84.12
466.073	92.12
466.293	93.12
466.512	114.12
466.732	105.12
466.951	119.12
467.171	144.12
467.391	142.12
467.61	104.12
467.829	95.12
468.049	103.12
468.268	91.12
468.488	87.12
468.707	96.12
468.927	94.12
469.146	107.12
469.365	97.12
469.585	92.12
469.804	90.12
470.023	90.12
470.243	98.12
470.462	99.12
470.681	103.12
470.901	130.12
471.12	182.12
471.339	194.12
471.558	142.12
471.777	119.12
471.997	90.12
472.216	95.12
472.435	95.12
472.654	95.12
472.873	97.12
473.092	101.12
473.311	89.12
473.53	101.12
473.749	96.12
473.968	104.12
474.187	86.12
474.406	97.12
474.625	82.12
474.844	89.12
475.063	99.12
475.282	102.12
475.501	94.12
475.72	93.12
475.939	102.12
476.158	99.12
476.377	97.12
476.596	107.12
476.814	101.12
477.033	84.12
477.252	86.12
477.471	100.12
477.69	100.12
477.908	105.12
478.127	97.12
478.346	92.12
478.564	98.12
478.783	101.12
479.002	97.12
479.22	112.12
479.439	104.12
479.658	89.12
479.876	97.12
480.095	84.12
480.313	102.12
480.532	98.12
480.751	80.12
480.969	105.12
481.188	95.12
481.406	88.12
481.624	92.12
481.843	117.12
482.061	114.12
482.28	108.12
482.498	107.12
482.717	92.12
482.935	94.12
483.153	112.12
483.372	101.12
483.59	105.12
483.808	107.12
484.027	104.12
484.245	134.12
484.463	181.12
484.681	223.12
484.9	134.12
485.118	136.12
485.336	120.12
485.554	124.12
485.772	121.12
485.99	187.12
486.209	254.12
486.427	184.12
486.645	114.12
486.863	114.12
487.081	104.12
487.299	112.12
487.517	102.12
487.735	102.12
487.953	98.12
488.171	90.12
488.389	99.12
488.607	90.12
488.825	100.12
489.043	89.12
489.261	101.12
489.479	114.12
489.696	100.12
489.914	84.12
490.132	105.12
490.35	103.12
490.568	93.12
490.786	110.12
491.003	93.12
491.221	110.12
491.439	120.12
491.657	99.12
491.874	103.12
492.092	118.12
492.31	107.12
492.527	108.12
492.745	103.12
492.963	115.12
493.18	98.12
493.398	112.12
493.615	106.12
493.833	102.12
494.05	113.12
494.268	94.12
494.485	102.12
494.703	95.12
494.92	103.12
495.138	108.12
495.355	106.12
495.573	117.12
495.79	85.12
496.008	113.12
496.225	112.12
496.442	110.12
496.66	110.12
496.877	172.12
497.094	140.12
497.312	121.12
497.529	87.12
497.746	113.12
497.963	125.12
498.181	114.12
498.398	100.12
498.615	117.12
498.832	102.12
499.049	109.12
499.267	141.12
499.484	158.12
499.701	112.12
499.918	108.12
500.135	100.12
500.352	104.12
500.569	103.12
500.786	98.12
501.003	91.12
501.22	104.12
501.437	107.12
501.654	103.12
501.871	93.12
502.088	93.12
502.305	99.12
502.522	92.12
502.739	93.12
502.956	101.12
503.172	88.12
503.389	101.12
503.606	108.12
503.823	96.12
504.04	96.12
504.256	101.12
504.473	109.12
504.69	96.12
504.907	129.12
505.123	102.12
505.34	101.12
505.557	115.12
505.773	97.12
505.99	93.12
506.207	102.12
506.423	104.12
506.64	105.12
506.856	105.12
507.073	92.12
507.289	105.12
507.506	95.12
507.722	106.12
507.939	120.12
