Data from SnStandardFlinnAPT0064_LampEnergy10_LIBS07252019.E.O._I.C._HRD10591_15-20-06-493.txt Node
Date: Thu Jul 25 15:20:06 EDT 2019
User: cochatt
Spectrometer: HR+D1059
Trigger mode: 1
Integration Time (sec): 1.000000E-1
Scans to average: 1
Electric dark correction enabled: true
Nonlinearity correction enabled: false
Boxcar width: 0
XAxis mode: Wavelengths
Number of Pixels in Spectrum: 2048
>>>>>Begin Spectral Data<<<<<
223.165	-16
223.4	-16
223.635	-16
223.869	-21
224.104	-24
224.338	3
224.573	-14
224.808	-28
225.042	-12
225.277	-3
225.511	-7
225.746	5
225.98	13
226.215	-8
226.449	19
226.683	23
226.918	27
227.152	43
227.387	36
227.621	34
227.856	45
228.09	43
228.324	41
228.559	62
228.793	136
229.027	325
229.262	331
229.496	322
229.73	299
229.964	307
230.199	284
230.433	318
230.667	329
230.901	341
231.136	338
231.37	366
231.604	409
231.838	451
232.072	515
232.306	577
232.541	475
232.775	436
233.009	430
233.243	456
233.477	473
233.711	535
233.945	620
234.179	544
234.413	477
234.647	459
234.881	489
235.115	541
235.349	622
235.583	814
235.817	1041
236.051	997
236.285	668
236.519	546
236.753	517
236.987	528
237.221	538
237.455	553
237.689	492
237.922	476
238.156	478
238.39	517
238.624	526
238.858	485
239.091	490
239.325	515
239.559	522
239.793	521
240.027	549
240.26	568
240.494	576
240.728	608
240.961	638
241.195	674
241.429	683
241.662	753
241.896	816
242.13	1007
242.363	1315
242.597	1672
242.83	1648
243.064	1612
243.298	1937
243.531	1580
243.765	1008
243.998	786
244.232	711
244.465	720
244.699	661
244.932	653
245.166	680
245.399	709
245.633	712
245.866	718
246.099	704
246.333	674
246.566	649
246.8	657
247.033	640
247.266	658
247.5	669
247.733	677
247.966	765
248.2	814
248.433	928
248.666	1024
248.899	961
249.133	873
249.366	909
249.599	1001
249.832	1122
250.066	1156
250.299	917
250.532	791
250.765	762
250.998	754
251.231	742
251.465	732
251.698	759
251.931	785
252.164	783
252.397	769
252.63	809
252.863	814
253.096	816
253.329	793
253.562	800
253.795	828
254.028	822
254.261	848
254.494	897
254.727	1059
254.96	1262
255.193	1300
255.426	998
255.659	911
255.892	897
256.124	889
256.357	910
256.59	938
256.823	1014
257.056	1160
257.289	1421
257.521	1554
257.754	1232
257.987	979
258.22	948
258.452	934
258.685	961
258.918	993
259.151	1036
259.383	1108
259.616	1263
259.849	1353
260.081	1100
260.314	994
260.547	996
260.779	965
261.012	946
261.244	973
261.477	963
261.71	1000
261.942	1001
262.175	1057
262.407	1032
262.64	1068
262.872	1117
263.105	1148
263.337	1193
263.57	1265
263.802	1298
264.035	1335
264.267	1365
264.499	1373
264.732	1421
264.964	1434
265.197	1428
265.429	1466
265.661	1466
265.894	1580
266.126	1788
266.358	1986
266.591	1940
266.823	1664
267.055	1442
267.287	1404
267.52	1341
267.752	1303
267.984	1274
268.216	1296
268.448	1280
268.681	1221
268.913	1257
269.145	1249
269.377	1243
269.609	1293
269.841	1313
270.073	1397
270.306	1662
270.538	2218
270.77	3315
271.002	4101
271.234	2920
271.466	1996
271.698	1603
271.93	1443
272.162	1370
272.394	1352
272.626	1284
272.858	1239
273.09	1268
273.322	1241
273.553	1219
273.785	1233
274.017	1200
274.249	1223
274.481	1262
274.713	1230
274.945	1243
275.176	1252
275.408	1241
275.64	1220
275.872	1258
276.104	1286
276.335	1293
276.567	1301
276.799	1262
277.031	1333
277.262	1396
277.494	1446
277.726	1613
277.957	1927
278.189	2225
278.421	2086
278.652	1835
278.884	1716
279.115	1548
279.347	1477
279.579	1474
279.81	1413
280.042	1411
280.273	1468
280.505	1505
280.736	1535
280.968	1633
281.199	1845
281.431	2132
281.662	2212
281.894	1892
282.125	1657
282.356	1712
282.588	1724
282.819	1770
283.051	1876
283.282	2136
283.513	2549
283.745	3728
283.976	5973
284.207	8413
284.439	7725
284.67	4824
284.901	3928
285.132	3991
285.364	3721
285.595	2812
285.826	2492
286.057	2985
286.288	4037
286.52	5472
286.751	5170
286.982	3182
287.213	2401
287.444	2066
287.675	1921
287.906	1846
288.138	1784
288.369	1765
288.6	1702
288.831	1663
289.062	1720
289.293	1725
289.524	1692
289.755	1714
289.986	1732
290.217	1754
290.448	1762
290.679	1793
290.91	1828
291.141	1889
291.371	2116
291.602	2228
291.833	1982
292.064	1800
292.295	1699
292.526	1677
292.757	1649
292.987	1645
293.218	1621
293.449	1616
293.68	1612
293.91	1617
294.141	1596
294.372	1592
294.603	1592
294.833	1624
295.064	1588
295.295	1594
295.525	1594
295.756	1649
295.987	1579
296.217	1638
296.448	1581
296.679	1611
296.909	1632
297.14	1639
297.37	1611
297.601	1688
297.831	1642
298.062	1654
298.292	1696
298.523	1709
298.753	1755
298.984	1742
299.214	1760
299.445	1789
299.675	1768
299.905	1856
300.136	2001
300.366	2205
300.597	2851
300.827	3988
301.057	5469
301.288	5413
301.518	3575
301.748	2702
301.979	2451
302.209	2372
302.439	2361
302.669	2504
302.9	3072
303.13	4356
303.36	6410
303.59	8639
303.82	7427
304.051	4464
304.281	3197
304.511	2600
304.741	2446
304.971	2302
305.201	2124
305.431	2079
305.661	1995
305.891	1963
306.121	1923
306.352	1915
306.582	1927
306.812	1847
307.042	1897
307.272	1920
307.502	1852
307.731	1847
307.961	1811
308.191	1873
308.421	1850
308.651	1842
308.881	1863
309.111	1857
309.341	1857
309.571	1882
309.8	1928
310.03	1899
310.26	1884
310.49	1910
310.72	1914
310.949	1884
311.179	1923
311.409	1904
311.639	1942
311.868	2001
312.098	1979
312.328	1962
312.557	1979
312.787	1990
313.017	2024
313.246	2064
313.476	2046
313.706	2135
313.935	2248
314.165	2420
314.394	2582
314.624	2443
314.853	2205
315.083	2187
315.312	2247
315.542	2248
315.771	2276
316.001	2340
316.23	2381
316.46	2492
316.689	2709
316.919	3338
317.148	4816
317.377	7302
317.607	10778
317.836	11370
318.065	7039
318.295	4499
318.524	3604
318.753	3092
318.983	2840
319.212	2674
319.441	2534
319.67	2547
319.9	2499
320.129	2430
320.358	2379
320.587	2389
320.816	2366
321.046	2412
321.275	2443
321.504	2432
321.733	2521
321.962	2530
322.191	2583
322.42	2578
322.649	2518
322.878	2503
323.108	2551
323.337	2556
323.566	2647
323.795	2729
324.024	2724
324.253	2747
324.482	2892
324.71	3113
324.939	3367
325.168	3399
325.397	3535
325.626	4228
325.855	5836
326.084	9132
326.313	13054
326.542	13839
326.77	9633
326.999	6319
327.228	5247
327.457	4986
327.686	5030
327.914	5383
328.143	6304
328.372	7560
328.6	8129
328.829	7330
329.058	6106
329.287	5285
329.515	4752
329.744	4444
329.972	4269
330.201	4034
330.43	3890
330.658	3688
330.887	3658
331.115	3598
331.344	3584
331.572	3574
331.801	3581
332.03	3563
332.258	3618
332.486	3828
332.715	4403
332.943	5477
333.172	6796
333.4	6864
333.629	5178
333.857	4656
334.085	4585
334.314	4846
334.542	5343
334.771	6217
334.999	7717
335.227	9845
335.455	11019
335.684	9838
335.912	8036
336.14	6740
336.369	5994
336.597	5464
336.825	4930
337.053	4644
337.281	4336
337.51	4112
337.738	3982
337.966	3826
338.194	3652
338.422	3467
338.65	3445
338.878	3403
339.106	3284
339.334	3284
339.562	3217
339.79	3141
340.018	3093
340.246	3057
340.474	3106
340.702	3098
340.93	3092
341.158	3060
341.386	3059
341.614	2998
341.842	2957
342.07	2866
342.298	2897
342.526	2841
342.754	2778
342.981	2749
343.209	2765
343.437	2758
343.665	2840
343.893	2852
344.12	2819
344.348	2846
344.576	2736
344.804	2766
345.031	2666
345.259	2612
345.487	2607
345.714	2602
345.942	2572
346.17	2578
346.397	2582
346.625	2588
346.853	2574
347.08	2569
347.308	2559
347.535	2519
347.763	2593
347.99	2526
348.218	2491
348.445	2537
348.673	2555
348.9	2496
349.128	2491
349.355	2509
349.583	2518
349.81	2463
350.037	2445
350.265	2454
350.492	2436
350.72	2429
350.947	2430
351.174	2439
351.402	2421
351.629	2411
351.856	2411
352.083	2432
352.311	2419
352.538	2413
352.765	2396
352.992	2416
353.22	2401
353.447	2360
353.674	2458
353.901	2458
354.128	2424
354.355	2458
354.583	2450
354.81	2414
355.037	2482
355.264	2466
355.491	2466
355.718	2458
355.945	2482
356.172	2497
356.399	2454
356.626	2549
356.853	2538
357.08	2534
357.307	2576
357.534	2571
357.761	2579
357.988	2636
358.215	2601
358.441	2598
358.668	2602
358.895	2582
359.122	2590
359.349	2568
359.576	2525
359.802	2544
360.029	2532
360.256	2578
360.483	2610
360.709	2564
360.936	2551
361.163	2621
361.39	2559
361.616	2582
361.843	2625
362.07	2608
362.296	2584
362.523	2580
362.749	2611
362.976	2580
363.203	2546
363.429	2568
363.656	2534
363.882	2566
364.109	2604
364.335	2564
364.562	2514
364.788	2610
365.015	2613
365.241	2686
365.468	2824
365.694	2986
365.92	2922
366.147	2680
366.373	2658
366.599	2663
366.826	2624
367.052	2615
367.278	2656
367.505	2609
367.731	2688
367.957	2639
368.184	2678
368.41	2714
368.636	2717
368.862	2702
369.089	2665
369.315	2664
369.541	2670
369.767	2668
369.993	2659
370.219	2640
370.445	2636
370.672	2660
370.898	2696
371.124	2694
371.35	2750
371.576	2740
371.802	2707
372.028	2822
372.254	2772
372.48	2810
372.706	2814
372.932	2860
373.158	2825
373.384	2771
373.61	2787
373.835	2793
374.061	2791
374.287	2844
374.513	2825
374.739	2904
374.965	2909
375.191	2905
375.416	2964
375.642	2824
375.868	2892
376.094	2854
376.319	2781
376.545	2752
376.771	2799
376.997	2768
377.222	2723
377.448	2729
377.674	2776
377.899	2732
378.125	2759
378.35	2752
378.576	2750
378.802	2839
379.027	2778
379.253	2893
379.478	3080
379.704	3620
379.929	5226
380.155	8198
380.38	9046
380.606	5604
380.831	3810
381.057	3260
381.282	3048
381.507	2949
381.733	2811
381.958	2772
382.184	2752
382.409	2803
382.634	2709
382.86	2678
383.085	2746
383.31	2714
383.535	2779
383.761	2726
383.986	2738
384.211	2763
384.436	2820
384.662	2829
384.887	2853
385.112	2791
385.337	2813
385.562	2796
385.787	2827
386.013	2797
386.238	2821
386.463	2825
386.688	2798
386.913	2739
387.138	2812
387.363	2769
387.588	2765
387.813	2814
388.038	2822
388.263	2778
388.488	2742
388.713	2779
388.938	2745
389.163	2772
389.387	2789
389.612	2785
389.837	2788
390.062	2838
390.287	2827
390.512	2823
390.736	2818
390.961	2878
391.186	2911
391.411	2887
391.636	2950
391.86	2981
392.085	2969
392.31	2961
392.534	2907
392.759	2912
392.984	2838
393.208	2843
393.433	2881
393.658	2851
393.882	2795
394.107	2834
394.331	2820
394.556	2840
394.78	2840
395.005	2848
395.229	2873
395.454	2892
395.678	2936
395.903	2905
396.127	2884
396.352	2868
396.576	2867
396.801	2872
397.025	2889
397.249	2986
397.474	2980
397.698	2942
397.922	3003
398.147	2986
398.371	3017
398.595	3025
398.82	3079
399.044	3245
399.268	3402
399.492	3590
399.717	3644
399.941	3672
400.165	3571
400.389	3383
400.613	3247
400.837	3252
401.062	3138
401.286	3063
401.51	3056
401.734	3078
401.958	3111
402.182	3136
402.406	3049
402.63	3094
402.854	3113
403.078	3101
403.302	3150
403.526	3190
403.75	3192
403.974	3174
404.198	3192
404.422	3184
404.645	3165
404.869	3211
405.093	3208
405.317	3203
405.541	3254
405.765	3275
405.988	3325
406.212	3294
406.436	3243
406.66	3363
406.883	3300
407.107	3448
407.331	3430
407.555	3541
407.778	3476
408.002	3493
408.226	3392
408.449	3423
408.673	3328
408.896	3261
409.12	3248
409.344	3266
409.567	3177
409.791	3212
410.014	3156
410.238	3159
410.461	3204
410.685	3122
410.908	3114
411.132	3133
411.355	2986
411.578	3052
411.802	3042
412.025	3066
412.249	3145
412.472	3076
412.695	3019
412.919	2985
413.142	2992
413.365	3030
413.589	3000
413.812	3041
414.035	3017
414.258	3019
414.482	2979
414.705	3035
414.928	3016
415.151	2977
415.374	2968
415.597	2950
415.821	2891
416.044	2880
416.267	2849
416.49	2891
416.713	2897
416.936	2912
417.159	2876
417.382	2854
417.605	2856
417.828	2866
418.051	2917
418.274	2945
418.497	2942
418.72	3036
418.943	2911
419.166	3058
419.389	3202
419.611	3171
419.834	3096
420.057	2966
420.28	2935
420.503	2902
420.726	2897
420.948	2902
421.171	2917
421.394	2915
421.617	2914
421.839	2950
422.062	2913
422.285	2865
422.507	2944
422.73	2965
422.953	2992
423.175	2978
423.398	2996
423.621	2884
423.843	2906
424.066	2948
424.288	2924
424.511	2876
424.733	2864
424.956	2890
425.178	2877
425.401	2839
425.623	2856
425.846	2813
426.068	2777
426.291	2787
426.513	2810
426.735	2829
426.958	2762
427.18	2742
427.402	2762
427.625	2801
427.847	2645
428.069	2659
428.292	2758
428.514	2676
428.736	2669
428.958	2725
429.181	2649
429.403	2629
429.625	2624
429.847	2681
430.069	2725
430.292	2792
430.514	2878
430.736	2870
430.958	2756
431.18	2668
431.402	2631
431.624	2617
431.846	2666
432.068	2657
432.29	2676
432.512	2616
432.734	2653
432.956	2633
433.178	2645
433.4	2666
433.622	2676
433.844	2710
434.066	2645
434.287	2646
434.509	2696
434.731	2764
434.953	2766
435.175	2786
435.397	2764
435.618	2728
435.84	2657
436.062	2638
436.284	2620
436.505	2614
436.727	2646
436.949	2653
437.17	2620
437.392	2602
437.614	2595
437.835	2571
438.057	2542
438.278	2566
438.5	2548
438.721	2663
438.943	2728
439.165	2769
439.386	2765
439.608	2708
439.829	2771
440.05	2808
440.272	2894
440.493	2794
440.715	2755
440.936	2800
441.158	2717
441.379	2785
441.6	2931
441.822	2996
442.043	3144
442.264	3232
442.486	3013
442.707	2877
442.928	2833
443.149	2806
443.371	2836
443.592	2891
443.813	2829
444.034	2841
444.255	2893
444.476	2928
444.698	2996
444.919	3073
445.14	3042
445.361	2946
445.582	2905
445.803	2841
446.024	2823
446.245	2791
446.466	2788
446.687	2786
446.908	2769
447.129	2694
447.35	2685
447.571	2672
447.792	2642
448.013	2646
448.234	2578
448.455	2643
448.675	2684
448.896	2733
449.117	2829
449.338	3062
449.559	3177
449.779	2918
450	2684
450.221	2590
450.442	2620
450.662	2564
450.883	2617
451.104	2616
451.324	2571
451.545	2558
451.766	2589
451.986	2638
452.207	2865
452.428	3679
452.648	5709
452.869	4751
453.089	3256
453.31	3106
453.53	3067
453.751	3133
453.971	3226
454.192	3197
454.412	2762
454.633	2646
454.853	2574
455.073	2570
455.294	2473
455.514	2491
455.734	2468
455.955	2426
456.175	2431
456.395	2438
456.616	2472
456.836	2470
457.056	2523
457.276	2552
457.497	2646
457.717	2714
457.937	2621
458.157	2565
458.377	2651
458.598	2648
458.818	2606
459.038	2668
459.258	2648
459.478	2678
459.698	2700
459.918	2736
460.138	2765
460.358	2841
460.578	2841
460.798	2906
461.018	2926
461.238	2920
461.458	2952
461.678	2934
461.898	3046
462.118	3083
462.338	3124
462.558	3117
462.777	3160
462.997	3245
463.217	3449
463.437	3570
463.657	3642
463.876	3589
464.096	3397
464.316	3226
464.536	3176
464.755	3148
464.975	3106
465.195	2936
465.414	2864
465.634	2773
465.854	2775
466.073	2714
466.293	2687
466.512	2685
466.732	2708
466.951	2864
467.171	3071
467.391	3020
467.61	2754
467.829	2678
468.049	2642
468.268	2625
468.488	2577
468.707	2587
468.927	2602
469.146	2638
469.365	2636
469.585	2682
469.804	2702
470.023	2758
470.243	2818
470.462	2933
470.681	3051
470.901	3381
471.12	3825
471.339	3809
471.558	3240
471.777	2962
471.997	2825
472.216	2736
472.435	2679
472.654	2643
472.873	2648
473.092	2622
473.311	2612
473.53	2653
473.749	2696
473.968	2802
474.187	2706
474.406	2628
474.625	2648
474.844	2647
475.063	2659
475.282	2639
475.501	2675
475.72	2696
475.939	2710
476.158	2719
476.377	2784
476.596	2762
476.814	2784
477.033	2773
477.252	2814
477.471	2858
477.69	2894
477.908	2965
478.127	2989
478.346	3010
478.564	3058
478.783	3040
479.002	3147
479.22	3138
479.439	3148
479.658	3128
479.876	3140
480.095	3184
480.313	3289
480.532	3293
480.751	3242
480.969	3218
481.188	3149
481.406	3149
481.624	3198
481.843	3194
482.061	3248
482.28	3181
482.498	3211
482.717	3262
482.935	3242
483.153	3255
483.372	3287
483.59	3359
483.808	3413
484.027	3400
484.245	3644
484.463	4181
484.681	4586
484.9	4234
485.118	3896
485.336	3824
485.554	3888
485.772	4168
485.99	4638
486.209	4995
486.427	4193
486.645	3767
486.863	3590
487.081	3508
487.299	3477
487.517	3385
487.735	3402
487.953	3392
488.171	3404
488.389	3382
488.607	3296
488.825	3314
489.043	3279
489.261	3245
489.479	3248
489.696	3339
489.914	3319
490.132	3308
490.35	3328
490.568	3348
490.786	3378
491.003	3453
491.221	3446
491.439	3428
491.657	3422
491.874	3442
492.092	3517
492.31	3453
492.527	3434
492.745	3474
492.963	3419
493.18	3408
493.398	3458
493.615	3404
493.833	3489
494.05	3510
494.268	3464
494.485	3488
494.703	3433
494.92	3501
495.138	3480
495.355	3479
495.573	3509
495.79	3480
496.008	3564
496.225	3453
496.442	3614
496.66	3777
496.877	3898
497.094	3890
497.312	3773
497.529	3826
497.746	3737
497.963	3851
498.181	4005
498.398	3993
498.615	4162
498.832	4254
499.049	4538
499.267	4820
499.484	5086
499.701	5120
499.918	5193
500.135	5495
500.352	5739
500.569	5796
500.786	5772
501.003	5651
501.22	5341
501.437	4984
501.654	4739
501.871	4585
502.088	4413
502.305	4248
502.522	4086
502.739	4045
502.956	3927
503.172	3790
503.389	3754
503.606	3701
503.823	3682
504.04	3598
504.256	3616
504.473	3643
504.69	3573
504.907	3599
505.123	3474
505.34	3411
505.557	3306
505.773	3281
505.99	3274
506.207	3145
506.423	3162
506.64	3146
506.856	3072
507.073	3094
507.289	3073
507.506	3068
507.722	3072
507.939	3060
508.155	2997
508.372	2956
508.588	2976
508.805	2954
509.021	2991
509.238	3060
509.454	3243
509.67	3434
509.887	3142
510.103	3072
510.319	2973
510.536	2952
510.752	3016
510.968	2942
511.184	2918
511.401	2902
511.617	2835
511.833	2902
512.049	2836
512.265	2880
512.481	2859
512.698	2814
512.914	2834
513.13	2873
513.346	2868
513.562	2854
513.778	2908
513.994	2882
514.21	2992
514.426	3216
514.642	3301
514.858	3094
515.074	2978
515.29	2938
515.506	2907
515.721	2947
515.937	2917
516.153	2922
516.369	2992
516.585	3010
516.801	3104
517.016	3130
517.232	3214
517.448	3266
517.664	3246
517.879	3282
518.095	3236
518.311	3260
518.527	3164
518.742	3156
518.958	3274
519.173	3274
519.389	3190
519.605	3019
519.82	2952
520.036	2946
520.251	2905
520.467	2856
520.682	2889
520.898	2843
521.113	2793
521.329	2795
521.544	2867
521.76	2836
521.975	2827
522.19	2785
522.406	2791
522.621	2788
522.836	2766
523.052	2768
523.267	2746
523.482	2705
523.698	2760
523.913	2730
524.128	2791
524.343	2770
524.559	2760
524.774	2731
524.989	2723
525.204	2748
525.419	2738
525.634	2698
525.849	2725
526.064	2732
526.28	2772
526.495	2737
526.71	2773
526.925	2758
527.14	2788
527.355	2760
527.57	2722
527.785	2784
527.999	2784
528.214	2807
528.429	2872
528.644	2830
528.859	2867
529.074	2952
529.289	2936
529.503	3001
529.718	2928
529.933	2927
530.148	2929
530.363	2952
530.577	2958
530.792	2964
531.007	2962
531.221	3025
531.436	3012
531.651	2979
531.865	3130
532.08	3160
532.295	3181
532.509	3486
532.724	3470
532.938	3568
533.153	3624
533.367	3944
533.582	4196
533.796	4033
534.011	3886
534.225	3789
534.44	3552
534.654	3597
534.868	3458
535.083	3356
535.297	3320
535.511	3215
535.726	3208
535.94	3161
536.154	3118
536.369	3085
536.583	2981
536.797	2967
537.011	2924
537.225	2864
537.44	2908
537.654	2835
537.868	2758
538.082	2810
538.296	2779
538.51	2778
538.724	2796
538.938	2731
539.153	2699
539.367	2725
539.581	2682
539.795	2706
540.009	2677
540.222	2641
540.436	2654
540.65	2652
540.864	2704
541.078	2772
541.292	2907
541.506	3358
541.72	3568
541.934	3104
542.147	2888
