Data from SnStandardFlinnAPT0064_QswitchEnergy10_LIBS07252019.E.O._I.C._HRD10591_15-25-56-972.txt Node
Date: Thu Jul 25 15:25:56 EDT 2019
User: cochatt
Spectrometer: HR+D1059
Trigger mode: 1
Integration Time (sec): 1.000000E-1
Scans to average: 1
Electric dark correction enabled: true
Nonlinearity correction enabled: false
Boxcar width: 0
XAxis mode: Wavelengths
Number of Pixels in Spectrum: 2048
>>>>>Begin Spectral Data<<<<<
223.165	-29.5
223.4	-29.5
223.635	-29.5
223.869	-16.5
224.104	-30.5
224.338	-14.5
224.573	-21.5
224.808	-6.5
225.042	-10.5
225.277	17.5
225.511	5.5
225.746	4.5
225.98	13.5
226.215	-7.5
226.449	9.5
226.683	34.5
226.918	26.5
227.152	25.5
227.387	26.5
227.621	54.5
227.856	48.5
228.09	41.5
228.324	45.5
228.559	55.5
228.793	57.5
229.027	73.5
229.262	94.5
229.496	75.5
229.73	77.5
229.964	82.5
230.199	62.5
230.433	79.5
230.667	74.5
230.901	84.5
231.136	82.5
231.37	84.5
231.604	88.5
231.838	94.5
232.072	112.5
232.306	124.5
232.541	96.5
232.775	97.5
233.009	82.5
233.243	103.5
233.477	88.5
233.711	89.5
233.945	97.5
234.179	86.5
234.413	78.5
234.647	87.5
234.881	78.5
235.115	88.5
235.349	83.5
235.583	98.5
235.817	113.5
236.051	113.5
236.285	94.5
236.519	90.5
236.753	82.5
236.987	85.5
237.221	86.5
237.455	72.5
237.689	82.5
237.922	82.5
238.156	75.5
238.39	82.5
238.624	67.5
238.858	74.5
239.091	76.5
239.325	90.5
239.559	98.5
239.793	85.5
240.027	86.5
240.26	82.5
240.494	81.5
240.728	65.5
240.961	86.5
241.195	91.5
241.429	86.5
241.662	81.5
241.896	100.5
242.13	100.5
242.363	115.5
242.597	142.5
242.83	125.5
243.064	115.5
243.298	143.5
243.531	142.5
243.765	86.5
243.998	101.5
244.232	77.5
244.465	89.5
244.699	93.5
244.932	84.5
245.166	76.5
245.399	86.5
245.633	82.5
245.866	90.5
246.099	101.5
246.333	92.5
246.566	84.5
246.8	93.5
247.033	89.5
247.266	88.5
247.5	83.5
247.733	82.5
247.966	90.5
248.2	97.5
248.433	105.5
248.666	125.5
248.899	106.5
249.133	83.5
249.366	80.5
249.599	98.5
249.832	120.5
250.066	134.5
250.299	98.5
250.532	75.5
250.765	94.5
250.998	87.5
251.231	72.5
251.465	94.5
251.698	93.5
251.931	87.5
252.164	90.5
252.397	95.5
252.63	94.5
252.863	90.5
253.096	87.5
253.329	91.5
253.562	103.5
253.795	89.5
254.028	102.5
254.261	109.5
254.494	97.5
254.727	113.5
254.96	134.5
255.193	118.5
255.426	109.5
255.659	90.5
255.892	79.5
256.124	101.5
256.357	95.5
256.59	92.5
256.823	102.5
257.056	111.5
257.289	126.5
257.521	143.5
257.754	129.5
257.987	75.5
258.22	85.5
258.452	83.5
258.685	86.5
258.918	91.5
259.151	92.5
259.383	105.5
259.616	123.5
259.849	149.5
260.081	110.5
260.314	83.5
260.547	79.5
260.779	87.5
261.012	91.5
261.244	87.5
261.477	81.5
261.71	90.5
261.942	91.5
262.175	87.5
262.407	84.5
262.64	90.5
262.872	88.5
263.105	84.5
263.337	97.5
263.57	96.5
263.802	86.5
264.035	82.5
264.267	85.5
264.499	94.5
264.732	94.5
264.964	99.5
265.197	77.5
265.429	93.5
265.661	100.5
265.894	99.5
266.126	99.5
266.358	138.5
266.591	123.5
266.823	110.5
267.055	87.5
267.287	77.5
267.52	80.5
267.752	87.5
267.984	91.5
268.216	89.5
268.448	95.5
268.681	96.5
268.913	90.5
269.145	105.5
269.377	98.5
269.609	77.5
269.841	92.5
270.073	102.5
270.306	123.5
270.538	163.5
270.77	261.5
271.002	325.5
271.234	168.5
271.466	106.5
271.698	85.5
271.93	106.5
272.162	77.5
272.394	101.5
272.626	87.5
272.858	84.5
273.09	79.5
273.322	80.5
273.553	90.5
273.785	93.5
274.017	91.5
274.249	83.5
274.481	94.5
274.713	92.5
274.945	82.5
275.176	85.5
275.408	101.5
275.64	90.5
275.872	93.5
276.104	96.5
276.335	102.5
276.567	114.5
276.799	100.5
277.031	106.5
277.262	105.5
277.494	108.5
277.726	139.5
277.957	174.5
278.189	225.5
278.421	193.5
278.652	154.5
278.884	185.5
279.115	133.5
279.347	106.5
279.579	94.5
279.81	104.5
280.042	101.5
280.273	90.5
280.505	97.5
280.736	106.5
280.968	125.5
281.199	147.5
281.431	214.5
281.662	221.5
281.894	140.5
282.125	106.5
282.356	111.5
282.588	121.5
282.819	105.5
283.051	114.5
283.282	121.5
283.513	174.5
283.745	257.5
283.976	446.5
284.207	625.5
284.439	469.5
284.67	218.5
284.901	238.5
285.132	276.5
285.364	316.5
285.595	198.5
285.826	133.5
286.057	206.5
286.288	340.5
286.52	498.5
286.751	401.5
286.982	165.5
287.213	117.5
287.444	102.5
287.675	95.5
287.906	91.5
288.138	93.5
288.369	98.5
288.6	85.5
288.831	87.5
289.062	91.5
289.293	84.5
289.524	86.5
289.755	88.5
289.986	106.5
290.217	79.5
290.448	103.5
290.679	107.5
290.91	118.5
291.141	153.5
291.371	210.5
291.602	246.5
291.833	172.5
292.064	106.5
292.295	98.5
292.526	104.5
292.757	107.5
292.987	90.5
293.218	89.5
293.449	84.5
293.68	95.5
293.91	90.5
294.141	104.5
294.372	77.5
294.603	95.5
294.833	79.5
295.064	100.5
295.295	93.5
295.525	85.5
295.756	95.5
295.987	98.5
296.217	104.5
296.448	101.5
296.679	105.5
296.909	95.5
297.14	98.5
297.37	94.5
297.601	82.5
297.831	90.5
298.062	91.5
298.292	103.5
298.523	93.5
298.753	113.5
298.984	100.5
299.214	107.5
299.445	112.5
299.675	106.5
299.905	107.5
300.136	109.5
300.366	137.5
300.597	227.5
300.827	382.5
301.057	540.5
301.288	501.5
301.518	217.5
301.748	129.5
301.979	121.5
302.209	119.5
302.439	132.5
302.669	139.5
302.9	230.5
303.13	425.5
303.36	711.5
303.59	957.5
303.82	683.5
304.051	233.5
304.281	147.5
304.511	119.5
304.741	104.5
304.971	99.5
305.201	116.5
305.431	102.5
305.661	103.5
305.891	101.5
306.121	102.5
306.352	114.5
306.582	121.5
306.812	104.5
307.042	123.5
307.272	104.5
307.502	114.5
307.731	105.5
307.961	102.5
308.191	102.5
308.421	102.5
308.651	104.5
308.881	94.5
309.111	105.5
309.341	107.5
309.571	102.5
309.8	109.5
310.03	96.5
310.26	114.5
310.49	112.5
310.72	105.5
310.949	92.5
311.179	107.5
311.409	113.5
311.639	92.5
311.868	109.5
312.098	103.5
312.328	99.5
312.557	108.5
312.787	99.5
313.017	110.5
313.246	119.5
313.476	122.5
313.706	115.5
313.935	142.5
314.165	174.5
314.394	195.5
314.624	157.5
314.853	132.5
315.083	122.5
315.312	111.5
315.542	125.5
315.771	111.5
316.001	137.5
316.23	135.5
316.46	137.5
316.689	167.5
316.919	209.5
317.148	391.5
317.377	738.5
317.607	1172.5
317.836	1121.5
318.065	427.5
318.295	191.5
318.524	157.5
318.753	131.5
318.983	131.5
319.212	118.5
319.441	126.5
319.67	118.5
319.9	122.5
320.129	115.5
320.358	111.5
320.587	117.5
320.816	106.5
321.046	108.5
321.275	125.5
321.504	126.5
321.733	135.5
321.962	147.5
322.191	146.5
322.42	122.5
322.649	118.5
322.878	121.5
323.108	119.5
323.337	124.5
323.566	118.5
323.795	108.5
324.024	127.5
324.253	129.5
324.482	169.5
324.71	190.5
324.939	247.5
325.168	188.5
325.397	156.5
325.626	223.5
325.855	404.5
326.084	772.5
326.313	1235.5
326.542	1247.5
326.77	499.5
326.999	214.5
327.228	190.5
327.457	201.5
327.686	189.5
327.914	142.5
328.143	110.5
328.372	131.5
328.6	126.5
328.829	114.5
329.058	116.5
329.287	102.5
329.515	108.5
329.744	116.5
329.972	113.5
330.201	109.5
330.43	124.5
330.658	105.5
330.887	122.5
331.115	122.5
331.344	121.5
331.572	115.5
331.801	120.5
332.03	117.5
332.258	131.5
332.486	162.5
332.715	250.5
332.943	380.5
333.172	606.5
333.4	542.5
333.629	210.5
333.857	139.5
334.085	113.5
334.314	125.5
334.542	108.5
334.771	117.5
334.999	128.5
335.227	135.5
335.455	121.5
335.684	119.5
335.912	108.5
336.14	97.5
336.369	132.5
336.597	117.5
336.825	115.5
337.053	97.5
337.281	126.5
337.51	104.5
337.738	117.5
337.966	107.5
338.194	111.5
338.422	114.5
338.65	109.5
338.878	115.5
339.106	126.5
339.334	123.5
339.562	115.5
339.79	119.5
340.018	97.5
340.246	109.5
340.474	109.5
340.702	106.5
340.93	92.5
341.158	104.5
341.386	121.5
341.614	123.5
341.842	136.5
342.07	105.5
342.298	122.5
342.526	120.5
342.754	115.5
342.981	125.5
343.209	96.5
343.437	107.5
343.665	115.5
343.893	117.5
344.12	119.5
344.348	99.5
344.576	116.5
344.804	118.5
345.031	92.5
345.259	115.5
345.487	107.5
345.714	112.5
345.942	107.5
346.17	99.5
346.397	109.5
346.625	107.5
346.853	105.5
347.08	88.5
347.308	106.5
347.535	114.5
347.763	110.5
347.99	109.5
348.218	113.5
348.445	107.5
348.673	124.5
348.9	136.5
349.128	117.5
349.355	122.5
349.583	114.5
349.81	120.5
350.037	115.5
350.265	122.5
350.492	120.5
350.72	107.5
350.947	108.5
351.174	110.5
351.402	119.5
351.629	109.5
351.856	100.5
352.083	107.5
352.311	113.5
352.538	106.5
352.765	117.5
352.992	103.5
353.22	91.5
353.447	111.5
353.674	105.5
353.901	113.5
354.128	97.5
354.355	99.5
354.583	92.5
354.81	106.5
355.037	109.5
355.264	115.5
355.491	100.5
355.718	92.5
355.945	111.5
356.172	100.5
356.399	100.5
356.626	119.5
356.853	101.5
357.08	105.5
357.307	100.5
357.534	102.5
357.761	106.5
357.988	106.5
358.215	99.5
358.441	109.5
358.668	103.5
358.895	110.5
359.122	118.5
359.349	122.5
359.576	113.5
359.802	99.5
360.029	99.5
360.256	109.5
360.483	118.5
360.709	121.5
360.936	110.5
361.163	109.5
361.39	103.5
361.616	123.5
361.843	107.5
362.07	111.5
362.296	102.5
362.523	110.5
362.749	118.5
362.976	107.5
363.203	102.5
363.429	104.5
363.656	109.5
363.882	122.5
364.109	100.5
364.335	109.5
364.562	123.5
364.788	116.5
365.015	110.5
365.241	123.5
365.468	167.5
365.694	210.5
365.92	189.5
366.147	113.5
366.373	95.5
366.599	91.5
366.826	94.5
367.052	96.5
367.278	89.5
367.505	99.5
367.731	107.5
367.957	97.5
368.184	102.5
368.41	124.5
368.636	121.5
368.862	121.5
369.089	98.5
369.315	102.5
369.541	106.5
369.767	113.5
369.993	108.5
370.219	118.5
370.445	126.5
370.672	113.5
370.898	99.5
371.124	112.5
371.35	111.5
371.576	106.5
371.802	110.5
372.028	113.5
372.254	123.5
372.48	97.5
372.706	101.5
372.932	102.5
373.158	109.5
373.384	107.5
373.61	101.5
373.835	108.5
374.061	103.5
374.287	113.5
374.513	104.5
374.739	113.5
374.965	101.5
375.191	104.5
375.416	99.5
375.642	103.5
375.868	108.5
376.094	108.5
376.319	102.5
376.545	114.5
376.771	110.5
376.997	108.5
377.222	104.5
377.448	116.5
377.674	105.5
377.899	90.5
378.125	96.5
378.35	112.5
378.576	113.5
378.802	127.5
379.027	125.5
379.253	130.5
379.478	158.5
379.704	276.5
379.929	626.5
380.155	1253.5
380.38	1294.5
380.606	438.5
380.831	174.5
381.057	125.5
381.282	101.5
381.507	98.5
381.733	106.5
381.958	105.5
382.184	99.5
382.409	100.5
382.634	106.5
382.86	98.5
383.085	102.5
383.31	103.5
383.535	99.5
383.761	99.5
383.986	107.5
384.211	110.5
384.436	109.5
384.662	109.5
384.887	106.5
385.112	123.5
385.337	102.5
385.562	107.5
385.787	111.5
386.013	108.5
386.238	99.5
386.463	108.5
386.688	102.5
386.913	96.5
387.138	105.5
387.363	115.5
387.588	116.5
387.813	103.5
388.038	122.5
388.263	104.5
388.488	105.5
388.713	113.5
388.938	99.5
389.163	113.5
389.387	104.5
389.612	91.5
389.837	101.5
390.062	97.5
390.287	106.5
390.512	112.5
390.736	98.5
390.961	109.5
391.186	108.5
391.411	101.5
391.636	108.5
391.86	97.5
392.085	103.5
392.31	95.5
392.534	114.5
392.759	99.5
392.984	100.5
393.208	115.5
393.433	117.5
393.658	127.5
393.882	113.5
394.107	102.5
394.331	102.5
394.556	93.5
394.78	104.5
395.005	96.5
395.229	100.5
395.454	103.5
395.678	92.5
395.903	97.5
396.127	106.5
396.352	91.5
396.576	106.5
396.801	99.5
397.025	118.5
397.249	113.5
397.474	95.5
397.698	92.5
397.922	97.5
398.147	99.5
398.371	102.5
398.595	107.5
398.82	113.5
399.044	94.5
399.268	100.5
399.492	96.5
399.717	98.5
399.941	105.5
400.165	107.5
400.389	94.5
400.613	108.5
400.837	95.5
401.062	94.5
401.286	109.5
401.51	98.5
401.734	107.5
401.958	92.5
402.182	102.5
402.406	101.5
402.63	92.5
402.854	102.5
403.078	86.5
403.302	84.5
403.526	95.5
403.75	107.5
403.974	99.5
404.198	93.5
404.422	82.5
404.645	103.5
404.869	94.5
405.093	90.5
405.317	110.5
405.541	111.5
405.765	115.5
405.988	135.5
406.212	115.5
406.436	96.5
406.66	101.5
406.883	103.5
407.107	82.5
407.331	94.5
407.555	97.5
407.778	96.5
408.002	108.5
408.226	101.5
408.449	106.5
408.673	94.5
408.896	100.5
409.12	84.5
409.344	110.5
409.567	86.5
409.791	93.5
410.014	88.5
410.238	107.5
410.461	123.5
410.685	104.5
410.908	98.5
411.132	89.5
411.355	98.5
411.578	105.5
411.802	97.5
412.025	98.5
412.249	96.5
412.472	84.5
412.695	101.5
412.919	99.5
413.142	90.5
413.365	101.5
413.589	93.5
413.812	98.5
414.035	102.5
414.258	106.5
414.482	105.5
414.705	103.5
414.928	111.5
415.151	100.5
415.374	87.5
415.597	102.5
415.821	98.5
416.044	117.5
416.267	104.5
416.49	86.5
416.713	93.5
416.936	107.5
417.159	102.5
417.382	109.5
417.605	99.5
417.828	108.5
418.051	84.5
418.274	97.5
418.497	111.5
418.72	97.5
418.943	104.5
419.166	110.5
419.389	99.5
419.611	96.5
419.834	104.5
420.057	95.5
420.28	101.5
420.503	88.5
420.726	91.5
420.948	101.5
421.171	106.5
421.394	97.5
421.617	82.5
421.839	92.5
422.062	85.5
422.285	93.5
422.507	118.5
422.73	131.5
422.953	127.5
423.175	118.5
423.398	101.5
423.621	95.5
423.843	109.5
424.066	98.5
424.288	107.5
424.511	102.5
424.733	80.5
424.956	98.5
425.178	112.5
425.401	91.5
425.623	89.5
425.846	83.5
426.068	93.5
426.291	91.5
426.513	97.5
426.735	102.5
426.958	104.5
427.18	82.5
427.402	107.5
427.625	91.5
427.847	106.5
428.069	117.5
428.292	103.5
428.514	107.5
428.736	94.5
428.958	94.5
429.181	103.5
429.403	104.5
429.625	97.5
429.847	93.5
430.069	107.5
430.292	109.5
430.514	97.5
430.736	105.5
430.958	104.5
431.18	98.5
431.402	92.5
431.624	100.5
431.846	96.5
432.068	101.5
432.29	97.5
432.512	92.5
432.734	95.5
432.956	107.5
433.178	102.5
433.4	96.5
433.622	88.5
433.844	85.5
434.066	93.5
434.287	100.5
434.509	100.5
434.731	95.5
434.953	91.5
435.175	99.5
435.397	89.5
435.618	96.5
435.84	96.5
436.062	90.5
436.284	96.5
436.505	94.5
436.727	76.5
436.949	96.5
437.17	89.5
437.392	112.5
437.614	83.5
437.835	88.5
438.057	90.5
438.278	84.5
438.5	101.5
438.721	94.5
438.943	102.5
439.165	106.5
439.386	108.5
439.608	106.5
439.829	93.5
440.05	123.5
440.272	117.5
440.493	102.5
440.715	97.5
440.936	93.5
441.158	86.5
441.379	96.5
441.6	105.5
441.822	95.5
442.043	125.5
442.264	131.5
442.486	109.5
442.707	98.5
442.928	115.5
443.149	102.5
443.371	114.5
443.592	105.5
443.813	99.5
444.034	97.5
444.255	85.5
444.476	104.5
444.698	95.5
444.919	102.5
445.14	208.5
445.361	153.5
445.582	111.5
445.803	113.5
446.024	88.5
446.245	96.5
446.466	100.5
446.687	110.5
446.908	93.5
447.129	102.5
447.35	100.5
447.571	103.5
447.792	115.5
448.013	91.5
448.234	97.5
448.455	95.5
448.675	85.5
448.896	87.5
449.117	88.5
449.338	121.5
449.559	155.5
449.779	98.5
450	106.5
450.221	112.5
450.442	117.5
450.662	111.5
450.883	112.5
451.104	115.5
451.324	114.5
451.545	114.5
451.766	118.5
451.986	127.5
452.207	193.5
452.428	467.5
452.648	1125.5
452.869	635.5
453.089	187.5
453.31	121.5
453.53	96.5
453.751	125.5
453.971	155.5
454.192	126.5
454.412	105.5
454.633	102.5
454.853	102.5
455.073	105.5
455.294	101.5
455.514	89.5
455.734	92.5
455.955	93.5
456.175	103.5
456.395	99.5
456.616	100.5
456.836	110.5
457.056	90.5
457.276	92.5
457.497	116.5
457.717	100.5
457.937	78.5
458.157	100.5
458.377	95.5
458.598	103.5
458.818	98.5
459.038	91.5
459.258	94.5
459.478	84.5
459.698	101.5
459.918	87.5
460.138	79.5
460.358	105.5
460.578	87.5
460.798	97.5
461.018	98.5
461.238	91.5
461.458	92.5
461.678	98.5
461.898	89.5
462.118	82.5
462.338	94.5
462.558	96.5
462.777	87.5
462.997	108.5
463.217	99.5
463.437	117.5
463.657	161.5
463.876	170.5
464.096	117.5
464.316	93.5
464.536	98.5
464.755	97.5
464.975	102.5
465.195	100.5
465.414	93.5
465.634	97.5
465.854	89.5
466.073	85.5
466.293	94.5
466.512	100.5
466.732	99.5
466.951	110.5
467.171	138.5
467.391	146.5
467.61	117.5
467.829	97.5
468.049	98.5
468.268	99.5
468.488	99.5
468.707	105.5
468.927	103.5
469.146	99.5
469.365	97.5
469.585	91.5
469.804	96.5
470.023	86.5
470.243	94.5
470.462	96.5
470.681	113.5
470.901	131.5
471.12	179.5
471.339	183.5
471.558	124.5
471.777	113.5
471.997	108.5
472.216	111.5
472.435	103.5
472.654	92.5
472.873	110.5
473.092	94.5
473.311	96.5
473.53	104.5
473.749	107.5
473.968	91.5
474.187	87.5
474.406	106.5
474.625	104.5
474.844	100.5
475.063	95.5
475.282	98.5
475.501	111.5
475.72	106.5
475.939	89.5
476.158	107.5
476.377	123.5
476.596	106.5
476.814	99.5
477.033	89.5
477.252	93.5
477.471	95.5
477.69	90.5
477.908	83.5
478.127	91.5
478.346	108.5
478.564	97.5
478.783	94.5
479.002	101.5
479.22	98.5
479.439	87.5
479.658	94.5
479.876	99.5
480.095	106.5
480.313	101.5
480.532	93.5
480.751	77.5
480.969	117.5
481.188	94.5
481.406	89.5
481.624	105.5
481.843	110.5
482.061	94.5
482.28	95.5
482.498	101.5
482.717	114.5
482.935	103.5
483.153	91.5
483.372	94.5
483.59	102.5
483.808	93.5
484.027	118.5
484.245	118.5
484.463	163.5
484.681	204.5
484.9	141.5
485.118	116.5
485.336	109.5
485.554	122.5
485.772	113.5
485.99	154.5
486.209	229.5
486.427	142.5
486.645	114.5
486.863	98.5
487.081	102.5
487.299	89.5
487.517	96.5
487.735	101.5
487.953	110.5
488.171	113.5
488.389	101.5
488.607	90.5
488.825	106.5
489.043	105.5
489.261	90.5
489.479	96.5
489.696	105.5
489.914	102.5
490.132	98.5
490.35	108.5
490.568	108.5
490.786	114.5
491.003	99.5
491.221	92.5
491.439	113.5
491.657	99.5
491.874	110.5
492.092	102.5
492.31	116.5
492.527	102.5
492.745	112.5
492.963	106.5
493.18	125.5
493.398	105.5
493.615	105.5
493.833	101.5
494.05	101.5
494.268	91.5
494.485	98.5
494.703	103.5
494.92	114.5
495.138	80.5
495.355	98.5
495.573	116.5
495.79	106.5
496.008	102.5
496.225	86.5
496.442	108.5
496.66	120.5
496.877	138.5
497.094	145.5
497.312	114.5
497.529	108.5
497.746	114.5
497.963	99.5
498.181	94.5
498.398	119.5
498.615	96.5
498.832	106.5
499.049	102.5
499.267	124.5
499.484	141.5
499.701	109.5
499.918	104.5
500.135	101.5
500.352	85.5
500.569	101.5
500.786	106.5
501.003	92.5
501.22	93.5
501.437	103.5
501.654	92.5
501.871	98.5
502.088	97.5
502.305	103.5
502.522	103.5
502.739	113.5
502.956	89.5
503.172	107.5
503.389	93.5
503.606	97.5
503.823	104.5
504.04	103.5
504.256	99.5
504.473	91.5
504.69	97.5
504.907	107.5
505.123	113.5
505.34	92.5
505.557	97.5
505.773	103.5
505.99	108.5
506.207	113.5
506.423	116.5
506.64	98.5
506.856	91.5
507.073	99.5
507.289	102.5
507.506	104.5
507.722	91.5
507.939	95.5
508.155	80.5
508.372	101.5
508.588	104.5
508.805	90.5
509.021	115.5
509.238	108.5
509.454	133.5
509.67	141.5
509.887	104.5
510.103	96.5
510.319	92.5
510.536	106.5
510.752	111.5
510.968	103.5
511.184	81.5
511.401	112.5
511.617	105.5
511.833	101.5
512.049	99.5
512.265	79.5
512.481	101.5
512.698	104.5
512.914	103.5
513.13	108.5
513.346	106.5
513.562	87.5
513.778	94.5
513.994	102.5
514.21	98.5
514.426	134.5
514.642	168.5
514.858	101.5
515.074	91.5
515.29	109.5
515.506	118.5
515.721	107.5
515.937	95.5
516.153	91.5
516.369	107.5
516.585	98.5
516.801	84.5
517.016	103.5
517.232	73.5
517.448	101.5
517.664	102.5
517.879	107.5
518.095	109.5
518.311	110.5
518.527	108.5
518.742	89.5
518.958	119.5
519.173	140.5
519.389	112.5
519.605	97.5
519.82	91.5
520.036	85.5
520.251	107.5
520.467	94.5
520.682	98.5
520.898	90.5
521.113	89.5
521.329	85.5
521.544	94.5
521.76	104.5
521.975	101.5
522.19	111.5
522.406	101.5
522.621	100.5
522.836	85.5
523.052	96.5
523.267	101.5
523.482	86.5
523.698	93.5
523.913	91.5
524.128	87.5
524.343	104.5
524.559	115.5
524.774	98.5
524.989	99.5
525.204	93.5
525.419	100.5
525.634	80.5
525.849	100.5
526.064	86.5
526.28	90.5
526.495	83.5
526.71	84.5
526.925	95.5
527.14	91.5
527.355	76.5
