Data from SnStandardFlinnAPT0064_LampEnergy10_LIBS07252019.E.O._I.C._HRD10591_15-21-36-494.txt Node
Date: Thu Jul 25 15:21:36 EDT 2019
User: cochatt
Spectrometer: HR+D1059
Trigger mode: 1
Integration Time (sec): 1.000000E-1
Scans to average: 1
Electric dark correction enabled: true
Nonlinearity correction enabled: false
Boxcar width: 0
XAxis mode: Wavelengths
Number of Pixels in Spectrum: 2048
>>>>>Begin Spectral Data<<<<<
223.165	-19.31
223.4	-19.31
223.635	-19.31
223.869	-13.31
224.104	-7.31
224.338	-13.31
224.573	-19.31
224.808	-13.31
225.042	6.69
225.277	-7.31
225.511	0.69
225.746	3.69
225.98	2.69
226.215	21.69
226.449	15.69
226.683	19.69
226.918	14.69
227.152	7.69
227.387	45.69
227.621	39.69
227.856	40.69
228.09	40.69
228.324	58.69
228.559	61.69
228.793	132.69
229.027	326.69
229.262	335.69
229.496	302.69
229.73	297.69
229.964	302.69
230.199	300.69
230.433	320.69
230.667	321.69
230.901	330.69
231.136	325.69
231.37	359.69
231.604	392.69
231.838	431.69
232.072	517.69
232.306	555.69
232.541	486.69
232.775	419.69
233.009	415.69
233.243	411.69
233.477	461.69
233.711	514.69
233.945	565.69
234.179	511.69
234.413	461.69
234.647	435.69
234.881	485.69
235.115	498.69
235.349	617.69
235.583	763.69
235.817	999.69
236.051	955.69
236.285	680.69
236.519	530.69
236.753	519.69
236.987	521.69
237.221	533.69
237.455	518.69
237.689	452.69
237.922	470.69
238.156	494.69
238.39	504.69
238.624	503.69
238.858	492.69
239.091	486.69
239.325	494.69
239.559	490.69
239.793	496.69
240.027	528.69
240.26	551.69
240.494	550.69
240.728	595.69
240.961	632.69
241.195	642.69
241.429	697.69
241.662	709.69
241.896	775.69
242.13	914.69
242.363	1251.69
242.597	1573.69
242.83	1522.69
243.064	1505.69
243.298	1777.69
243.531	1461.69
243.765	962.69
243.998	765.69
244.232	714.69
244.465	669.69
244.699	658.69
244.932	656.69
245.166	647.69
245.399	672.69
245.633	685.69
245.866	691.69
246.099	673.69
246.333	646.69
246.566	641.69
246.8	648.69
247.033	651.69
247.266	639.69
247.5	669.69
247.733	699.69
247.966	721.69
248.2	773.69
248.433	875.69
248.666	1006.69
248.899	934.69
249.133	837.69
249.366	884.69
249.599	1004.69
249.832	1085.69
250.066	1073.69
250.299	893.69
250.532	797.69
250.765	745.69
250.998	749.69
251.231	755.69
251.465	728.69
251.698	735.69
251.931	781.69
252.164	756.69
252.397	794.69
252.63	783.69
252.863	839.69
253.096	791.69
253.329	802.69
253.562	795.69
253.795	779.69
254.028	807.69
254.261	819.69
254.494	912.69
254.727	1039.69
254.96	1227.69
255.193	1207.69
255.426	956.69
255.659	884.69
255.892	892.69
256.124	900.69
256.357	889.69
256.59	932.69
256.823	976.69
257.056	1113.69
257.289	1358.69
257.521	1473.69
257.754	1195.69
257.987	1000.69
258.22	915.69
258.452	942.69
258.685	949.69
258.918	931.69
259.151	997.69
259.383	1111.69
259.616	1213.69
259.849	1262.69
260.081	1115.69
260.314	988.69
260.547	978.69
260.779	946.69
261.012	950.69
261.244	986.69
261.477	992.69
261.71	994.69
261.942	1017.69
262.175	1030.69
262.407	1075.69
262.64	1116.69
262.872	1131.69
263.105	1147.69
263.337	1234.69
263.57	1244.69
263.802	1313.69
264.035	1318.69
264.267	1351.69
264.499	1393.69
264.732	1491.69
264.964	1475.69
265.197	1472.69
265.429	1452.69
265.661	1526.69
265.894	1578.69
266.126	1815.69
266.358	2017.69
266.591	1916.69
266.823	1667.69
267.055	1491.69
267.287	1420.69
267.52	1345.69
267.752	1317.69
267.984	1253.69
268.216	1246.69
268.448	1265.69
268.681	1258.69
268.913	1235.69
269.145	1248.69
269.377	1233.69
269.609	1252.69
269.841	1299.69
270.073	1397.69
270.306	1609.69
270.538	2148.69
270.77	3121.69
271.002	3860.69
271.234	2751.69
271.466	1879.69
271.698	1526.69
271.93	1403.69
272.162	1323.69
272.394	1296.69
272.626	1255.69
272.858	1255.69
273.09	1235.69
273.322	1229.69
273.553	1222.69
273.785	1231.69
274.017	1208.69
274.249	1229.69
274.481	1213.69
274.713	1195.69
274.945	1260.69
275.176	1230.69
275.408	1269.69
275.64	1259.69
275.872	1229.69
276.104	1274.69
276.335	1268.69
276.567	1301.69
276.799	1267.69
277.031	1283.69
277.262	1343.69
277.494	1429.69
277.726	1571.69
277.957	1842.69
278.189	2104.69
278.421	1972.69
278.652	1736.69
278.884	1677.69
279.115	1506.69
279.347	1441.69
279.579	1403.69
279.81	1387.69
280.042	1365.69
280.273	1409.69
280.505	1443.69
280.736	1503.69
280.968	1573.69
281.199	1789.69
281.431	2035.69
281.662	2135.69
281.894	1825.69
282.125	1652.69
282.356	1631.69
282.588	1653.69
282.819	1715.69
283.051	1812.69
283.282	2006.69
283.513	2491.69
283.745	3560.69
283.976	5564.69
284.207	7828.69
284.439	7195.69
284.67	4485.69
284.901	3666.69
285.132	3685.69
285.364	3517.69
285.595	2691.69
285.826	2435.69
286.057	2855.69
286.288	3829.69
286.52	5137.69
286.751	4790.69
286.982	3045.69
287.213	2283.69
287.444	1990.69
287.675	1877.69
287.906	1773.69
288.138	1755.69
288.369	1714.69
288.6	1721.69
288.831	1683.69
289.062	1717.69
289.293	1711.69
289.524	1715.69
289.755	1695.69
289.986	1703.69
290.217	1694.69
290.448	1737.69
290.679	1725.69
290.91	1779.69
291.141	1859.69
291.371	2029.69
291.602	2121.69
291.833	1916.69
292.064	1729.69
292.295	1709.69
292.526	1683.69
292.757	1638.69
292.987	1630.69
293.218	1630.69
293.449	1650.69
293.68	1630.69
293.91	1575.69
294.141	1603.69
294.372	1581.69
294.603	1617.69
294.833	1589.69
295.064	1600.69
295.295	1584.69
295.525	1572.69
295.756	1565.69
295.987	1544.69
296.217	1609.69
296.448	1604.69
296.679	1576.69
296.909	1595.69
297.14	1617.69
297.37	1644.69
297.601	1652.69
297.831	1629.69
298.062	1640.69
298.292	1653.69
298.523	1674.69
298.753	1740.69
298.984	1671.69
299.214	1733.69
299.445	1763.69
299.675	1796.69
299.905	1865.69
300.136	1915.69
300.366	2155.69
300.597	2743.69
300.827	3791.69
301.057	5116.69
301.288	5085.69
301.518	3353.69
301.748	2624.69
301.979	2371.69
302.209	2293.69
302.439	2318.69
302.669	2470.69
302.9	2944.69
303.13	4068.69
303.36	6064.69
303.59	7949.69
303.82	6961.69
304.051	4223.69
304.281	3035.69
304.511	2523.69
304.741	2365.69
304.971	2253.69
305.201	2083.69
305.431	2033.69
305.661	1986.69
305.891	1941.69
306.121	1893.69
306.352	1873.69
306.582	1874.69
306.812	1868.69
307.042	1889.69
307.272	1844.69
307.502	1842.69
307.731	1828.69
307.961	1839.69
308.191	1800.69
308.421	1858.69
308.651	1837.69
308.881	1837.69
309.111	1831.69
309.341	1801.69
309.571	1870.69
309.8	1868.69
310.03	1878.69
310.26	1854.69
310.49	1829.69
310.72	1929.69
310.949	1881.69
311.179	1918.69
311.409	1943.69
311.639	1965.69
311.868	1980.69
312.098	1947.69
312.328	1997.69
312.557	1981.69
312.787	1963.69
313.017	2038.69
313.246	2000.69
313.476	2043.69
313.706	2121.69
313.935	2238.69
314.165	2384.69
314.394	2435.69
314.624	2355.69
314.853	2190.69
315.083	2158.69
315.312	2197.69
315.542	2202.69
315.771	2210.69
316.001	2267.69
316.23	2342.69
316.46	2463.69
316.689	2669.69
316.919	3199.69
317.148	4501.69
317.377	6931.69
317.607	10122.69
317.836	10545.69
318.065	6517.69
318.295	4273.69
318.524	3434.69
318.753	2971.69
318.983	2696.69
319.212	2611.69
319.441	2532.69
319.67	2467.69
319.9	2409.69
320.129	2365.69
320.358	2395.69
320.587	2366.69
320.816	2394.69
321.046	2410.69
321.275	2387.69
321.504	2369.69
321.733	2433.69
321.962	2515.69
322.191	2532.69
322.42	2539.69
322.649	2498.69
322.878	2510.69
323.108	2479.69
323.337	2541.69
323.566	2610.69
323.795	2667.69
324.024	2739.69
324.253	2740.69
324.482	2842.69
324.71	3064.69
324.939	3205.69
325.168	3275.69
325.397	3418.69
325.626	3995.69
325.855	5584.69
326.084	8495.69
326.313	12373.69
326.542	13139.69
326.77	8961.69
326.999	5981.69
327.228	4969.69
327.457	4731.69
327.686	4781.69
327.914	5202.69
328.143	5943.69
328.372	7107.69
328.6	7793.69
328.829	7018.69
329.058	5878.69
329.287	5115.69
329.515	4706.69
329.744	4382.69
329.972	4081.69
330.201	3940.69
330.43	3800.69
330.658	3686.69
330.887	3613.69
331.115	3514.69
331.344	3517.69
331.572	3528.69
331.801	3528.69
332.03	3547.69
332.258	3610.69
332.486	3803.69
332.715	4326.69
332.943	5314.69
333.172	6599.69
333.4	6467.69
333.629	4945.69
333.857	4553.69
334.085	4544.69
334.314	4793.69
334.542	5158.69
334.771	6056.69
334.999	7499.69
335.227	9353.69
335.455	10417.69
335.684	9364.69
335.912	7782.69
336.14	6555.69
336.369	5789.69
336.597	5341.69
336.825	4883.69
337.053	4589.69
337.281	4328.69
337.51	4065.69
337.738	3914.69
337.966	3756.69
338.194	3641.69
338.422	3531.69
338.65	3469.69
338.878	3402.69
339.106	3335.69
339.334	3261.69
339.562	3187.69
339.79	3090.69
340.018	3093.69
340.246	3087.69
340.474	3028.69
340.702	3077.69
340.93	3055.69
341.158	3069.69
341.386	3028.69
341.614	3036.69
341.842	2947.69
342.07	2875.69
342.298	2829.69
342.526	2840.69
342.754	2770.69
342.981	2749.69
343.209	2791.69
343.437	2774.69
343.665	2883.69
343.893	2854.69
344.12	2868.69
344.348	2795.69
344.576	2788.69
344.804	2727.69
345.031	2671.69
345.259	2691.69
345.487	2601.69
345.714	2603.69
345.942	2583.69
346.17	2550.69
346.397	2547.69
346.625	2623.69
346.853	2515.69
347.08	2534.69
347.308	2533.69
347.535	2583.69
347.763	2551.69
347.99	2506.69
348.218	2471.69
348.445	2481.69
348.673	2499.69
348.9	2508.69
349.128	2432.69
349.355	2464.69
349.583	2490.69
349.81	2473.69
350.037	2462.69
350.265	2449.69
350.492	2441.69
350.72	2399.69
350.947	2449.69
351.174	2461.69
351.402	2451.69
351.629	2467.69
351.856	2466.69
352.083	2445.69
352.311	2418.69
352.538	2429.69
352.765	2437.69
352.992	2410.69
353.22	2348.69
353.447	2407.69
353.674	2399.69
353.901	2437.69
354.128	2449.69
354.355	2444.69
354.583	2435.69
354.81	2395.69
355.037	2461.69
355.264	2489.69
355.491	2453.69
355.718	2474.69
355.945	2489.69
356.172	2463.69
356.399	2486.69
356.626	2525.69
356.853	2554.69
357.08	2524.69
357.307	2617.69
357.534	2605.69
357.761	2595.69
357.988	2616.69
358.215	2603.69
358.441	2627.69
358.668	2602.69
358.895	2584.69
359.122	2572.69
359.349	2613.69
359.576	2583.69
359.802	2554.69
360.029	2553.69
360.256	2579.69
360.483	2604.69
360.709	2597.69
360.936	2634.69
361.163	2597.69
361.39	2573.69
361.616	2586.69
361.843	2624.69
362.07	2627.69
362.296	2638.69
362.523	2612.69
362.749	2576.69
362.976	2590.69
363.203	2598.69
363.429	2529.69
363.656	2559.69
363.882	2540.69
364.109	2566.69
364.335	2579.69
364.562	2548.69
364.788	2559.69
365.015	2605.69
365.241	2684.69
365.468	2841.69
365.694	2941.69
365.92	2865.69
366.147	2664.69
366.373	2603.69
366.599	2624.69
366.826	2642.69
367.052	2677.69
367.278	2676.69
367.505	2677.69
367.731	2649.69
367.957	2655.69
368.184	2695.69
368.41	2750.69
368.636	2746.69
368.862	2686.69
369.089	2699.69
369.315	2699.69
369.541	2673.69
369.767	2670.69
369.993	2627.69
370.219	2659.69
370.445	2667.69
370.672	2780.69
370.898	2703.69
371.124	2755.69
371.35	2725.69
371.576	2784.69
371.802	2759.69
372.028	2790.69
372.254	2796.69
372.48	2843.69
372.706	2853.69
372.932	2813.69
373.158	2847.69
373.384	2847.69
373.61	2822.69
373.835	2845.69
374.061	2827.69
374.287	2933.69
374.513	2867.69
374.739	2946.69
374.965	2973.69
375.191	2957.69
375.416	2908.69
375.642	2908.69
375.868	2889.69
376.094	2823.69
376.319	2831.69
376.545	2792.69
376.771	2813.69
376.997	2826.69
377.222	2802.69
377.448	2777.69
377.674	2737.69
377.899	2788.69
378.125	2753.69
378.35	2765.69
378.576	2761.69
378.802	2778.69
379.027	2906.69
379.253	2926.69
379.478	3098.69
379.704	3586.69
379.929	5081.69
380.155	7729.69
380.38	8410.69
380.606	5205.69
380.831	3726.69
381.057	3260.69
381.282	3009.69
381.507	2882.69
381.733	2812.69
381.958	2785.69
382.184	2773.69
382.409	2743.69
382.634	2739.69
382.86	2705.69
383.085	2699.69
383.31	2762.69
383.535	2735.69
383.761	2709.69
383.986	2759.69
384.211	2788.69
384.436	2823.69
384.662	2795.69
384.887	2839.69
385.112	2806.69
385.337	2840.69
385.562	2774.69
385.787	2886.69
386.013	2796.69
386.238	2831.69
386.463	2810.69
386.688	2797.69
386.913	2785.69
387.138	2789.69
387.363	2819.69
387.588	2819.69
387.813	2771.69
388.038	2811.69
388.263	2803.69
388.488	2817.69
388.713	2868.69
388.938	2818.69
389.163	2793.69
389.387	2821.69
389.612	2758.69
389.837	2838.69
390.062	2759.69
390.287	2883.69
390.512	2804.69
390.736	2892.69
390.961	2924.69
391.186	2923.69
391.411	2926.69
391.636	2952.69
391.86	2970.69
392.085	2932.69
392.31	2902.69
392.534	2850.69
392.759	2886.69
392.984	2901.69
393.208	2913.69
393.433	2823.69
393.658	2886.69
393.882	2805.69
394.107	2809.69
394.331	2792.69
394.556	2857.69
394.78	2836.69
395.005	2861.69
395.229	2850.69
395.454	2929.69
395.678	2934.69
395.903	2934.69
396.127	2911.69
396.352	2893.69
396.576	2874.69
396.801	2837.69
397.025	2883.69
397.249	2894.69
397.474	2947.69
397.698	2945.69
397.922	3027.69
398.147	2980.69
398.371	3013.69
398.595	3014.69
398.82	3114.69
399.044	3238.69
399.268	3369.69
399.492	3571.69
399.717	3668.69
399.941	3678.69
400.165	3595.69
400.389	3438.69
400.613	3313.69
400.837	3177.69
401.062	3135.69
401.286	3125.69
401.51	3057.69
401.734	3050.69
401.958	3092.69
402.182	3114.69
402.406	3128.69
402.63	3072.69
402.854	3129.69
403.078	3152.69
403.302	3159.69
403.526	3244.69
403.75	3233.69
403.974	3219.69
404.198	3197.69
404.422	3219.69
404.645	3173.69
404.869	3177.69
405.093	3199.69
405.317	3177.69
405.541	3212.69
405.765	3246.69
405.988	3355.69
406.212	3336.69
406.436	3310.69
406.66	3368.69
406.883	3306.69
407.107	3413.69
407.331	3433.69
407.555	3547.69
407.778	3485.69
408.002	3446.69
408.226	3397.69
408.449	3427.69
408.673	3371.69
408.896	3314.69
409.12	3229.69
409.344	3285.69
409.567	3213.69
409.791	3213.69
410.014	3225.69
410.238	3241.69
410.461	3183.69
410.685	3144.69
410.908	3137.69
411.132	3133.69
411.355	3059.69
411.578	3122.69
411.802	3129.69
412.025	3080.69
412.249	3066.69
412.472	3097.69
412.695	3036.69
412.919	3031.69
413.142	3051.69
413.365	3023.69
413.589	3044.69
413.812	2995.69
414.035	3009.69
414.258	3032.69
414.482	3048.69
414.705	3048.69
414.928	3020.69
415.151	3020.69
415.374	3086.69
415.597	2980.69
415.821	2950.69
416.044	2934.69
416.267	2893.69
416.49	2907.69
416.713	2870.69
416.936	2926.69
417.159	2901.69
417.382	2861.69
417.605	2877.69
417.828	2831.69
418.051	2967.69
418.274	2939.69
418.497	2954.69
418.72	3017.69
418.943	2939.69
419.166	3109.69
419.389	3294.69
419.611	3182.69
419.834	3115.69
420.057	3037.69
420.28	2916.69
420.503	2869.69
420.726	2879.69
420.948	2843.69
421.171	2902.69
421.394	2925.69
421.617	2899.69
421.839	2941.69
422.062	2973.69
422.285	2878.69
422.507	2983.69
422.73	2958.69
422.953	3007.69
423.175	2977.69
423.398	2978.69
423.621	2914.69
423.843	2925.69
424.066	2914.69
424.288	2893.69
424.511	2948.69
424.733	2931.69
424.956	2872.69
425.178	2901.69
425.401	2865.69
425.623	2867.69
425.846	2783.69
426.068	2858.69
426.291	2822.69
426.513	2786.69
426.735	2736.69
426.958	2763.69
427.18	2716.69
427.402	2722.69
427.625	2778.69
427.847	2741.69
428.069	2689.69
428.292	2741.69
428.514	2693.69
428.736	2677.69
428.958	2717.69
429.181	2694.69
429.403	2625.69
429.625	2667.69
429.847	2659.69
430.069	2730.69
430.292	2850.69
430.514	2910.69
430.736	2871.69
430.958	2755.69
431.18	2687.69
431.402	2735.69
431.624	2653.69
431.846	2683.69
432.068	2659.69
432.29	2678.69
432.512	2651.69
432.734	2669.69
432.956	2633.69
433.178	2669.69
433.4	2667.69
433.622	2691.69
433.844	2676.69
434.066	2678.69
434.287	2655.69
434.509	2661.69
434.731	2774.69
434.953	2803.69
435.175	2794.69
435.397	2776.69
435.618	2708.69
435.84	2683.69
436.062	2631.69
436.284	2675.69
436.505	2654.69
436.727	2636.69
436.949	2648.69
437.17	2657.69
437.392	2601.69
437.614	2612.69
437.835	2532.69
438.057	2558.69
438.278	2547.69
438.5	2639.69
438.721	2665.69
438.943	2738.69
439.165	2754.69
439.386	2732.69
439.608	2754.69
439.829	2758.69
440.05	2846.69
440.272	2891.69
440.493	2723.69
440.715	2707.69
440.936	2753.69
441.158	2801.69
441.379	2823.69
441.6	2914.69
441.822	2977.69
442.043	3101.69
442.264	3216.69
442.486	2974.69
442.707	2858.69
442.928	2859.69
443.149	2843.69
443.371	2856.69
443.592	2903.69
443.813	2842.69
444.034	2867.69
444.255	2951.69
444.476	2945.69
444.698	3015.69
444.919	3004.69
445.14	3169.69
445.361	3021.69
445.582	2931.69
445.803	2825.69
446.024	2818.69
446.245	2879.69
446.466	2795.69
446.687	2759.69
446.908	2807.69
447.129	2691.69
447.35	2725.69
447.571	2717.69
447.792	2665.69
448.013	2634.69
448.234	2613.69
448.455	2574.69
448.675	2667.69
448.896	2756.69
449.117	2803.69
449.338	3008.69
449.559	3132.69
449.779	2837.69
450	2633.69
450.221	2593.69
450.442	2601.69
450.662	2558.69
450.883	2581.69
451.104	2553.69
451.324	2567.69
451.545	2546.69
451.766	2553.69
451.986	2592.69
452.207	2838.69
452.428	3595.69
452.648	5365.69
452.869	4510.69
453.089	3173.69
453.31	3037.69
453.53	2956.69
453.751	3040.69
453.971	3149.69
454.192	3101.69
454.412	2733.69
454.633	2596.69
454.853	2491.69
455.073	2450.69
455.294	2451.69
455.514	2454.69
455.734	2471.69
455.955	2450.69
456.175	2411.69
456.395	2431.69
456.616	2477.69
456.836	2522.69
457.056	2522.69
457.276	2525.69
457.497	2683.69
457.717	2642.69
457.937	2561.69
458.157	2622.69
458.377	2593.69
458.598	2618.69
458.818	2615.69
459.038	2629.69
459.258	2719.69
459.478	2686.69
459.698	2706.69
459.918	2744.69
460.138	2789.69
460.358	2832.69
460.578	2859.69
460.798	2857.69
461.018	2870.69
461.238	2905.69
461.458	2919.69
461.678	2965.69
461.898	3025.69
462.118	3006.69
462.338	3118.69
462.558	3096.69
462.777	3167.69
462.997	3270.69
463.217	3450.69
463.437	3512.69
463.657	3539.69
463.876	3563.69
464.096	3426.69
464.316	3263.69
464.536	3187.69
464.755	3111.69
464.975	3061.69
465.195	2897.69
465.414	2889.69
465.634	2801.69
465.854	2757.69
466.073	2686.69
466.293	2668.69
466.512	2684.69
466.732	2703.69
466.951	2894.69
467.171	3000.69
467.391	2986.69
467.61	2724.69
467.829	2613.69
468.049	2605.69
468.268	2596.69
468.488	2586.69
468.707	2586.69
468.927	2591.69
469.146	2563.69
469.365	2638.69
469.585	2655.69
469.804	2734.69
470.023	2797.69
470.243	2784.69
470.462	2890.69
470.681	3062.69
470.901	3335.69
471.12	3762.69
471.339	3654.69
471.558	3147.69
471.777	2972.69
471.997	2792.69
472.216	2711.69
472.435	2678.69
472.654	2659.69
472.873	2625.69
473.092	2609.69
473.311	2684.69
473.53	2650.69
473.749	2728.69
473.968	2848.69
474.187	2654.69
474.406	2638.69
474.625	2661.69
474.844	2619.69
475.063	2613.69
475.282	2674.69
475.501	2665.69
475.72	2691.69
475.939	2688.69
476.158	2786.69
476.377	2797.69
476.596	2740.69
476.814	2785.69
477.033	2800.69
477.252	2831.69
477.471	2857.69
477.69	2958.69
477.908	2988.69
478.127	2987.69
478.346	3005.69
478.564	3045.69
478.783	3094.69
479.002	3042.69
479.22	3108.69
479.439	3167.69
479.658	3114.69
479.876	3157.69
480.095	3178.69
480.313	3243.69
480.532	3279.69
480.751	3255.69
480.969	3249.69
481.188	3212.69
481.406	3201.69
481.624	3134.69
481.843	3211.69
482.061	3177.69
482.28	3202.69
482.498	3182.69
482.717	3226.69
482.935	3209.69
483.153	3262.69
483.372	3289.69
483.59	3373.69
483.808	3360.69
484.027	3447.69
484.245	3676.69
484.463	4056.69
484.681	4412.69
484.9	4122.69
485.118	3876.69
485.336	3816.69
485.554	3863.69
485.772	4006.69
485.99	4520.69
486.209	4813.69
486.427	4174.69
486.645	3702.69
486.863	3542.69
487.081	3519.69
487.299	3386.69
487.517	3366.69
487.735	3427.69
