Data from SnStandardFlinnAPT0064_QswitchEnergy10_LIBS07252019.E.O._I.C._HRD10591_15-26-31-972.txt Node
Date: Thu Jul 25 15:26:31 EDT 2019
User: cochatt
Spectrometer: HR+D1059
Trigger mode: 1
Integration Time (sec): 1.000000E-1
Scans to average: 1
Electric dark correction enabled: true
Nonlinearity correction enabled: false
Boxcar width: 0
XAxis mode: Wavelengths
Number of Pixels in Spectrum: 2048
>>>>>Begin Spectral Data<<<<<
223.165	-19.5
223.4	-19.5
223.635	-19.5
223.869	-28.5
224.104	-23.5
224.338	-15.5
224.573	-10.5
224.808	-15.5
225.042	-8.5
225.277	-4.5
225.511	6.5
225.746	9.5
225.98	9.5
226.215	22.5
226.449	7.5
226.683	21.5
226.918	15.5
227.152	33.5
227.387	37.5
227.621	39.5
227.856	33.5
228.09	41.5
228.324	44.5
228.559	53.5
228.793	65.5
229.027	77.5
229.262	80.5
229.496	64.5
229.73	65.5
229.964	73.5
230.199	85.5
230.433	88.5
230.667	71.5
230.901	76.5
231.136	73.5
231.37	101.5
231.604	108.5
231.838	85.5
232.072	106.5
232.306	109.5
232.541	94.5
232.775	89.5
233.009	78.5
233.243	87.5
233.477	85.5
233.711	96.5
233.945	87.5
234.179	96.5
234.413	93.5
234.647	77.5
234.881	84.5
235.115	94.5
235.349	96.5
235.583	100.5
235.817	114.5
236.051	127.5
236.285	95.5
236.519	95.5
236.753	81.5
236.987	90.5
237.221	82.5
237.455	97.5
237.689	89.5
237.922	89.5
238.156	86.5
238.39	80.5
238.624	82.5
238.858	85.5
239.091	87.5
239.325	82.5
239.559	91.5
239.793	79.5
240.027	76.5
240.26	89.5
240.494	90.5
240.728	74.5
240.961	96.5
241.195	90.5
241.429	99.5
241.662	74.5
241.896	78.5
242.13	100.5
242.363	121.5
242.597	145.5
242.83	129.5
243.064	125.5
243.298	149.5
243.531	122.5
243.765	102.5
243.998	69.5
244.232	81.5
244.465	87.5
244.699	95.5
244.932	96.5
245.166	90.5
245.399	87.5
245.633	91.5
245.866	84.5
246.099	94.5
246.333	85.5
246.566	81.5
246.8	84.5
247.033	78.5
247.266	89.5
247.5	84.5
247.733	91.5
247.966	84.5
248.2	107.5
248.433	120.5
248.666	132.5
248.899	123.5
249.133	95.5
249.366	105.5
249.599	105.5
249.832	114.5
250.066	120.5
250.299	95.5
250.532	79.5
250.765	92.5
250.998	86.5
251.231	86.5
251.465	75.5
251.698	89.5
251.931	76.5
252.164	79.5
252.397	83.5
252.63	91.5
252.863	104.5
253.096	92.5
253.329	96.5
253.562	99.5
253.795	100.5
254.028	84.5
254.261	85.5
254.494	105.5
254.727	117.5
254.96	128.5
255.193	126.5
255.426	98.5
255.659	79.5
255.892	107.5
256.124	89.5
256.357	105.5
256.59	84.5
256.823	87.5
257.056	111.5
257.289	132.5
257.521	164.5
257.754	117.5
257.987	102.5
258.22	99.5
258.452	88.5
258.685	96.5
258.918	90.5
259.151	90.5
259.383	96.5
259.616	128.5
259.849	136.5
260.081	117.5
260.314	76.5
260.547	83.5
260.779	89.5
261.012	86.5
261.244	99.5
261.477	91.5
261.71	76.5
261.942	77.5
262.175	76.5
262.407	81.5
262.64	95.5
262.872	84.5
263.105	78.5
263.337	92.5
263.57	80.5
263.802	81.5
264.035	89.5
264.267	87.5
264.499	84.5
264.732	86.5
264.964	87.5
265.197	108.5
265.429	94.5
265.661	91.5
265.894	82.5
266.126	122.5
266.358	157.5
266.591	129.5
266.823	99.5
267.055	91.5
267.287	87.5
267.52	88.5
267.752	87.5
267.984	96.5
268.216	80.5
268.448	87.5
268.681	97.5
268.913	99.5
269.145	69.5
269.377	101.5
269.609	98.5
269.841	92.5
270.073	98.5
270.306	129.5
270.538	203.5
270.77	289.5
271.002	339.5
271.234	187.5
271.466	103.5
271.698	97.5
271.93	93.5
272.162	86.5
272.394	85.5
272.626	83.5
272.858	96.5
273.09	83.5
273.322	92.5
273.553	85.5
273.785	89.5
274.017	93.5
274.249	91.5
274.481	96.5
274.713	82.5
274.945	99.5
275.176	79.5
275.408	88.5
275.64	92.5
275.872	92.5
276.104	101.5
276.335	106.5
276.567	104.5
276.799	99.5
277.031	97.5
277.262	88.5
277.494	103.5
277.726	129.5
277.957	172.5
278.189	228.5
278.421	231.5
278.652	195.5
278.884	186.5
279.115	137.5
279.347	123.5
279.579	107.5
279.81	114.5
280.042	99.5
280.273	104.5
280.505	114.5
280.736	98.5
280.968	124.5
281.199	159.5
281.431	225.5
281.662	262.5
281.894	155.5
282.125	117.5
282.356	95.5
282.588	111.5
282.819	112.5
283.051	121.5
283.282	147.5
283.513	189.5
283.745	274.5
283.976	493.5
284.207	671.5
284.439	500.5
284.67	236.5
284.901	259.5
285.132	321.5
285.364	337.5
285.595	215.5
285.826	164.5
286.057	229.5
286.288	373.5
286.52	548.5
286.751	439.5
286.982	179.5
287.213	114.5
287.444	112.5
287.675	101.5
287.906	104.5
288.138	105.5
288.369	82.5
288.6	87.5
288.831	94.5
289.062	98.5
289.293	105.5
289.524	82.5
289.755	88.5
289.986	84.5
290.217	95.5
290.448	91.5
290.679	109.5
290.91	124.5
291.141	175.5
291.371	245.5
291.602	287.5
291.833	201.5
292.064	116.5
292.295	90.5
292.526	99.5
292.757	84.5
292.987	102.5
293.218	96.5
293.449	83.5
293.68	99.5
293.91	96.5
294.141	84.5
294.372	98.5
294.603	100.5
294.833	98.5
295.064	96.5
295.295	93.5
295.525	108.5
295.756	93.5
295.987	90.5
296.217	102.5
296.448	97.5
296.679	94.5
296.909	96.5
297.14	108.5
297.37	87.5
297.601	98.5
297.831	101.5
298.062	105.5
298.292	106.5
298.523	106.5
298.753	111.5
298.984	107.5
299.214	101.5
299.445	98.5
299.675	121.5
299.905	124.5
300.136	120.5
300.366	154.5
300.597	256.5
300.827	398.5
301.057	611.5
301.288	549.5
301.518	237.5
301.748	143.5
301.979	131.5
302.209	130.5
302.439	148.5
302.669	153.5
302.9	243.5
303.13	461.5
303.36	832.5
303.59	1095.5
303.82	765.5
304.051	261.5
304.281	151.5
304.511	117.5
304.741	124.5
304.971	99.5
305.201	92.5
305.431	115.5
305.661	108.5
305.891	119.5
306.121	119.5
306.352	121.5
306.582	122.5
306.812	110.5
307.042	125.5
307.272	118.5
307.502	98.5
307.731	113.5
307.961	104.5
308.191	106.5
308.421	113.5
308.651	111.5
308.881	102.5
309.111	122.5
309.341	108.5
309.571	114.5
309.8	104.5
310.03	108.5
310.26	123.5
310.49	110.5
310.72	105.5
310.949	117.5
311.179	100.5
311.409	106.5
311.639	113.5
311.868	103.5
312.098	115.5
312.328	104.5
312.557	95.5
312.787	119.5
313.017	101.5
313.246	133.5
313.476	123.5
313.706	130.5
313.935	169.5
314.165	202.5
314.394	217.5
314.624	185.5
314.853	146.5
315.083	123.5
315.312	128.5
315.542	128.5
315.771	119.5
316.001	113.5
316.23	134.5
316.46	148.5
316.689	169.5
316.919	248.5
317.148	451.5
317.377	789.5
317.607	1319.5
317.836	1217.5
318.065	500.5
318.295	230.5
318.524	156.5
318.753	132.5
318.983	127.5
319.212	108.5
319.441	127.5
319.67	121.5
319.9	107.5
320.129	109.5
320.358	115.5
320.587	127.5
320.816	116.5
321.046	122.5
321.275	127.5
321.504	136.5
321.733	143.5
321.962	165.5
322.191	168.5
322.42	131.5
322.649	129.5
322.878	111.5
323.108	117.5
323.337	131.5
323.566	132.5
323.795	134.5
324.024	134.5
324.253	140.5
324.482	179.5
324.71	228.5
324.939	273.5
325.168	217.5
325.397	182.5
325.626	232.5
325.855	428.5
326.084	837.5
326.313	1422.5
326.542	1391.5
326.77	561.5
326.999	245.5
327.228	201.5
327.457	221.5
327.686	229.5
327.914	162.5
328.143	132.5
328.372	123.5
328.6	134.5
328.829	116.5
329.058	129.5
329.287	107.5
329.515	117.5
329.744	121.5
329.972	116.5
330.201	131.5
330.43	116.5
330.658	122.5
330.887	105.5
331.115	124.5
331.344	117.5
331.572	115.5
331.801	118.5
332.03	112.5
332.258	133.5
332.486	157.5
332.715	277.5
332.943	450.5
333.172	699.5
333.4	606.5
333.629	231.5
333.857	125.5
334.085	119.5
334.314	125.5
334.542	120.5
334.771	105.5
334.999	117.5
335.227	117.5
335.455	124.5
335.684	123.5
335.912	133.5
336.14	112.5
336.369	123.5
336.597	118.5
336.825	108.5
337.053	115.5
337.281	115.5
337.51	123.5
337.738	124.5
337.966	114.5
338.194	112.5
338.422	114.5
338.65	105.5
338.878	119.5
339.106	123.5
339.334	124.5
339.562	122.5
339.79	121.5
340.018	118.5
340.246	111.5
340.474	114.5
340.702	127.5
340.93	119.5
341.158	124.5
341.386	122.5
341.614	125.5
341.842	120.5
342.07	116.5
342.298	116.5
342.526	108.5
342.754	112.5
342.981	108.5
343.209	119.5
343.437	118.5
343.665	93.5
343.893	108.5
344.12	118.5
344.348	121.5
344.576	124.5
344.804	101.5
345.031	122.5
345.259	112.5
345.487	121.5
345.714	109.5
345.942	113.5
346.17	113.5
346.397	113.5
346.625	111.5
346.853	99.5
347.08	113.5
347.308	111.5
347.535	96.5
347.763	111.5
347.99	116.5
348.218	109.5
348.445	106.5
348.673	124.5
348.9	123.5
349.128	119.5
349.355	114.5
349.583	107.5
349.81	116.5
350.037	117.5
350.265	129.5
350.492	114.5
350.72	95.5
350.947	99.5
351.174	113.5
351.402	118.5
351.629	104.5
351.856	117.5
352.083	96.5
352.311	113.5
352.538	117.5
352.765	118.5
352.992	109.5
353.22	99.5
353.447	104.5
353.674	115.5
353.901	107.5
354.128	116.5
354.355	101.5
354.583	108.5
354.81	100.5
355.037	93.5
355.264	117.5
355.491	106.5
355.718	89.5
355.945	118.5
356.172	104.5
356.399	94.5
356.626	102.5
356.853	112.5
357.08	125.5
357.307	119.5
357.534	116.5
357.761	119.5
357.988	109.5
358.215	111.5
358.441	115.5
358.668	101.5
358.895	122.5
359.122	115.5
359.349	123.5
359.576	128.5
359.802	104.5
360.029	129.5
360.256	114.5
360.483	105.5
360.709	116.5
360.936	121.5
361.163	124.5
361.39	121.5
361.616	117.5
361.843	121.5
362.07	107.5
362.296	115.5
362.523	112.5
362.749	106.5
362.976	101.5
363.203	98.5
363.429	111.5
363.656	116.5
363.882	114.5
364.109	108.5
364.335	117.5
364.562	103.5
364.788	115.5
365.015	126.5
365.241	140.5
365.468	193.5
365.694	263.5
365.92	203.5
366.147	128.5
366.373	98.5
366.599	111.5
366.826	103.5
367.052	103.5
367.278	104.5
367.505	106.5
367.731	98.5
367.957	91.5
368.184	99.5
368.41	127.5
368.636	119.5
368.862	107.5
369.089	98.5
369.315	95.5
369.541	118.5
369.767	113.5
369.993	101.5
370.219	108.5
370.445	125.5
370.672	106.5
370.898	109.5
371.124	100.5
371.35	116.5
371.576	122.5
371.802	115.5
372.028	114.5
372.254	118.5
372.48	115.5
372.706	109.5
372.932	119.5
373.158	119.5
373.384	125.5
373.61	119.5
373.835	116.5
374.061	118.5
374.287	115.5
374.513	107.5
374.739	119.5
374.965	118.5
375.191	106.5
375.416	114.5
375.642	107.5
375.868	110.5
376.094	108.5
376.319	121.5
376.545	108.5
376.771	104.5
376.997	115.5
377.222	105.5
377.448	97.5
377.674	119.5
377.899	100.5
378.125	131.5
378.35	108.5
378.576	119.5
378.802	131.5
379.027	129.5
379.253	135.5
379.478	173.5
379.704	275.5
379.929	671.5
380.155	1400.5
380.38	1481.5
380.606	489.5
380.831	155.5
381.057	136.5
381.282	111.5
381.507	115.5
381.733	108.5
381.958	118.5
382.184	107.5
382.409	117.5
382.634	105.5
382.86	108.5
383.085	98.5
383.31	99.5
383.535	101.5
383.761	98.5
383.986	104.5
384.211	110.5
384.436	113.5
384.662	105.5
384.887	104.5
385.112	111.5
385.337	100.5
385.562	110.5
385.787	111.5
386.013	111.5
386.238	113.5
386.463	111.5
386.688	96.5
386.913	111.5
387.138	101.5
387.363	111.5
387.588	116.5
387.813	115.5
388.038	105.5
388.263	104.5
388.488	112.5
388.713	99.5
388.938	101.5
389.163	107.5
389.387	97.5
389.612	84.5
389.837	106.5
390.062	103.5
390.287	109.5
390.512	115.5
390.736	105.5
390.961	97.5
391.186	104.5
391.411	94.5
391.636	103.5
391.86	101.5
392.085	110.5
392.31	89.5
392.534	98.5
392.759	94.5
392.984	107.5
393.208	118.5
393.433	139.5
393.658	145.5
393.882	102.5
394.107	95.5
394.331	89.5
394.556	105.5
394.78	103.5
395.005	112.5
395.229	105.5
395.454	115.5
395.678	115.5
395.903	99.5
396.127	99.5
396.352	115.5
396.576	108.5
396.801	125.5
397.025	126.5
397.249	99.5
397.474	93.5
397.698	108.5
397.922	111.5
398.147	89.5
398.371	110.5
398.595	97.5
398.82	119.5
399.044	104.5
399.268	100.5
399.492	92.5
399.717	99.5
399.941	100.5
400.165	97.5
400.389	95.5
400.613	103.5
400.837	85.5
401.062	112.5
401.286	98.5
401.51	113.5
401.734	97.5
401.958	101.5
402.182	114.5
402.406	91.5
402.63	100.5
402.854	102.5
403.078	105.5
403.302	91.5
403.526	91.5
403.75	106.5
403.974	105.5
404.198	112.5
404.422	113.5
404.645	110.5
404.869	106.5
405.093	84.5
405.317	106.5
405.541	95.5
405.765	117.5
405.988	145.5
406.212	123.5
406.436	94.5
406.66	103.5
406.883	99.5
407.107	94.5
407.331	93.5
407.555	103.5
407.778	111.5
408.002	109.5
408.226	102.5
408.449	100.5
408.673	98.5
408.896	105.5
409.12	107.5
409.344	107.5
409.567	87.5
409.791	89.5
410.014	106.5
410.238	99.5
410.461	101.5
410.685	93.5
410.908	80.5
411.132	92.5
411.355	96.5
411.578	107.5
411.802	98.5
412.025	106.5
412.249	95.5
412.472	95.5
412.695	98.5
412.919	92.5
413.142	100.5
413.365	92.5
413.589	88.5
413.812	97.5
414.035	102.5
414.258	122.5
414.482	95.5
414.705	102.5
414.928	107.5
415.151	105.5
415.374	91.5
415.597	100.5
415.821	88.5
416.044	97.5
416.267	84.5
416.49	102.5
416.713	91.5
416.936	107.5
417.159	108.5
417.382	85.5
417.605	92.5
417.828	107.5
418.051	83.5
418.274	96.5
418.497	94.5
418.72	118.5
418.943	113.5
419.166	103.5
419.389	89.5
419.611	118.5
419.834	103.5
420.057	111.5
420.28	93.5
420.503	105.5
420.726	92.5
420.948	108.5
421.171	96.5
421.394	87.5
421.617	84.5
421.839	95.5
422.062	83.5
422.285	99.5
422.507	106.5
422.73	125.5
422.953	145.5
423.175	114.5
423.398	101.5
423.621	98.5
423.843	107.5
424.066	89.5
424.288	104.5
424.511	97.5
424.733	102.5
424.956	90.5
425.178	105.5
425.401	99.5
425.623	100.5
425.846	106.5
426.068	91.5
426.291	95.5
426.513	82.5
426.735	91.5
426.958	101.5
427.18	81.5
427.402	93.5
427.625	91.5
427.847	94.5
428.069	104.5
428.292	94.5
428.514	99.5
428.736	104.5
428.958	103.5
429.181	93.5
429.403	87.5
429.625	108.5
429.847	88.5
430.069	119.5
430.292	106.5
430.514	104.5
430.736	107.5
430.958	109.5
431.18	92.5
431.402	103.5
431.624	104.5
431.846	92.5
432.068	105.5
432.29	98.5
432.512	87.5
432.734	98.5
432.956	79.5
433.178	95.5
433.4	103.5
433.622	76.5
433.844	93.5
434.066	97.5
434.287	91.5
434.509	94.5
434.731	89.5
434.953	95.5
435.175	96.5
435.397	95.5
435.618	99.5
435.84	97.5
436.062	96.5
436.284	94.5
436.505	96.5
436.727	107.5
436.949	92.5
437.17	89.5
437.392	83.5
437.614	100.5
437.835	93.5
438.057	85.5
438.278	90.5
438.5	91.5
438.721	104.5
438.943	106.5
439.165	91.5
439.386	104.5
439.608	95.5
439.829	105.5
440.05	112.5
440.272	115.5
440.493	90.5
440.715	99.5
440.936	99.5
441.158	106.5
441.379	92.5
441.6	114.5
441.822	110.5
442.043	112.5
442.264	143.5
442.486	125.5
442.707	98.5
442.928	101.5
443.149	98.5
443.371	108.5
443.592	93.5
443.813	106.5
444.034	105.5
444.255	126.5
444.476	87.5
444.698	90.5
444.919	111.5
445.14	201.5
445.361	161.5
445.582	105.5
445.803	106.5
446.024	75.5
446.245	87.5
446.466	85.5
446.687	106.5
446.908	95.5
447.129	106.5
447.35	102.5
447.571	99.5
447.792	109.5
448.013	99.5
448.234	100.5
448.455	95.5
448.675	95.5
448.896	108.5
449.117	121.5
449.338	112.5
449.559	137.5
449.779	120.5
450	95.5
450.221	100.5
450.442	109.5
450.662	119.5
450.883	108.5
451.104	109.5
451.324	117.5
451.545	105.5
451.766	120.5
451.986	129.5
452.207	223.5
452.428	517.5
452.648	1309.5
452.869	731.5
453.089	182.5
453.31	126.5
453.53	124.5
453.751	137.5
453.971	151.5
454.192	142.5
454.412	105.5
454.633	103.5
454.853	106.5
455.073	94.5
455.294	90.5
455.514	93.5
455.734	88.5
455.955	100.5
456.175	101.5
456.395	107.5
456.616	81.5
456.836	102.5
457.056	95.5
457.276	96.5
457.497	111.5
457.717	127.5
457.937	100.5
458.157	87.5
458.377	95.5
458.598	88.5
458.818	98.5
459.038	88.5
459.258	70.5
459.478	92.5
459.698	89.5
459.918	86.5
460.138	92.5
460.358	92.5
460.578	96.5
460.798	92.5
461.018	97.5
461.238	95.5
461.458	103.5
461.678	99.5
461.898	89.5
462.118	99.5
462.338	82.5
462.558	98.5
462.777	92.5
462.997	109.5
463.217	113.5
463.437	123.5
463.657	160.5
463.876	168.5
464.096	125.5
464.316	119.5
464.536	108.5
464.755	87.5
464.975	88.5
465.195	87.5
465.414	104.5
465.634	101.5
465.854	92.5
466.073	101.5
466.293	91.5
466.512	94.5
466.732	97.5
466.951	126.5
467.171	143.5
467.391	136.5
467.61	114.5
467.829	110.5
468.049	98.5
468.268	87.5
468.488	91.5
468.707	90.5
468.927	84.5
469.146	84.5
469.365	105.5
469.585	95.5
469.804	101.5
470.023	96.5
470.243	109.5
470.462	100.5
470.681	105.5
470.901	120.5
471.12	167.5
471.339	203.5
471.558	119.5
471.777	119.5
471.997	104.5
472.216	115.5
472.435	113.5
472.654	96.5
472.873	102.5
473.092	99.5
473.311	108.5
473.53	104.5
473.749	112.5
473.968	120.5
474.187	97.5
474.406	90.5
474.625	98.5
474.844	102.5
475.063	92.5
475.282	99.5
475.501	95.5
475.72	99.5
475.939	105.5
476.158	92.5
476.377	107.5
476.596	99.5
476.814	92.5
477.033	96.5
477.252	105.5
477.471	95.5
477.69	104.5
477.908	92.5
478.127	106.5
478.346	103.5
478.564	110.5
478.783	98.5
479.002	77.5
479.22	108.5
479.439	84.5
479.658	93.5
479.876	91.5
480.095	93.5
480.313	97.5
480.532	103.5
480.751	95.5
480.969	115.5
481.188	97.5
481.406	105.5
481.624	105.5
481.843	98.5
482.061	122.5
482.28	106.5
482.498	99.5
482.717	108.5
482.935	93.5
483.153	77.5
483.372	90.5
483.59	110.5
483.808	104.5
484.027	108.5
484.245	123.5
484.463	161.5
484.681	205.5
484.9	150.5
485.118	122.5
485.336	100.5
485.554	116.5
485.772	131.5
485.99	183.5
486.209	215.5
486.427	158.5
486.645	117.5
486.863	114.5
487.081	100.5
487.299	111.5
487.517	102.5
487.735	101.5
487.953	100.5
488.171	96.5
488.389	111.5
488.607	112.5
488.825	97.5
489.043	106.5
489.261	106.5
489.479	102.5
489.696	99.5
489.914	104.5
490.132	100.5
490.35	105.5
490.568	91.5
490.786	112.5
491.003	101.5
491.221	116.5
491.439	115.5
491.657	113.5
491.874	108.5
492.092	119.5
492.31	129.5
492.527	111.5
492.745	101.5
492.963	107.5
493.18	94.5
493.398	104.5
493.615	99.5
493.833	100.5
494.05	103.5
494.268	97.5
494.485	109.5
494.703	97.5
494.92	93.5
495.138	100.5
495.355	104.5
495.573	116.5
495.79	105.5
496.008	115.5
496.225	111.5
496.442	96.5
496.66	141.5
496.877	159.5
497.094	152.5
497.312	107.5
497.529	90.5
497.746	107.5
497.963	102.5
498.181	94.5
498.398	106.5
498.615	108.5
498.832	102.5
499.049	99.5
499.267	146.5
499.484	153.5
499.701	108.5
499.918	102.5
500.135	105.5
500.352	91.5
500.569	96.5
500.786	111.5
501.003	103.5
501.22	102.5
501.437	97.5
501.654	106.5
501.871	101.5
502.088	91.5
502.305	91.5
502.522	99.5
502.739	108.5
502.956	88.5
503.172	106.5
503.389	105.5
503.606	104.5
503.823	90.5
504.04	105.5
504.256	89.5
504.473	103.5
504.69	105.5
504.907	102.5
505.123	124.5
505.34	108.5
505.557	101.5
505.773	106.5
505.99	111.5
506.207	111.5
506.423	105.5
506.64	112.5
506.856	97.5
507.073	109.5
507.289	95.5
507.506	107.5
507.722	97.5
507.939	101.5
508.155	94.5
508.372	108.5
508.588	100.5
508.805	88.5
509.021	103.5
509.238	101.5
509.454	139.5
509.67	151.5
509.887	118.5
510.103	111.5
510.319	98.5
510.536	98.5
510.752	125.5
510.968	111.5
511.184	103.5
511.401	94.5
511.617	99.5
511.833	104.5
512.049	104.5
512.265	100.5
512.481	94.5
512.698	84.5
512.914	97.5
513.13	91.5
513.346	104.5
513.562	107.5
513.778	101.5
513.994	112.5
514.21	120.5
514.426	145.5
514.642	166.5
514.858	134.5
515.074	79.5
515.29	109.5
515.506	103.5
515.721	119.5
515.937	102.5
516.153	99.5
516.369	101.5
516.585	91.5
516.801	104.5
517.016	95.5
517.232	100.5
517.448	110.5
517.664	104.5
517.879	116.5
518.095	118.5
518.311	99.5
518.527	89.5
518.742	97.5
518.958	101.5
519.173	147.5
519.389	126.5
519.605	89.5
519.82	82.5
520.036	102.5
520.251	101.5
520.467	101.5
520.682	105.5
520.898	103.5
521.113	97.5
521.329	110.5
521.544	91.5
521.76	93.5
521.975	112.5
522.19	101.5
522.406	97.5
522.621	102.5
522.836	97.5
523.052	103.5
523.267	101.5
523.482	100.5
523.698	98.5
523.913	96.5
524.128	109.5
524.343	82.5
524.559	101.5
524.774	106.5
524.989	117.5
525.204	116.5
525.419	105.5
525.634	99.5
525.849	100.5
526.064	87.5
526.28	98.5
526.495	100.5
