Data from SnStandardFlinnAPT0064_QswitchEnergy10_LIBS07252019.E.O._I.C._HRD10591_15-26-23-972.txt Node
Date: Thu Jul 25 15:26:23 EDT 2019
User: cochatt
Spectrometer: HR+D1059
Trigger mode: 1
Integration Time (sec): 1.000000E-1
Scans to average: 1
Electric dark correction enabled: true
Nonlinearity correction enabled: false
Boxcar width: 0
XAxis mode: Wavelengths
Number of Pixels in Spectrum: 2048
>>>>>Begin Spectral Data<<<<<
223.165	-17.5
223.4	-17.5
223.635	-17.5
223.869	-25.5
224.104	-11.5
224.338	-8.5
224.573	-8.5
224.808	-21.5
225.042	-8.5
225.277	-15.5
225.511	0.5
225.746	4.5
225.98	4.5
226.215	14.5
226.449	22.5
226.683	20.5
226.918	17.5
227.152	32.5
227.387	35.5
227.621	33.5
227.856	45.5
228.09	37.5
228.324	52.5
228.559	56.5
228.793	57.5
229.027	58.5
229.262	61.5
229.496	64.5
229.73	81.5
229.964	68.5
230.199	76.5
230.433	81.5
230.667	78.5
230.901	79.5
231.136	74.5
231.37	84.5
231.604	76.5
231.838	104.5
232.072	103.5
232.306	122.5
232.541	99.5
232.775	92.5
233.009	83.5
233.243	94.5
233.477	95.5
233.711	97.5
233.945	101.5
234.179	91.5
234.413	92.5
234.647	76.5
234.881	93.5
235.115	96.5
235.349	93.5
235.583	116.5
235.817	116.5
236.051	110.5
236.285	93.5
236.519	90.5
236.753	85.5
236.987	88.5
237.221	78.5
237.455	89.5
237.689	76.5
237.922	84.5
238.156	88.5
238.39	95.5
238.624	91.5
238.858	81.5
239.091	73.5
239.325	79.5
239.559	81.5
239.793	85.5
240.027	76.5
240.26	78.5
240.494	77.5
240.728	73.5
240.961	76.5
241.195	99.5
241.429	80.5
241.662	83.5
241.896	104.5
242.13	84.5
242.363	132.5
242.597	170.5
242.83	144.5
243.064	147.5
243.298	169.5
243.531	148.5
243.765	90.5
243.998	86.5
244.232	69.5
244.465	86.5
244.699	76.5
244.932	74.5
245.166	77.5
245.399	79.5
245.633	91.5
245.866	76.5
246.099	92.5
246.333	73.5
246.566	76.5
246.8	85.5
247.033	76.5
247.266	81.5
247.5	83.5
247.733	63.5
247.966	69.5
248.2	90.5
248.433	104.5
248.666	110.5
248.899	119.5
249.133	85.5
249.366	103.5
249.599	88.5
249.832	113.5
250.066	153.5
250.299	87.5
250.532	102.5
250.765	80.5
250.998	78.5
251.231	67.5
251.465	76.5
251.698	71.5
251.931	82.5
252.164	98.5
252.397	98.5
252.63	73.5
252.863	92.5
253.096	106.5
253.329	108.5
253.562	95.5
253.795	84.5
254.028	90.5
254.261	86.5
254.494	103.5
254.727	116.5
254.96	151.5
255.193	132.5
255.426	104.5
255.659	93.5
255.892	97.5
256.124	85.5
256.357	77.5
256.59	88.5
256.823	77.5
257.056	128.5
257.289	138.5
257.521	173.5
257.754	125.5
257.987	85.5
258.22	96.5
258.452	85.5
258.685	73.5
258.918	88.5
259.151	88.5
259.383	115.5
259.616	142.5
259.849	149.5
260.081	96.5
260.314	84.5
260.547	85.5
260.779	93.5
261.012	84.5
261.244	88.5
261.477	79.5
261.71	81.5
261.942	89.5
262.175	83.5
262.407	86.5
262.64	84.5
262.872	81.5
263.105	90.5
263.337	85.5
263.57	75.5
263.802	89.5
264.035	90.5
264.267	78.5
264.499	84.5
264.732	97.5
264.964	98.5
265.197	94.5
265.429	89.5
265.661	90.5
265.894	97.5
266.126	132.5
266.358	156.5
266.591	147.5
266.823	107.5
267.055	78.5
267.287	83.5
267.52	92.5
267.752	91.5
267.984	104.5
268.216	88.5
268.448	93.5
268.681	84.5
268.913	89.5
269.145	88.5
269.377	88.5
269.609	92.5
269.841	102.5
270.073	105.5
270.306	119.5
270.538	185.5
270.77	309.5
271.002	365.5
271.234	204.5
271.466	121.5
271.698	84.5
271.93	86.5
272.162	84.5
272.394	85.5
272.626	89.5
272.858	94.5
273.09	93.5
273.322	92.5
273.553	99.5
273.785	106.5
274.017	86.5
274.249	77.5
274.481	87.5
274.713	84.5
274.945	87.5
275.176	87.5
275.408	100.5
275.64	88.5
275.872	96.5
276.104	97.5
276.335	102.5
276.567	102.5
276.799	94.5
277.031	92.5
277.262	96.5
277.494	110.5
277.726	131.5
277.957	181.5
278.189	254.5
278.421	220.5
278.652	188.5
278.884	187.5
279.115	140.5
279.347	101.5
279.579	100.5
279.81	94.5
280.042	112.5
280.273	96.5
280.505	101.5
280.736	107.5
280.968	126.5
281.199	172.5
281.431	217.5
281.662	268.5
281.894	161.5
282.125	114.5
282.356	105.5
282.588	107.5
282.819	101.5
283.051	100.5
283.282	123.5
283.513	171.5
283.745	294.5
283.976	526.5
284.207	761.5
284.439	554.5
284.67	262.5
284.901	245.5
285.132	349.5
285.364	362.5
285.595	199.5
285.826	167.5
286.057	254.5
286.288	376.5
286.52	594.5
286.751	471.5
286.982	191.5
287.213	133.5
287.444	126.5
287.675	101.5
287.906	104.5
288.138	89.5
288.369	100.5
288.6	94.5
288.831	85.5
289.062	114.5
289.293	98.5
289.524	88.5
289.755	107.5
289.986	85.5
290.217	98.5
290.448	105.5
290.679	97.5
290.91	117.5
291.141	146.5
291.371	219.5
291.602	273.5
291.833	181.5
292.064	111.5
292.295	105.5
292.526	88.5
292.757	84.5
292.987	96.5
293.218	92.5
293.449	97.5
293.68	98.5
293.91	83.5
294.141	92.5
294.372	88.5
294.603	82.5
294.833	89.5
295.064	80.5
295.295	99.5
295.525	87.5
295.756	105.5
295.987	85.5
296.217	88.5
296.448	89.5
296.679	94.5
296.909	83.5
297.14	87.5
297.37	107.5
297.601	88.5
297.831	85.5
298.062	98.5
298.292	91.5
298.523	106.5
298.753	95.5
298.984	110.5
299.214	102.5
299.445	106.5
299.675	105.5
299.905	122.5
300.136	131.5
300.366	154.5
300.597	253.5
300.827	423.5
301.057	650.5
301.288	570.5
301.518	234.5
301.748	140.5
301.979	138.5
302.209	130.5
302.439	133.5
302.669	164.5
302.9	259.5
303.13	469.5
303.36	841.5
303.59	1149.5
303.82	803.5
304.051	272.5
304.281	157.5
304.511	139.5
304.741	104.5
304.971	112.5
305.201	101.5
305.431	108.5
305.661	115.5
305.891	98.5
306.121	103.5
306.352	110.5
306.582	107.5
306.812	126.5
307.042	110.5
307.272	103.5
307.502	110.5
307.731	98.5
307.961	94.5
308.191	107.5
308.421	92.5
308.651	104.5
308.881	91.5
309.111	99.5
309.341	103.5
309.571	104.5
309.8	104.5
310.03	108.5
310.26	96.5
310.49	99.5
310.72	100.5
310.949	90.5
311.179	114.5
311.409	108.5
311.639	114.5
311.868	99.5
312.098	99.5
312.328	97.5
312.557	96.5
312.787	108.5
313.017	106.5
313.246	117.5
313.476	100.5
313.706	121.5
313.935	148.5
314.165	192.5
314.394	214.5
314.624	163.5
314.853	132.5
315.083	130.5
315.312	125.5
315.542	116.5
315.771	121.5
316.001	136.5
316.23	152.5
316.46	146.5
316.689	171.5
316.919	260.5
317.148	474.5
317.377	869.5
317.607	1380.5
317.836	1304.5
318.065	501.5
318.295	213.5
318.524	148.5
318.753	134.5
318.983	132.5
319.212	118.5
319.441	106.5
319.67	114.5
319.9	119.5
320.129	105.5
320.358	107.5
320.587	111.5
320.816	120.5
321.046	127.5
321.275	124.5
321.504	110.5
321.733	134.5
321.962	138.5
322.191	143.5
322.42	134.5
322.649	135.5
322.878	123.5
323.108	113.5
323.337	107.5
323.566	116.5
323.795	128.5
324.024	146.5
324.253	140.5
324.482	168.5
324.71	212.5
324.939	260.5
325.168	213.5
325.397	178.5
325.626	245.5
325.855	446.5
326.084	882.5
326.313	1512.5
326.542	1480.5
326.77	578.5
326.999	231.5
327.228	215.5
327.457	223.5
327.686	221.5
327.914	156.5
328.143	144.5
328.372	128.5
328.6	116.5
328.829	124.5
329.058	109.5
329.287	120.5
329.515	114.5
329.744	99.5
329.972	114.5
330.201	117.5
330.43	101.5
330.658	103.5
330.887	118.5
331.115	104.5
331.344	108.5
331.572	114.5
331.801	113.5
332.03	117.5
332.258	131.5
332.486	160.5
332.715	244.5
332.943	475.5
333.172	692.5
333.4	635.5
333.629	240.5
333.857	136.5
334.085	113.5
334.314	115.5
334.542	109.5
334.771	112.5
334.999	118.5
335.227	118.5
335.455	122.5
335.684	129.5
335.912	113.5
336.14	120.5
336.369	110.5
336.597	108.5
336.825	96.5
337.053	103.5
337.281	119.5
337.51	109.5
337.738	110.5
337.966	103.5
338.194	102.5
338.422	102.5
338.65	97.5
338.878	118.5
339.106	105.5
339.334	109.5
339.562	124.5
339.79	116.5
340.018	97.5
340.246	111.5
340.474	113.5
340.702	107.5
340.93	101.5
341.158	113.5
341.386	114.5
341.614	121.5
341.842	121.5
342.07	115.5
342.298	103.5
342.526	105.5
342.754	96.5
342.981	102.5
343.209	120.5
343.437	108.5
343.665	115.5
343.893	101.5
344.12	120.5
344.348	109.5
344.576	105.5
344.804	114.5
345.031	106.5
345.259	116.5
345.487	112.5
345.714	113.5
345.942	111.5
346.17	113.5
346.397	108.5
346.625	109.5
346.853	102.5
347.08	98.5
347.308	99.5
347.535	98.5
347.763	91.5
347.99	96.5
348.218	104.5
348.445	114.5
348.673	112.5
348.9	122.5
349.128	113.5
349.355	124.5
349.583	119.5
349.81	105.5
350.037	108.5
350.265	92.5
350.492	103.5
350.72	103.5
350.947	110.5
351.174	112.5
351.402	102.5
351.629	120.5
351.856	113.5
352.083	117.5
352.311	120.5
352.538	110.5
352.765	120.5
352.992	102.5
353.22	91.5
353.447	105.5
353.674	116.5
353.901	100.5
354.128	101.5
354.355	110.5
354.583	88.5
354.81	100.5
355.037	104.5
355.264	96.5
355.491	104.5
355.718	103.5
355.945	97.5
356.172	109.5
356.399	99.5
356.626	102.5
356.853	102.5
357.08	121.5
357.307	92.5
357.534	98.5
357.761	100.5
357.988	106.5
358.215	101.5
358.441	104.5
358.668	116.5
358.895	106.5
359.122	114.5
359.349	133.5
359.576	120.5
359.802	112.5
360.029	104.5
360.256	102.5
360.483	104.5
360.709	112.5
360.936	125.5
361.163	102.5
361.39	99.5
361.616	102.5
361.843	92.5
362.07	112.5
362.296	119.5
362.523	104.5
362.749	98.5
362.976	107.5
363.203	107.5
363.429	101.5
363.656	103.5
363.882	116.5
364.109	109.5
364.335	101.5
364.562	99.5
364.788	99.5
365.015	138.5
365.241	134.5
365.468	178.5
365.694	227.5
365.92	206.5
366.147	115.5
366.373	95.5
366.599	91.5
366.826	92.5
367.052	102.5
367.278	102.5
367.505	116.5
367.731	86.5
367.957	101.5
368.184	106.5
368.41	114.5
368.636	118.5
368.862	116.5
369.089	118.5
369.315	98.5
369.541	91.5
369.767	104.5
369.993	107.5
370.219	104.5
370.445	99.5
370.672	104.5
370.898	109.5
371.124	112.5
371.35	108.5
371.576	104.5
371.802	107.5
372.028	96.5
372.254	125.5
372.48	114.5
372.706	122.5
372.932	98.5
373.158	114.5
373.384	124.5
373.61	110.5
373.835	100.5
374.061	103.5
374.287	104.5
374.513	122.5
374.739	116.5
374.965	95.5
375.191	108.5
375.416	103.5
375.642	111.5
375.868	112.5
376.094	106.5
376.319	104.5
376.545	95.5
376.771	101.5
376.997	108.5
377.222	96.5
377.448	115.5
377.674	101.5
377.899	109.5
378.125	101.5
378.35	104.5
378.576	101.5
378.802	108.5
379.027	116.5
379.253	123.5
379.478	161.5
379.704	285.5
379.929	698.5
380.155	1440.5
380.38	1524.5
380.606	507.5
380.831	181.5
381.057	140.5
381.282	112.5
381.507	109.5
381.733	109.5
381.958	94.5
382.184	103.5
382.409	105.5
382.634	106.5
382.86	102.5
383.085	106.5
383.31	114.5
383.535	121.5
383.761	87.5
383.986	116.5
384.211	91.5
384.436	97.5
384.662	90.5
384.887	103.5
385.112	109.5
385.337	109.5
385.562	100.5
385.787	96.5
386.013	116.5
386.238	122.5
386.463	100.5
386.688	109.5
386.913	106.5
387.138	88.5
387.363	100.5
387.588	114.5
387.813	89.5
388.038	98.5
388.263	106.5
388.488	107.5
388.713	97.5
388.938	101.5
389.163	104.5
389.387	100.5
389.612	95.5
389.837	96.5
390.062	91.5
390.287	100.5
390.512	94.5
390.736	95.5
390.961	115.5
391.186	112.5
391.411	96.5
391.636	103.5
391.86	96.5
392.085	92.5
392.31	108.5
392.534	90.5
392.759	96.5
392.984	105.5
393.208	113.5
393.433	138.5
393.658	121.5
393.882	99.5
394.107	91.5
394.331	99.5
394.556	100.5
394.78	114.5
395.005	94.5
395.229	104.5
395.454	87.5
395.678	98.5
395.903	105.5
396.127	110.5
396.352	101.5
396.576	115.5
396.801	110.5
397.025	114.5
397.249	104.5
397.474	109.5
397.698	103.5
397.922	106.5
398.147	82.5
398.371	93.5
398.595	110.5
398.82	92.5
399.044	102.5
399.268	92.5
399.492	112.5
399.717	101.5
399.941	98.5
400.165	94.5
400.389	101.5
400.613	113.5
400.837	86.5
401.062	89.5
401.286	89.5
401.51	105.5
401.734	109.5
401.958	95.5
402.182	102.5
402.406	97.5
402.63	80.5
402.854	93.5
403.078	94.5
403.302	95.5
403.526	88.5
403.75	99.5
403.974	100.5
404.198	102.5
404.422	87.5
404.645	106.5
404.869	109.5
405.093	102.5
405.317	104.5
405.541	119.5
405.765	116.5
405.988	140.5
406.212	107.5
406.436	100.5
406.66	106.5
406.883	106.5
407.107	98.5
407.331	81.5
407.555	108.5
407.778	89.5
408.002	115.5
408.226	100.5
408.449	116.5
408.673	95.5
408.896	101.5
409.12	86.5
409.344	96.5
409.567	83.5
409.791	93.5
410.014	107.5
410.238	94.5
410.461	91.5
410.685	97.5
410.908	109.5
411.132	109.5
411.355	104.5
411.578	97.5
411.802	107.5
412.025	102.5
412.249	107.5
412.472	107.5
412.695	106.5
412.919	89.5
413.142	93.5
413.365	103.5
413.589	109.5
413.812	101.5
414.035	119.5
414.258	116.5
414.482	94.5
414.705	106.5
414.928	108.5
415.151	101.5
415.374	116.5
415.597	106.5
415.821	87.5
416.044	96.5
416.267	91.5
416.49	106.5
416.713	112.5
416.936	100.5
417.159	92.5
417.382	93.5
417.605	94.5
417.828	93.5
418.051	86.5
418.274	94.5
418.497	90.5
418.72	88.5
418.943	103.5
419.166	99.5
419.389	103.5
419.611	98.5
419.834	106.5
420.057	97.5
420.28	91.5
420.503	105.5
420.726	96.5
420.948	106.5
421.171	99.5
421.394	94.5
421.617	92.5
421.839	88.5
422.062	113.5
422.285	98.5
422.507	99.5
422.73	109.5
422.953	126.5
423.175	101.5
423.398	96.5
423.621	100.5
423.843	90.5
424.066	89.5
424.288	102.5
424.511	79.5
424.733	92.5
424.956	92.5
425.178	91.5
425.401	99.5
425.623	103.5
425.846	91.5
426.068	85.5
426.291	105.5
426.513	96.5
426.735	76.5
426.958	107.5
427.18	101.5
427.402	91.5
427.625	109.5
427.847	93.5
428.069	97.5
428.292	86.5
428.514	97.5
428.736	106.5
428.958	98.5
429.181	103.5
429.403	104.5
429.625	105.5
429.847	98.5
430.069	102.5
430.292	109.5
430.514	94.5
430.736	103.5
430.958	99.5
431.18	93.5
431.402	91.5
431.624	86.5
431.846	79.5
432.068	94.5
432.29	103.5
432.512	94.5
432.734	106.5
432.956	99.5
433.178	85.5
433.4	80.5
433.622	93.5
433.844	99.5
434.066	105.5
434.287	90.5
434.509	93.5
434.731	93.5
434.953	82.5
435.175	101.5
435.397	101.5
435.618	116.5
435.84	105.5
436.062	86.5
436.284	96.5
436.505	96.5
436.727	95.5
436.949	105.5
437.17	85.5
437.392	89.5
437.614	91.5
437.835	84.5
438.057	86.5
438.278	90.5
438.5	103.5
438.721	82.5
438.943	119.5
439.165	106.5
439.386	107.5
439.608	113.5
439.829	111.5
440.05	121.5
440.272	113.5
440.493	101.5
440.715	100.5
440.936	110.5
441.158	93.5
441.379	96.5
441.6	100.5
441.822	94.5
442.043	103.5
442.264	135.5
442.486	118.5
442.707	105.5
442.928	112.5
443.149	84.5
443.371	102.5
443.592	90.5
443.813	87.5
444.034	98.5
444.255	109.5
444.476	104.5
444.698	69.5
444.919	102.5
445.14	210.5
445.361	140.5
445.582	109.5
445.803	93.5
446.024	104.5
446.245	103.5
446.466	94.5
446.687	108.5
446.908	105.5
447.129	102.5
447.35	93.5
447.571	104.5
447.792	86.5
448.013	90.5
448.234	98.5
448.455	101.5
448.675	96.5
448.896	105.5
449.117	105.5
449.338	120.5
449.559	142.5
449.779	118.5
450	109.5
450.221	100.5
450.442	112.5
450.662	113.5
450.883	106.5
451.104	109.5
451.324	108.5
451.545	119.5
451.766	106.5
451.986	128.5
452.207	201.5
452.428	513.5
452.648	1248.5
452.869	708.5
453.089	193.5
453.31	132.5
453.53	128.5
453.751	134.5
453.971	165.5
454.192	150.5
454.412	115.5
454.633	86.5
454.853	97.5
455.073	106.5
455.294	94.5
455.514	104.5
455.734	97.5
455.955	100.5
456.175	103.5
456.395	101.5
456.616	93.5
456.836	90.5
457.056	100.5
457.276	112.5
457.497	120.5
457.717	129.5
457.937	97.5
458.157	108.5
458.377	90.5
458.598	96.5
458.818	102.5
459.038	92.5
459.258	82.5
459.478	96.5
459.698	84.5
459.918	84.5
460.138	94.5
460.358	99.5
460.578	96.5
460.798	96.5
461.018	105.5
461.238	93.5
461.458	103.5
461.678	85.5
461.898	92.5
462.118	88.5
462.338	101.5
462.558	104.5
462.777	93.5
462.997	109.5
463.217	117.5
463.437	125.5
463.657	169.5
463.876	192.5
464.096	124.5
464.316	112.5
464.536	103.5
464.755	98.5
464.975	98.5
465.195	94.5
465.414	93.5
465.634	85.5
465.854	94.5
466.073	93.5
466.293	101.5
466.512	82.5
466.732	100.5
466.951	107.5
467.171	137.5
467.391	144.5
467.61	104.5
467.829	114.5
468.049	102.5
468.268	117.5
468.488	88.5
468.707	102.5
468.927	95.5
469.146	107.5
469.365	106.5
469.585	87.5
469.804	101.5
470.023	89.5
470.243	116.5
470.462	100.5
470.681	119.5
470.901	137.5
471.12	180.5
471.339	195.5
471.558	136.5
471.777	122.5
471.997	119.5
472.216	112.5
472.435	96.5
472.654	97.5
472.873	99.5
473.092	93.5
473.311	100.5
473.53	109.5
473.749	99.5
473.968	92.5
474.187	85.5
474.406	102.5
474.625	101.5
474.844	92.5
475.063	80.5
475.282	96.5
475.501	85.5
475.72	102.5
475.939	101.5
476.158	107.5
476.377	118.5
476.596	107.5
476.814	86.5
477.033	101.5
477.252	84.5
477.471	91.5
477.69	107.5
477.908	100.5
478.127	91.5
478.346	103.5
478.564	82.5
478.783	93.5
479.002	93.5
479.22	107.5
479.439	104.5
479.658	83.5
479.876	99.5
480.095	100.5
480.313	97.5
480.532	98.5
480.751	93.5
480.969	111.5
481.188	97.5
481.406	92.5
481.624	91.5
481.843	106.5
482.061	121.5
482.28	108.5
482.498	108.5
482.717	108.5
482.935	89.5
483.153	98.5
483.372	112.5
483.59	87.5
483.808	97.5
484.027	102.5
484.245	125.5
484.463	180.5
484.681	218.5
484.9	168.5
485.118	122.5
485.336	94.5
485.554	110.5
485.772	115.5
485.99	182.5
486.209	255.5
486.427	160.5
486.645	120.5
486.863	108.5
487.081	112.5
487.299	100.5
487.517	102.5
487.735	100.5
487.953	91.5
488.171	97.5
488.389	96.5
488.607	94.5
488.825	119.5
489.043	94.5
489.261	95.5
489.479	96.5
489.696	101.5
489.914	95.5
490.132	97.5
490.35	103.5
490.568	101.5
490.786	107.5
491.003	118.5
491.221	115.5
491.439	116.5
491.657	105.5
491.874	107.5
492.092	106.5
492.31	96.5
492.527	98.5
492.745	97.5
492.963	99.5
493.18	102.5
493.398	103.5
493.615	109.5
493.833	108.5
494.05	96.5
494.268	103.5
494.485	98.5
494.703	101.5
494.92	114.5
495.138	96.5
495.355	102.5
495.573	98.5
495.79	101.5
496.008	99.5
496.225	100.5
496.442	117.5
496.66	132.5
496.877	153.5
497.094	144.5
497.312	126.5
497.529	107.5
497.746	97.5
497.963	99.5
498.181	98.5
498.398	102.5
498.615	98.5
498.832	97.5
499.049	106.5
499.267	142.5
499.484	157.5
499.701	116.5
499.918	100.5
500.135	90.5
500.352	89.5
500.569	106.5
500.786	94.5
501.003	108.5
501.22	101.5
501.437	92.5
501.654	106.5
501.871	98.5
502.088	88.5
502.305	99.5
502.522	99.5
502.739	102.5
502.956	101.5
503.172	106.5
503.389	102.5
503.606	94.5
503.823	120.5
504.04	99.5
504.256	98.5
504.473	89.5
504.69	99.5
504.907	121.5
505.123	119.5
505.34	112.5
505.557	101.5
505.773	101.5
505.99	100.5
506.207	81.5
506.423	109.5
506.64	94.5
506.856	100.5
507.073	113.5
507.289	92.5
507.506	93.5
507.722	96.5
507.939	97.5
508.155	88.5
508.372	96.5
508.588	95.5
508.805	102.5
509.021	106.5
509.238	106.5
509.454	134.5
509.67	170.5
509.887	113.5
510.103	112.5
510.319	100.5
510.536	115.5
510.752	115.5
510.968	100.5
511.184	99.5
511.401	73.5
511.617	97.5
511.833	96.5
512.049	104.5
512.265	107.5
512.481	91.5
512.698	92.5
512.914	92.5
513.13	94.5
513.346	99.5
513.562	91.5
513.778	106.5
513.994	98.5
514.21	118.5
514.426	139.5
514.642	174.5
514.858	112.5
515.074	114.5
515.29	96.5
515.506	114.5
515.721	104.5
515.937	101.5
516.153	86.5
516.369	107.5
516.585	92.5
516.801	91.5
517.016	96.5
517.232	98.5
517.448	98.5
517.664	109.5
517.879	101.5
518.095	105.5
518.311	100.5
518.527	111.5
518.742	97.5
518.958	112.5
519.173	157.5
519.389	119.5
519.605	113.5
519.82	110.5
520.036	103.5
520.251	92.5
520.467	83.5
520.682	90.5
520.898	99.5
521.113	100.5
521.329	83.5
521.544	89.5
521.76	100.5
521.975	114.5
522.19	109.5
522.406	106.5
522.621	91.5
522.836	96.5
523.052	85.5
523.267	106.5
523.482	92.5
523.698	92.5
523.913	85.5
524.128	102.5
524.343	88.5
524.559	91.5
524.774	89.5
524.989	94.5
525.204	91.5
525.419	85.5
525.634	97.5
525.849	112.5
526.064	105.5
526.28	106.5
526.495	93.5
526.71	85.5
526.925	96.5
527.14	89.5
527.355	86.5
