Data from SnStandardFlinnAPT0064_QswitchEnergy10_LIBS07252019.E.O._I.C._HRD10591_15-27-13-973.txt Node
Date: Thu Jul 25 15:27:13 EDT 2019
User: cochatt
Spectrometer: HR+D1059
Trigger mode: 1
Integration Time (sec): 1.000000E-1
Scans to average: 1
Electric dark correction enabled: true
Nonlinearity correction enabled: false
Boxcar width: 0
XAxis mode: Wavelengths
Number of Pixels in Spectrum: 2048
>>>>>Begin Spectral Data<<<<<
223.165	-21.38
223.4	-21.38
223.635	-21.38
223.869	-23.38
224.104	-31.38
224.338	-22.38
224.573	-16.38
224.808	-14.38
225.042	4.62
225.277	-4.38
225.511	-4.38
225.746	12.62
225.98	8.62
226.215	14.62
226.449	7.62
226.683	21.62
226.918	35.62
227.152	32.62
227.387	40.62
227.621	38.62
227.856	47.62
228.09	57.62
228.324	51.62
228.559	58.62
228.793	62.62
229.027	60.62
229.262	62.62
229.496	75.62
229.73	67.62
229.964	74.62
230.199	76.62
230.433	73.62
230.667	74.62
230.901	84.62
231.136	70.62
231.37	71.62
231.604	74.62
231.838	96.62
232.072	105.62
232.306	110.62
232.541	92.62
232.775	90.62
233.009	79.62
233.243	75.62
233.477	82.62
233.711	88.62
233.945	111.62
234.179	105.62
234.413	81.62
234.647	95.62
234.881	85.62
235.115	88.62
235.349	93.62
235.583	113.62
235.817	122.62
236.051	141.62
236.285	107.62
236.519	75.62
236.753	102.62
236.987	80.62
237.221	87.62
237.455	79.62
237.689	81.62
237.922	87.62
238.156	80.62
238.39	75.62
238.624	74.62
238.858	80.62
239.091	80.62
239.325	82.62
239.559	81.62
239.793	78.62
240.027	80.62
240.26	78.62
240.494	77.62
240.728	73.62
240.961	89.62
241.195	77.62
241.429	89.62
241.662	71.62
241.896	74.62
242.13	95.62
242.363	124.62
242.597	157.62
242.83	123.62
243.064	141.62
243.298	179.62
243.531	140.62
243.765	99.62
243.998	83.62
244.232	83.62
244.465	85.62
244.699	80.62
244.932	83.62
245.166	76.62
245.399	84.62
245.633	81.62
245.866	88.62
246.099	91.62
246.333	83.62
246.566	78.62
246.8	83.62
247.033	88.62
247.266	70.62
247.5	73.62
247.733	73.62
247.966	75.62
248.2	80.62
248.433	99.62
248.666	117.62
248.899	122.62
249.133	93.62
249.366	93.62
249.599	100.62
249.832	104.62
250.066	122.62
250.299	92.62
250.532	96.62
250.765	75.62
250.998	73.62
251.231	84.62
251.465	76.62
251.698	89.62
251.931	81.62
252.164	85.62
252.397	85.62
252.63	89.62
252.863	98.62
253.096	79.62
253.329	84.62
253.562	81.62
253.795	84.62
254.028	94.62
254.261	78.62
254.494	106.62
254.727	106.62
254.96	135.62
255.193	128.62
255.426	89.62
255.659	81.62
255.892	96.62
256.124	91.62
256.357	85.62
256.59	81.62
256.823	95.62
257.056	107.62
257.289	147.62
257.521	183.62
257.754	129.62
257.987	94.62
258.22	92.62
258.452	76.62
258.685	91.62
258.918	99.62
259.151	100.62
259.383	89.62
259.616	126.62
259.849	140.62
260.081	104.62
260.314	80.62
260.547	92.62
260.779	81.62
261.012	82.62
261.244	86.62
261.477	82.62
261.71	74.62
261.942	91.62
262.175	77.62
262.407	96.62
262.64	77.62
262.872	88.62
263.105	81.62
263.337	84.62
263.57	82.62
263.802	96.62
264.035	100.62
264.267	91.62
264.499	95.62
264.732	91.62
264.964	87.62
265.197	84.62
265.429	77.62
265.661	75.62
265.894	89.62
266.126	123.62
266.358	148.62
266.591	145.62
266.823	97.62
267.055	90.62
267.287	88.62
267.52	73.62
267.752	83.62
267.984	90.62
268.216	85.62
268.448	97.62
268.681	83.62
268.913	87.62
269.145	88.62
269.377	100.62
269.609	88.62
269.841	99.62
270.073	107.62
270.306	133.62
270.538	172.62
270.77	278.62
271.002	347.62
271.234	177.62
271.466	105.62
271.698	97.62
271.93	88.62
272.162	93.62
272.394	92.62
272.626	82.62
272.858	89.62
273.09	77.62
273.322	84.62
273.553	101.62
273.785	88.62
274.017	96.62
274.249	100.62
274.481	89.62
274.713	95.62
274.945	78.62
275.176	87.62
275.408	102.62
275.64	100.62
275.872	94.62
276.104	100.62
276.335	80.62
276.567	98.62
276.799	91.62
277.031	84.62
277.262	104.62
277.494	106.62
277.726	107.62
277.957	187.62
278.189	217.62
278.421	213.62
278.652	172.62
278.884	167.62
279.115	131.62
279.347	102.62
279.579	87.62
279.81	78.62
280.042	103.62
280.273	85.62
280.505	103.62
280.736	115.62
280.968	98.62
281.199	162.62
281.431	217.62
281.662	234.62
281.894	146.62
282.125	107.62
282.356	114.62
282.588	105.62
282.819	117.62
283.051	104.62
283.282	127.62
283.513	171.62
283.745	293.62
283.976	491.62
284.207	733.62
284.439	544.62
284.67	230.62
284.901	239.62
285.132	319.62
285.364	347.62
285.595	229.62
285.826	160.62
286.057	236.62
286.288	371.62
286.52	555.62
286.751	435.62
286.982	178.62
287.213	113.62
287.444	84.62
287.675	98.62
287.906	94.62
288.138	92.62
288.369	104.62
288.6	83.62
288.831	103.62
289.062	94.62
289.293	105.62
289.524	96.62
289.755	87.62
289.986	90.62
290.217	72.62
290.448	96.62
290.679	104.62
290.91	97.62
291.141	157.62
291.371	201.62
291.602	231.62
291.833	163.62
292.064	101.62
292.295	104.62
292.526	92.62
292.757	87.62
292.987	88.62
293.218	101.62
293.449	91.62
293.68	106.62
293.91	84.62
294.141	97.62
294.372	89.62
294.603	103.62
294.833	100.62
295.064	93.62
295.295	88.62
295.525	99.62
295.756	101.62
295.987	94.62
296.217	100.62
296.448	100.62
296.679	92.62
296.909	101.62
297.14	92.62
297.37	104.62
297.601	98.62
297.831	93.62
298.062	87.62
298.292	103.62
298.523	92.62
298.753	96.62
298.984	108.62
299.214	103.62
299.445	109.62
299.675	117.62
299.905	123.62
300.136	127.62
300.366	154.62
300.597	243.62
300.827	429.62
301.057	629.62
301.288	571.62
301.518	246.62
301.748	149.62
301.979	131.62
302.209	127.62
302.439	132.62
302.669	149.62
302.9	230.62
303.13	445.62
303.36	797.62
303.59	1107.62
303.82	767.62
304.051	258.62
304.281	149.62
304.511	119.62
304.741	106.62
304.971	117.62
305.201	94.62
305.431	80.62
305.661	99.62
305.891	93.62
306.121	108.62
306.352	108.62
306.582	105.62
306.812	108.62
307.042	109.62
307.272	100.62
307.502	102.62
307.731	99.62
307.961	114.62
308.191	89.62
308.421	108.62
308.651	112.62
308.881	88.62
309.111	100.62
309.341	103.62
309.571	105.62
309.8	109.62
310.03	102.62
310.26	108.62
310.49	108.62
310.72	102.62
310.949	97.62
311.179	112.62
311.409	105.62
311.639	100.62
311.868	106.62
312.098	102.62
312.328	97.62
312.557	108.62
312.787	119.62
313.017	112.62
313.246	118.62
313.476	129.62
313.706	105.62
313.935	141.62
314.165	162.62
314.394	196.62
314.624	162.62
314.853	124.62
315.083	131.62
315.312	125.62
315.542	123.62
315.771	116.62
316.001	142.62
316.23	147.62
316.46	144.62
316.689	159.62
316.919	237.62
317.148	441.62
317.377	815.62
317.607	1350.62
317.836	1255.62
318.065	482.62
318.295	213.62
318.524	151.62
318.753	128.62
318.983	115.62
319.212	125.62
319.441	91.62
319.67	115.62
319.9	106.62
320.129	98.62
320.358	116.62
320.587	104.62
320.816	108.62
321.046	127.62
321.275	117.62
321.504	127.62
321.733	137.62
321.962	147.62
322.191	153.62
322.42	129.62
322.649	119.62
322.878	128.62
323.108	113.62
323.337	120.62
323.566	120.62
323.795	124.62
324.024	112.62
324.253	139.62
324.482	160.62
324.71	215.62
324.939	245.62
325.168	201.62
325.397	170.62
325.626	253.62
325.855	453.62
326.084	831.62
326.313	1439.62
326.542	1435.62
326.77	545.62
326.999	235.62
327.228	197.62
327.457	208.62
327.686	194.62
327.914	132.62
328.143	140.62
328.372	123.62
328.6	108.62
328.829	121.62
329.058	121.62
329.287	119.62
329.515	122.62
329.744	116.62
329.972	112.62
330.201	102.62
330.43	105.62
330.658	101.62
330.887	112.62
331.115	99.62
331.344	100.62
331.572	110.62
331.801	109.62
332.03	115.62
332.258	118.62
332.486	157.62
332.715	259.62
332.943	441.62
333.172	689.62
333.4	621.62
333.629	245.62
333.857	141.62
334.085	126.62
334.314	113.62
334.542	104.62
334.771	127.62
334.999	108.62
335.227	119.62
335.455	117.62
335.684	113.62
335.912	104.62
336.14	111.62
336.369	107.62
336.597	92.62
336.825	120.62
337.053	105.62
337.281	107.62
337.51	115.62
337.738	117.62
337.966	112.62
338.194	111.62
338.422	120.62
338.65	111.62
338.878	117.62
339.106	112.62
339.334	124.62
339.562	100.62
339.79	111.62
340.018	101.62
340.246	111.62
340.474	108.62
340.702	133.62
340.93	111.62
341.158	99.62
341.386	99.62
341.614	119.62
341.842	114.62
342.07	121.62
342.298	109.62
342.526	102.62
342.754	104.62
342.981	119.62
343.209	116.62
343.437	109.62
343.665	91.62
343.893	100.62
344.12	100.62
344.348	101.62
344.576	103.62
344.804	107.62
345.031	103.62
345.259	111.62
345.487	101.62
345.714	97.62
345.942	116.62
346.17	97.62
346.397	120.62
346.625	111.62
346.853	102.62
347.08	85.62
347.308	104.62
347.535	102.62
347.763	89.62
347.99	99.62
348.218	92.62
348.445	106.62
348.673	120.62
348.9	117.62
349.128	135.62
349.355	127.62
349.583	120.62
349.81	114.62
350.037	113.62
350.265	106.62
350.492	104.62
350.72	115.62
350.947	105.62
351.174	109.62
351.402	119.62
351.629	118.62
351.856	118.62
352.083	107.62
352.311	102.62
352.538	116.62
352.765	114.62
352.992	103.62
353.22	113.62
353.447	103.62
353.674	103.62
353.901	104.62
354.128	103.62
354.355	104.62
354.583	105.62
354.81	103.62
355.037	101.62
355.264	114.62
355.491	95.62
355.718	107.62
355.945	93.62
356.172	93.62
356.399	114.62
356.626	106.62
356.853	107.62
357.08	109.62
357.307	121.62
357.534	104.62
357.761	112.62
357.988	93.62
358.215	113.62
358.441	106.62
358.668	111.62
358.895	112.62
359.122	116.62
359.349	123.62
359.576	114.62
359.802	123.62
360.029	105.62
360.256	103.62
360.483	95.62
360.709	95.62
360.936	116.62
361.163	108.62
361.39	127.62
361.616	109.62
361.843	111.62
362.07	106.62
362.296	119.62
362.523	107.62
362.749	114.62
362.976	99.62
363.203	107.62
363.429	111.62
363.656	102.62
363.882	105.62
364.109	106.62
364.335	98.62
364.562	112.62
364.788	97.62
365.015	115.62
365.241	138.62
365.468	155.62
365.694	214.62
365.92	188.62
366.147	89.62
366.373	101.62
366.599	107.62
366.826	99.62
367.052	104.62
367.278	103.62
367.505	100.62
367.731	98.62
367.957	103.62
368.184	88.62
368.41	126.62
368.636	105.62
368.862	113.62
369.089	85.62
369.315	104.62
369.541	115.62
369.767	93.62
369.993	100.62
370.219	93.62
370.445	103.62
370.672	103.62
370.898	90.62
371.124	115.62
371.35	99.62
371.576	113.62
371.802	101.62
372.028	104.62
372.254	117.62
372.48	114.62
372.706	101.62
372.932	111.62
373.158	100.62
373.384	113.62
373.61	118.62
373.835	114.62
374.061	109.62
374.287	119.62
374.513	105.62
374.739	119.62
374.965	104.62
375.191	102.62
375.416	105.62
375.642	96.62
375.868	105.62
376.094	101.62
376.319	91.62
376.545	102.62
376.771	109.62
376.997	117.62
377.222	106.62
377.448	106.62
377.674	103.62
377.899	103.62
378.125	104.62
378.35	119.62
378.576	107.62
378.802	125.62
379.027	123.62
379.253	138.62
379.478	173.62
379.704	279.62
379.929	693.62
380.155	1403.62
380.38	1441.62
380.606	486.62
380.831	163.62
381.057	131.62
381.282	114.62
381.507	107.62
381.733	100.62
381.958	94.62
382.184	100.62
382.409	101.62
382.634	115.62
382.86	93.62
383.085	105.62
383.31	109.62
383.535	104.62
383.761	106.62
383.986	85.62
384.211	103.62
384.436	108.62
384.662	112.62
384.887	105.62
385.112	95.62
385.337	103.62
385.562	100.62
385.787	105.62
386.013	114.62
386.238	108.62
386.463	112.62
386.688	112.62
386.913	101.62
387.138	112.62
387.363	112.62
387.588	109.62
387.813	112.62
388.038	97.62
388.263	95.62
388.488	87.62
388.713	104.62
388.938	90.62
389.163	99.62
389.387	101.62
389.612	109.62
389.837	106.62
390.062	88.62
390.287	117.62
390.512	108.62
390.736	105.62
390.961	105.62
391.186	121.62
391.411	89.62
391.636	101.62
391.86	81.62
392.085	87.62
392.31	84.62
392.534	99.62
392.759	103.62
392.984	97.62
393.208	110.62
393.433	113.62
393.658	123.62
393.882	90.62
394.107	94.62
394.331	96.62
394.556	87.62
394.78	90.62
395.005	102.62
395.229	91.62
395.454	84.62
395.678	115.62
395.903	111.62
396.127	98.62
396.352	109.62
396.576	110.62
396.801	103.62
397.025	116.62
397.249	116.62
397.474	89.62
397.698	111.62
397.922	94.62
398.147	104.62
398.371	97.62
398.595	117.62
398.82	108.62
399.044	95.62
399.268	102.62
399.492	101.62
399.717	103.62
399.941	85.62
400.165	99.62
400.389	107.62
400.613	105.62
400.837	109.62
401.062	91.62
401.286	102.62
401.51	100.62
401.734	108.62
401.958	100.62
402.182	90.62
402.406	91.62
402.63	96.62
402.854	105.62
403.078	113.62
403.302	103.62
403.526	100.62
403.75	99.62
403.974	88.62
404.198	98.62
404.422	104.62
404.645	97.62
404.869	105.62
405.093	105.62
405.317	106.62
405.541	92.62
405.765	111.62
405.988	138.62
406.212	116.62
406.436	94.62
406.66	104.62
406.883	93.62
407.107	94.62
407.331	105.62
407.555	92.62
407.778	95.62
408.002	108.62
408.226	90.62
408.449	111.62
408.673	92.62
408.896	86.62
409.12	86.62
409.344	97.62
409.567	100.62
409.791	86.62
410.014	87.62
410.238	97.62
410.461	108.62
410.685	105.62
410.908	94.62
411.132	99.62
411.355	101.62
411.578	106.62
411.802	96.62
412.025	106.62
412.249	95.62
412.472	105.62
412.695	84.62
412.919	113.62
413.142	105.62
413.365	108.62
413.589	96.62
413.812	101.62
414.035	102.62
414.258	106.62
414.482	103.62
414.705	101.62
414.928	104.62
415.151	89.62
415.374	102.62
415.597	104.62
415.821	91.62
416.044	81.62
416.267	104.62
416.49	88.62
416.713	96.62
416.936	99.62
417.159	94.62
417.382	93.62
417.605	87.62
417.828	89.62
418.051	85.62
418.274	96.62
418.497	103.62
418.72	106.62
418.943	94.62
419.166	111.62
419.389	104.62
419.611	95.62
419.834	102.62
420.057	106.62
420.28	111.62
420.503	100.62
420.726	111.62
420.948	99.62
421.171	92.62
421.394	101.62
421.617	91.62
421.839	98.62
422.062	105.62
422.285	87.62
422.507	96.62
422.73	123.62
422.953	127.62
423.175	101.62
423.398	87.62
423.621	90.62
423.843	90.62
424.066	101.62
424.288	87.62
424.511	92.62
424.733	92.62
424.956	108.62
425.178	93.62
425.401	106.62
425.623	92.62
425.846	87.62
426.068	99.62
426.291	111.62
426.513	98.62
426.735	95.62
426.958	89.62
427.18	81.62
427.402	101.62
427.625	84.62
427.847	101.62
428.069	98.62
428.292	98.62
428.514	95.62
428.736	105.62
428.958	98.62
429.181	103.62
429.403	98.62
429.625	92.62
429.847	98.62
430.069	108.62
430.292	101.62
430.514	105.62
430.736	99.62
430.958	94.62
431.18	91.62
431.402	96.62
431.624	81.62
431.846	82.62
432.068	95.62
432.29	81.62
432.512	97.62
432.734	85.62
432.956	97.62
433.178	91.62
433.4	91.62
433.622	88.62
433.844	104.62
434.066	105.62
434.287	98.62
434.509	100.62
434.731	116.62
434.953	104.62
435.175	101.62
435.397	86.62
435.618	84.62
435.84	91.62
436.062	78.62
436.284	95.62
436.505	107.62
436.727	92.62
436.949	103.62
437.17	100.62
437.392	104.62
437.614	98.62
437.835	100.62
438.057	83.62
438.278	92.62
438.5	89.62
438.721	103.62
438.943	104.62
439.165	112.62
439.386	96.62
439.608	94.62
439.829	98.62
440.05	115.62
440.272	124.62
440.493	100.62
440.715	96.62
440.936	97.62
441.158	86.62
441.379	94.62
441.6	93.62
441.822	97.62
442.043	108.62
442.264	122.62
442.486	101.62
442.707	112.62
442.928	115.62
443.149	96.62
443.371	91.62
443.592	99.62
443.813	107.62
444.034	99.62
444.255	99.62
444.476	109.62
444.698	98.62
444.919	91.62
445.14	217.62
445.361	150.62
445.582	106.62
445.803	99.62
446.024	98.62
446.245	113.62
446.466	111.62
446.687	103.62
446.908	108.62
447.129	91.62
447.35	89.62
447.571	113.62
447.792	91.62
448.013	85.62
448.234	99.62
448.455	106.62
448.675	94.62
448.896	99.62
449.117	124.62
449.338	146.62
449.559	147.62
449.779	111.62
450	97.62
450.221	104.62
450.442	104.62
450.662	113.62
450.883	99.62
451.104	117.62
451.324	95.62
451.545	97.62
451.766	102.62
451.986	125.62
452.207	202.62
452.428	458.62
452.648	1151.62
452.869	665.62
453.089	181.62
453.31	118.62
453.53	110.62
453.751	137.62
453.971	151.62
454.192	149.62
454.412	105.62
454.633	97.62
454.853	95.62
455.073	98.62
455.294	89.62
455.514	89.62
455.734	95.62
455.955	87.62
456.175	94.62
456.395	95.62
456.616	92.62
456.836	99.62
457.056	101.62
457.276	93.62
457.497	116.62
457.717	123.62
457.937	95.62
458.157	95.62
458.377	83.62
458.598	86.62
458.818	92.62
459.038	85.62
459.258	78.62
459.478	86.62
459.698	92.62
459.918	102.62
460.138	96.62
460.358	88.62
460.578	104.62
460.798	90.62
461.018	93.62
461.238	73.62
461.458	79.62
461.678	95.62
461.898	90.62
462.118	101.62
462.338	92.62
462.558	100.62
462.777	95.62
462.997	99.62
463.217	96.62
463.437	115.62
463.657	177.62
463.876	172.62
464.096	119.62
464.316	100.62
464.536	99.62
464.755	91.62
464.975	83.62
465.195	90.62
465.414	103.62
465.634	94.62
465.854	77.62
466.073	83.62
466.293	84.62
466.512	91.62
466.732	88.62
466.951	119.62
467.171	123.62
467.391	132.62
467.61	114.62
467.829	102.62
468.049	99.62
468.268	88.62
468.488	101.62
468.707	103.62
468.927	82.62
469.146	88.62
469.365	108.62
469.585	98.62
469.804	98.62
470.023	86.62
470.243	104.62
470.462	100.62
470.681	94.62
470.901	134.62
471.12	169.62
471.339	187.62
471.558	130.62
471.777	119.62
471.997	101.62
472.216	95.62
472.435	91.62
472.654	97.62
472.873	83.62
473.092	89.62
473.311	105.62
473.53	87.62
473.749	96.62
473.968	89.62
474.187	112.62
474.406	96.62
474.625	103.62
474.844	93.62
475.063	103.62
475.282	99.62
475.501	90.62
475.72	94.62
475.939	100.62
476.158	104.62
476.377	116.62
476.596	100.62
476.814	99.62
477.033	92.62
477.252	99.62
477.471	94.62
477.69	93.62
477.908	109.62
478.127	103.62
478.346	97.62
478.564	94.62
478.783	108.62
479.002	106.62
479.22	98.62
479.439	103.62
479.658	97.62
479.876	104.62
480.095	97.62
480.313	101.62
480.532	82.62
480.751	95.62
480.969	88.62
481.188	95.62
481.406	97.62
481.624	97.62
481.843	92.62
482.061	104.62
482.28	96.62
482.498	82.62
482.717	96.62
482.935	103.62
483.153	94.62
483.372	115.62
483.59	100.62
483.808	97.62
484.027	99.62
484.245	112.62
484.463	170.62
484.681	217.62
484.9	131.62
485.118	115.62
485.336	120.62
485.554	108.62
485.772	119.62
485.99	170.62
486.209	239.62
486.427	167.62
486.645	126.62
486.863	97.62
487.081	100.62
487.299	88.62
487.517	99.62
487.735	102.62
487.953	102.62
488.171	89.62
488.389	71.62
488.607	83.62
488.825	91.62
489.043	93.62
489.261	91.62
489.479	92.62
489.696	96.62
489.914	87.62
490.132	92.62
490.35	101.62
490.568	96.62
490.786	106.62
491.003	92.62
491.221	104.62
491.439	117.62
491.657	108.62
491.874	108.62
492.092	109.62
492.31	108.62
492.527	91.62
492.745	97.62
492.963	103.62
493.18	100.62
493.398	111.62
493.615	93.62
493.833	107.62
494.05	116.62
494.268	110.62
494.485	92.62
494.703	108.62
494.92	98.62
495.138	96.62
495.355	120.62
495.573	107.62
495.79	103.62
496.008	87.62
496.225	97.62
496.442	115.62
496.66	119.62
496.877	147.62
497.094	153.62
497.312	124.62
497.529	88.62
497.746	99.62
497.963	97.62
498.181	95.62
498.398	90.62
498.615	99.62
498.832	106.62
499.049	114.62
499.267	129.62
499.484	154.62
499.701	94.62
499.918	90.62
500.135	103.62
500.352	86.62
500.569	101.62
500.786	91.62
501.003	113.62
501.22	95.62
501.437	93.62
501.654	84.62
501.871	87.62
502.088	86.62
502.305	85.62
502.522	85.62
502.739	96.62
502.956	89.62
503.172	109.62
503.389	101.62
503.606	96.62
503.823	101.62
504.04	106.62
504.256	93.62
504.473	85.62
504.69	90.62
504.907	108.62
505.123	104.62
505.34	109.62
505.557	100.62
505.773	96.62
505.99	86.62
506.207	100.62
506.423	91.62
506.64	97.62
506.856	91.62
507.073	86.62
507.289	97.62
507.506	83.62
507.722	99.62
507.939	97.62
508.155	97.62
508.372	101.62
508.588	107.62
508.805	91.62
509.021	91.62
