Data from SnStandardFlinnAPT0064_LampEnergy5.5_LIBS07252019.E.O._I.C._HRD10591_15-14-30-490.txt Node
Date: Thu Jul 25 15:14:30 EDT 2019
User: cochatt
Spectrometer: HR+D1059
Trigger mode: 1
Integration Time (sec): 1.000000E-1
Scans to average: 1
Electric dark correction enabled: true
Nonlinearity correction enabled: false
Boxcar width: 0
XAxis mode: Wavelengths
Number of Pixels in Spectrum: 2048
>>>>>Begin Spectral Data<<<<<
223.165	-18.19
223.4	-18.19
223.635	-18.19
223.869	-35.19
224.104	-15.19
224.338	-4.19
224.573	-33.19
224.808	-13.19
225.042	-19.19
225.277	-6.19
225.511	8.81
225.746	6.81
225.98	15.81
226.215	17.81
226.449	15.81
226.683	28.81
226.918	18.81
227.152	31.81
227.387	26.81
227.621	37.81
227.856	49.81
228.09	49.81
228.324	44.81
228.559	59.81
228.793	69.81
229.027	145.81
229.262	151.81
229.496	152.81
229.73	145.81
229.964	155.81
230.199	149.81
230.433	155.81
230.667	159.81
230.901	149.81
231.136	162.81
231.37	174.81
231.604	178.81
231.838	181.81
232.072	225.81
232.306	227.81
232.541	192.81
232.775	196.81
233.009	188.81
233.243	184.81
233.477	181.81
233.711	215.81
233.945	231.81
234.179	207.81
234.413	210.81
234.647	199.81
234.881	196.81
235.115	223.81
235.349	247.81
235.583	300.81
235.817	369.81
236.051	365.81
236.285	291.81
236.519	223.81
236.753	195.81
236.987	214.81
237.221	231.81
237.455	223.81
237.689	203.81
237.922	217.81
238.156	196.81
238.39	214.81
238.624	222.81
238.858	211.81
239.091	202.81
239.325	227.81
239.559	225.81
239.793	216.81
240.027	226.81
240.26	235.81
240.494	224.81
240.728	247.81
240.961	246.81
241.195	274.81
241.429	263.81
241.662	289.81
241.896	307.81
242.13	354.81
242.363	415.81
242.597	537.81
242.83	516.81
243.064	528.81
243.298	600.81
243.531	521.81
243.765	375.81
243.998	323.81
244.232	283.81
244.465	287.81
244.699	287.81
244.932	296.81
245.166	277.81
245.399	285.81
245.633	291.81
245.866	284.81
246.099	276.81
246.333	280.81
246.566	280.81
246.8	272.81
247.033	279.81
247.266	275.81
247.5	279.81
247.733	278.81
247.966	283.81
248.2	317.81
248.433	335.81
248.666	364.81
248.899	367.81
249.133	323.81
249.366	321.81
249.599	342.81
249.832	393.81
250.066	389.81
250.299	345.81
250.532	323.81
250.765	313.81
250.998	313.81
251.231	335.81
251.465	315.81
251.698	329.81
251.931	308.81
252.164	310.81
252.397	312.81
252.63	316.81
252.863	327.81
253.096	323.81
253.329	333.81
253.562	321.81
253.795	337.81
254.028	344.81
254.261	320.81
254.494	356.81
254.727	411.81
254.96	439.81
255.193	445.81
255.426	372.81
255.659	348.81
255.892	356.81
256.124	333.81
256.357	357.81
256.59	374.81
256.823	379.81
257.056	427.81
257.289	459.81
257.521	523.81
257.754	432.81
257.987	394.81
258.22	390.81
258.452	383.81
258.685	400.81
258.918	391.81
259.151	389.81
259.383	418.81
259.616	453.81
259.849	447.81
260.081	415.81
260.314	405.81
260.547	408.81
260.779	386.81
261.012	384.81
261.244	391.81
261.477	416.81
261.71	407.81
261.942	416.81
262.175	439.81
262.407	413.81
262.64	424.81
262.872	472.81
263.105	455.81
263.337	512.81
263.57	525.81
263.802	521.81
264.035	575.81
264.267	545.81
264.499	572.81
264.732	582.81
264.964	581.81
265.197	593.81
265.429	612.81
265.661	584.81
265.894	643.81
266.126	715.81
266.358	733.81
266.591	710.81
266.823	642.81
267.055	608.81
267.287	571.81
267.52	539.81
267.752	526.81
267.984	539.81
268.216	541.81
268.448	499.81
268.681	521.81
268.913	514.81
269.145	503.81
269.377	499.81
269.609	510.81
269.841	531.81
270.073	537.81
270.306	615.81
270.538	742.81
270.77	1069.81
271.002	1279.81
271.234	927.81
271.466	657.81
271.698	564.81
271.93	551.81
272.162	510.81
272.394	522.81
272.626	517.81
272.858	507.81
273.09	502.81
273.322	514.81
273.553	506.81
273.785	508.81
274.017	470.81
274.249	489.81
274.481	505.81
274.713	477.81
274.945	480.81
275.176	496.81
275.408	481.81
275.64	496.81
275.872	469.81
276.104	511.81
276.335	505.81
276.567	530.81
276.799	499.81
277.031	530.81
277.262	531.81
277.494	550.81
277.726	583.81
277.957	646.81
278.189	679.81
278.421	681.81
278.652	636.81
278.884	615.81
279.115	571.81
279.347	559.81
279.579	545.81
279.81	562.81
280.042	546.81
280.273	535.81
280.505	549.81
280.736	562.81
280.968	602.81
281.199	669.81
281.431	686.81
281.662	701.81
281.894	648.81
282.125	643.81
282.356	617.81
282.588	613.81
282.819	654.81
283.051	645.81
283.282	732.81
283.513	871.81
283.745	1205.81
283.976	1806.81
284.207	2509.81
284.439	2278.81
284.67	1453.81
284.901	1214.81
285.132	1171.81
285.364	1111.81
285.595	909.81
285.826	878.81
286.057	992.81
286.288	1251.81
286.52	1636.81
286.751	1554.81
286.982	1027.81
287.213	820.81
287.444	775.81
287.675	687.81
287.906	689.81
288.138	696.81
288.369	663.81
288.6	653.81
288.831	647.81
289.062	665.81
289.293	653.81
289.524	648.81
289.755	654.81
289.986	671.81
290.217	644.81
290.448	666.81
290.679	668.81
290.91	678.81
291.141	705.81
291.371	725.81
291.602	736.81
291.833	715.81
292.064	663.81
292.295	672.81
292.526	635.81
292.757	633.81
292.987	636.81
293.218	619.81
293.449	626.81
293.68	628.81
293.91	629.81
294.141	608.81
294.372	633.81
294.603	635.81
294.833	623.81
295.064	619.81
295.295	631.81
295.525	624.81
295.756	623.81
295.987	627.81
296.217	628.81
296.448	631.81
296.679	638.81
296.909	629.81
297.14	639.81
297.37	636.81
297.601	637.81
297.831	652.81
298.062	639.81
298.292	651.81
298.523	668.81
298.753	692.81
298.984	660.81
299.214	704.81
299.445	669.81
299.675	665.81
299.905	687.81
300.136	707.81
300.366	803.81
300.597	961.81
300.827	1260.81
301.057	1616.81
301.288	1628.81
301.518	1123.81
301.748	920.81
301.979	847.81
302.209	827.81
302.439	835.81
302.669	857.81
302.9	1016.81
303.13	1325.81
303.36	1848.81
303.59	2476.81
303.82	2169.81
304.051	1352.81
304.281	1046.81
304.511	904.81
304.741	848.81
304.971	821.81
305.201	789.81
305.431	781.81
305.661	771.81
305.891	748.81
306.121	753.81
306.352	750.81
306.582	735.81
306.812	707.81
307.042	752.81
307.272	725.81
307.502	734.81
307.731	706.81
307.961	705.81
308.191	719.81
308.421	733.81
308.651	726.81
308.881	724.81
309.111	728.81
309.341	711.81
309.571	758.81
309.8	744.81
310.03	763.81
310.26	711.81
310.49	719.81
310.72	736.81
310.949	730.81
311.179	736.81
311.409	731.81
311.639	739.81
311.868	750.81
312.098	745.81
312.328	765.81
312.557	775.81
312.787	760.81
313.017	775.81
313.246	767.81
313.476	797.81
313.706	805.81
313.935	804.81
314.165	844.81
314.394	864.81
314.624	835.81
314.853	822.81
315.083	821.81
315.312	839.81
315.542	854.81
315.771	863.81
316.001	833.81
316.23	872.81
316.46	901.81
316.689	977.81
316.919	1139.81
317.148	1531.81
317.377	2231.81
317.607	3238.81
317.836	3375.81
318.065	2044.81
318.295	1393.81
318.524	1178.81
318.753	1069.81
318.983	990.81
319.212	929.81
319.441	923.81
319.67	910.81
319.9	913.81
320.129	897.81
320.358	922.81
320.587	896.81
320.816	887.81
321.046	919.81
321.275	888.81
321.504	896.81
321.733	923.81
321.962	934.81
322.191	965.81
322.42	934.81
322.649	934.81
322.878	956.81
323.108	945.81
323.337	953.81
323.566	954.81
323.795	987.81
324.024	1022.81
324.253	1033.81
324.482	1027.81
324.71	1062.81
324.939	1147.81
325.168	1177.81
325.397	1195.81
325.626	1367.81
325.855	1838.81
326.084	2725.81
326.313	3945.81
326.542	4205.81
326.77	2804.81
326.999	1954.81
327.228	1705.81
327.457	1655.81
327.686	1650.81
327.914	1751.81
328.143	1982.81
328.372	2256.81
328.6	2412.81
328.829	2275.81
329.058	2056.81
329.287	1854.81
329.515	1672.81
329.744	1580.81
329.972	1459.81
330.201	1432.81
330.43	1403.81
330.658	1351.81
330.887	1342.81
331.115	1287.81
331.344	1325.81
331.572	1295.81
331.801	1316.81
332.03	1299.81
332.258	1360.81
332.486	1387.81
332.715	1537.81
332.943	1792.81
333.172	2062.81
333.4	2079.81
333.629	1726.81
333.857	1615.81
334.085	1644.81
334.314	1754.81
334.542	1873.81
334.771	2104.81
334.999	2439.81
335.227	2907.81
335.455	3207.81
335.684	3048.81
335.912	2651.81
336.14	2374.81
336.369	2079.81
336.597	1933.81
336.825	1775.81
337.053	1698.81
337.281	1560.81
337.51	1495.81
337.738	1442.81
337.966	1372.81
338.194	1357.81
338.422	1307.81
338.65	1300.81
338.878	1260.81
339.106	1230.81
339.334	1224.81
339.562	1192.81
339.79	1164.81
340.018	1183.81
340.246	1171.81
340.474	1159.81
340.702	1168.81
340.93	1154.81
341.158	1161.81
341.386	1151.81
341.614	1157.81
341.842	1123.81
342.07	1102.81
342.298	1095.81
342.526	1093.81
342.754	1064.81
342.981	1090.81
343.209	1052.81
343.437	1085.81
343.665	1090.81
343.893	1101.81
344.12	1109.81
344.348	1073.81
344.576	1095.81
344.804	1063.81
345.031	1037.81
345.259	1036.81
345.487	1024.81
345.714	1033.81
345.942	1026.81
346.17	1008.81
346.397	980.81
346.625	998.81
346.853	976.81
347.08	971.81
347.308	979.81
347.535	971.81
347.763	991.81
347.99	996.81
348.218	969.81
348.445	955.81
348.673	955.81
348.9	993.81
349.128	957.81
349.355	985.81
349.583	949.81
349.81	961.81
350.037	960.81
350.265	945.81
350.492	930.81
350.72	936.81
350.947	918.81
351.174	956.81
351.402	973.81
351.629	964.81
351.856	955.81
352.083	956.81
352.311	953.81
352.538	932.81
352.765	947.81
352.992	947.81
353.22	947.81
353.447	961.81
353.674	919.81
353.901	964.81
354.128	944.81
354.355	944.81
354.583	929.81
354.81	958.81
355.037	961.81
355.264	963.81
355.491	964.81
355.718	935.81
355.945	965.81
356.172	979.81
356.399	966.81
356.626	975.81
356.853	968.81
357.08	977.81
357.307	968.81
357.534	1002.81
357.761	990.81
357.988	1012.81
358.215	1006.81
358.441	986.81
358.668	989.81
358.895	1010.81
359.122	1007.81
359.349	984.81
359.576	996.81
359.802	1003.81
360.029	1002.81
360.256	1006.81
360.483	987.81
360.709	1003.81
360.936	1001.81
361.163	1013.81
361.39	1031.81
361.616	1010.81
361.843	987.81
362.07	1052.81
362.296	1009.81
362.523	988.81
362.749	1045.81
362.976	1018.81
363.203	1009.81
363.429	994.81
363.656	1015.81
363.882	1017.81
364.109	1036.81
364.335	989.81
364.562	982.81
364.788	1019.81
365.015	1014.81
365.241	1024.81
365.468	1063.81
365.694	1091.81
365.92	1055.81
366.147	1042.81
366.373	1036.81
366.599	1013.81
366.826	1035.81
367.052	1052.81
367.278	1044.81
367.505	1047.81
367.731	1055.81
367.957	1016.81
368.184	1029.81
368.41	1024.81
368.636	1061.81
368.862	1060.81
369.089	1037.81
369.315	1056.81
369.541	1059.81
369.767	1027.81
369.993	1029.81
370.219	1028.81
370.445	1044.81
370.672	1052.81
370.898	1024.81
371.124	1060.81
371.35	1098.81
371.576	1075.81
371.802	1091.81
372.028	1079.81
372.254	1089.81
372.48	1123.81
372.706	1117.81
372.932	1114.81
373.158	1105.81
373.384	1102.81
373.61	1127.81
373.835	1090.81
374.061	1094.81
374.287	1105.81
374.513	1118.81
374.739	1140.81
374.965	1161.81
375.191	1145.81
375.416	1141.81
375.642	1096.81
375.868	1147.81
376.094	1116.81
376.319	1101.81
376.545	1087.81
376.771	1107.81
376.997	1099.81
377.222	1095.81
377.448	1082.81
377.674	1094.81
377.899	1055.81
378.125	1089.81
378.35	1093.81
378.576	1079.81
378.802	1104.81
379.027	1110.81
379.253	1098.81
379.478	1157.81
379.704	1295.81
379.929	1718.81
380.155	2423.81
380.38	2588.81
380.606	1778.81
380.831	1359.81
381.057	1223.81
381.282	1153.81
381.507	1131.81
381.733	1116.81
381.958	1081.81
382.184	1084.81
382.409	1055.81
382.634	1101.81
382.86	1075.81
383.085	1078.81
383.31	1099.81
383.535	1091.81
383.761	1075.81
383.986	1079.81
384.211	1102.81
384.436	1099.81
384.662	1120.81
384.887	1105.81
385.112	1129.81
385.337	1083.81
385.562	1096.81
385.787	1101.81
386.013	1145.81
386.238	1103.81
386.463	1101.81
386.688	1135.81
386.913	1096.81
387.138	1100.81
387.363	1093.81
387.588	1087.81
387.813	1114.81
388.038	1109.81
388.263	1115.81
388.488	1110.81
388.713	1125.81
388.938	1133.81
389.163	1079.81
389.387	1107.81
389.612	1093.81
389.837	1134.81
390.062	1135.81
390.287	1103.81
390.512	1123.81
390.736	1113.81
390.961	1151.81
391.186	1143.81
391.411	1154.81
391.636	1152.81
391.86	1163.81
392.085	1175.81
392.31	1159.81
392.534	1155.81
392.759	1161.81
392.984	1136.81
393.208	1135.81
393.433	1110.81
393.658	1123.81
393.882	1106.81
394.107	1121.81
394.331	1119.81
394.556	1142.81
394.78	1146.81
395.005	1153.81
395.229	1135.81
395.454	1132.81
395.678	1140.81
395.903	1188.81
396.127	1165.81
396.352	1145.81
396.576	1134.81
396.801	1151.81
397.025	1163.81
397.249	1123.81
397.474	1169.81
397.698	1155.81
397.922	1179.81
398.147	1149.81
398.371	1196.81
398.595	1211.81
398.82	1275.81
399.044	1286.81
399.268	1353.81
399.492	1405.81
399.717	1475.81
399.941	1477.81
400.165	1414.81
400.389	1341.81
400.613	1291.81
400.837	1265.81
401.062	1272.81
401.286	1237.81
401.51	1234.81
401.734	1212.81
401.958	1231.81
402.182	1234.81
402.406	1218.81
402.63	1245.81
402.854	1285.81
403.078	1265.81
403.302	1287.81
403.526	1243.81
403.75	1282.81
403.974	1305.81
404.198	1253.81
404.422	1280.81
404.645	1291.81
404.869	1303.81
405.093	1294.81
405.317	1264.81
405.541	1281.81
405.765	1305.81
405.988	1325.81
406.212	1312.81
406.436	1307.81
406.66	1312.81
406.883	1313.81
407.107	1334.81
407.331	1392.81
407.555	1383.81
407.778	1396.81
408.002	1375.81
408.226	1327.81
408.449	1372.81
408.673	1322.81
408.896	1316.81
409.12	1309.81
409.344	1307.81
409.567	1261.81
409.791	1296.81
410.014	1276.81
410.238	1266.81
410.461	1262.81
410.685	1259.81
410.908	1271.81
411.132	1231.81
411.355	1249.81
411.578	1239.81
411.802	1249.81
412.025	1244.81
412.249	1259.81
412.472	1256.81
412.695	1206.81
412.919	1209.81
413.142	1228.81
413.365	1192.81
413.589	1206.81
413.812	1204.81
414.035	1183.81
414.258	1187.81
414.482	1200.81
414.705	1197.81
414.928	1203.81
415.151	1220.81
415.374	1192.81
415.597	1198.81
415.821	1167.81
416.044	1169.81
416.267	1185.81
416.49	1157.81
416.713	1189.81
416.936	1154.81
417.159	1146.81
417.382	1146.81
417.605	1158.81
417.828	1165.81
418.051	1143.81
418.274	1152.81
418.497	1196.81
418.72	1221.81
418.943	1171.81
419.166	1231.81
419.389	1302.81
419.611	1248.81
419.834	1244.81
420.057	1223.81
420.28	1171.81
420.503	1192.81
420.726	1155.81
420.948	1167.81
421.171	1176.81
421.394	1179.81
421.617	1177.81
421.839	1150.81
422.062	1170.81
422.285	1153.81
422.507	1200.81
422.73	1184.81
422.953	1188.81
423.175	1189.81
423.398	1223.81
423.621	1189.81
423.843	1183.81
424.066	1165.81
424.288	1176.81
424.511	1192.81
424.733	1169.81
424.956	1173.81
425.178	1148.81
425.401	1175.81
425.623	1181.81
425.846	1148.81
426.068	1157.81
426.291	1123.81
426.513	1140.81
426.735	1107.81
426.958	1143.81
427.18	1109.81
427.402	1143.81
427.625	1111.81
427.847	1106.81
428.069	1084.81
428.292	1083.81
428.514	1101.81
428.736	1089.81
428.958	1098.81
429.181	1069.81
429.403	1092.81
429.625	1074.81
429.847	1065.81
430.069	1109.81
430.292	1118.81
430.514	1147.81
430.736	1156.81
430.958	1091.81
431.18	1063.81
431.402	1085.81
431.624	1065.81
431.846	1044.81
432.068	1065.81
432.29	1069.81
432.512	1045.81
432.734	1079.81
432.956	1103.81
433.178	1114.81
433.4	1112.81
433.622	1107.81
433.844	1097.81
434.066	1073.81
434.287	1045.81
434.509	1097.81
434.731	1110.81
434.953	1118.81
435.175	1111.81
435.397	1119.81
435.618	1082.81
435.84	1058.81
436.062	1091.81
436.284	1078.81
436.505	1036.81
436.727	1060.81
436.949	1091.81
437.17	1071.81
437.392	1055.81
437.614	1081.81
437.835	1027.81
438.057	1029.81
438.278	1051.81
438.5	1048.81
438.721	1047.81
438.943	1094.81
439.165	1088.81
439.386	1110.81
439.608	1102.81
439.829	1087.81
440.05	1105.81
440.272	1174.81
440.493	1153.81
440.715	1110.81
440.936	1115.81
441.158	1123.81
441.379	1138.81
441.6	1172.81
441.822	1224.81
442.043	1256.81
442.264	1253.81
442.486	1162.81
442.707	1149.81
442.928	1149.81
443.149	1126.81
443.371	1143.81
443.592	1167.81
443.813	1161.81
444.034	1177.81
444.255	1178.81
444.476	1212.81
444.698	1266.81
444.919	1239.81
445.14	1302.81
445.361	1243.81
445.582	1171.81
445.803	1182.81
446.024	1153.81
446.245	1182.81
446.466	1157.81
446.687	1129.81
446.908	1112.81
447.129	1116.81
447.35	1097.81
447.571	1088.81
447.792	1053.81
448.013	1059.81
448.234	1037.81
448.455	1091.81
448.675	1099.81
448.896	1095.81
449.117	1089.81
449.338	1188.81
449.559	1217.81
449.779	1103.81
450	1047.81
450.221	1056.81
450.442	1046.81
450.662	1028.81
450.883	1039.81
451.104	1038.81
451.324	1027.81
451.545	1037.81
451.766	1034.81
451.986	1074.81
452.207	1105.81
452.428	1225.81
452.648	1669.81
452.869	1485.81
453.089	1171.81
453.31	1133.81
453.53	1125.81
453.751	1115.81
453.971	1193.81
454.192	1181.81
454.412	1077.81
454.633	1016.81
454.853	999.81
455.073	970.81
455.294	989.81
455.514	998.81
455.734	1000.81
455.955	974.81
456.175	979.81
456.395	993.81
456.616	961.81
456.836	989.81
457.056	984.81
457.276	989.81
457.497	1038.81
457.717	1036.81
457.937	1045.81
458.157	1060.81
458.377	1050.81
458.598	1039.81
458.818	1068.81
459.038	1041.81
459.258	1039.81
459.478	1033.81
459.698	1079.81
459.918	1097.81
460.138	1098.81
460.358	1141.81
460.578	1167.81
460.798	1141.81
461.018	1174.81
461.238	1175.81
461.458	1204.81
461.678	1179.81
461.898	1199.81
462.118	1211.81
462.338	1246.81
462.558	1218.81
462.777	1273.81
462.997	1347.81
463.217	1350.81
463.437	1390.81
463.657	1365.81
463.876	1368.81
464.096	1277.81
464.316	1307.81
464.536	1229.81
464.755	1257.81
464.975	1177.81
465.195	1168.81
465.414	1144.81
465.634	1104.81
465.854	1117.81
466.073	1124.81
466.293	1105.81
466.512	1071.81
466.732	1072.81
466.951	1120.81
467.171	1184.81
467.391	1183.81
467.61	1078.81
467.829	1055.81
468.049	1083.81
468.268	1072.81
468.488	1039.81
468.707	1083.81
468.927	1054.81
469.146	1032.81
469.365	1086.81
469.585	1081.81
469.804	1121.81
470.023	1132.81
470.243	1126.81
470.462	1143.81
470.681	1179.81
470.901	1242.81
471.12	1406.81
471.339	1411.81
471.558	1231.81
471.777	1127.81
471.997	1119.81
472.216	1085.81
472.435	1094.81
472.654	1079.81
472.873	1036.81
473.092	1054.81
473.311	1063.81
473.53	1096.81
473.749	1101.81
473.968	1148.81
474.187	1079.81
474.406	1041.81
474.625	1087.81
474.844	1075.81
475.063	1065.81
475.282	1062.81
475.501	1071.81
475.72	1080.81
475.939	1088.81
476.158	1096.81
476.377	1129.81
476.596	1124.81
476.814	1113.81
477.033	1098.81
477.252	1108.81
477.471	1141.81
477.69	1203.81
477.908	1205.81
478.127	1217.81
478.346	1181.81
478.564	1260.81
478.783	1263.81
479.002	1281.81
479.22	1255.81
479.439	1302.81
479.658	1279.81
479.876	1264.81
480.095	1290.81
480.313	1269.81
480.532	1311.81
480.751	1289.81
480.969	1327.81
481.188	1267.81
481.406	1219.81
481.624	1231.81
481.843	1275.81
482.061	1233.81
482.28	1275.81
482.498	1262.81
482.717	1257.81
482.935	1307.81
483.153	1303.81
483.372	1306.81
483.59	1315.81
483.808	1328.81
484.027	1340.81
484.245	1378.81
484.463	1544.81
484.681	1654.81
484.9	1558.81
485.118	1484.81
485.336	1451.81
485.554	1455.81
485.772	1535.81
485.99	1679.81
486.209	1775.81
486.427	1568.81
486.645	1438.81
486.863	1400.81
487.081	1344.81
487.299	1350.81
487.517	1353.81
487.735	1380.81
487.953	1394.81
488.171	1386.81
488.389	1382.81
488.607	1362.81
488.825	1308.81
489.043	1309.81
489.261	1304.81
489.479	1333.81
489.696	1296.81
489.914	1311.81
490.132	1346.81
490.35	1325.81
490.568	1352.81
490.786	1361.81
491.003	1380.81
491.221	1399.81
491.439	1419.81
491.657	1424.81
491.874	1408.81
492.092	1478.81
