Data from SnStandardFlinnAPT0064_LampEnergy5.5_LIBS07252019.E.O._I.C._HRD10591_15-15-39-491.txt Node
Date: Thu Jul 25 15:15:39 EDT 2019
User: cochatt
Spectrometer: HR+D1059
Trigger mode: 1
Integration Time (sec): 1.000000E-1
Scans to average: 1
Electric dark correction enabled: true
Nonlinearity correction enabled: false
Boxcar width: 0
XAxis mode: Wavelengths
Number of Pixels in Spectrum: 2048
>>>>>Begin Spectral Data<<<<<
223.165	-14.94
223.4	-14.94
223.635	-14.94
223.869	-8.94
224.104	-9.94
224.338	-4.94
224.573	-24.94
224.808	-17.94
225.042	-7.94
225.277	-3.94
225.511	-7.94
225.746	3.06
225.98	5.06
226.215	1.06
226.449	27.06
226.683	19.06
226.918	27.06
227.152	19.06
227.387	28.06
227.621	28.06
227.856	25.06
228.09	51.06
228.324	40.06
228.559	37.06
228.793	88.06
229.027	130.06
229.262	152.06
229.496	159.06
229.73	136.06
229.964	158.06
230.199	162.06
230.433	155.06
230.667	172.06
230.901	166.06
231.136	157.06
231.37	172.06
231.604	180.06
231.838	181.06
232.072	217.06
232.306	213.06
232.541	202.06
232.775	190.06
233.009	194.06
233.243	197.06
233.477	208.06
233.711	226.06
233.945	244.06
234.179	229.06
234.413	201.06
234.647	196.06
234.881	202.06
235.115	206.06
235.349	250.06
235.583	334.06
235.817	396.06
236.051	398.06
236.285	277.06
236.519	220.06
236.753	227.06
236.987	231.06
237.221	220.06
237.455	229.06
237.689	226.06
237.922	216.06
238.156	203.06
238.39	208.06
238.624	213.06
238.858	217.06
239.091	211.06
239.325	227.06
239.559	227.06
239.793	229.06
240.027	226.06
240.26	235.06
240.494	248.06
240.728	260.06
240.961	250.06
241.195	280.06
241.429	294.06
241.662	276.06
241.896	299.06
242.13	344.06
242.363	433.06
242.597	568.06
242.83	525.06
243.064	559.06
243.298	652.06
243.531	554.06
243.765	363.06
243.998	313.06
244.232	296.06
244.465	291.06
244.699	266.06
244.932	278.06
245.166	291.06
245.399	302.06
245.633	294.06
245.866	286.06
246.099	295.06
246.333	300.06
246.566	276.06
246.8	271.06
247.033	261.06
247.266	274.06
247.5	296.06
247.733	302.06
247.966	285.06
248.2	330.06
248.433	338.06
248.666	388.06
248.899	369.06
249.133	345.06
249.366	352.06
249.599	369.06
249.832	396.06
250.066	402.06
250.299	346.06
250.532	339.06
250.765	340.06
250.998	322.06
251.231	318.06
251.465	302.06
251.698	319.06
251.931	325.06
252.164	319.06
252.397	344.06
252.63	326.06
252.863	339.06
253.096	344.06
253.329	329.06
253.562	337.06
253.795	340.06
254.028	344.06
254.261	352.06
254.494	360.06
254.727	396.06
254.96	468.06
255.193	441.06
255.426	370.06
255.659	363.06
255.892	384.06
256.124	344.06
256.357	368.06
256.59	380.06
256.823	390.06
257.056	420.06
257.289	490.06
257.521	534.06
257.754	446.06
257.987	390.06
258.22	375.06
258.452	394.06
258.685	376.06
258.918	387.06
259.151	395.06
259.383	450.06
259.616	446.06
259.849	484.06
260.081	428.06
260.314	422.06
260.547	399.06
260.779	392.06
261.012	423.06
261.244	394.06
261.477	421.06
261.71	434.06
261.942	432.06
262.175	420.06
262.407	442.06
262.64	481.06
262.872	475.06
263.105	487.06
263.337	504.06
263.57	534.06
263.802	550.06
264.035	560.06
264.267	564.06
264.499	592.06
264.732	579.06
264.964	603.06
265.197	602.06
265.429	602.06
265.661	619.06
265.894	665.06
266.126	698.06
266.358	770.06
266.591	740.06
266.823	636.06
267.055	587.06
267.287	574.06
267.52	561.06
267.752	546.06
267.984	545.06
268.216	533.06
268.448	513.06
268.681	528.06
268.913	532.06
269.145	512.06
269.377	486.06
269.609	501.06
269.841	552.06
270.073	556.06
270.306	624.06
270.538	803.06
270.77	1126.06
271.002	1314.06
271.234	994.06
271.466	697.06
271.698	585.06
271.93	572.06
272.162	547.06
272.394	539.06
272.626	520.06
272.858	512.06
273.09	512.06
273.322	518.06
273.553	511.06
273.785	489.06
274.017	506.06
274.249	514.06
274.481	500.06
274.713	522.06
274.945	524.06
275.176	500.06
275.408	513.06
275.64	496.06
275.872	485.06
276.104	520.06
276.335	526.06
276.567	526.06
276.799	539.06
277.031	540.06
277.262	545.06
277.494	554.06
277.726	595.06
277.957	671.06
278.189	735.06
278.421	705.06
278.652	651.06
278.884	615.06
279.115	591.06
279.347	580.06
279.579	557.06
279.81	557.06
280.042	545.06
280.273	567.06
280.505	586.06
280.736	588.06
280.968	594.06
281.199	665.06
281.431	723.06
281.662	726.06
281.894	678.06
282.125	631.06
282.356	660.06
282.588	650.06
282.819	665.06
283.051	694.06
283.282	751.06
283.513	944.06
283.745	1253.06
283.976	1972.06
284.207	2714.06
284.439	2472.06
284.67	1553.06
284.901	1266.06
285.132	1205.06
285.364	1171.06
285.595	935.06
285.826	894.06
286.057	1006.06
286.288	1300.06
286.52	1735.06
286.751	1634.06
286.982	1070.06
287.213	869.06
287.444	752.06
287.675	711.06
287.906	711.06
288.138	696.06
288.369	680.06
288.6	683.06
288.831	661.06
289.062	682.06
289.293	688.06
289.524	689.06
289.755	668.06
289.986	652.06
290.217	683.06
290.448	687.06
290.679	672.06
290.91	698.06
291.141	708.06
291.371	728.06
291.602	757.06
291.833	713.06
292.064	706.06
292.295	652.06
292.526	664.06
292.757	663.06
292.987	639.06
293.218	668.06
293.449	637.06
293.68	622.06
293.91	643.06
294.141	619.06
294.372	626.06
294.603	636.06
294.833	624.06
295.064	640.06
295.295	632.06
295.525	647.06
295.756	640.06
295.987	636.06
296.217	638.06
296.448	622.06
296.679	663.06
296.909	650.06
297.14	662.06
297.37	663.06
297.601	636.06
297.831	658.06
298.062	653.06
298.292	660.06
298.523	673.06
298.753	673.06
298.984	688.06
299.214	687.06
299.445	697.06
299.675	686.06
299.905	730.06
300.136	755.06
300.366	823.06
300.597	999.06
300.827	1334.06
301.057	1744.06
301.288	1731.06
301.518	1181.06
301.748	957.06
301.979	870.06
302.209	826.06
302.439	863.06
302.669	887.06
302.9	1066.06
303.13	1402.06
303.36	2026.06
303.59	2625.06
303.82	2302.06
304.051	1423.06
304.281	1077.06
304.511	930.06
304.741	880.06
304.971	834.06
305.201	802.06
305.431	793.06
305.661	774.06
305.891	774.06
306.121	729.06
306.352	768.06
306.582	756.06
306.812	733.06
307.042	729.06
307.272	728.06
307.502	711.06
307.731	714.06
307.961	737.06
308.191	715.06
308.421	706.06
308.651	746.06
308.881	754.06
309.111	729.06
309.341	711.06
309.571	750.06
309.8	752.06
310.03	750.06
310.26	774.06
310.49	742.06
310.72	747.06
310.949	768.06
311.179	752.06
311.409	770.06
311.639	763.06
311.868	775.06
312.098	784.06
312.328	810.06
312.557	782.06
312.787	778.06
313.017	788.06
313.246	824.06
313.476	796.06
313.706	808.06
313.935	848.06
314.165	864.06
314.394	903.06
314.624	874.06
314.853	858.06
315.083	838.06
315.312	870.06
315.542	839.06
315.771	850.06
316.001	844.06
316.23	898.06
316.46	920.06
316.689	987.06
316.919	1170.06
317.148	1634.06
317.377	2432.06
317.607	3489.06
317.836	3576.06
318.065	2178.06
318.295	1485.06
318.524	1219.06
318.753	1080.06
318.983	1003.06
319.212	966.06
319.441	938.06
319.67	934.06
319.9	939.06
320.129	917.06
320.358	924.06
320.587	890.06
320.816	920.06
321.046	911.06
321.275	958.06
321.504	942.06
321.733	921.06
321.962	945.06
322.191	974.06
322.42	979.06
322.649	962.06
322.878	963.06
323.108	968.06
323.337	986.06
323.566	1010.06
323.795	1036.06
324.024	1000.06
324.253	1066.06
324.482	1065.06
324.71	1123.06
324.939	1186.06
325.168	1204.06
325.397	1251.06
325.626	1444.06
325.855	1945.06
326.084	2930.06
326.313	4290.06
326.542	4504.06
326.77	2994.06
326.999	2023.06
327.228	1689.06
327.457	1657.06
327.686	1666.06
327.914	1792.06
328.143	2011.06
328.372	2350.06
328.6	2483.06
328.829	2339.06
329.058	2097.06
329.287	1892.06
329.515	1719.06
329.744	1627.06
329.972	1538.06
330.201	1466.06
330.43	1440.06
330.658	1349.06
330.887	1348.06
331.115	1357.06
331.344	1326.06
331.572	1348.06
331.801	1332.06
332.03	1354.06
332.258	1360.06
332.486	1440.06
332.715	1544.06
332.943	1872.06
333.172	2182.06
333.4	2198.06
333.629	1752.06
333.857	1642.06
334.085	1663.06
334.314	1700.06
334.542	1921.06
334.771	2089.06
334.999	2503.06
335.227	3027.06
335.455	3356.06
335.684	3123.06
335.912	2720.06
336.14	2312.06
336.369	2083.06
336.597	1911.06
336.825	1814.06
337.053	1691.06
337.281	1644.06
337.51	1546.06
337.738	1467.06
337.966	1442.06
338.194	1383.06
338.422	1360.06
338.65	1310.06
338.878	1292.06
339.106	1280.06
339.334	1299.06
339.562	1231.06
339.79	1193.06
340.018	1172.06
340.246	1219.06
340.474	1198.06
340.702	1174.06
340.93	1194.06
341.158	1206.06
341.386	1176.06
341.614	1183.06
341.842	1135.06
342.07	1146.06
342.298	1134.06
342.526	1073.06
342.754	1076.06
342.981	1102.06
343.209	1118.06
343.437	1093.06
343.665	1124.06
343.893	1137.06
344.12	1114.06
344.348	1150.06
344.576	1106.06
344.804	1090.06
345.031	1055.06
345.259	1064.06
345.487	1060.06
345.714	1025.06
345.942	1031.06
346.17	996.06
346.397	1008.06
346.625	1054.06
346.853	1009.06
347.08	1036.06
347.308	1027.06
347.535	986.06
347.763	1020.06
347.99	986.06
348.218	996.06
348.445	996.06
348.673	1007.06
348.9	979.06
349.128	958.06
349.355	980.06
349.583	995.06
349.81	1006.06
350.037	996.06
350.265	948.06
350.492	948.06
350.72	963.06
350.947	952.06
351.174	977.06
351.402	988.06
351.629	976.06
351.856	993.06
352.083	974.06
352.311	985.06
352.538	956.06
352.765	946.06
352.992	983.06
353.22	962.06
353.447	963.06
353.674	959.06
353.901	963.06
354.128	969.06
354.355	962.06
354.583	972.06
354.81	940.06
355.037	990.06
355.264	971.06
355.491	980.06
355.718	996.06
355.945	986.06
356.172	986.06
356.399	978.06
356.626	1021.06
356.853	1010.06
357.08	1020.06
357.307	1029.06
357.534	1027.06
357.761	1032.06
357.988	1030.06
358.215	1008.06
358.441	1026.06
358.668	1028.06
358.895	1011.06
359.122	1023.06
359.349	1014.06
359.576	1030.06
359.802	1028.06
360.029	1019.06
360.256	1025.06
360.483	1043.06
360.709	1036.06
360.936	1035.06
361.163	1022.06
361.39	1056.06
361.616	1024.06
361.843	1040.06
362.07	1043.06
362.296	1035.06
362.523	1018.06
362.749	1031.06
362.976	1027.06
363.203	1009.06
363.429	1001.06
363.656	1039.06
363.882	1019.06
364.109	1029.06
364.335	993.06
364.562	1044.06
364.788	1050.06
365.015	1040.06
365.241	1091.06
365.468	1067.06
365.694	1098.06
365.92	1060.06
366.147	1047.06
366.373	1056.06
366.599	1078.06
366.826	1044.06
367.052	1046.06
367.278	1053.06
367.505	1035.06
367.731	1047.06
367.957	1057.06
368.184	1061.06
368.41	1103.06
368.636	1038.06
368.862	1064.06
369.089	1076.06
369.315	1059.06
369.541	1059.06
369.767	1071.06
369.993	1071.06
370.219	1098.06
370.445	1060.06
370.672	1074.06
370.898	1078.06
371.124	1072.06
371.35	1124.06
371.576	1123.06
371.802	1109.06
372.028	1089.06
372.254	1104.06
372.48	1090.06
372.706	1114.06
372.932	1132.06
373.158	1128.06
373.384	1138.06
373.61	1168.06
373.835	1114.06
374.061	1142.06
374.287	1150.06
374.513	1170.06
374.739	1179.06
374.965	1153.06
375.191	1184.06
375.416	1154.06
375.642	1141.06
375.868	1139.06
376.094	1152.06
376.319	1118.06
376.545	1135.06
376.771	1127.06
376.997	1112.06
377.222	1098.06
377.448	1091.06
377.674	1118.06
377.899	1092.06
378.125	1112.06
378.35	1079.06
378.576	1087.06
378.802	1116.06
379.027	1159.06
379.253	1142.06
379.478	1221.06
379.704	1366.06
379.929	1804.06
380.155	2603.06
380.38	2738.06
380.606	1782.06
380.831	1403.06
381.057	1230.06
381.282	1148.06
381.507	1137.06
381.733	1124.06
381.958	1121.06
382.184	1107.06
382.409	1119.06
382.634	1091.06
382.86	1084.06
383.085	1130.06
383.31	1073.06
383.535	1112.06
383.761	1103.06
383.986	1090.06
384.211	1110.06
384.436	1111.06
384.662	1109.06
384.887	1124.06
385.112	1124.06
385.337	1121.06
385.562	1159.06
385.787	1119.06
386.013	1149.06
386.238	1149.06
386.463	1139.06
386.688	1176.06
386.913	1164.06
387.138	1132.06
387.363	1141.06
387.588	1125.06
387.813	1138.06
388.038	1146.06
388.263	1152.06
388.488	1113.06
388.713	1146.06
388.938	1142.06
389.163	1128.06
389.387	1127.06
389.612	1154.06
389.837	1134.06
390.062	1139.06
390.287	1125.06
390.512	1148.06
390.736	1143.06
390.961	1170.06
391.186	1187.06
391.411	1169.06
391.636	1203.06
391.86	1212.06
392.085	1206.06
392.31	1175.06
392.534	1165.06
392.759	1175.06
392.984	1157.06
393.208	1154.06
393.433	1154.06
393.658	1152.06
393.882	1170.06
394.107	1142.06
394.331	1162.06
394.556	1168.06
394.78	1156.06
395.005	1180.06
395.229	1190.06
395.454	1174.06
395.678	1177.06
395.903	1188.06
396.127	1160.06
396.352	1154.06
396.576	1184.06
396.801	1165.06
397.025	1171.06
397.249	1170.06
397.474	1222.06
397.698	1182.06
397.922	1193.06
398.147	1180.06
398.371	1224.06
398.595	1280.06
398.82	1296.06
399.044	1330.06
399.268	1366.06
399.492	1456.06
399.717	1475.06
399.941	1503.06
400.165	1439.06
400.389	1388.06
400.613	1356.06
400.837	1312.06
401.062	1300.06
401.286	1306.06
401.51	1246.06
401.734	1254.06
401.958	1252.06
402.182	1272.06
402.406	1280.06
402.63	1263.06
402.854	1282.06
403.078	1274.06
403.302	1328.06
403.526	1327.06
403.75	1308.06
403.974	1314.06
404.198	1312.06
404.422	1313.06
404.645	1288.06
404.869	1300.06
405.093	1299.06
405.317	1295.06
405.541	1331.06
405.765	1340.06
405.988	1368.06
406.212	1331.06
406.436	1295.06
406.66	1382.06
406.883	1347.06
407.107	1355.06
407.331	1379.06
407.555	1423.06
407.778	1380.06
408.002	1393.06
408.226	1392.06
408.449	1391.06
408.673	1339.06
408.896	1331.06
409.12	1350.06
409.344	1345.06
409.567	1295.06
409.791	1329.06
410.014	1310.06
410.238	1313.06
410.461	1296.06
410.685	1291.06
410.908	1300.06
411.132	1312.06
411.355	1228.06
411.578	1262.06
411.802	1265.06
412.025	1241.06
412.249	1266.06
412.472	1266.06
412.695	1234.06
412.919	1243.06
413.142	1235.06
413.365	1232.06
413.589	1263.06
413.812	1227.06
414.035	1247.06
414.258	1236.06
414.482	1235.06
414.705	1250.06
414.928	1239.06
415.151	1226.06
415.374	1216.06
415.597	1194.06
415.821	1175.06
416.044	1192.06
416.267	1204.06
416.49	1188.06
416.713	1184.06
416.936	1187.06
417.159	1182.06
417.382	1182.06
417.605	1187.06
417.828	1179.06
418.051	1211.06
418.274	1195.06
418.497	1204.06
418.72	1223.06
418.943	1193.06
419.166	1268.06
419.389	1280.06
419.611	1313.06
419.834	1247.06
420.057	1264.06
420.28	1228.06
420.503	1198.06
420.726	1191.06
420.948	1176.06
421.171	1221.06
421.394	1205.06
421.617	1232.06
421.839	1215.06
422.062	1224.06
422.285	1181.06
422.507	1223.06
422.73	1244.06
422.953	1218.06
423.175	1223.06
423.398	1247.06
423.621	1207.06
423.843	1226.06
424.066	1201.06
424.288	1178.06
424.511	1185.06
424.733	1207.06
424.956	1178.06
425.178	1176.06
425.401	1214.06
425.623	1170.06
425.846	1174.06
426.068	1140.06
426.291	1154.06
426.513	1140.06
426.735	1120.06
426.958	1124.06
427.18	1129.06
427.402	1136.06
427.625	1142.06
427.847	1116.06
428.069	1140.06
428.292	1130.06
428.514	1113.06
428.736	1119.06
428.958	1119.06
429.181	1104.06
429.403	1097.06
429.625	1068.06
429.847	1076.06
430.069	1114.06
430.292	1165.06
430.514	1158.06
430.736	1172.06
430.958	1127.06
431.18	1098.06
431.402	1112.06
431.624	1128.06
431.846	1095.06
432.068	1087.06
432.29	1099.06
432.512	1077.06
432.734	1120.06
432.956	1104.06
433.178	1129.06
433.4	1135.06
433.622	1115.06
433.844	1089.06
434.066	1101.06
434.287	1081.06
434.509	1099.06
434.731	1114.06
434.953	1156.06
435.175	1170.06
435.397	1167.06
435.618	1120.06
435.84	1090.06
436.062	1106.06
436.284	1093.06
436.505	1110.06
436.727	1099.06
436.949	1113.06
437.17	1094.06
437.392	1067.06
437.614	1075.06
437.835	1036.06
438.057	1054.06
438.278	1064.06
438.5	1075.06
438.721	1105.06
438.943	1141.06
439.165	1116.06
439.386	1127.06
439.608	1127.06
439.829	1142.06
440.05	1163.06
440.272	1192.06
440.493	1170.06
440.715	1112.06
440.936	1143.06
441.158	1143.06
441.379	1155.06
441.6	1228.06
441.822	1219.06
442.043	1268.06
442.264	1286.06
442.486	1211.06
442.707	1185.06
442.928	1171.06
443.149	1198.06
443.371	1168.06
443.592	1186.06
443.813	1191.06
444.034	1201.06
444.255	1217.06
444.476	1284.06
444.698	1289.06
444.919	1280.06
445.14	1370.06
445.361	1306.06
445.582	1210.06
445.803	1215.06
446.024	1163.06
446.245	1170.06
446.466	1230.06
446.687	1173.06
446.908	1192.06
447.129	1134.06
447.35	1131.06
447.571	1127.06
447.792	1088.06
448.013	1128.06
448.234	1097.06
448.455	1100.06
448.675	1098.06
448.896	1123.06
449.117	1103.06
449.338	1228.06
449.559	1216.06
449.779	1134.06
450	1065.06
450.221	1094.06
450.442	1070.06
450.662	1050.06
450.883	1055.06
451.104	1055.06
451.324	1060.06
451.545	1035.06
451.766	1034.06
451.986	1068.06
452.207	1097.06
452.428	1301.06
452.648	1716.06
452.869	1554.06
453.089	1208.06
453.31	1122.06
453.53	1122.06
453.751	1151.06
453.971	1234.06
454.192	1247.06
454.412	1065.06
454.633	1059.06
454.853	1011.06
455.073	1024.06
455.294	1004.06
455.514	1006.06
455.734	992.06
455.955	1015.06
456.175	994.06
456.395	1006.06
456.616	1022.06
456.836	1019.06
457.056	1031.06
457.276	1002.06
457.497	1034.06
457.717	1065.06
457.937	1042.06
458.157	1057.06
458.377	1052.06
458.598	1076.06
458.818	1049.06
459.038	1075.06
459.258	1097.06
459.478	1100.06
459.698	1105.06
459.918	1104.06
460.138	1138.06
460.358	1154.06
460.578	1169.06
460.798	1188.06
461.018	1209.06
461.238	1189.06
461.458	1210.06
461.678	1210.06
461.898	1228.06
462.118	1215.06
462.338	1271.06
462.558	1267.06
462.777	1300.06
462.997	1345.06
463.217	1402.06
463.437	1410.06
463.657	1380.06
463.876	1358.06
464.096	1356.06
464.316	1275.06
464.536	1298.06
464.755	1237.06
464.975	1234.06
465.195	1184.06
465.414	1181.06
465.634	1120.06
465.854	1114.06
466.073	1146.06
466.293	1118.06
466.512	1110.06
466.732	1100.06
466.951	1147.06
467.171	1183.06
467.391	1211.06
467.61	1148.06
467.829	1099.06
468.049	1075.06
468.268	1092.06
468.488	1077.06
468.707	1059.06
468.927	1067.06
469.146	1071.06
469.365	1093.06
469.585	1098.06
469.804	1135.06
470.023	1126.06
470.243	1143.06
470.462	1198.06
470.681	1246.06
470.901	1312.06
471.12	1463.06
471.339	1438.06
471.558	1259.06
471.777	1200.06
471.997	1141.06
472.216	1137.06
472.435	1108.06
472.654	1097.06
472.873	1085.06
473.092	1070.06
473.311	1095.06
473.53	1078.06
473.749	1125.06
473.968	1140.06
474.187	1116.06
474.406	1077.06
474.625	1099.06
474.844	1063.06
475.063	1110.06
475.282	1091.06
475.501	1095.06
475.72	1127.06
475.939	1123.06
476.158	1158.06
476.377	1112.06
476.596	1106.06
476.814	1136.06
477.033	1144.06
477.252	1129.06
477.471	1165.06
477.69	1188.06
477.908	1212.06
478.127	1243.06
478.346	1254.06
478.564	1242.06
478.783	1254.06
479.002	1271.06
479.22	1286.06
479.439	1295.06
479.658	1300.06
479.876	1290.06
480.095	1324.06
480.313	1311.06
480.532	1327.06
480.751	1304.06
480.969	1303.06
481.188	1285.06
481.406	1264.06
481.624	1262.06
481.843	1265.06
482.061	1314.06
482.28	1314.06
482.498	1282.06
482.717	1270.06
482.935	1272.06
483.153	1351.06
483.372	1333.06
483.59	1363.06
483.808	1345.06
484.027	1407.06
484.245	1413.06
484.463	1579.06
484.681	1738.06
484.9	1584.06
485.118	1535.06
485.336	1476.06
485.554	1483.06
485.772	1569.06
485.99	1730.06
486.209	1853.06
486.427	1569.06
486.645	1464.06
486.863	1432.06
487.081	1428.06
487.299	1400.06
487.517	1399.06
487.735	1397.06
487.953	1406.06
488.171	1436.06
488.389	1384.06
488.607	1384.06
488.825	1331.06
489.043	1314.06
489.261	1340.06
489.479	1337.06
489.696	1311.06
489.914	1354.06
490.132	1354.06
490.35	1365.06
490.568	1412.06
490.786	1402.06
491.003	1373.06
491.221	1412.06
491.439	1433.06
491.657	1402.06
