Data from SnStandardFlinnAPT0064_QswitchEnergy10_LIBS07252019.E.O._I.C._HRD10591_15-27-43-973.txt Node
Date: Thu Jul 25 15:27:43 EDT 2019
User: cochatt
Spectrometer: HR+D1059
Trigger mode: 1
Integration Time (sec): 1.000000E-1
Scans to average: 1
Electric dark correction enabled: true
Nonlinearity correction enabled: false
Boxcar width: 0
XAxis mode: Wavelengths
Number of Pixels in Spectrum: 2048
>>>>>Begin Spectral Data<<<<<
223.165	-16.12
223.4	-16.12
223.635	-16.12
223.869	-9.12
224.104	-14.12
224.338	-4.12
224.573	-13.12
224.808	-26.12
225.042	-7.12
225.277	-13.12
225.511	-7.12
225.746	5.88
225.98	2.88
226.215	11.88
226.449	14.88
226.683	26.88
226.918	32.88
227.152	14.88
227.387	30.88
227.621	18.88
227.856	35.88
228.09	50.88
228.324	43.88
228.559	52.88
228.793	60.88
229.027	74.88
229.262	62.88
229.496	70.88
229.73	64.88
229.964	79.88
230.199	76.88
230.433	72.88
230.667	87.88
230.901	87.88
231.136	78.88
231.37	86.88
231.604	89.88
231.838	101.88
232.072	107.88
232.306	117.88
232.541	89.88
232.775	93.88
233.009	85.88
233.243	73.88
233.477	100.88
233.711	89.88
233.945	107.88
234.179	96.88
234.413	91.88
234.647	96.88
234.881	90.88
235.115	93.88
235.349	84.88
235.583	104.88
235.817	118.88
236.051	129.88
236.285	89.88
236.519	73.88
236.753	76.88
236.987	78.88
237.221	79.88
237.455	83.88
237.689	79.88
237.922	81.88
238.156	81.88
238.39	83.88
238.624	73.88
238.858	74.88
239.091	97.88
239.325	84.88
239.559	69.88
239.793	70.88
240.027	73.88
240.26	65.88
240.494	75.88
240.728	82.88
240.961	87.88
241.195	88.88
241.429	81.88
241.662	87.88
241.896	87.88
242.13	93.88
242.363	125.88
242.597	137.88
242.83	130.88
243.064	123.88
243.298	156.88
243.531	137.88
243.765	94.88
243.998	87.88
244.232	77.88
244.465	64.88
244.699	87.88
244.932	67.88
245.166	75.88
245.399	86.88
245.633	81.88
245.866	80.88
246.099	75.88
246.333	82.88
246.566	82.88
246.8	75.88
247.033	75.88
247.266	79.88
247.5	76.88
247.733	81.88
247.966	97.88
248.2	88.88
248.433	111.88
248.666	109.88
248.899	116.88
249.133	81.88
249.366	95.88
249.599	92.88
249.832	125.88
250.066	111.88
250.299	78.88
250.532	82.88
250.765	69.88
250.998	70.88
251.231	78.88
251.465	73.88
251.698	80.88
251.931	78.88
252.164	87.88
252.397	86.88
252.63	86.88
252.863	97.88
253.096	96.88
253.329	85.88
253.562	82.88
253.795	93.88
254.028	89.88
254.261	99.88
254.494	85.88
254.727	125.88
254.96	146.88
255.193	130.88
255.426	95.88
255.659	87.88
255.892	94.88
256.124	93.88
256.357	93.88
256.59	75.88
256.823	94.88
257.056	99.88
257.289	138.88
257.521	154.88
257.754	111.88
257.987	90.88
258.22	85.88
258.452	90.88
258.685	79.88
258.918	86.88
259.151	82.88
259.383	91.88
259.616	118.88
259.849	144.88
260.081	98.88
260.314	71.88
260.547	75.88
260.779	73.88
261.012	86.88
261.244	86.88
261.477	94.88
261.71	83.88
261.942	90.88
262.175	87.88
262.407	86.88
262.64	86.88
262.872	87.88
263.105	70.88
263.337	91.88
263.57	99.88
263.802	96.88
264.035	103.88
264.267	80.88
264.499	78.88
264.732	92.88
264.964	84.88
265.197	85.88
265.429	85.88
265.661	86.88
265.894	102.88
266.126	118.88
266.358	142.88
266.591	145.88
266.823	91.88
267.055	77.88
267.287	75.88
267.52	93.88
267.752	94.88
267.984	68.88
268.216	85.88
268.448	85.88
268.681	86.88
268.913	82.88
269.145	86.88
269.377	84.88
269.609	75.88
269.841	96.88
270.073	117.88
270.306	137.88
270.538	187.88
270.77	308.88
271.002	356.88
271.234	192.88
271.466	113.88
271.698	92.88
271.93	87.88
272.162	81.88
272.394	86.88
272.626	83.88
272.858	93.88
273.09	90.88
273.322	85.88
273.553	85.88
273.785	99.88
274.017	93.88
274.249	90.88
274.481	83.88
274.713	93.88
274.945	96.88
275.176	91.88
275.408	87.88
275.64	88.88
275.872	75.88
276.104	94.88
276.335	105.88
276.567	97.88
276.799	95.88
277.031	90.88
277.262	88.88
277.494	97.88
277.726	114.88
277.957	178.88
278.189	247.88
278.421	215.88
278.652	174.88
278.884	190.88
279.115	124.88
279.347	119.88
279.579	97.88
279.81	95.88
280.042	81.88
280.273	95.88
280.505	101.88
280.736	104.88
280.968	122.88
281.199	168.88
281.431	230.88
281.662	239.88
281.894	149.88
282.125	109.88
282.356	102.88
282.588	106.88
282.819	114.88
283.051	115.88
283.282	143.88
283.513	170.88
283.745	291.88
283.976	503.88
284.207	703.88
284.439	557.88
284.67	264.88
284.901	240.88
285.132	319.88
285.364	359.88
285.595	203.88
285.826	161.88
286.057	247.88
286.288	372.88
286.52	585.88
286.751	453.88
286.982	182.88
287.213	107.88
287.444	109.88
287.675	97.88
287.906	102.88
288.138	91.88
288.369	85.88
288.6	110.88
288.831	94.88
289.062	101.88
289.293	96.88
289.524	101.88
289.755	113.88
289.986	96.88
290.217	91.88
290.448	100.88
290.679	105.88
290.91	112.88
291.141	169.88
291.371	225.88
291.602	274.88
291.833	189.88
292.064	121.88
292.295	87.88
292.526	86.88
292.757	99.88
292.987	87.88
293.218	79.88
293.449	98.88
293.68	75.88
293.91	97.88
294.141	91.88
294.372	93.88
294.603	99.88
294.833	88.88
295.064	91.88
295.295	102.88
295.525	94.88
295.756	91.88
295.987	109.88
296.217	92.88
296.448	95.88
296.679	85.88
296.909	87.88
297.14	112.88
297.37	105.88
297.601	88.88
297.831	84.88
298.062	98.88
298.292	101.88
298.523	101.88
298.753	97.88
298.984	88.88
299.214	101.88
299.445	91.88
299.675	107.88
299.905	116.88
300.136	127.88
300.366	168.88
300.597	266.88
300.827	417.88
301.057	649.88
301.288	580.88
301.518	228.88
301.748	153.88
301.979	136.88
302.209	138.88
302.439	142.88
302.669	157.88
302.9	272.88
303.13	479.88
303.36	801.88
303.59	1075.88
303.82	767.88
304.051	273.88
304.281	169.88
304.511	134.88
304.741	117.88
304.971	117.88
305.201	117.88
305.431	114.88
305.661	103.88
305.891	111.88
306.121	88.88
306.352	108.88
306.582	105.88
306.812	102.88
307.042	107.88
307.272	103.88
307.502	99.88
307.731	99.88
307.961	96.88
308.191	108.88
308.421	107.88
308.651	105.88
308.881	108.88
309.111	114.88
309.341	101.88
309.571	113.88
309.8	106.88
310.03	101.88
310.26	102.88
310.49	109.88
310.72	104.88
310.949	103.88
311.179	123.88
311.409	109.88
311.639	112.88
311.868	106.88
312.098	113.88
312.328	109.88
312.557	100.88
312.787	109.88
313.017	106.88
313.246	119.88
313.476	139.88
313.706	116.88
313.935	163.88
314.165	202.88
314.394	212.88
314.624	165.88
314.853	136.88
315.083	111.88
315.312	123.88
315.542	136.88
315.771	128.88
316.001	122.88
316.23	137.88
316.46	146.88
316.689	169.88
316.919	270.88
317.148	447.88
317.377	850.88
317.607	1383.88
317.836	1237.88
318.065	514.88
318.295	224.88
318.524	153.88
318.753	149.88
318.983	125.88
319.212	129.88
319.441	121.88
319.67	126.88
319.9	106.88
320.129	107.88
320.358	104.88
320.587	115.88
320.816	129.88
321.046	130.88
321.275	139.88
321.504	131.88
321.733	135.88
321.962	152.88
322.191	150.88
322.42	138.88
322.649	109.88
322.878	123.88
323.108	119.88
323.337	134.88
323.566	124.88
323.795	129.88
324.024	135.88
324.253	133.88
324.482	177.88
324.71	215.88
324.939	266.88
325.168	224.88
325.397	191.88
325.626	237.88
325.855	467.88
326.084	876.88
326.313	1469.88
326.542	1413.88
326.77	583.88
326.999	247.88
327.228	208.88
327.457	225.88
327.686	213.88
327.914	151.88
328.143	137.88
328.372	126.88
328.6	121.88
328.829	127.88
329.058	117.88
329.287	112.88
329.515	110.88
329.744	95.88
329.972	130.88
330.201	121.88
330.43	114.88
330.658	111.88
330.887	91.88
331.115	97.88
331.344	116.88
331.572	119.88
331.801	114.88
332.03	114.88
332.258	132.88
332.486	159.88
332.715	268.88
332.943	491.88
333.172	683.88
333.4	600.88
333.629	239.88
333.857	145.88
334.085	123.88
334.314	142.88
334.542	128.88
334.771	135.88
334.999	120.88
335.227	129.88
335.455	123.88
335.684	125.88
335.912	116.88
336.14	102.88
336.369	119.88
336.597	117.88
336.825	111.88
337.053	114.88
337.281	99.88
337.51	102.88
337.738	100.88
337.966	99.88
338.194	101.88
338.422	112.88
338.65	103.88
338.878	122.88
339.106	128.88
339.334	133.88
339.562	101.88
339.79	104.88
340.018	106.88
340.246	106.88
340.474	112.88
340.702	115.88
340.93	120.88
341.158	89.88
341.386	121.88
341.614	126.88
341.842	125.88
342.07	113.88
342.298	122.88
342.526	115.88
342.754	109.88
342.981	116.88
343.209	116.88
343.437	125.88
343.665	111.88
343.893	115.88
344.12	118.88
344.348	114.88
344.576	98.88
344.804	101.88
345.031	116.88
345.259	93.88
345.487	102.88
345.714	103.88
345.942	107.88
346.17	96.88
346.397	102.88
346.625	110.88
346.853	113.88
347.08	102.88
347.308	109.88
347.535	101.88
347.763	102.88
347.99	112.88
348.218	101.88
348.445	107.88
348.673	98.88
348.9	112.88
349.128	119.88
349.355	114.88
349.583	127.88
349.81	109.88
350.037	105.88
350.265	99.88
350.492	120.88
350.72	117.88
350.947	120.88
351.174	108.88
351.402	126.88
351.629	109.88
351.856	110.88
352.083	111.88
352.311	110.88
352.538	114.88
352.765	103.88
352.992	113.88
353.22	103.88
353.447	101.88
353.674	118.88
353.901	89.88
354.128	105.88
354.355	99.88
354.583	101.88
354.81	89.88
355.037	92.88
355.264	109.88
355.491	107.88
355.718	109.88
355.945	87.88
356.172	106.88
356.399	117.88
356.626	85.88
356.853	101.88
357.08	103.88
357.307	117.88
357.534	101.88
357.761	104.88
357.988	102.88
358.215	112.88
358.441	91.88
358.668	120.88
358.895	120.88
359.122	119.88
359.349	122.88
359.576	117.88
359.802	115.88
360.029	113.88
360.256	115.88
360.483	116.88
360.709	109.88
360.936	127.88
361.163	111.88
361.39	117.88
361.616	107.88
361.843	127.88
362.07	123.88
362.296	121.88
362.523	110.88
362.749	96.88
362.976	101.88
363.203	111.88
363.429	95.88
363.656	100.88
363.882	114.88
364.109	113.88
364.335	101.88
364.562	109.88
364.788	99.88
365.015	112.88
365.241	119.88
365.468	188.88
365.694	228.88
365.92	179.88
366.147	129.88
366.373	115.88
366.599	106.88
366.826	96.88
367.052	104.88
367.278	91.88
367.505	114.88
367.731	113.88
367.957	100.88
368.184	109.88
368.41	107.88
368.636	117.88
368.862	87.88
369.089	97.88
369.315	107.88
369.541	126.88
369.767	111.88
369.993	103.88
370.219	100.88
370.445	110.88
370.672	105.88
370.898	117.88
371.124	100.88
371.35	95.88
371.576	115.88
371.802	103.88
372.028	110.88
372.254	109.88
372.48	97.88
372.706	110.88
372.932	118.88
373.158	109.88
373.384	109.88
373.61	111.88
373.835	127.88
374.061	98.88
374.287	101.88
374.513	92.88
374.739	120.88
374.965	112.88
375.191	115.88
375.416	109.88
375.642	103.88
375.868	113.88
376.094	100.88
376.319	111.88
376.545	93.88
376.771	111.88
376.997	103.88
377.222	111.88
377.448	105.88
377.674	88.88
377.899	104.88
378.125	123.88
378.35	114.88
378.576	94.88
378.802	119.88
379.027	117.88
379.253	134.88
379.478	150.88
379.704	305.88
379.929	729.88
380.155	1469.88
380.38	1492.88
380.606	481.88
380.831	173.88
381.057	138.88
381.282	109.88
381.507	121.88
381.733	109.88
381.958	101.88
382.184	114.88
382.409	127.88
382.634	106.88
382.86	105.88
383.085	118.88
383.31	101.88
383.535	109.88
383.761	116.88
383.986	106.88
384.211	121.88
384.436	100.88
384.662	103.88
384.887	102.88
385.112	99.88
385.337	105.88
385.562	113.88
385.787	113.88
386.013	97.88
386.238	106.88
386.463	106.88
386.688	119.88
386.913	103.88
387.138	105.88
387.363	90.88
387.588	109.88
387.813	104.88
388.038	109.88
388.263	110.88
388.488	104.88
388.713	104.88
388.938	90.88
389.163	92.88
389.387	102.88
389.612	103.88
389.837	100.88
390.062	95.88
390.287	95.88
390.512	89.88
390.736	95.88
390.961	96.88
391.186	97.88
391.411	105.88
391.636	91.88
391.86	87.88
392.085	95.88
392.31	88.88
392.534	90.88
392.759	81.88
392.984	102.88
393.208	111.88
393.433	120.88
393.658	131.88
393.882	111.88
394.107	84.88
394.331	103.88
394.556	94.88
394.78	89.88
395.005	90.88
395.229	94.88
395.454	99.88
395.678	94.88
395.903	91.88
396.127	96.88
396.352	89.88
396.576	94.88
396.801	105.88
397.025	127.88
397.249	121.88
397.474	93.88
397.698	85.88
397.922	98.88
398.147	103.88
398.371	103.88
398.595	98.88
398.82	90.88
399.044	101.88
399.268	103.88
399.492	99.88
399.717	86.88
399.941	99.88
400.165	98.88
400.389	98.88
400.613	98.88
400.837	97.88
401.062	106.88
401.286	90.88
401.51	98.88
401.734	82.88
401.958	104.88
402.182	87.88
402.406	86.88
402.63	102.88
402.854	106.88
403.078	91.88
403.302	97.88
403.526	94.88
403.75	72.88
403.974	88.88
404.198	100.88
404.422	102.88
404.645	84.88
404.869	104.88
405.093	96.88
405.317	91.88
405.541	102.88
405.765	134.88
405.988	152.88
406.212	124.88
406.436	99.88
406.66	99.88
406.883	101.88
407.107	109.88
407.331	108.88
407.555	98.88
407.778	87.88
408.002	90.88
408.226	87.88
408.449	99.88
408.673	88.88
408.896	104.88
409.12	101.88
409.344	111.88
409.567	99.88
409.791	85.88
410.014	105.88
410.238	100.88
410.461	109.88
410.685	99.88
410.908	99.88
411.132	99.88
411.355	102.88
411.578	111.88
411.802	84.88
412.025	117.88
412.249	89.88
412.472	101.88
412.695	83.88
412.919	102.88
413.142	97.88
413.365	99.88
413.589	112.88
413.812	83.88
414.035	106.88
414.258	106.88
414.482	111.88
414.705	87.88
414.928	106.88
415.151	105.88
415.374	90.88
415.597	110.88
415.821	89.88
416.044	98.88
416.267	84.88
416.49	99.88
416.713	94.88
416.936	103.88
417.159	90.88
417.382	102.88
417.605	104.88
417.828	105.88
418.051	99.88
418.274	97.88
418.497	98.88
418.72	100.88
418.943	93.88
419.166	106.88
419.389	94.88
419.611	108.88
419.834	111.88
420.057	111.88
420.28	100.88
420.503	96.88
420.726	98.88
420.948	104.88
421.171	95.88
421.394	95.88
421.617	94.88
421.839	94.88
422.062	102.88
422.285	81.88
422.507	100.88
422.73	135.88
422.953	121.88
423.175	102.88
423.398	95.88
423.621	106.88
423.843	97.88
424.066	83.88
424.288	100.88
424.511	94.88
424.733	106.88
424.956	104.88
425.178	93.88
425.401	83.88
425.623	78.88
425.846	94.88
426.068	93.88
426.291	98.88
426.513	92.88
426.735	104.88
426.958	100.88
427.18	98.88
427.402	97.88
427.625	93.88
427.847	99.88
428.069	81.88
428.292	109.88
428.514	85.88
428.736	89.88
428.958	96.88
429.181	100.88
429.403	85.88
429.625	103.88
429.847	104.88
430.069	103.88
430.292	87.88
430.514	103.88
430.736	96.88
430.958	100.88
431.18	93.88
431.402	94.88
431.624	89.88
431.846	99.88
432.068	102.88
432.29	94.88
432.512	91.88
432.734	102.88
432.956	95.88
433.178	110.88
433.4	97.88
433.622	91.88
433.844	87.88
434.066	99.88
434.287	97.88
434.509	107.88
434.731	90.88
434.953	87.88
435.175	84.88
435.397	95.88
435.618	106.88
435.84	96.88
436.062	98.88
436.284	89.88
436.505	75.88
436.727	91.88
436.949	93.88
437.17	90.88
437.392	83.88
437.614	83.88
437.835	86.88
438.057	91.88
438.278	102.88
438.5	83.88
438.721	90.88
438.943	110.88
439.165	107.88
439.386	126.88
439.608	96.88
439.829	100.88
440.05	101.88
440.272	100.88
440.493	89.88
440.715	103.88
440.936	97.88
441.158	99.88
441.379	90.88
441.6	97.88
441.822	106.88
442.043	117.88
442.264	131.88
442.486	123.88
442.707	100.88
442.928	116.88
443.149	87.88
443.371	100.88
443.592	98.88
443.813	97.88
444.034	85.88
444.255	90.88
444.476	111.88
444.698	96.88
444.919	106.88
445.14	187.88
445.361	124.88
445.582	102.88
445.803	111.88
446.024	106.88
446.245	96.88
446.466	104.88
446.687	118.88
446.908	98.88
447.129	96.88
447.35	93.88
447.571	93.88
447.792	106.88
448.013	81.88
448.234	87.88
448.455	104.88
448.675	90.88
448.896	92.88
449.117	122.88
449.338	142.88
449.559	157.88
449.779	118.88
450	102.88
450.221	104.88
450.442	98.88
450.662	113.88
450.883	111.88
451.104	114.88
451.324	108.88
451.545	122.88
451.766	110.88
451.986	126.88
452.207	207.88
452.428	538.88
452.648	1217.88
452.869	718.88
453.089	191.88
453.31	122.88
453.53	112.88
453.751	137.88
453.971	144.88
454.192	140.88
454.412	119.88
454.633	104.88
454.853	105.88
455.073	102.88
455.294	98.88
455.514	92.88
455.734	85.88
455.955	87.88
456.175	98.88
456.395	95.88
456.616	102.88
456.836	107.88
457.056	106.88
457.276	107.88
457.497	117.88
457.717	119.88
457.937	110.88
458.157	106.88
458.377	102.88
458.598	83.88
458.818	92.88
459.038	95.88
459.258	94.88
459.478	93.88
459.698	94.88
459.918	89.88
460.138	83.88
460.358	81.88
460.578	90.88
460.798	98.88
461.018	86.88
461.238	90.88
461.458	99.88
461.678	95.88
461.898	94.88
462.118	85.88
462.338	97.88
462.558	94.88
462.777	95.88
462.997	105.88
463.217	92.88
463.437	122.88
463.657	170.88
463.876	185.88
464.096	117.88
464.316	97.88
464.536	92.88
464.755	105.88
464.975	104.88
465.195	94.88
465.414	93.88
465.634	88.88
465.854	97.88
466.073	95.88
466.293	99.88
466.512	102.88
466.732	106.88
466.951	112.88
467.171	145.88
467.391	137.88
467.61	121.88
467.829	89.88
468.049	107.88
468.268	107.88
468.488	101.88
468.707	100.88
468.927	102.88
469.146	87.88
469.365	92.88
469.585	86.88
469.804	118.88
470.023	106.88
470.243	96.88
470.462	102.88
470.681	109.88
470.901	111.88
471.12	184.88
471.339	186.88
471.558	134.88
471.777	116.88
471.997	113.88
472.216	93.88
472.435	104.88
472.654	94.88
472.873	90.88
473.092	111.88
473.311	80.88
473.53	70.88
473.749	108.88
473.968	99.88
474.187	94.88
474.406	112.88
474.625	106.88
474.844	102.88
475.063	97.88
475.282	98.88
475.501	101.88
475.72	93.88
475.939	97.88
476.158	92.88
476.377	113.88
476.596	124.88
476.814	99.88
477.033	94.88
477.252	91.88
477.471	87.88
477.69	94.88
477.908	102.88
478.127	106.88
478.346	98.88
478.564	90.88
478.783	114.88
479.002	109.88
479.22	94.88
479.439	83.88
479.658	101.88
479.876	92.88
480.095	92.88
480.313	103.88
480.532	94.88
480.751	103.88
480.969	94.88
481.188	86.88
481.406	91.88
481.624	96.88
481.843	104.88
482.061	111.88
482.28	110.88
482.498	98.88
482.717	96.88
482.935	91.88
483.153	109.88
483.372	97.88
483.59	103.88
483.808	100.88
484.027	107.88
484.245	122.88
484.463	166.88
484.681	205.88
484.9	148.88
485.118	105.88
485.336	95.88
485.554	107.88
485.772	123.88
485.99	163.88
486.209	239.88
486.427	161.88
486.645	113.88
486.863	98.88
487.081	109.88
487.299	103.88
487.517	105.88
487.735	105.88
487.953	89.88
488.171	108.88
488.389	102.88
488.607	97.88
488.825	113.88
489.043	94.88
489.261	89.88
489.479	89.88
489.696	105.88
489.914	129.88
490.132	95.88
490.35	99.88
490.568	94.88
490.786	98.88
491.003	96.88
491.221	104.88
491.439	126.88
491.657	103.88
491.874	101.88
492.092	107.88
492.31	116.88
492.527	117.88
492.745	110.88
492.963	108.88
493.18	103.88
493.398	107.88
493.615	106.88
493.833	100.88
494.05	99.88
494.268	97.88
494.485	112.88
494.703	99.88
494.92	97.88
495.138	103.88
495.355	110.88
495.573	116.88
495.79	111.88
496.008	118.88
496.225	100.88
496.442	114.88
496.66	125.88
496.877	137.88
497.094	152.88
497.312	114.88
497.529	106.88
497.746	103.88
497.963	103.88
498.181	105.88
498.398	100.88
498.615	113.88
498.832	109.88
499.049	96.88
499.267	136.88
499.484	149.88
499.701	106.88
499.918	110.88
500.135	104.88
500.352	99.88
500.569	114.88
500.786	105.88
501.003	102.88
501.22	110.88
501.437	110.88
501.654	103.88
501.871	103.88
502.088	98.88
502.305	84.88
502.522	98.88
502.739	90.88
502.956	95.88
503.172	101.88
503.389	102.88
503.606	96.88
503.823	100.88
504.04	93.88
504.256	105.88
504.473	97.88
504.69	98.88
504.907	104.88
505.123	117.88
505.34	96.88
505.557	97.88
505.773	109.88
505.99	102.88
506.207	91.88
506.423	106.88
506.64	109.88
506.856	113.88
507.073	85.88
507.289	107.88
507.506	102.88
507.722	93.88
507.939	106.88
508.155	93.88
508.372	105.88
508.588	102.88
508.805	112.88
