Data from SnStandardFlinnAPT0064_LampEnergy10_LIBS07252019.E.O._I.C._HRD10591_15-19-35-493.txt Node
Date: Thu Jul 25 15:19:35 EDT 2019
User: cochatt
Spectrometer: HR+D1059
Trigger mode: 1
Integration Time (sec): 1.000000E-1
Scans to average: 1
Electric dark correction enabled: true
Nonlinearity correction enabled: false
Boxcar width: 0
XAxis mode: Wavelengths
Number of Pixels in Spectrum: 2048
>>>>>Begin Spectral Data<<<<<
223.165	-19.44
223.4	-19.44
223.635	-19.44
223.869	-13.44
224.104	-19.44
224.338	-11.44
224.573	0.56
224.808	-6.44
225.042	-19.44
225.277	-18.44
225.511	-9.44
225.746	-11.44
225.98	17.56
226.215	20.56
226.449	22.56
226.683	24.56
226.918	15.56
227.152	27.56
227.387	48.56
227.621	45.56
227.856	49.56
228.09	50.56
228.324	39.56
228.559	54.56
228.793	137.56
229.027	310.56
229.262	348.56
229.496	317.56
229.73	296.56
229.964	327.56
230.199	323.56
230.433	339.56
230.667	310.56
230.901	323.56
231.136	344.56
231.37	376.56
231.604	415.56
231.838	456.56
232.072	535.56
232.306	599.56
232.541	482.56
232.775	444.56
233.009	447.56
233.243	422.56
233.477	469.56
233.711	546.56
233.945	615.56
234.179	540.56
234.413	466.56
234.647	451.56
234.881	479.56
235.115	539.56
235.349	643.56
235.583	833.56
235.817	1044.56
236.051	1050.56
236.285	710.56
236.519	540.56
236.753	516.56
236.987	527.56
237.221	554.56
237.455	545.56
237.689	493.56
237.922	467.56
238.156	478.56
238.39	509.56
238.624	524.56
238.858	500.56
239.091	506.56
239.325	525.56
239.559	522.56
239.793	519.56
240.027	551.56
240.26	570.56
240.494	587.56
240.728	624.56
240.961	640.56
241.195	668.56
241.429	718.56
241.662	725.56
241.896	817.56
242.13	1009.56
242.363	1292.56
242.597	1703.56
242.83	1675.56
243.064	1643.56
243.298	1929.56
243.531	1560.56
243.765	1001.56
243.998	792.56
244.232	713.56
244.465	691.56
244.699	677.56
244.932	691.56
245.166	690.56
245.399	706.56
245.633	718.56
245.866	713.56
246.099	694.56
246.333	684.56
246.566	672.56
246.8	644.56
247.033	640.56
247.266	654.56
247.5	671.56
247.733	678.56
247.966	727.56
248.2	779.56
248.433	922.56
248.666	1050.56
248.899	1009.56
249.133	883.56
249.366	904.56
249.599	990.56
249.832	1133.56
250.066	1129.56
250.299	887.56
250.532	820.56
250.765	754.56
250.998	747.56
251.231	756.56
251.465	743.56
251.698	743.56
251.931	750.56
252.164	744.56
252.397	758.56
252.63	800.56
252.863	806.56
253.096	801.56
253.329	780.56
253.562	778.56
253.795	792.56
254.028	817.56
254.261	826.56
254.494	914.56
254.727	1061.56
254.96	1330.56
255.193	1304.56
255.426	1013.56
255.659	900.56
255.892	900.56
256.124	888.56
256.357	924.56
256.59	950.56
256.823	1025.56
257.056	1158.56
257.289	1383.56
257.521	1564.56
257.754	1266.56
257.987	1000.56
258.22	938.56
258.452	914.56
258.685	962.56
258.918	983.56
259.151	1032.56
259.383	1092.56
259.616	1274.56
259.849	1324.56
260.081	1142.56
260.314	1018.56
260.547	982.56
260.779	960.56
261.012	974.56
261.244	968.56
261.477	956.56
261.71	1002.56
261.942	978.56
262.175	1010.56
262.407	1064.56
262.64	1041.56
262.872	1074.56
263.105	1156.56
263.337	1186.56
263.57	1239.56
263.802	1298.56
264.035	1305.56
264.267	1382.56
264.499	1366.56
264.732	1387.56
264.964	1388.56
265.197	1379.56
265.429	1404.56
265.661	1436.56
265.894	1546.56
266.126	1736.56
266.358	1985.56
266.591	1943.56
266.823	1582.56
267.055	1397.56
267.287	1366.56
267.52	1300.56
267.752	1267.56
267.984	1252.56
268.216	1243.56
268.448	1233.56
268.681	1240.56
268.913	1237.56
269.145	1242.56
269.377	1291.56
269.609	1270.56
269.841	1310.56
270.073	1409.56
270.306	1636.56
270.538	2288.56
270.77	3418.56
271.002	4164.56
271.234	2985.56
271.466	1944.56
271.698	1589.56
271.93	1427.56
272.162	1356.56
272.394	1298.56
272.626	1280.56
272.858	1237.56
273.09	1213.56
273.322	1216.56
273.553	1197.56
273.785	1202.56
274.017	1214.56
274.249	1233.56
274.481	1210.56
274.713	1200.56
274.945	1241.56
275.176	1247.56
275.408	1259.56
275.64	1237.56
275.872	1224.56
276.104	1280.56
276.335	1284.56
276.567	1298.56
276.799	1264.56
277.031	1329.56
277.262	1364.56
277.494	1450.56
277.726	1579.56
277.957	1935.56
278.189	2242.56
278.421	2072.56
278.652	1822.56
278.884	1738.56
279.115	1511.56
279.347	1433.56
279.579	1420.56
279.81	1399.56
280.042	1453.56
280.273	1444.56
280.505	1473.56
280.736	1514.56
280.968	1604.56
281.199	1831.56
281.431	2147.56
281.662	2180.56
281.894	1814.56
282.125	1734.56
282.356	1700.56
282.588	1693.56
282.819	1712.56
283.051	1821.56
283.282	2117.56
283.513	2577.56
283.745	3742.56
283.976	6044.56
284.207	8360.56
284.439	7788.56
284.67	4908.56
284.901	3984.56
285.132	4016.56
285.364	3815.56
285.595	2880.56
285.826	2590.56
286.057	3026.56
286.288	4133.56
286.52	5460.56
286.751	5188.56
286.982	3220.56
287.213	2412.56
287.444	2091.56
287.675	1913.56
287.906	1832.56
288.138	1778.56
288.369	1738.56
288.6	1729.56
288.831	1662.56
289.062	1686.56
289.293	1688.56
289.524	1715.56
289.755	1721.56
289.986	1768.56
290.217	1712.56
290.448	1756.56
290.679	1743.56
290.91	1829.56
291.141	1892.56
291.371	2070.56
291.602	2150.56
291.833	1977.56
292.064	1777.56
292.295	1696.56
292.526	1716.56
292.757	1641.56
292.987	1632.56
293.218	1602.56
293.449	1603.56
293.68	1589.56
293.91	1569.56
294.141	1546.56
294.372	1551.56
294.603	1554.56
294.833	1589.56
295.064	1551.56
295.295	1576.56
295.525	1546.56
295.756	1578.56
295.987	1586.56
296.217	1576.56
296.448	1572.56
296.679	1580.56
296.909	1604.56
297.14	1635.56
297.37	1639.56
297.601	1670.56
297.831	1637.56
298.062	1659.56
298.292	1676.56
298.523	1678.56
298.753	1748.56
298.984	1684.56
299.214	1769.56
299.445	1743.56
299.675	1787.56
299.905	1851.56
300.136	1987.56
300.366	2195.56
300.597	2837.56
300.827	4037.56
301.057	5550.56
301.288	5626.56
301.518	3580.56
301.748	2710.56
301.979	2421.56
302.209	2371.56
302.439	2363.56
302.669	2521.56
302.9	3082.56
303.13	4409.56
303.36	6546.56
303.59	8745.56
303.82	7630.56
304.051	4582.56
304.281	3241.56
304.511	2684.56
304.741	2466.56
304.971	2284.56
305.201	2116.56
305.431	2035.56
305.661	2009.56
305.891	1966.56
306.121	1865.56
306.352	1884.56
306.582	1860.56
306.812	1830.56
307.042	1841.56
307.272	1856.56
307.502	1844.56
307.731	1842.56
307.961	1887.56
308.191	1810.56
308.421	1817.56
308.651	1836.56
308.881	1795.56
309.111	1834.56
309.341	1804.56
309.571	1848.56
309.8	1829.56
310.03	1854.56
310.26	1856.56
310.49	1848.56
310.72	1883.56
310.949	1896.56
311.179	1873.56
311.409	1938.56
311.639	1914.56
311.868	1966.56
312.098	1920.56
312.328	1965.56
312.557	1971.56
312.787	1946.56
313.017	1977.56
313.246	2030.56
313.476	2020.56
313.706	2132.56
313.935	2232.56
314.165	2372.56
314.394	2528.56
314.624	2401.56
314.853	2200.56
315.083	2178.56
315.312	2233.56
315.542	2217.56
315.771	2273.56
316.001	2277.56
316.23	2421.56
316.46	2503.56
316.689	2772.56
316.919	3329.56
317.148	4852.56
317.377	7496.56
317.607	11031.56
317.836	11506.56
318.065	7096.56
318.295	4704.56
318.524	3582.56
318.753	3149.56
318.983	2861.56
319.212	2704.56
319.441	2572.56
319.67	2488.56
319.9	2448.56
320.129	2422.56
320.358	2411.56
320.587	2407.56
320.816	2397.56
321.046	2407.56
321.275	2376.56
321.504	2401.56
321.733	2456.56
321.962	2482.56
322.191	2525.56
322.42	2537.56
322.649	2538.56
322.878	2496.56
323.108	2518.56
323.337	2569.56
323.566	2607.56
323.795	2659.56
324.024	2700.56
324.253	2778.56
324.482	2943.56
324.71	3038.56
324.939	3286.56
325.168	3368.56
325.397	3547.56
325.626	4136.56
325.855	5901.56
326.084	9247.56
326.313	13291.56
326.542	13914.56
326.77	9730.56
326.999	6343.56
327.228	5224.56
327.457	4971.56
327.686	4993.56
327.914	5245.56
328.143	6203.56
328.372	7376.56
328.6	8012.56
328.829	7158.56
329.058	5958.56
329.287	5252.56
329.515	4684.56
329.744	4383.56
329.972	4153.56
330.201	3964.56
330.43	3885.56
330.658	3644.56
330.887	3520.56
331.115	3570.56
331.344	3535.56
331.572	3476.56
331.801	3490.56
332.03	3495.56
332.258	3596.56
332.486	3842.56
332.715	4405.56
332.943	5470.56
333.172	6825.56
333.4	6861.56
333.629	5072.56
333.857	4612.56
334.085	4559.56
334.314	4822.56
334.542	5172.56
334.771	6128.56
334.999	7733.56
335.227	9609.56
335.455	10678.56
335.684	9657.56
335.912	7941.56
336.14	6684.56
336.369	5763.56
336.597	5321.56
336.825	4886.56
337.053	4568.56
337.281	4303.56
337.51	4106.56
337.738	3862.56
337.966	3711.56
338.194	3591.56
338.422	3508.56
338.65	3395.56
338.878	3284.56
339.106	3222.56
339.334	3187.56
339.562	3128.56
339.79	3081.56
340.018	3043.56
340.246	2962.56
340.474	2994.56
340.702	3050.56
340.93	3007.56
341.158	3000.56
341.386	2992.56
341.614	2948.56
341.842	2947.56
342.07	2812.56
342.298	2798.56
342.526	2805.56
342.754	2725.56
342.981	2732.56
343.209	2708.56
343.437	2710.56
343.665	2756.56
343.893	2819.56
344.12	2800.56
344.348	2763.56
344.576	2714.56
344.804	2677.56
345.031	2644.56
345.259	2597.56
345.487	2568.56
345.714	2578.56
345.942	2530.56
346.17	2579.56
346.397	2498.56
346.625	2521.56
346.853	2512.56
347.08	2504.56
347.308	2510.56
347.535	2572.56
347.763	2539.56
347.99	2433.56
348.218	2470.56
348.445	2444.56
348.673	2384.56
348.9	2438.56
349.128	2466.56
349.355	2445.56
349.583	2449.56
349.81	2430.56
350.037	2404.56
350.265	2358.56
350.492	2354.56
350.72	2375.56
350.947	2339.56
351.174	2372.56
351.402	2379.56
351.629	2377.56
351.856	2412.56
352.083	2422.56
352.311	2401.56
352.538	2372.56
352.765	2384.56
352.992	2328.56
353.22	2352.56
353.447	2355.56
353.674	2323.56
353.901	2360.56
354.128	2350.56
354.355	2373.56
354.583	2377.56
354.81	2435.56
355.037	2436.56
355.264	2441.56
355.491	2373.56
355.718	2468.56
355.945	2424.56
356.172	2455.56
356.399	2475.56
356.626	2462.56
356.853	2485.56
357.08	2501.56
357.307	2523.56
357.534	2570.56
357.761	2564.56
357.988	2595.56
358.215	2522.56
358.441	2547.56
358.668	2514.56
358.895	2553.56
359.122	2485.56
359.349	2501.56
359.576	2505.56
359.802	2504.56
360.029	2468.56
360.256	2534.56
360.483	2553.56
360.709	2583.56
360.936	2547.56
361.163	2540.56
361.39	2560.56
361.616	2540.56
361.843	2560.56
362.07	2544.56
362.296	2533.56
362.523	2523.56
362.749	2558.56
362.976	2501.56
363.203	2486.56
363.429	2516.56
363.656	2536.56
363.882	2544.56
364.109	2551.56
364.335	2513.56
364.562	2471.56
364.788	2505.56
365.015	2519.56
365.241	2582.56
365.468	2766.56
365.694	2937.56
365.92	2855.56
366.147	2623.56
366.373	2582.56
366.599	2602.56
366.826	2572.56
367.052	2563.56
367.278	2611.56
367.505	2606.56
367.731	2587.56
367.957	2595.56
368.184	2605.56
368.41	2645.56
368.636	2614.56
368.862	2649.56
369.089	2619.56
369.315	2606.56
369.541	2635.56
369.767	2617.56
369.993	2570.56
370.219	2600.56
370.445	2614.56
370.672	2609.56
370.898	2608.56
371.124	2618.56
371.35	2674.56
371.576	2661.56
371.802	2710.56
372.028	2729.56
372.254	2683.56
372.48	2707.56
372.706	2715.56
372.932	2784.56
373.158	2756.56
373.384	2746.56
373.61	2758.56
373.835	2769.56
374.061	2748.56
374.287	2853.56
374.513	2794.56
374.739	2859.56
374.965	2881.56
375.191	2843.56
375.416	2864.56
375.642	2803.56
375.868	2797.56
376.094	2826.56
376.319	2760.56
376.545	2788.56
376.771	2708.56
376.997	2681.56
377.222	2738.56
377.448	2692.56
377.674	2736.56
377.899	2714.56
378.125	2710.56
378.35	2684.56
378.576	2729.56
378.802	2725.56
379.027	2827.56
379.253	2921.56
379.478	3116.56
379.704	3628.56
379.929	5297.56
380.155	8265.56
380.38	9061.56
380.606	5538.56
380.831	3816.56
381.057	3249.56
381.282	2988.56
381.507	2920.56
381.733	2816.56
381.958	2721.56
382.184	2744.56
382.409	2720.56
382.634	2701.56
382.86	2674.56
383.085	2609.56
383.31	2654.56
383.535	2680.56
383.761	2674.56
383.986	2707.56
384.211	2699.56
384.436	2753.56
384.662	2740.56
384.887	2788.56
385.112	2727.56
385.337	2740.56
385.562	2748.56
385.787	2748.56
386.013	2843.56
386.238	2744.56
386.463	2734.56
386.688	2721.56
386.913	2668.56
387.138	2753.56
387.363	2791.56
387.588	2708.56
387.813	2742.56
388.038	2727.56
388.263	2701.56
388.488	2715.56
388.713	2748.56
388.938	2725.56
389.163	2701.56
389.387	2789.56
389.612	2737.56
389.837	2715.56
390.062	2773.56
390.287	2741.56
390.512	2776.56
390.736	2784.56
390.961	2801.56
391.186	2804.56
391.411	2845.56
391.636	2857.56
391.86	2934.56
392.085	2856.56
392.31	2873.56
392.534	2896.56
392.759	2824.56
392.984	2817.56
393.208	2774.56
393.433	2862.56
393.658	2812.56
393.882	2805.56
394.107	2709.56
394.331	2776.56
394.556	2742.56
394.78	2796.56
395.005	2734.56
395.229	2824.56
395.454	2872.56
395.678	2853.56
395.903	2842.56
396.127	2853.56
396.352	2793.56
396.576	2780.56
396.801	2872.56
397.025	2895.56
397.249	2878.56
397.474	2894.56
397.698	2881.56
397.922	2898.56
398.147	2866.56
398.371	2966.56
398.595	2963.56
398.82	3013.56
399.044	3149.56
399.268	3282.56
399.492	3482.56
399.717	3566.56
399.941	3588.56
400.165	3520.56
400.389	3314.56
400.613	3241.56
400.837	3039.56
401.062	3074.56
401.286	3076.56
401.51	3004.56
401.734	3009.56
401.958	3042.56
402.182	3052.56
402.406	2974.56
402.63	3022.56
402.854	3067.56
403.078	3066.56
403.302	3049.56
403.526	3117.56
403.75	3126.56
403.974	3160.56
404.198	3050.56
404.422	3150.56
404.645	3090.56
404.869	3122.56
405.093	3129.56
405.317	3148.56
405.541	3144.56
405.765	3164.56
405.988	3263.56
406.212	3212.56
406.436	3245.56
406.66	3208.56
406.883	3243.56
407.107	3304.56
407.331	3361.56
407.555	3432.56
407.778	3400.56
408.002	3332.56
408.226	3354.56
408.449	3340.56
408.673	3276.56
408.896	3196.56
409.12	3219.56
409.344	3163.56
409.567	3150.56
409.791	3220.56
410.014	3114.56
410.238	3053.56
410.461	3068.56
410.685	3100.56
410.908	3065.56
411.132	3026.56
411.355	3019.56
411.578	3059.56
411.802	2994.56
412.025	2972.56
412.249	3048.56
412.472	2973.56
412.695	2992.56
412.919	2943.56
413.142	2893.56
413.365	2938.56
413.589	2964.56
413.812	2941.56
414.035	2912.56
414.258	2934.56
414.482	2980.56
414.705	2938.56
414.928	2994.56
415.151	2958.56
415.374	2916.56
415.597	2938.56
415.821	2848.56
416.044	2824.56
416.267	2846.56
416.49	2828.56
416.713	2838.56
416.936	2867.56
417.159	2838.56
417.382	2762.56
417.605	2782.56
417.828	2814.56
418.051	2809.56
418.274	2907.56
418.497	2909.56
418.72	2917.56
418.943	2906.56
419.166	3042.56
419.389	3117.56
419.611	3095.56
419.834	3079.56
420.057	2971.56
420.28	2906.56
420.503	2816.56
420.726	2838.56
420.948	2827.56
421.171	2800.56
421.394	2821.56
421.617	2803.56
421.839	2853.56
422.062	2869.56
422.285	2796.56
422.507	2827.56
422.73	2896.56
422.953	2921.56
423.175	2900.56
423.398	2897.56
423.621	2853.56
423.843	2866.56
424.066	2864.56
424.288	2843.56
424.511	2828.56
424.733	2819.56
424.956	2849.56
425.178	2791.56
425.401	2826.56
425.623	2788.56
425.846	2714.56
426.068	2707.56
426.291	2756.56
426.513	2756.56
426.735	2740.56
426.958	2742.56
427.18	2666.56
427.402	2700.56
427.625	2686.56
427.847	2623.56
428.069	2638.56
428.292	2694.56
428.514	2610.56
428.736	2630.56
428.958	2668.56
429.181	2552.56
429.403	2574.56
429.625	2591.56
429.847	2660.56
430.069	2683.56
430.292	2762.56
430.514	2844.56
430.736	2823.56
430.958	2721.56
431.18	2604.56
431.402	2596.56
431.624	2606.56
431.846	2591.56
432.068	2558.56
432.29	2616.56
432.512	2539.56
432.734	2632.56
432.956	2565.56
433.178	2556.56
433.4	2591.56
433.622	2615.56
433.844	2633.56
434.066	2670.56
434.287	2597.56
434.509	2628.56
434.731	2701.56
434.953	2737.56
435.175	2692.56
435.397	2691.56
435.618	2642.56
435.84	2614.56
436.062	2592.56
436.284	2571.56
436.505	2579.56
436.727	2657.56
436.949	2636.56
437.17	2605.56
437.392	2562.56
437.614	2522.56
437.835	2485.56
438.057	2489.56
438.278	2488.56
438.5	2592.56
438.721	2609.56
438.943	2696.56
439.165	2716.56
439.386	2782.56
439.608	2711.56
439.829	2755.56
440.05	2810.56
440.272	2875.56
440.493	2745.56
440.715	2697.56
440.936	2696.56
441.158	2706.56
441.379	2770.56
441.6	2813.56
441.822	2941.56
442.043	3085.56
442.264	3144.56
442.486	2993.56
442.707	2857.56
442.928	2768.56
443.149	2830.56
443.371	2766.56
443.592	2781.56
443.813	2831.56
444.034	2817.56
444.255	2849.56
444.476	2883.56
444.698	2933.56
444.919	3022.56
445.14	3035.56
445.361	2926.56
445.582	2879.56
445.803	2820.56
446.024	2740.56
446.245	2776.56
446.466	2779.56
446.687	2755.56
446.908	2749.56
447.129	2641.56
447.35	2632.56
447.571	2650.56
447.792	2596.56
448.013	2570.56
448.234	2560.56
448.455	2574.56
448.675	2639.56
448.896	2721.56
449.117	2788.56
449.338	3038.56
449.559	3228.56
449.779	2836.56
450	2628.56
450.221	2579.56
450.442	2574.56
450.662	2514.56
450.883	2543.56
451.104	2518.56
451.324	2506.56
451.545	2555.56
451.766	2564.56
451.986	2610.56
452.207	2905.56
452.428	3731.56
452.648	5697.56
452.869	4756.56
453.089	3241.56
453.31	3006.56
453.53	3002.56
453.751	3117.56
453.971	3187.56
454.192	3197.56
454.412	2729.56
454.633	2596.56
454.853	2537.56
455.073	2506.56
455.294	2441.56
455.514	2417.56
455.734	2404.56
455.955	2384.56
456.175	2403.56
456.395	2381.56
456.616	2430.56
456.836	2472.56
457.056	2466.56
457.276	2482.56
457.497	2629.56
457.717	2652.56
457.937	2563.56
458.157	2505.56
458.377	2509.56
458.598	2571.56
458.818	2568.56
459.038	2575.56
459.258	2614.56
459.478	2592.56
459.698	2635.56
459.918	2652.56
460.138	2704.56
460.358	2765.56
460.578	2772.56
460.798	2828.56
461.018	2824.56
461.238	2831.56
461.458	2876.56
461.678	2877.56
461.898	2949.56
462.118	3016.56
462.338	3020.56
462.558	3045.56
462.777	3107.56
462.997	3202.56
463.217	3307.56
463.437	3488.56
463.657	3514.56
463.876	3528.56
464.096	3329.56
464.316	3203.56
464.536	3143.56
464.755	3024.56
464.975	2976.56
465.195	2837.56
465.414	2828.56
465.634	2740.56
465.854	2706.56
466.073	2730.56
466.293	2674.56
466.512	2682.56
466.732	2711.56
466.951	2872.56
467.171	2968.56
467.391	2932.56
467.61	2724.56
467.829	2621.56
468.049	2613.56
468.268	2614.56
468.488	2565.56
468.707	2596.56
468.927	2603.56
469.146	2567.56
469.365	2574.56
469.585	2637.56
469.804	2701.56
470.023	2772.56
470.243	2825.56
470.462	2856.56
470.681	3020.56
470.901	3315.56
471.12	3803.56
471.339	3785.56
471.558	3252.56
471.777	2907.56
471.997	2793.56
472.216	2660.56
472.435	2696.56
472.654	2615.56
472.873	2595.56
473.092	2582.56
473.311	2603.56
473.53	2604.56
473.749	2686.56
473.968	2836.56
474.187	2667.56
474.406	2589.56
474.625	2638.56
474.844	2599.56
475.063	2560.56
475.282	2581.56
475.501	2580.56
475.72	2622.56
475.939	2682.56
476.158	2683.56
476.377	2747.56
476.596	2749.56
476.814	2733.56
477.033	2737.56
477.252	2722.56
477.471	2822.56
477.69	2857.56
477.908	2894.56
478.127	2954.56
478.346	2942.56
478.564	2996.56
478.783	2994.56
479.002	3086.56
479.22	3079.56
479.439	3105.56
479.658	3074.56
479.876	3108.56
480.095	3143.56
480.313	3169.56
480.532	3190.56
480.751	3206.56
480.969	3168.56
481.188	3141.56
481.406	3116.56
481.624	3130.56
481.843	3176.56
482.061	3221.56
482.28	3182.56
482.498	3174.56
482.717	3124.56
482.935	3229.56
483.153	3211.56
483.372	3266.56
483.59	3273.56
483.808	3384.56
484.027	3398.56
484.245	3646.56
484.463	4133.56
484.681	4580.56
484.9	4160.56
485.118	3842.56
485.336	3783.56
485.554	3826.56
485.772	4063.56
485.99	4607.56
486.209	4932.56
486.427	4184.56
486.645	3708.56
486.863	3537.56
487.081	3488.56
487.299	3406.56
487.517	3384.56
