Data from SnStandardFlinnAPT0064_LampEnergy10_LIBS07252019.E.O._I.C._HRD10591_15-20-43-494.txt Node
Date: Thu Jul 25 15:20:43 EDT 2019
User: cochatt
Spectrometer: HR+D1059
Trigger mode: 1
Integration Time (sec): 1.000000E-1
Scans to average: 1
Electric dark correction enabled: true
Nonlinearity correction enabled: false
Boxcar width: 0
XAxis mode: Wavelengths
Number of Pixels in Spectrum: 2048
>>>>>Begin Spectral Data<<<<<
223.165	-12.69
223.4	-12.69
223.635	-12.69
223.869	-22.69
224.104	-15.69
224.338	-8.69
224.573	-14.69
224.808	-10.69
225.042	-12.69
225.277	8.31
225.511	-0.69
225.746	-1.69
225.98	7.31
226.215	7.31
226.449	17.31
226.683	25.31
226.918	17.31
227.152	17.31
227.387	48.31
227.621	54.31
227.856	51.31
228.09	35.31
228.324	60.31
228.559	56.31
228.793	118.31
229.027	316.31
229.262	337.31
229.496	315.31
229.73	307.31
229.964	307.31
230.199	317.31
230.433	322.31
230.667	339.31
230.901	327.31
231.136	351.31
231.37	363.31
231.604	375.31
231.838	447.31
232.072	535.31
232.306	563.31
232.541	467.31
232.775	441.31
233.009	412.31
233.243	433.31
233.477	447.31
233.711	520.31
233.945	586.31
234.179	515.31
234.413	459.31
234.647	463.31
234.881	471.31
235.115	536.31
235.349	635.31
235.583	782.31
235.817	1029.31
236.051	1006.31
236.285	656.31
236.519	561.31
236.753	517.31
236.987	518.31
237.221	552.31
237.455	491.31
237.689	452.31
237.922	462.31
238.156	482.31
238.39	489.31
238.624	499.31
238.858	479.31
239.091	497.31
239.325	480.31
239.559	513.31
239.793	497.31
240.027	520.31
240.26	539.31
240.494	579.31
240.728	588.31
240.961	592.31
241.195	653.31
241.429	682.31
241.662	720.31
241.896	801.31
242.13	977.31
242.363	1264.31
242.597	1623.31
242.83	1574.31
243.064	1554.31
243.298	1819.31
243.531	1497.31
243.765	977.31
243.998	767.31
244.232	718.31
244.465	673.31
244.699	667.31
244.932	653.31
245.166	663.31
245.399	684.31
245.633	687.31
245.866	699.31
246.099	662.31
246.333	663.31
246.566	658.31
246.8	645.31
247.033	663.31
247.266	670.31
247.5	653.31
247.733	692.31
247.966	701.31
248.2	761.31
248.433	868.31
248.666	1000.31
248.899	964.31
249.133	872.31
249.366	881.31
249.599	952.31
249.832	1111.31
250.066	1109.31
250.299	885.31
250.532	769.31
250.765	748.31
250.998	728.31
251.231	744.31
251.465	740.31
251.698	738.31
251.931	765.31
252.164	767.31
252.397	770.31
252.63	799.31
252.863	795.31
253.096	795.31
253.329	781.31
253.562	773.31
253.795	789.31
254.028	790.31
254.261	813.31
254.494	867.31
254.727	1028.31
254.96	1272.31
255.193	1245.31
255.426	971.31
255.659	898.31
255.892	879.31
256.124	845.31
256.357	895.31
256.59	933.31
256.823	985.31
257.056	1157.31
257.289	1340.31
257.521	1512.31
257.754	1223.31
257.987	965.31
258.22	919.31
258.452	907.31
258.685	929.31
258.918	934.31
259.151	1025.31
259.383	1074.31
259.616	1195.31
259.849	1291.31
260.081	1097.31
260.314	1028.31
260.547	968.31
260.779	960.31
261.012	959.31
261.244	952.31
261.477	995.31
261.71	995.31
261.942	999.31
262.175	1018.31
262.407	1047.31
262.64	1080.31
262.872	1097.31
263.105	1171.31
263.337	1215.31
263.57	1283.31
263.802	1312.31
264.035	1316.31
264.267	1339.31
264.499	1385.31
264.732	1432.31
264.964	1439.31
265.197	1417.31
265.429	1442.31
265.661	1454.31
265.894	1588.31
266.126	1772.31
266.358	1948.31
266.591	1906.31
266.823	1603.31
267.055	1474.31
267.287	1418.31
267.52	1378.31
267.752	1308.31
267.984	1261.31
268.216	1242.31
268.448	1255.31
268.681	1234.31
268.913	1241.31
269.145	1235.31
269.377	1248.31
269.609	1288.31
269.841	1303.31
270.073	1361.31
270.306	1591.31
270.538	2170.31
270.77	3257.31
271.002	3967.31
271.234	2828.31
271.466	1861.31
271.698	1535.31
271.93	1396.31
272.162	1317.31
272.394	1303.31
272.626	1282.31
272.858	1229.31
273.09	1222.31
273.322	1250.31
273.553	1196.31
273.785	1189.31
274.017	1232.31
274.249	1214.31
274.481	1192.31
274.713	1225.31
274.945	1223.31
275.176	1192.31
275.408	1201.31
275.64	1239.31
275.872	1253.31
276.104	1241.31
276.335	1225.31
276.567	1306.31
276.799	1269.31
277.031	1323.31
277.262	1361.31
277.494	1407.31
277.726	1560.31
277.957	1850.31
278.189	2114.31
278.421	1979.31
278.652	1805.31
278.884	1716.31
279.115	1503.31
279.347	1435.31
279.579	1365.31
279.81	1403.31
280.042	1440.31
280.273	1443.31
280.505	1461.31
280.736	1505.31
280.968	1592.31
281.199	1783.31
281.431	2068.31
281.662	2108.31
281.894	1808.31
282.125	1673.31
282.356	1660.31
282.588	1681.31
282.819	1738.31
283.051	1843.31
283.282	2001.31
283.513	2475.31
283.745	3583.31
283.976	5724.31
284.207	8182.31
284.439	7372.31
284.67	4561.31
284.901	3776.31
285.132	3873.31
285.364	3573.31
285.595	2766.31
285.826	2451.31
286.057	2893.31
286.288	3944.31
286.52	5311.31
286.751	4957.31
286.982	3123.31
287.213	2291.31
287.444	2003.31
287.675	1903.31
287.906	1790.31
288.138	1780.31
288.369	1679.31
288.6	1689.31
288.831	1684.31
289.062	1702.31
289.293	1684.31
289.524	1681.31
289.755	1702.31
289.986	1719.31
290.217	1707.31
290.448	1732.31
290.679	1721.31
290.91	1747.31
291.141	1818.31
291.371	2052.31
291.602	2129.31
291.833	1946.31
292.064	1756.31
292.295	1699.31
292.526	1652.31
292.757	1633.31
292.987	1605.31
293.218	1603.31
293.449	1631.31
293.68	1600.31
293.91	1611.31
294.141	1583.31
294.372	1580.31
294.603	1593.31
294.833	1577.31
295.064	1583.31
295.295	1544.31
295.525	1556.31
295.756	1573.31
295.987	1520.31
296.217	1577.31
296.448	1600.31
296.679	1583.31
296.909	1634.31
297.14	1597.31
297.37	1615.31
297.601	1612.31
297.831	1624.31
298.062	1647.31
298.292	1671.31
298.523	1652.31
298.753	1686.31
298.984	1724.31
299.214	1737.31
299.445	1755.31
299.675	1778.31
299.905	1847.31
300.136	1943.31
300.366	2161.31
300.597	2727.31
300.827	3843.31
301.057	5287.31
301.288	5291.31
301.518	3423.31
301.748	2602.31
301.979	2359.31
302.209	2309.31
302.439	2342.31
302.669	2439.31
302.9	2944.31
303.13	4151.31
303.36	6171.31
303.59	8359.31
303.82	7227.31
304.051	4279.31
304.281	3079.31
304.511	2585.31
304.741	2325.31
304.971	2208.31
305.201	2065.31
305.431	2035.31
305.661	1990.31
305.891	1931.31
306.121	1893.31
306.352	1904.31
306.582	1832.31
306.812	1839.31
307.042	1871.31
307.272	1861.31
307.502	1859.31
307.731	1855.31
307.961	1794.31
308.191	1853.31
308.421	1842.31
308.651	1813.31
308.881	1809.31
309.111	1806.31
309.341	1809.31
309.571	1818.31
309.8	1851.31
310.03	1891.31
310.26	1887.31
310.49	1869.31
310.72	1874.31
310.949	1865.31
311.179	1907.31
311.409	1937.31
311.639	1941.31
311.868	1942.31
312.098	1956.31
312.328	1954.31
312.557	2004.31
312.787	2003.31
313.017	2002.31
313.246	1967.31
313.476	2025.31
313.706	2119.31
313.935	2251.31
314.165	2372.31
314.394	2491.31
314.624	2343.31
314.853	2169.31
315.083	2170.31
315.312	2177.31
315.542	2208.31
315.771	2248.31
316.001	2262.31
316.23	2299.31
316.46	2431.31
316.689	2663.31
316.919	3209.31
317.148	4595.31
317.377	7197.31
317.607	10495.31
317.836	10884.31
318.065	6679.31
318.295	4307.31
318.524	3463.31
318.753	2984.31
318.983	2766.31
319.212	2619.31
319.441	2518.31
319.67	2454.31
319.9	2436.31
320.129	2359.31
320.358	2333.31
320.587	2358.31
320.816	2351.31
321.046	2332.31
321.275	2382.31
321.504	2411.31
321.733	2468.31
321.962	2545.31
322.191	2516.31
322.42	2495.31
322.649	2532.31
322.878	2499.31
323.108	2479.31
323.337	2530.31
323.566	2541.31
323.795	2621.31
324.024	2684.31
324.253	2716.31
324.482	2886.31
324.71	2981.31
324.939	3244.31
325.168	3287.31
325.397	3414.31
325.626	4039.31
325.855	5795.31
326.084	8842.31
326.313	12789.31
326.542	13536.31
326.77	9217.31
326.999	6041.31
327.228	5073.31
327.457	4748.31
327.686	4865.31
327.914	5212.31
328.143	6133.31
328.372	7255.31
328.6	8045.31
328.829	7141.31
329.058	5911.31
329.287	5063.31
329.515	4659.31
329.744	4268.31
329.972	4125.31
330.201	3877.31
330.43	3750.31
330.658	3699.31
330.887	3579.31
331.115	3503.31
331.344	3507.31
331.572	3483.31
331.801	3520.31
332.03	3540.31
332.258	3611.31
332.486	3839.31
332.715	4278.31
332.943	5336.31
333.172	6623.31
333.4	6619.31
333.629	5021.31
333.857	4556.31
334.085	4545.31
334.314	4738.31
334.542	5179.31
334.771	6164.31
334.999	7498.31
335.227	9543.31
335.455	10717.31
335.684	9600.31
335.912	7821.31
336.14	6591.31
336.369	5846.31
336.597	5285.31
336.825	4834.31
337.053	4576.31
337.281	4276.31
337.51	4097.31
337.738	3943.31
337.966	3747.31
338.194	3597.31
338.422	3526.31
338.65	3395.31
338.878	3331.31
339.106	3234.31
339.334	3233.31
339.562	3139.31
339.79	3129.31
340.018	3079.31
340.246	3044.31
340.474	3026.31
340.702	3097.31
340.93	3041.31
341.158	3039.31
341.386	3028.31
341.614	3024.31
341.842	2917.31
342.07	2888.31
342.298	2820.31
342.526	2854.31
342.754	2796.31
342.981	2699.31
343.209	2682.31
343.437	2776.31
343.665	2840.31
343.893	2842.31
344.12	2831.31
344.348	2753.31
344.576	2754.31
344.804	2719.31
345.031	2645.31
345.259	2623.31
345.487	2604.31
345.714	2607.31
345.942	2555.31
346.17	2552.31
346.397	2508.31
346.625	2585.31
346.853	2517.31
347.08	2500.31
347.308	2533.31
347.535	2562.31
347.763	2519.31
347.99	2501.31
348.218	2483.31
348.445	2471.31
348.673	2501.31
348.9	2495.31
349.128	2454.31
349.355	2465.31
349.583	2451.31
349.81	2455.31
350.037	2448.31
350.265	2440.31
350.492	2384.31
350.72	2414.31
350.947	2427.31
351.174	2444.31
351.402	2439.31
351.629	2334.31
351.856	2439.31
352.083	2400.31
352.311	2435.31
352.538	2379.31
352.765	2371.31
352.992	2364.31
353.22	2357.31
353.447	2376.31
353.674	2387.31
353.901	2367.31
354.128	2404.31
354.355	2413.31
354.583	2406.31
354.81	2428.31
355.037	2459.31
355.264	2483.31
355.491	2455.31
355.718	2477.31
355.945	2464.31
356.172	2473.31
356.399	2489.31
356.626	2516.31
356.853	2552.31
357.08	2513.31
357.307	2529.31
357.534	2604.31
357.761	2622.31
357.988	2569.31
358.215	2540.31
358.441	2567.31
358.668	2577.31
358.895	2585.31
359.122	2527.31
359.349	2514.31
359.576	2538.31
359.802	2519.31
360.029	2540.31
360.256	2551.31
360.483	2544.31
360.709	2559.31
360.936	2593.31
361.163	2577.31
361.39	2555.31
361.616	2549.31
361.843	2583.31
362.07	2549.31
362.296	2544.31
362.523	2538.31
362.749	2555.31
362.976	2573.31
363.203	2567.31
363.429	2504.31
363.656	2515.31
363.882	2535.31
364.109	2501.31
364.335	2573.31
364.562	2561.31
364.788	2612.31
365.015	2580.31
365.241	2659.31
365.468	2793.31
365.694	2892.31
365.92	2843.31
366.147	2597.31
366.373	2680.31
366.599	2615.31
366.826	2613.31
367.052	2617.31
367.278	2630.31
367.505	2597.31
367.731	2656.31
367.957	2660.31
368.184	2652.31
368.41	2654.31
368.636	2681.31
368.862	2659.31
369.089	2675.31
369.315	2632.31
369.541	2662.31
369.767	2659.31
369.993	2679.31
370.219	2658.31
370.445	2596.31
370.672	2688.31
370.898	2667.31
371.124	2711.31
371.35	2716.31
371.576	2696.31
371.802	2735.31
372.028	2735.31
372.254	2773.31
372.48	2741.31
372.706	2779.31
372.932	2818.31
373.158	2788.31
373.384	2816.31
373.61	2757.31
373.835	2807.31
374.061	2829.31
374.287	2794.31
374.513	2844.31
374.739	2885.31
374.965	2906.31
375.191	2933.31
375.416	2894.31
375.642	2837.31
375.868	2835.31
376.094	2838.31
376.319	2828.31
376.545	2848.31
376.771	2801.31
376.997	2779.31
377.222	2710.31
377.448	2721.31
377.674	2747.31
377.899	2674.31
378.125	2708.31
378.35	2755.31
378.576	2754.31
378.802	2741.31
379.027	2853.31
379.253	2923.31
379.478	3100.31
379.704	3557.31
379.929	5143.31
380.155	7957.31
380.38	8633.31
380.606	5287.31
380.831	3746.31
381.057	3238.31
381.282	3044.31
381.507	2879.31
381.733	2821.31
381.958	2751.31
382.184	2771.31
382.409	2748.31
382.634	2720.31
382.86	2645.31
383.085	2681.31
383.31	2698.31
383.535	2701.31
383.761	2749.31
383.986	2708.31
384.211	2745.31
384.436	2787.31
384.662	2743.31
384.887	2815.31
385.112	2773.31
385.337	2784.31
385.562	2780.31
385.787	2780.31
386.013	2818.31
386.238	2844.31
386.463	2797.31
386.688	2815.31
386.913	2745.31
387.138	2808.31
387.363	2766.31
387.588	2788.31
387.813	2776.31
388.038	2705.31
388.263	2797.31
388.488	2796.31
388.713	2752.31
388.938	2802.31
389.163	2733.31
389.387	2818.31
389.612	2762.31
389.837	2776.31
390.062	2809.31
390.287	2822.31
390.512	2829.31
390.736	2852.31
390.961	2833.31
391.186	2912.31
391.411	2920.31
391.636	2945.31
391.86	2963.31
392.085	2893.31
392.31	2898.31
392.534	2905.31
392.759	2833.31
392.984	2846.31
393.208	2875.31
393.433	2854.31
393.658	2789.31
393.882	2791.31
394.107	2835.31
394.331	2807.31
394.556	2828.31
394.78	2849.31
395.005	2876.31
395.229	2877.31
395.454	2885.31
395.678	2954.31
395.903	2909.31
396.127	2943.31
396.352	2886.31
396.576	2900.31
396.801	2893.31
397.025	2864.31
397.249	2889.31
397.474	2957.31
397.698	2915.31
397.922	2985.31
398.147	2954.31
398.371	2960.31
398.595	3057.31
398.82	3148.31
399.044	3191.31
399.268	3347.31
399.492	3529.31
399.717	3667.31
399.941	3637.31
400.165	3495.31
400.389	3395.31
400.613	3285.31
400.837	3178.31
401.062	3151.31
401.286	3096.31
401.51	3030.31
401.734	3076.31
401.958	3053.31
402.182	3082.31
402.406	3074.31
402.63	3098.31
402.854	3091.31
403.078	3120.31
403.302	3164.31
403.526	3128.31
403.75	3149.31
403.974	3193.31
404.198	3127.31
404.422	3188.31
404.645	3183.31
404.869	3184.31
405.093	3212.31
405.317	3172.31
405.541	3207.31
405.765	3227.31
405.988	3302.31
406.212	3269.31
406.436	3276.31
406.66	3343.31
406.883	3322.31
407.107	3423.31
407.331	3425.31
407.555	3504.31
407.778	3465.31
408.002	3377.31
408.226	3421.31
408.449	3443.31
408.673	3351.31
408.896	3263.31
409.12	3256.31
409.344	3225.31
409.567	3157.31
409.791	3206.31
410.014	3217.31
410.238	3154.31
410.461	3149.31
410.685	3105.31
410.908	3049.31
411.132	3131.31
411.355	3029.31
411.578	3045.31
411.802	3112.31
412.025	3094.31
412.249	3105.31
412.472	3043.31
412.695	3020.31
412.919	3031.31
413.142	3032.31
413.365	3004.31
413.589	3016.31
413.812	2991.31
414.035	2999.31
414.258	2996.31
414.482	3000.31
414.705	3035.31
414.928	3016.31
415.151	2980.31
415.374	3011.31
415.597	2914.31
415.821	2855.31
416.044	2820.31
416.267	2869.31
416.49	2847.31
416.713	2879.31
416.936	2894.31
417.159	2827.31
417.382	2791.31
417.605	2828.31
417.828	2865.31
418.051	2912.31
418.274	2845.31
418.497	2943.31
418.72	3004.31
418.943	2939.31
419.166	3102.31
419.389	3239.31
419.611	3154.31
419.834	3101.31
420.057	3020.31
420.28	2901.31
420.503	2879.31
420.726	2854.31
420.948	2858.31
421.171	2868.31
421.394	2899.31
421.617	2898.31
421.839	2890.31
422.062	2912.31
422.285	2873.31
422.507	2896.31
422.73	2959.31
422.953	2952.31
423.175	3007.31
423.398	2946.31
423.621	2879.31
423.843	2936.31
424.066	2868.31
424.288	2912.31
424.511	2867.31
424.733	2879.31
424.956	2861.31
425.178	2877.31
425.401	2847.31
425.623	2866.31
425.846	2836.31
426.068	2796.31
426.291	2742.31
426.513	2787.31
426.735	2793.31
426.958	2740.31
427.18	2687.31
427.402	2739.31
427.625	2766.31
427.847	2663.31
428.069	2691.31
428.292	2728.31
428.514	2637.31
428.736	2705.31
428.958	2713.31
429.181	2675.31
429.403	2633.31
429.625	2663.31
429.847	2662.31
430.069	2736.31
430.292	2769.31
430.514	2883.31
430.736	2853.31
430.958	2713.31
431.18	2631.31
431.402	2666.31
431.624	2641.31
431.846	2600.31
432.068	2626.31
432.29	2641.31
432.512	2592.31
432.734	2599.31
432.956	2602.31
433.178	2646.31
433.4	2681.31
433.622	2621.31
433.844	2664.31
434.066	2680.31
434.287	2649.31
434.509	2695.31
434.731	2788.31
434.953	2721.31
435.175	2766.31
435.397	2814.31
435.618	2733.31
435.84	2681.31
436.062	2643.31
436.284	2602.31
436.505	2624.31
436.727	2623.31
436.949	2617.31
437.17	2637.31
437.392	2618.31
437.614	2569.31
437.835	2540.31
438.057	2594.31
438.278	2489.31
438.5	2572.31
438.721	2605.31
438.943	2713.31
439.165	2703.31
439.386	2705.31
439.608	2708.31
439.829	2723.31
440.05	2819.31
440.272	2864.31
440.493	2749.31
440.715	2724.31
440.936	2770.31
441.158	2808.31
441.379	2793.31
441.6	2845.31
441.822	2956.31
442.043	3091.31
442.264	3231.31
442.486	3014.31
442.707	2806.31
442.928	2836.31
443.149	2869.31
443.371	2805.31
443.592	2860.31
443.813	2856.31
444.034	2822.31
444.255	2866.31
444.476	2928.31
444.698	3001.31
444.919	3061.31
445.14	3103.31
445.361	3007.31
445.582	2911.31
445.803	2848.31
446.024	2789.31
446.245	2826.31
446.466	2791.31
446.687	2792.31
446.908	2773.31
447.129	2686.31
447.35	2618.31
447.571	2645.31
447.792	2611.31
448.013	2636.31
448.234	2575.31
448.455	2588.31
448.675	2686.31
448.896	2749.31
449.117	2813.31
449.338	2979.31
449.559	3116.31
449.779	2809.31
450	2598.31
450.221	2601.31
450.442	2607.31
450.662	2523.31
450.883	2517.31
451.104	2523.31
451.324	2557.31
451.545	2522.31
451.766	2582.31
451.986	2595.31
452.207	2794.31
452.428	3617.31
452.648	5555.31
452.869	4574.31
453.089	3191.31
453.31	2985.31
453.53	2976.31
453.751	3098.31
453.971	3171.31
454.192	3108.31
454.412	2730.31
454.633	2551.31
454.853	2493.31
455.073	2486.31
455.294	2464.31
455.514	2479.31
455.734	2472.31
455.955	2398.31
456.175	2459.31
456.395	2449.31
456.616	2456.31
456.836	2463.31
457.056	2458.31
457.276	2500.31
457.497	2629.31
457.717	2640.31
457.937	2565.31
458.157	2577.31
458.377	2559.31
458.598	2604.31
458.818	2615.31
459.038	2586.31
459.258	2595.31
459.478	2680.31
459.698	2655.31
459.918	2755.31
460.138	2708.31
460.358	2854.31
460.578	2823.31
460.798	2866.31
461.018	2917.31
461.238	2898.31
461.458	2945.31
461.678	2937.31
461.898	3030.31
462.118	3066.31
462.338	3107.31
462.558	3110.31
462.777	3114.31
462.997	3275.31
463.217	3419.31
463.437	3516.31
463.657	3559.31
463.876	3581.31
464.096	3354.31
464.316	3195.31
464.536	3190.31
464.755	3111.31
464.975	3018.31
465.195	2903.31
465.414	2847.31
465.634	2777.31
465.854	2767.31
466.073	2712.31
466.293	2689.31
466.512	2649.31
466.732	2733.31
466.951	2855.31
467.171	2977.31
467.391	2957.31
467.61	2767.31
467.829	2672.31
468.049	2597.31
468.268	2586.31
468.488	2566.31
468.707	2596.31
468.927	2621.31
469.146	2603.31
469.365	2639.31
469.585	2637.31
469.804	2693.31
470.023	2697.31
470.243	2758.31
470.462	2900.31
470.681	2983.31
470.901	3302.31
471.12	3784.31
471.339	3797.31
471.558	3172.31
471.777	2914.31
471.997	2804.31
472.216	2716.31
472.435	2665.31
472.654	2676.31
472.873	2600.31
473.092	2642.31
473.311	2574.31
473.53	2657.31
473.749	2685.31
473.968	2803.31
474.187	2660.31
474.406	2593.31
474.625	2626.31
474.844	2633.31
475.063	2592.31
475.282	2604.31
475.501	2652.31
475.72	2552.31
475.939	2704.31
476.158	2754.31
476.377	2815.31
476.596	2731.31
476.814	2759.31
477.033	2768.31
477.252	2768.31
477.471	2854.31
477.69	2915.31
477.908	2959.31
478.127	2929.31
478.346	2982.31
478.564	2993.31
478.783	3075.31
479.002	3061.31
479.22	3094.31
479.439	3137.31
479.658	3097.31
479.876	3139.31
480.095	3153.31
480.313	3256.31
480.532	3258.31
480.751	3230.31
480.969	3165.31
481.188	3216.31
481.406	3207.31
481.624	3221.31
481.843	3122.31
482.061	3257.31
482.28	3176.31
482.498	3176.31
482.717	3170.31
482.935	3199.31
483.153	3209.31
483.372	3261.31
483.59	3315.31
483.808	3395.31
484.027	3440.31
484.245	3649.31
484.463	4108.31
484.681	4579.31
484.9	4159.31
485.118	3886.31
485.336	3753.31
485.554	3809.31
485.772	4074.31
485.99	4551.31
486.209	4978.31
486.427	4154.31
486.645	3674.31
486.863	3528.31
487.081	3521.31
487.299	3441.31
487.517	3419.31
487.735	3411.31
