Data from SnStandardFlinnAPT0064_QswitchEnergy10_LIBS07252019.E.O._I.C._HRD10591_15-26-16-972.txt Node
Date: Thu Jul 25 15:26:16 EDT 2019
User: cochatt
Spectrometer: HR+D1059
Trigger mode: 1
Integration Time (sec): 1.000000E-1
Scans to average: 1
Electric dark correction enabled: true
Nonlinearity correction enabled: false
Boxcar width: 0
XAxis mode: Wavelengths
Number of Pixels in Spectrum: 2048
>>>>>Begin Spectral Data<<<<<
223.165	-15.19
223.4	-15.19
223.635	-15.19
223.869	-8.19
224.104	-20.19
224.338	-22.19
224.573	-21.19
224.808	-9.19
225.042	-7.19
225.277	-6.19
225.511	-10.19
225.746	0.81
225.98	7.81
226.215	8.81
226.449	22.81
226.683	8.81
226.918	40.81
227.152	29.81
227.387	40.81
227.621	42.81
227.856	44.81
228.09	52.81
228.324	63.81
228.559	60.81
228.793	48.81
229.027	61.81
229.262	77.81
229.496	84.81
229.73	80.81
229.964	81.81
230.199	65.81
230.433	77.81
230.667	82.81
230.901	89.81
231.136	95.81
231.37	82.81
231.604	87.81
231.838	89.81
232.072	113.81
232.306	119.81
232.541	90.81
232.775	93.81
233.009	83.81
233.243	91.81
233.477	87.81
233.711	104.81
233.945	104.81
234.179	97.81
234.413	88.81
234.647	87.81
234.881	80.81
235.115	79.81
235.349	88.81
235.583	103.81
235.817	125.81
236.051	140.81
236.285	102.81
236.519	88.81
236.753	83.81
236.987	77.81
237.221	92.81
237.455	73.81
237.689	83.81
237.922	88.81
238.156	93.81
238.39	85.81
238.624	103.81
238.858	84.81
239.091	77.81
239.325	79.81
239.559	90.81
239.793	88.81
240.027	81.81
240.26	83.81
240.494	95.81
240.728	77.81
240.961	104.81
241.195	88.81
241.429	89.81
241.662	94.81
241.896	74.81
242.13	93.81
242.363	143.81
242.597	164.81
242.83	137.81
243.064	126.81
243.298	140.81
243.531	153.81
243.765	108.81
243.998	80.81
244.232	82.81
244.465	76.81
244.699	85.81
244.932	96.81
245.166	76.81
245.399	85.81
245.633	80.81
245.866	89.81
246.099	99.81
246.333	83.81
246.566	77.81
246.8	90.81
247.033	86.81
247.266	78.81
247.5	82.81
247.733	82.81
247.966	87.81
248.2	112.81
248.433	120.81
248.666	130.81
248.899	131.81
249.133	99.81
249.366	108.81
249.599	101.81
249.832	125.81
250.066	127.81
250.299	96.81
250.532	88.81
250.765	89.81
250.998	98.81
251.231	77.81
251.465	82.81
251.698	92.81
251.931	75.81
252.164	78.81
252.397	103.81
252.63	94.81
252.863	100.81
253.096	88.81
253.329	92.81
253.562	84.81
253.795	93.81
254.028	92.81
254.261	82.81
254.494	91.81
254.727	126.81
254.96	153.81
255.193	128.81
255.426	98.81
255.659	106.81
255.892	93.81
256.124	88.81
256.357	92.81
256.59	97.81
256.823	91.81
257.056	113.81
257.289	146.81
257.521	189.81
257.754	126.81
257.987	92.81
258.22	97.81
258.452	96.81
258.685	102.81
258.918	96.81
259.151	93.81
259.383	115.81
259.616	128.81
259.849	150.81
260.081	107.81
260.314	93.81
260.547	78.81
260.779	86.81
261.012	84.81
261.244	89.81
261.477	90.81
261.71	78.81
261.942	83.81
262.175	84.81
262.407	91.81
262.64	85.81
262.872	78.81
263.105	89.81
263.337	97.81
263.57	98.81
263.802	92.81
264.035	98.81
264.267	88.81
264.499	91.81
264.732	79.81
264.964	94.81
265.197	102.81
265.429	100.81
265.661	104.81
265.894	87.81
266.126	136.81
266.358	164.81
266.591	151.81
266.823	104.81
267.055	96.81
267.287	90.81
267.52	78.81
267.752	82.81
267.984	77.81
268.216	82.81
268.448	89.81
268.681	69.81
268.913	94.81
269.145	92.81
269.377	96.81
269.609	85.81
269.841	96.81
270.073	104.81
270.306	121.81
270.538	190.81
270.77	308.81
271.002	380.81
271.234	190.81
271.466	109.81
271.698	98.81
271.93	96.81
272.162	109.81
272.394	87.81
272.626	105.81
272.858	89.81
273.09	97.81
273.322	98.81
273.553	95.81
273.785	87.81
274.017	85.81
274.249	70.81
274.481	87.81
274.713	82.81
274.945	84.81
275.176	92.81
275.408	101.81
275.64	86.81
275.872	90.81
276.104	99.81
276.335	117.81
276.567	82.81
276.799	99.81
277.031	103.81
277.262	101.81
277.494	102.81
277.726	113.81
277.957	176.81
278.189	237.81
278.421	220.81
278.652	175.81
278.884	182.81
279.115	139.81
279.347	98.81
279.579	100.81
279.81	92.81
280.042	99.81
280.273	95.81
280.505	104.81
280.736	104.81
280.968	116.81
281.199	168.81
281.431	234.81
281.662	270.81
281.894	165.81
282.125	101.81
282.356	97.81
282.588	119.81
282.819	105.81
283.051	128.81
283.282	121.81
283.513	188.81
283.745	296.81
283.976	512.81
284.207	752.81
284.439	593.81
284.67	265.81
284.901	233.81
285.132	331.81
285.364	377.81
285.595	220.81
285.826	156.81
286.057	229.81
286.288	410.81
286.52	596.81
286.751	486.81
286.982	194.81
287.213	138.81
287.444	112.81
287.675	93.81
287.906	105.81
288.138	91.81
288.369	85.81
288.6	96.81
288.831	105.81
289.062	89.81
289.293	100.81
289.524	95.81
289.755	95.81
289.986	101.81
290.217	94.81
290.448	106.81
290.679	107.81
290.91	120.81
291.141	160.81
291.371	225.81
291.602	286.81
291.833	192.81
292.064	107.81
292.295	103.81
292.526	96.81
292.757	100.81
292.987	107.81
293.218	88.81
293.449	91.81
293.68	101.81
293.91	84.81
294.141	106.81
294.372	94.81
294.603	98.81
294.833	91.81
295.064	90.81
295.295	99.81
295.525	96.81
295.756	96.81
295.987	86.81
296.217	100.81
296.448	106.81
296.679	91.81
296.909	93.81
297.14	97.81
297.37	102.81
297.601	98.81
297.831	96.81
298.062	97.81
298.292	109.81
298.523	109.81
298.753	106.81
298.984	107.81
299.214	106.81
299.445	126.81
299.675	106.81
299.905	112.81
300.136	144.81
300.366	159.81
300.597	266.81
300.827	434.81
301.057	640.81
301.288	602.81
301.518	251.81
301.748	150.81
301.979	139.81
302.209	109.81
302.439	136.81
302.669	172.81
302.9	247.81
303.13	477.81
303.36	845.81
303.59	1169.81
303.82	802.81
304.051	284.81
304.281	156.81
304.511	134.81
304.741	124.81
304.971	114.81
305.201	125.81
305.431	105.81
305.661	107.81
305.891	101.81
306.121	109.81
306.352	91.81
306.582	108.81
306.812	116.81
307.042	102.81
307.272	101.81
307.502	103.81
307.731	109.81
307.961	109.81
308.191	107.81
308.421	103.81
308.651	94.81
308.881	102.81
309.111	101.81
309.341	123.81
309.571	91.81
309.8	102.81
310.03	108.81
310.26	103.81
310.49	112.81
310.72	112.81
310.949	103.81
311.179	113.81
311.409	108.81
311.639	95.81
311.868	116.81
312.098	107.81
312.328	112.81
312.557	130.81
312.787	108.81
313.017	109.81
313.246	105.81
313.476	112.81
313.706	122.81
313.935	158.81
314.165	190.81
314.394	233.81
314.624	173.81
314.853	116.81
315.083	120.81
315.312	120.81
315.542	120.81
315.771	118.81
316.001	139.81
316.23	130.81
316.46	159.81
316.689	164.81
316.919	249.81
317.148	478.81
317.377	858.81
317.607	1408.81
317.836	1328.81
318.065	496.81
318.295	221.81
318.524	146.81
318.753	129.81
318.983	136.81
319.212	129.81
319.441	129.81
319.67	124.81
319.9	120.81
320.129	134.81
320.358	127.81
320.587	121.81
320.816	128.81
321.046	125.81
321.275	128.81
321.504	122.81
321.733	162.81
321.962	153.81
322.191	154.81
322.42	137.81
322.649	132.81
322.878	122.81
323.108	120.81
323.337	132.81
323.566	115.81
323.795	126.81
324.024	130.81
324.253	138.81
324.482	172.81
324.71	224.81
324.939	281.81
325.168	231.81
325.397	196.81
325.626	234.81
325.855	446.81
326.084	930.81
326.313	1535.81
326.542	1468.81
326.77	587.81
326.999	247.81
327.228	213.81
327.457	218.81
327.686	228.81
327.914	147.81
328.143	140.81
328.372	105.81
328.6	114.81
328.829	106.81
329.058	108.81
329.287	113.81
329.515	126.81
329.744	133.81
329.972	106.81
330.201	100.81
330.43	105.81
330.658	112.81
330.887	118.81
331.115	106.81
331.344	107.81
331.572	110.81
331.801	109.81
332.03	124.81
332.258	144.81
332.486	179.81
332.715	274.81
332.943	497.81
333.172	741.81
333.4	648.81
333.629	249.81
333.857	128.81
334.085	118.81
334.314	134.81
334.542	106.81
334.771	105.81
334.999	119.81
335.227	117.81
335.455	112.81
335.684	119.81
335.912	116.81
336.14	109.81
336.369	116.81
336.597	104.81
336.825	94.81
337.053	104.81
337.281	97.81
337.51	100.81
337.738	106.81
337.966	112.81
338.194	117.81
338.422	106.81
338.65	121.81
338.878	120.81
339.106	102.81
339.334	125.81
339.562	104.81
339.79	124.81
340.018	105.81
340.246	116.81
340.474	128.81
340.702	112.81
340.93	103.81
341.158	112.81
341.386	101.81
341.614	113.81
341.842	110.81
342.07	112.81
342.298	108.81
342.526	99.81
342.754	121.81
342.981	109.81
343.209	112.81
343.437	106.81
343.665	100.81
343.893	105.81
344.12	117.81
344.348	107.81
344.576	101.81
344.804	98.81
345.031	108.81
345.259	105.81
345.487	114.81
345.714	95.81
345.942	102.81
346.17	112.81
346.397	109.81
346.625	92.81
346.853	98.81
347.08	104.81
347.308	112.81
347.535	103.81
347.763	102.81
347.99	98.81
348.218	105.81
348.445	99.81
348.673	133.81
348.9	124.81
349.128	133.81
349.355	128.81
349.583	114.81
349.81	113.81
350.037	114.81
350.265	121.81
350.492	111.81
350.72	102.81
350.947	120.81
351.174	100.81
351.402	96.81
351.629	112.81
351.856	120.81
352.083	95.81
352.311	104.81
352.538	115.81
352.765	112.81
352.992	104.81
353.22	112.81
353.447	95.81
353.674	113.81
353.901	95.81
354.128	118.81
354.355	103.81
354.583	108.81
354.81	103.81
355.037	101.81
355.264	107.81
355.491	112.81
355.718	101.81
355.945	106.81
356.172	94.81
356.399	102.81
356.626	105.81
356.853	110.81
357.08	97.81
357.307	104.81
357.534	82.81
357.761	106.81
357.988	102.81
358.215	106.81
358.441	108.81
358.668	113.81
358.895	110.81
359.122	114.81
359.349	114.81
359.576	119.81
359.802	100.81
360.029	120.81
360.256	101.81
360.483	105.81
360.709	109.81
360.936	101.81
361.163	109.81
361.39	107.81
361.616	117.81
361.843	119.81
362.07	106.81
362.296	96.81
362.523	113.81
362.749	101.81
362.976	105.81
363.203	114.81
363.429	109.81
363.656	102.81
363.882	131.81
364.109	112.81
364.335	104.81
364.562	107.81
364.788	102.81
365.015	113.81
365.241	128.81
365.468	204.81
365.694	219.81
365.92	188.81
366.147	117.81
366.373	87.81
366.599	90.81
366.826	97.81
367.052	118.81
367.278	108.81
367.505	108.81
367.731	96.81
367.957	96.81
368.184	91.81
368.41	118.81
368.636	123.81
368.862	115.81
369.089	91.81
369.315	92.81
369.541	101.81
369.767	115.81
369.993	99.81
370.219	91.81
370.445	97.81
370.672	97.81
370.898	101.81
371.124	105.81
371.35	120.81
371.576	89.81
371.802	95.81
372.028	100.81
372.254	112.81
372.48	113.81
372.706	116.81
372.932	113.81
373.158	126.81
373.384	122.81
373.61	119.81
373.835	114.81
374.061	104.81
374.287	82.81
374.513	107.81
374.739	99.81
374.965	116.81
375.191	101.81
375.416	97.81
375.642	110.81
375.868	97.81
376.094	102.81
376.319	99.81
376.545	100.81
376.771	89.81
376.997	114.81
377.222	111.81
377.448	95.81
377.674	104.81
377.899	98.81
378.125	115.81
378.35	114.81
378.576	102.81
378.802	116.81
379.027	129.81
379.253	123.81
379.478	179.81
379.704	304.81
379.929	741.81
380.155	1529.81
380.38	1559.81
380.606	490.81
380.831	186.81
381.057	122.81
381.282	115.81
381.507	110.81
381.733	115.81
381.958	105.81
382.184	108.81
382.409	94.81
382.634	104.81
382.86	91.81
383.085	91.81
383.31	93.81
383.535	91.81
383.761	97.81
383.986	98.81
384.211	107.81
384.436	92.81
384.662	88.81
384.887	99.81
385.112	90.81
385.337	108.81
385.562	100.81
385.787	110.81
386.013	122.81
386.238	108.81
386.463	103.81
386.688	94.81
386.913	103.81
387.138	96.81
387.363	92.81
387.588	97.81
387.813	100.81
388.038	110.81
388.263	110.81
388.488	85.81
388.713	112.81
388.938	105.81
389.163	98.81
389.387	108.81
389.612	97.81
389.837	104.81
390.062	98.81
390.287	107.81
390.512	102.81
390.736	92.81
390.961	89.81
391.186	101.81
391.411	96.81
391.636	83.81
391.86	92.81
392.085	100.81
392.31	86.81
392.534	88.81
392.759	99.81
392.984	107.81
393.208	113.81
393.433	134.81
393.658	132.81
393.882	102.81
394.107	110.81
394.331	108.81
394.556	106.81
394.78	97.81
395.005	87.81
395.229	86.81
395.454	103.81
395.678	103.81
395.903	97.81
396.127	102.81
396.352	109.81
396.576	95.81
396.801	103.81
397.025	131.81
397.249	124.81
397.474	98.81
397.698	103.81
397.922	95.81
398.147	96.81
398.371	96.81
398.595	100.81
398.82	98.81
399.044	85.81
399.268	93.81
399.492	112.81
399.717	80.81
399.941	90.81
400.165	92.81
400.389	79.81
400.613	93.81
400.837	91.81
401.062	93.81
401.286	90.81
401.51	97.81
401.734	110.81
401.958	115.81
402.182	80.81
402.406	90.81
402.63	107.81
402.854	112.81
403.078	107.81
403.302	96.81
403.526	95.81
403.75	118.81
403.974	98.81
404.198	96.81
404.422	97.81
404.645	101.81
404.869	85.81
405.093	98.81
405.317	92.81
405.541	97.81
405.765	131.81
405.988	144.81
406.212	119.81
406.436	108.81
406.66	93.81
406.883	97.81
407.107	93.81
407.331	100.81
407.555	96.81
407.778	101.81
408.002	100.81
408.226	105.81
408.449	93.81
408.673	97.81
408.896	101.81
409.12	81.81
409.344	97.81
409.567	97.81
409.791	82.81
410.014	100.81
410.238	104.81
410.461	115.81
410.685	98.81
410.908	100.81
411.132	99.81
411.355	113.81
411.578	100.81
411.802	94.81
412.025	86.81
412.249	94.81
412.472	94.81
412.695	87.81
412.919	95.81
413.142	93.81
413.365	100.81
413.589	100.81
413.812	96.81
414.035	117.81
414.258	84.81
414.482	99.81
414.705	93.81
414.928	108.81
415.151	93.81
415.374	105.81
415.597	92.81
415.821	101.81
416.044	104.81
416.267	101.81
416.49	94.81
416.713	93.81
416.936	107.81
417.159	81.81
417.382	82.81
417.605	96.81
417.828	82.81
418.051	96.81
418.274	89.81
418.497	99.81
418.72	93.81
418.943	93.81
419.166	99.81
419.389	95.81
419.611	100.81
419.834	108.81
420.057	94.81
420.28	91.81
420.503	109.81
420.726	106.81
420.948	106.81
421.171	101.81
421.394	101.81
421.617	98.81
421.839	95.81
422.062	84.81
422.285	100.81
422.507	106.81
422.73	110.81
422.953	139.81
423.175	110.81
423.398	107.81
423.621	96.81
423.843	94.81
424.066	93.81
424.288	109.81
424.511	101.81
424.733	99.81
424.956	106.81
425.178	82.81
425.401	82.81
425.623	78.81
425.846	93.81
426.068	94.81
426.291	94.81
426.513	98.81
426.735	117.81
426.958	98.81
427.18	98.81
427.402	92.81
427.625	99.81
427.847	83.81
428.069	90.81
428.292	100.81
428.514	104.81
428.736	95.81
428.958	95.81
429.181	94.81
429.403	88.81
429.625	114.81
429.847	107.81
430.069	110.81
430.292	114.81
430.514	103.81
430.736	97.81
430.958	102.81
431.18	105.81
431.402	97.81
431.624	110.81
431.846	93.81
432.068	98.81
432.29	91.81
432.512	91.81
432.734	93.81
432.956	88.81
433.178	90.81
433.4	87.81
433.622	89.81
433.844	96.81
434.066	82.81
434.287	98.81
434.509	97.81
434.731	97.81
434.953	78.81
435.175	97.81
435.397	89.81
435.618	86.81
435.84	86.81
436.062	85.81
436.284	81.81
436.505	80.81
436.727	86.81
436.949	96.81
437.17	85.81
437.392	86.81
437.614	85.81
437.835	102.81
438.057	92.81
438.278	110.81
438.5	94.81
438.721	94.81
438.943	95.81
439.165	85.81
439.386	100.81
439.608	97.81
439.829	106.81
440.05	101.81
440.272	124.81
440.493	114.81
440.715	91.81
440.936	84.81
441.158	105.81
441.379	87.81
441.6	81.81
441.822	100.81
442.043	119.81
442.264	141.81
442.486	124.81
442.707	104.81
442.928	104.81
443.149	107.81
443.371	89.81
443.592	100.81
443.813	86.81
444.034	94.81
444.255	92.81
444.476	89.81
444.698	102.81
444.919	99.81
445.14	200.81
445.361	148.81
445.582	97.81
445.803	99.81
446.024	85.81
446.245	90.81
446.466	113.81
446.687	114.81
446.908	99.81
447.129	90.81
447.35	85.81
447.571	97.81
447.792	92.81
448.013	99.81
448.234	94.81
448.455	95.81
448.675	104.81
448.896	109.81
449.117	107.81
449.338	150.81
449.559	154.81
449.779	125.81
450	110.81
450.221	118.81
450.442	113.81
450.662	96.81
450.883	82.81
451.104	112.81
451.324	124.81
451.545	118.81
451.766	121.81
451.986	137.81
452.207	222.81
452.428	529.81
452.648	1267.81
452.869	743.81
453.089	201.81
453.31	126.81
453.53	122.81
453.751	141.81
453.971	156.81
454.192	166.81
454.412	116.81
454.633	90.81
454.853	92.81
455.073	101.81
455.294	90.81
455.514	111.81
455.734	100.81
455.955	90.81
456.175	87.81
456.395	98.81
456.616	95.81
456.836	100.81
457.056	86.81
457.276	101.81
457.497	108.81
457.717	124.81
457.937	103.81
458.157	96.81
458.377	86.81
458.598	90.81
458.818	77.81
459.038	74.81
459.258	89.81
459.478	77.81
459.698	89.81
459.918	103.81
460.138	82.81
460.358	90.81
460.578	97.81
460.798	90.81
461.018	101.81
461.238	97.81
461.458	97.81
461.678	96.81
461.898	92.81
462.118	99.81
462.338	97.81
462.558	109.81
462.777	95.81
462.997	97.81
463.217	102.81
463.437	132.81
463.657	183.81
463.876	176.81
464.096	111.81
464.316	99.81
464.536	102.81
464.755	85.81
464.975	90.81
465.195	92.81
465.414	85.81
465.634	91.81
465.854	109.81
466.073	110.81
466.293	90.81
466.512	105.81
466.732	99.81
466.951	114.81
467.171	139.81
467.391	132.81
467.61	107.81
467.829	113.81
468.049	91.81
468.268	103.81
468.488	88.81
468.707	94.81
468.927	94.81
469.146	88.81
469.365	97.81
469.585	76.81
469.804	104.81
470.023	102.81
470.243	104.81
470.462	95.81
470.681	105.81
470.901	132.81
471.12	186.81
471.339	206.81
471.558	141.81
471.777	117.81
471.997	106.81
472.216	112.81
472.435	95.81
472.654	89.81
472.873	98.81
473.092	91.81
473.311	100.81
473.53	101.81
473.749	88.81
473.968	102.81
474.187	99.81
474.406	83.81
474.625	85.81
474.844	81.81
475.063	107.81
475.282	105.81
475.501	88.81
475.72	95.81
475.939	92.81
476.158	91.81
476.377	110.81
476.596	100.81
476.814	103.81
477.033	107.81
477.252	112.81
477.471	89.81
477.69	102.81
477.908	95.81
478.127	99.81
478.346	100.81
478.564	96.81
478.783	92.81
479.002	116.81
479.22	102.81
479.439	96.81
479.658	93.81
479.876	84.81
480.095	88.81
480.313	104.81
480.532	86.81
480.751	93.81
480.969	98.81
481.188	82.81
481.406	78.81
481.624	96.81
481.843	113.81
482.061	113.81
482.28	96.81
482.498	109.81
482.717	89.81
482.935	94.81
483.153	100.81
483.372	105.81
483.59	91.81
483.808	114.81
484.027	96.81
484.245	106.81
484.463	171.81
484.681	224.81
484.9	148.81
485.118	117.81
485.336	107.81
485.554	123.81
485.772	129.81
485.99	163.81
486.209	244.81
486.427	173.81
486.645	121.81
486.863	112.81
487.081	101.81
487.299	101.81
487.517	111.81
487.735	105.81
487.953	96.81
488.171	100.81
488.389	108.81
488.607	101.81
488.825	101.81
489.043	104.81
489.261	93.81
489.479	106.81
489.696	103.81
489.914	107.81
490.132	106.81
490.35	105.81
490.568	97.81
490.786	118.81
491.003	108.81
491.221	112.81
491.439	102.81
491.657	114.81
491.874	108.81
492.092	93.81
492.31	113.81
492.527	114.81
492.745	105.81
492.963	105.81
493.18	95.81
493.398	112.81
493.615	114.81
493.833	95.81
494.05	107.81
494.268	92.81
494.485	108.81
494.703	94.81
494.92	105.81
495.138	90.81
495.355	103.81
495.573	112.81
495.79	108.81
496.008	95.81
496.225	91.81
496.442	105.81
496.66	121.81
496.877	163.81
497.094	159.81
497.312	107.81
497.529	103.81
497.746	84.81
497.963	109.81
498.181	105.81
498.398	111.81
498.615	98.81
498.832	116.81
499.049	113.81
499.267	121.81
499.484	170.81
499.701	131.81
499.918	113.81
500.135	99.81
500.352	88.81
500.569	100.81
500.786	101.81
501.003	106.81
501.22	92.81
501.437	94.81
501.654	104.81
501.871	95.81
502.088	100.81
502.305	90.81
502.522	109.81
502.739	86.81
502.956	98.81
503.172	100.81
503.389	108.81
503.606	106.81
503.823	109.81
504.04	109.81
504.256	96.81
504.473	94.81
504.69	103.81
504.907	102.81
505.123	123.81
505.34	95.81
505.557	100.81
505.773	104.81
505.99	108.81
506.207	102.81
506.423	109.81
506.64	106.81
506.856	95.81
507.073	89.81
507.289	103.81
507.506	93.81
507.722	110.81
507.939	97.81
508.155	94.81
508.372	102.81
508.588	104.81
508.805	110.81
